Data from aluminium_surface_pro_back_FLMS001491_00099.txt Node
Date: Wed Feb 08 15:34:48 GMT 2017
User: dcchb
Spectrometer: FLMS00149
Trigger mode: 0
Integration Time (sec): 2.000000E-2
Scans to average: 10
Electric dark correction enabled: true
Nonlinearity correction enabled: false
Boxcar width: 0
XAxis mode: Wavelengths
Number of Pixels in Spectrum: 2048
>>>>>Begin Spectral Data<<<<<
341.393	-26.37
341.776	-26.37
342.16	-26.37
342.543	-51.68
342.927	-76.99
343.31	-87.61
343.693	-64.11
344.077	-37.89
344.46	-68.4
344.843	-62.98
345.226	-33.83
345.61	-34.5
345.993	-25.24
346.376	10.24
346.759	-8.29
347.142	31.03
347.525	43.01
347.908	73.06
348.291	80.75
348.674	83.91
349.057	100.86
349.44	140.41
349.823	164.81
350.206	174.3
350.588	220.63
350.971	228.99
351.354	252.95
351.737	277.13
352.119	261.31
352.502	297.01
352.884	333.62
353.267	316.9
353.65	315.32
354.032	311.25
354.414	342.21
354.797	349.44
355.179	339.27
355.562	354.41
355.944	356.67
356.326	358.71
356.709	359.16
357.091	377.46
357.473	375.2
357.855	363.22
358.238	380.4
358.62	361.64
359.002	367.07
359.384	383.56
359.766	366.84
360.148	381.3
360.53	363
360.912	368.87
361.294	366.84
361.676	357.8
362.057	353.96
362.439	369.78
362.821	356.9
363.203	368.42
363.584	376.78
363.966	386.28
364.348	368.2
364.729	369.55
365.111	373.85
365.493	356.9
365.874	361.64
366.256	379.5
366.637	353.06
367.019	357.35
367.4	354.41
367.781	370
368.163	367.07
368.544	375.65
368.925	357.12
369.306	371.59
369.688	371.81
370.069	380.17
370.45	372.72
370.831	364.81
371.212	372.26
371.593	369.1
371.974	362.09
372.355	387.18
372.736	376.56
373.117	385.82
373.498	393.73
373.879	407.97
374.26	377.01
374.641	381.98
375.021	373.85
375.402	380.17
375.783	391.92
376.163	437.57
376.544	427.63
376.925	401.64
377.305	429.44
377.686	417.01
378.066	410
378.447	440.96
378.827	404.58
379.208	414.52
379.588	430.79
379.968	428.76
380.349	418.82
380.729	427.4
381.109	440.29
381.489	444.8
381.87	434.86
382.25	453.39
382.63	452.04
383.01	459.49
383.39	462.43
383.77	477.57
384.15	455.43
384.53	474.41
384.91	464.92
385.29	485.93
385.67	481.19
386.049	489.1
386.429	480.96
386.809	516.67
387.189	509.89
387.568	515.54
387.948	523.45
388.328	490.45
388.707	528.87
389.087	532.03
389.466	529.77
389.846	516.67
390.225	538.36
390.605	562.99
390.984	545.37
391.363	574.07
391.743	568.42
392.122	568.19
392.501	580.62
392.881	602.99
393.26	582.43
393.639	588.53
394.018	611.35
394.397	618.36
394.776	597.34
395.155	627.4
395.534	638.02
395.913	622.88
396.292	645.25
396.671	645.25
397.05	664.46
397.429	667.85
397.808	674.63
398.186	677.79
398.565	675.99
398.944	687.06
399.323	722.31
399.701	734.74
400.08	718.92
400.458	691.58
400.837	729.99
401.215	731.35
401.594	761.18
401.972	747.17
402.351	749.88
402.729	756.66
403.107	758.47
403.486	791.46
403.864	801.41
404.242	798.24
404.62	774.74
404.999	817
405.377	826.04
405.755	820.16
406.133	856.77
406.511	843.44
406.889	846.83
407.267	877.79
407.645	891.35
408.023	915.07
408.401	915.3
408.779	929.54
409.156	922.53
409.534	958.69
409.912	965.24
410.29	980.61
410.667	1015.41
411.045	1005.02
411.422	1004.11
411.8	1028.97
412.178	1014.96
412.555	1031.23
412.933	1061.96
413.31	1050.44
413.687	1080.27
414.065	1101.96
414.442	1094.96
414.819	1126.37
415.197	1155.07
415.574	1144.45
415.951	1173.6
416.328	1173.15
416.705	1155.97
417.082	1193.71
417.46	1200.49
417.837	1251.34
418.214	1214.73
418.591	1238
418.967	1247.95
419.344	1277.55
419.721	1274.39
420.098	1300.6
420.475	1334.05
420.852	1304.22
421.228	1311
421.605	1360.94
421.982	1381.73
422.358	1363.2
422.735	1398.9
423.111	1377.89
423.488	1442.74
423.864	1418.34
424.241	1467.15
424.617	1466.47
424.994	1482.97
425.37	1489.75
425.746	1473.93
426.123	1508.51
426.499	1511.9
426.875	1554.15
427.251	1566.13
427.627	1592.12
428.003	1627.15
428.379	1659.69
428.756	1669.86
429.132	1665.79
429.507	1710.99
429.883	1722.51
430.259	1739.69
430.635	1782.17
431.011	1759.8
431.387	1841.83
431.763	1842.51
432.138	1856.07
432.514	1874.37
432.89	1915.5
433.265	1957.31
433.641	1960.92
434.016	1966.57
434.392	1990.98
434.767	2062.16
435.143	2055.16
435.518	2081.82
435.894	2097.64
436.269	2149.17
436.644	2154.82
437.02	2162.95
437.395	2183.52
437.77	2241.37
438.145	2258.54
438.52	2279.78
438.895	2299.22
439.271	2332.66
439.646	2332.44
440.021	2390.97
440.395	2383.51
440.77	2331.99
441.145	2411.76
441.52	2452.66
441.895	2439.78
442.27	2468.48
442.645	2465.09
443.019	2493.34
443.394	2487.91
443.769	2536.73
444.143	2566.33
444.518	2593.67
444.892	2586.22
445.267	2578.08
445.641	2642.04
446.016	2691.07
446.39	2695.14
446.764	2692.2
447.139	2665.99
447.513	2737.4
447.887	2736.72
448.262	2774.46
448.636	2763.84
449.01	2831.41
449.384	2823.73
449.758	2862.59
450.132	2878.19
450.506	2936.49
450.88	2917.51
451.254	2927.9
451.628	3005.42
452.002	3029.6
452.376	3049.93
452.75	3069.59
453.123	3111.4
453.497	3125.64
453.871	3166.32
454.244	3228.69
454.618	3258.06
454.992	3277.95
455.365	3299.42
455.739	3345.97
456.112	3431.39
456.486	3478.62
456.859	3512.75
457.232	3543.48
457.606	3553.65
457.979	3597.72
458.352	3658.73
458.725	3712.97
459.099	3759.07
459.472	3824.83
459.845	3833.19
460.218	3917.48
460.591	3924.26
460.964	3955.9
461.337	4026.86
461.71	4111.6
462.083	4157.02
462.456	4177.59
462.829	4207.64
463.201	4253.74
463.574	4255.78
463.947	4309.56
464.32	4463.68
464.692	4482.66
465.065	4507.75
465.438	4566.5
465.81	4673.17
466.183	4700.29
466.555	4835.88
466.928	4840.62
467.3	4830.45
467.672	4931.47
468.045	5077.23
468.417	5084.68
468.789	5075.87
469.161	5193.61
469.534	5244
469.906	5367.16
470.278	5360.61
470.65	5505.91
471.022	5583.2
471.394	5695.06
471.766	5689.19
472.138	5768.05
472.51	5926.24
472.882	6056.63
473.253	6077.2
473.625	6186.12
473.997	6316.74
474.369	6349.06
474.74	6397.87
475.112	6546.79
475.484	6635.15
475.855	6710.4
476.227	6842.83
476.598	6959.44
476.97	7013.67
477.341	7231.97
477.713	7331.4
478.084	7344.06
478.455	7594
478.827	7677.16
479.198	7907.43
479.569	7893.42
479.94	8146.75
480.311	8220.19
480.682	8398.49
481.053	8574.53
481.424	8676.68
481.795	8765.26
482.166	8983.79
482.537	9033.51
482.908	9292.48
483.279	9362.76
483.65	9506.04
484.021	9710.55
484.391	9807.04
484.762	9885.01
485.133	9982.86
485.503	10164.1
485.874	10384.2
486.244	10459.68
486.615	10687.02
486.985	10826.23
487.356	11047.46
487.726	11147.35
488.097	11318.87
488.467	11384.86
488.837	11610.61
489.207	11783.26
489.578	11882.02
489.948	12069.81
490.318	12238.39
490.688	12320.65
491.058	12480.65
491.428	12698.04
491.798	12797.93
492.168	13143.45
492.538	13061.2
492.908	13271.59
493.278	13500.73
493.648	13493.28
494.017	13699.6
494.387	13831.35
494.757	13916.31
495.126	14047.84
495.496	14157.89
495.866	14258.23
496.235	14463.19
496.605	14558.33
496.974	14714.49
497.344	14746.35
497.713	14924.2
498.082	15090.97
498.452	15215.26
498.821	15269.27
499.19	15368.03
499.559	15406.45
499.928	15587.23
500.298	15779.54
500.667	15921.01
501.036	15921.69
501.405	16200.32
501.774	16182.92
502.143	16279.19
502.512	16361.67
502.88	16555.34
503.249	16598.05
503.618	16715.56
503.987	16847.54
504.356	16955.33
504.724	16961.66
505.093	17067.64
505.462	17213.63
505.83	17388.09
506.199	17539.27
506.567	17752.37
506.936	17781.3
507.304	17999.82
507.672	17968.19
508.041	18137.45
508.409	18282.08
508.777	18452.01
509.145	18678.68
509.514	18633.48
509.882	18832.12
510.25	18908.27
510.618	19054.71
510.986	19123.41
511.354	19280.92
511.722	19492.21
512.09	19707.58
512.458	19637.07
512.826	19840.9
513.193	19897.17
513.561	20078.19
513.929	20195.7
514.297	20400.44
514.664	20565.18
515.032	20651.51
515.4	20896.47
515.767	20937.83
516.135	21162.68
516.502	21260.98
516.869	21457.13
517.237	21622.1
517.604	21639.73
517.972	21965.82
518.339	22117.23
518.706	22068.42
519.073	22256.66
519.44	22420.72
519.808	22706.14
520.175	22679.7
520.542	22965.57
520.909	23218.44
521.276	23197.2
521.643	23478.1
522.009	23632.67
522.376	23799.22
522.743	23998.54
523.11	24356.04
523.477	24429.26
523.843	24695.92
524.21	24932.07
524.577	25016.36
524.943	25216.81
525.31	25379.29
525.676	25741.09
526.043	25685.72
526.409	25977.24
526.776	26224.47
527.142	26323.9
527.508	26562.08
527.874	26620.61
528.241	26839.36
528.607	26995.52
528.973	27376.07
529.339	27363.19
529.705	27685.44
530.071	27807.25
530.437	27898.32
530.803	28029.16
531.169	28355.03
531.535	28304.64
531.901	28210.18
532.267	28475.25
532.632	28689.26
532.998	28819.65
533.364	28917.28
533.73	29071.4
534.095	29266.65
534.461	29555.68
534.826	29560.42
535.192	29708.89
535.557	29939.85
535.923	29881.32
536.288	30058.04
536.653	30305.49
537.019	30190.46
537.384	30403.56
537.749	30612.15
538.114	30677
538.479	30817.57
538.845	30953.38
539.21	30824.8
539.575	31116.31
539.94	31149.99
540.305	31377.55
540.67	31350.88
541.034	31392.24
541.399	31771.66
541.764	31770.53
542.129	31848.5
542.494	31938.21
542.858	32120.58
543.223	32146.12
543.587	32366.9
543.952	32387.24
544.316	32566.9
544.681	32561.25
545.045	32689.61
545.41	32909.94
545.774	33031.52
546.138	32947.9
546.503	33122.59
546.867	33204.4
547.231	33378.85
547.595	33464.73
547.959	33664.5
548.324	33702.46
548.688	33834.44
549.052	33961.89
549.416	33962.79
549.779	34052.51
550.143	34174.54
550.507	34373.4
550.871	34666.28
551.235	34607.52
551.599	34857.91
551.962	34915.99
552.326	34907.4
552.689	35248.64
553.053	35103.1
553.417	35241.4
553.78	35639.36
554.143	35586.03
554.507	35774.5
554.87	35955.74
555.234	36190.31
555.597	35976.3
555.96	36162.96
556.323	36575.15
556.686	36449.96
557.05	36847.24
557.413	36939.44
557.776	36989.83
558.139	37294.46
558.502	37269.6
558.865	37469.14
559.228	37803.6
559.59	37843.37
559.953	37991.84
560.316	38292.85
560.679	38392.28
561.041	38549.79
561.404	38824.59
561.767	39112.71
562.129	38943.68
562.492	39431.8
562.854	39386.83
563.217	39422.54
563.579	39708.86
563.941	39908.63
564.304	40122.41
564.666	40333.25
565.028	40448.5
565.39	40604.43
565.753	40968.03
566.115	41023.17
566.477	41177.29
566.839	41354.92
567.201	41553.78
567.563	41669.94
567.925	41910.38
568.287	41976.82
568.648	42109.25
569.01	42298.62
569.372	42635.79
569.734	42427.66
570.095	42848.66
570.457	42998.26
570.819	43137.02
571.18	43046.17
571.542	43492.49
571.903	43617.91
572.265	43792.82
572.626	43755.3
572.987	43766.6
573.349	44057.67
573.71	44178.8
574.071	44443.2
574.432	44485.68
574.794	44955.5
575.155	44964.54
575.516	44770.64
575.877	44982.16
576.238	45151.2
576.599	45239.79
576.96	45389.84
577.32	45506.9
577.681	45578.99
578.042	45633
578.403	45718.42
578.763	45791.86
579.124	45999.99
579.485	46147.11
579.845	46128.8
580.206	46191.62
580.566	46143.04
580.927	46193.88
581.287	46352.07
581.648	46216.48
582.008	46494.89
582.368	46387.78
582.728	46509.13
583.089	46339.64
583.449	46490.6
583.809	46622.35
584.169	46736.69
584.529	46586.19
584.889	47069.79
585.249	46695.11
585.609	46625.74
585.969	46968.1
586.329	46666.64
586.688	46776.92
587.048	46648.11
587.408	46702.12
587.768	46797.94
588.127	46713.64
588.487	46644.04
588.846	46962.23
589.206	46706.87
589.565	46642.46
589.925	46875
590.284	46866.41
590.643	46938.95
591.003	47000.87
591.362	46980.98
591.721	46811.5
592.08	46894.2
592.44	46972.85
592.799	47039.51
593.158	47061.21
593.517	46929.01
593.876	47061.66
594.235	46920.64
594.593	47065.05
594.952	47223.01
595.311	47013.98
595.67	47089.91
596.029	47375.32
596.387	47427.98
596.746	47473.17
597.104	47254.2
597.463	47169.9
597.822	47439.95
598.18	47282.22
598.538	47251.48
598.897	47556.79
599.255	47234.53
599.613	47717.46
599.972	47438.6
600.33	47599.05
600.688	47352.5
601.046	47510.23
601.404	47756.33
601.762	47612.15
602.12	47891.92
602.478	47802.43
602.836	47737.8
603.194	47800.85
603.552	47859.83
603.91	47848.98
604.268	47992.26
604.625	47925.36
604.983	48065.47
605.341	47761.3
605.698	48161.97
606.056	48145.92
606.413	48194.06
606.771	48262.76
607.128	48321.51
607.485	48213.27
607.843	48244.68
608.2	48518.12
608.557	48581.39
608.914	48403.32
609.272	48657.1
609.629	48570.09
609.986	48839.92
610.343	48614.61
610.7	48840.14
611.057	48766.7
611.414	48768.73
611.771	48761.5
612.127	48909.52
612.484	48705.46
612.841	49021.38
613.198	48876.75
613.554	48886.47
613.911	49172.79
614.267	49133.69
614.624	49070.64
614.98	49073.13
615.337	49221.83
615.693	49205.78
616.05	49253.24
616.406	49455.49
616.762	49362.61
617.118	49313.58
617.475	49380.69
617.831	49516.73
618.187	49488.71
618.543	49571.65
618.899	49742.72
619.255	49540.69
619.611	49616.62
619.967	49799.21
620.323	49826.33
620.678	49610.74
621.034	49582.95
621.39	49643.96
621.746	49678.99
622.101	49964.86
622.457	49718.99
622.812	49824.75
623.168	49766.22
623.523	49841.25
623.879	50019.55
624.234	49648.71
624.589	49893.67
624.945	49888.02
625.3	49988.81
625.655	49863.84
626.01	49831.53
626.365	49984.29
626.72	49810.96
627.075	49820
627.43	49836.05
627.785	49652.32
628.14	49896.39
628.495	49795.15
628.85	49867.23
629.205	49724.86
629.559	49884.63
629.914	49547.92
630.269	49769.84
630.623	49589.73
630.978	49613.23
631.332	49863.17
631.687	49818.2
632.041	49643.74
632.396	49632.44
632.75	49506.34
633.104	49640.35
633.459	49471.54
633.813	49407.81
634.167	49254.59
634.521	49355.84
634.875	49352.45
635.229	49286.23
635.583	49054.37
635.937	49036.3
636.291	48946.13
636.645	48990.87
636.999	48909.97
637.352	48992.91
637.706	48686.25
638.06	48777.09
638.413	48676.76
638.767	48523.09
639.121	48601.28
639.474	48495.97
639.828	48415.52
640.181	48486.48
640.534	48426.14
640.888	48239.71
641.241	48147.28
641.594	48231.34
641.947	48266.82
642.301	48196.09
642.654	48238.8
643.007	48226.37
643.36	48046.04
643.713	47969.43
644.066	48220.72
644.419	47973.5
644.771	47761.07
645.124	47202.9
645.477	47298.04
645.83	46934.2
646.182	46976.91
646.535	46743.02
646.888	46886.3
647.24	46613.76
647.593	46868.67
647.945	46715.45
648.298	46444.05
648.65	46486.31
649.002	46228.46
649.355	46534.67
649.707	46359.3
650.059	46488.11
650.411	46801.1
650.763	46988.21
651.115	47362.22
651.467	46986.63
651.819	46993.64
652.171	47012.62
652.523	46959.97
652.875	47030.02
653.227	46748.67
653.578	47088.55
653.93	46858.27
654.282	46706.41
654.633	46532.41
654.985	46571.95
655.337	46706.41
655.688	46701.44
656.039	46743.7
656.391	46422.13
656.742	46530.82
657.094	46621.67
657.445	46606.08
657.796	46574.67
658.147	46464.39
658.498	46482.92
658.849	46514.33
659.2	46409.25
659.551	46341.23
659.902	46560.65
660.253	46415.35
660.604	46420.54
660.955	46169.93
661.306	46287.22
661.656	46256.71
662.007	46289.47
662.358	46329.7
662.708	46322.02
663.059	46206.54
663.409	46069.14
663.76	46220.1
664.11	46150.95
664.461	46227.56
664.811	46162.25
665.161	46181.23
665.511	46019.88
665.862	46144.17
666.212	46063.49
666.562	46176.03
666.912	46031.63
667.262	45889.03
667.612	45852.42
667.962	45811.3
668.312	45691.52
668.662	45982.14
669.011	45754.35
669.361	45760.22
669.711	45561.36
670.06	45487.46
670.41	45584.86
670.76	45342.16
671.109	45440.68
671.459	45486.78
671.808	45347.8
672.157	45459.67
672.507	45104.2
672.856	45260.58
673.205	45084.99
673.554	45181.03
673.904	44967.93
674.253	45318.2
674.602	45102.84
674.951	44414.04
675.3	44293.82
675.649	44878.44
675.998	44869.17
676.346	44860.13
676.695	44968.15
677.044	44662.17
677.393	44823.07
677.741	44802.51
678.09	44677.54
678.438	44580.37
678.787	44735.17
679.135	44789.63
679.484	44518.67
679.832	44679.8
680.181	44447.72
680.529	44457.88
680.877	44479.13
681.225	44442.52
681.573	44636.64
681.922	44317.32
682.27	44164.11
682.618	44191.9
682.966	44106.03
683.314	44268.29
683.661	44041.62
684.009	43753.72
684.357	43815.42
684.705	43840.5
685.053	43666.95
685.4	43591.69
685.748	43418.82
686.095	43532.71
686.443	43294.98
686.79	43171.14
687.138	43226.96
687.485	43300.63
687.832	43110.8
688.18	43046.62
688.527	42831.26
688.874	42776.8
689.221	42791.26
689.568	42591.27
689.915	42392.4
690.262	42439.86
690.609	42386.3
690.956	42335.23
691.303	42139.98
691.65	42102.92
691.997	41892.53
692.344	41669.26
692.69	41620.9
693.037	41784.06
693.383	41607.34
693.73	41523.27
694.077	41283.05
694.423	41221.36
694.769	41082.38
695.116	41118.09
695.462	41086.45
695.808	40905.44
696.155	40879.45
696.501	40539.34
696.847	40632.9
697.193	40332.8
697.539	40416.64
697.885	40319.91
698.231	40046.02
698.577	40085.8
698.923	39834.96
699.269	39761.96
699.614	39533.49
699.96	39649.2
700.306	39409.2
700.651	39319.94
700.997	39147.74
701.342	39079.95
701.688	39189.55
702.033	38885.6
702.379	38870.91
702.724	38773.06
703.069	38809.45
703.415	38442
703.76	38487.87
704.105	38457.36
704.45	38227.09
704.795	38110.71
705.14	38016.7
705.485	37941.22
705.83	37898.28
706.175	37872.3
706.52	37713.66
706.865	37583.72
707.209	37367.45
707.554	37297.4
707.899	37512.3
708.243	37243.84
708.588	37073.9
708.932	36948.25
709.277	36852.43
709.621	36879.78
709.966	36646.34
710.31	36735.38
710.654	36447.47
710.998	36543.97
711.342	36523.18
711.687	36448.6
712.031	36225.56
712.375	36227.82
712.719	36257.42
713.063	36085.9
713.407	36282.28
713.75	35960.26
714.094	35943.08
714.438	35723.65
714.782	35819.47
715.125	35604.78
715.469	35580.38
715.812	35529.98
716.156	35224.46
716.499	35301.97
716.843	35313.72
717.186	35129.54
717.53	35291.57
717.873	35105.36
718.216	35078.92
718.559	35025.59
718.902	34738.59
719.246	34824.47
719.589	34673.06
719.932	34464.25
720.275	34429.22
720.617	34532.27
720.96	34333.63
721.303	34400.97
721.646	34263.8
721.989	34065.84
722.331	34290.24
722.674	33985.62
723.016	34150.81
723.359	33935.9
723.701	34005.96
724.044	33846.19
724.386	33680.54
724.729	33700.65
725.071	33616.14
725.413	33650.94
725.755	33455.24
726.097	33375.01
726.439	33195.13
726.782	33264.96
727.124	33330.49
727.465	33086.43
727.807	33135.47
728.149	32947
728.491	32938.64
728.833	32969.15
729.175	32776.84
729.516	32631.08
729.858	32653.45
730.199	32646.44
730.541	32695.03
730.882	32601.93
731.224	32592.43
731.565	32319.9
731.906	32347.02
732.248	32434.92
732.589	32275.15
732.93	32184.99
733.271	32146.34
733.612	32238.77
733.953	32137.53
734.294	32159.45
734.635	31987.03
734.976	31963.07
735.317	31853.7
735.658	31867.26
735.999	31795.62
736.339	31847.14
736.68	31942.73
737.021	31759.69
737.361	31552.69
737.702	31761.04
738.042	31573.03
738.383	31512.69
738.723	31623.19
739.063	31461.16
739.404	31626.58
739.744	31485.34
740.084	31292.58
740.424	31322.18
740.764	31162.64
741.104	31307.72
741.444	31054.4
741.784	30899.37
742.124	30986.15
742.464	30917
742.804	30950.22
743.143	30778.24
743.483	30741.86
743.823	30521.3
744.162	30566.72
744.502	30599.04
744.841	30480.17
745.181	30510.68
745.52	30471.81
745.86	30294.42
746.199	30306.84
746.538	30177.36
746.877	30153.63
747.216	30189.33
747.556	30023.01
747.895	30160.63
748.234	29942.56
748.573	29851.04
748.911	29827.08
749.25	29772.4
749.589	29613.3
749.928	29595.9
750.267	29708.67
750.605	29462.12
750.944	29489.01
751.283	29275.91
751.621	29352.29
751.96	29187.33
752.298	29168.34
752.636	29161.56
752.975	29000.44
753.313	28886.32
753.651	29047.22
753.989	28813.78
