Data from aluminium_surface_pro_back_FLMS001491_00076.txt Node
Date: Wed Feb 08 15:34:31 GMT 2017
User: dcchb
Spectrometer: FLMS00149
Trigger mode: 0
Integration Time (sec): 2.000000E-2
Scans to average: 10
Electric dark correction enabled: true
Nonlinearity correction enabled: false
Boxcar width: 0
XAxis mode: Wavelengths
Number of Pixels in Spectrum: 2048
>>>>>Begin Spectral Data<<<<<
341.393	-14.83
341.776	-14.83
342.16	-14.83
342.543	-54.83
342.927	-39.46
343.31	-80.82
343.693	-81.72
344.077	-61.61
344.46	-56.41
344.843	-58.44
345.226	-42.63
345.61	-24.32
345.993	-5.34
346.376	12.06
346.759	7.54
347.142	26.3
347.525	62.68
347.908	55.68
348.291	85.51
348.674	79.4
349.057	82.12
349.44	104.94
349.823	146.3
350.206	174.54
350.588	225.62
350.971	239.17
351.354	255.45
351.737	272.85
352.119	267.2
352.502	279.63
352.884	289.12
353.267	310.59
353.65	350.13
354.032	326.63
354.414	345.84
354.797	346.97
355.179	370.24
355.562	347.42
355.944	356.91
356.326	374.76
356.709	377.7
357.091	358.72
357.473	366.18
357.855	379.06
358.238	374.09
358.62	369.34
359.002	364.59
359.384	370.24
359.766	393.97
360.148	391.03
360.53	383.58
360.912	378.83
361.294	411.15
361.676	351.94
362.057	401.2
362.439	374.54
362.821	358.27
363.203	373.18
363.584	371.15
363.966	364.37
364.348	379.06
364.729	373.63
365.111	362.79
365.493	376.8
365.874	375.44
366.256	380.87
366.637	365.5
367.019	382.67
367.4	381.77
367.781	370.7
368.163	377.93
368.544	373.41
368.925	365.72
369.306	387.87
369.688	392.84
370.069	364.59
370.45	364.37
370.831	398.49
371.212	374.54
371.593	384.03
371.974	373.86
372.355	375.22
372.736	394.42
373.117	386.97
373.498	373.41
373.879	386.74
374.26	389
374.641	391.26
375.021	389.45
375.402	380.87
375.783	407.08
376.163	391.03
376.544	431.71
376.925	422.22
377.305	422.9
377.686	436.91
378.066	429.23
378.447	438.94
378.827	417.02
379.208	417.25
379.588	422.9
379.968	432.62
380.349	444.82
380.729	450.24
381.109	452.73
381.489	451.37
381.87	448.66
382.25	457.7
382.63	458.83
383.01	471.94
383.39	482.11
383.77	492.05
384.15	483.46
384.53	475.1
384.91	483.24
385.29	496.34
385.67	499.51
386.049	509
386.429	494.08
386.809	504.93
387.189	509.22
387.568	535.66
387.948	512.61
388.328	545.16
388.707	540.86
389.087	543.8
389.466	533.86
389.846	568.66
390.225	571.82
390.605	586.51
390.984	564.59
391.363	573.63
391.743	596.91
392.122	589.45
392.501	610.69
392.881	591.26
393.26	607.07
393.639	639.16
394.018	624.48
394.397	635.32
394.776	647.53
395.155	674.19
395.534	641.88
395.913	659.73
396.292	656.11
396.671	689.78
397.05	693.85
397.429	688.65
397.808	696.34
398.186	699.28
398.565	712.61
398.944	718.71
399.323	735.66
399.701	723.91
400.08	758.71
400.458	734.3
400.837	737.01
401.215	754.42
401.594	775.43
401.972	786.28
402.351	767.52
402.729	790.12
403.107	812.72
403.486	820.18
403.864	821.31
404.242	840.06
404.62	856.33
404.999	878.03
405.377	855.2
405.755	873.96
406.133	900.85
406.511	907.86
406.889	897.46
407.267	904.92
407.645	939.72
408.023	935.43
408.401	944.69
408.779	956.67
409.156	988.31
409.534	974.52
409.912	1008.19
410.29	1040.74
410.667	1031.7
411.045	1059.04
411.422	1054.97
411.8	1051.36
412.178	1087.29
412.555	1116.44
412.933	1125.7
413.31	1124.12
413.687	1150.34
414.065	1148.76
414.442	1162.09
414.819	1203.22
415.197	1190.34
415.574	1193.05
415.951	1227.17
416.328	1214.74
416.705	1242.31
417.082	1235.31
417.46	1278.92
417.837	1306.49
418.214	1306.04
418.591	1293.38
418.967	1329.77
419.344	1352.37
419.721	1341.52
420.098	1352.37
420.475	1380.39
420.852	1390.1
421.228	1400.73
421.605	1392.14
421.982	1452.48
422.358	1453.83
422.735	1466.94
423.111	1470.55
423.488	1523.43
423.864	1520.5
424.241	1566.82
424.617	1544.22
424.994	1586.71
425.37	1598.01
425.746	1608.86
426.123	1625.13
426.499	1651.11
426.875	1641.85
427.251	1655.63
427.627	1738.34
428.003	1735.18
428.379	1753.03
428.756	1746.25
429.132	1788.51
429.507	1836.19
429.883	1847.95
430.259	1863.76
430.635	1887.94
431.011	1879.36
431.387	1946.02
431.763	1952.35
432.138	1952.12
432.514	2008.85
432.89	2006.59
433.265	2069.63
433.641	2056.3
434.016	2134.04
434.392	2139.01
434.767	2193.47
435.143	2186.02
435.518	2229.63
435.894	2244.77
436.269	2290.65
436.644	2329.06
437.02	2310.53
437.395	2320.7
437.77	2377.2
438.145	2392.11
438.52	2400.47
438.895	2419.46
439.271	2422.62
439.646	2524.99
440.021	2549.62
440.395	2559.34
440.77	2524.54
441.145	2546.68
441.52	2605.44
441.895	2626.23
442.27	2678.21
442.645	2621.03
443.019	2684.31
443.394	2693.57
443.769	2730.86
444.143	2721.82
444.518	2760.24
444.892	2775.83
445.267	2764.31
445.641	2835.72
446.016	2817.19
446.39	2845.21
446.764	2882.72
447.139	2900.8
447.513	2918.88
447.887	2959.55
448.262	2920.91
448.636	2954.13
449.01	2997.75
449.384	3070.74
449.758	3070.96
450.132	3105.31
450.506	3098.53
450.88	3087.01
451.254	3108.25
451.628	3186.67
452.002	3250.39
452.376	3233.22
452.75	3309.38
453.123	3311.64
453.497	3373.78
453.871	3410.84
454.244	3483.83
454.618	3480.45
454.992	3528.35
455.365	3519.31
455.739	3609.71
456.112	3644.51
456.486	3695.35
456.859	3727.22
457.232	3787.56
457.606	3808.8
457.979	3853.09
458.352	3952.3
458.725	3973.77
459.099	3980.09
459.472	4099.86
459.845	4195.45
460.218	4159.07
460.591	4211.95
460.964	4247.2
461.337	4343.47
461.71	4353.64
462.083	4467.31
462.456	4459.4
462.829	4453.98
463.201	4582.79
463.574	4597.48
463.947	4669.57
464.32	4756.8
464.692	4782.78
465.065	4855.78
465.438	4886.28
465.81	4998.15
466.183	5059.39
466.555	5117.24
466.928	5166.73
467.3	5217.8
467.672	5258.7
468.045	5333.28
468.417	5403.11
468.789	5460.51
469.161	5554.74
469.534	5601.07
469.906	5765.36
470.278	5771.91
470.65	5839.93
471.022	5977.1
471.394	6050.1
471.766	6102.98
472.138	6201.28
472.51	6330.99
472.882	6429.52
473.253	6525.34
473.625	6618.67
473.997	6731.21
474.369	6765.1
474.74	6864.76
475.112	6993.12
475.484	7128.03
475.855	7303.62
476.227	7321.93
476.598	7525.99
476.97	7574.57
477.341	7830.61
477.713	7925.53
478.084	7925.3
478.455	8221.34
478.827	8215.91
479.198	8502.01
479.569	8462.24
479.94	8749.91
480.311	8761.21
480.682	9073.29
481.053	9260.86
481.424	9350.57
481.795	9421.31
482.166	9567.74
482.537	9693.84
482.908	9979.48
483.279	10036.88
483.65	10248.63
484.021	10438
484.391	10529.53
484.762	10666.92
485.133	10763.64
485.503	10975.16
485.874	11114.14
486.244	11301.71
486.615	11566.33
486.985	11601.59
487.356	11896.5
487.726	11955.25
488.097	12222.59
488.467	12251.51
488.837	12533.77
489.207	12688.56
489.578	12849.24
489.948	12903.93
490.318	13072.96
490.688	13133.75
491.058	13432.27
491.428	13656.9
491.798	13702.78
492.168	14048.98
492.538	14078.58
492.908	14194.51
493.278	14450.78
493.648	14507.95
494.017	14683.09
494.387	14792.92
494.757	14924.66
495.126	15156.3
495.496	15203.98
495.866	15345.67
496.235	15549.73
496.605	15724.42
496.974	15714.7
497.344	15783.85
497.713	16095.48
498.082	16190.62
498.452	16260.9
498.821	16349.94
499.19	16401.24
499.559	16635.35
499.928	16852.75
500.298	16929.36
500.667	17172.74
501.036	17178.16
501.405	17287.09
501.774	17407.31
502.143	17470.59
502.512	17674.87
502.88	17864.25
503.249	17814.98
503.618	17935.43
503.987	18014.53
504.356	18170.45
504.724	18207.52
505.093	18402.31
505.462	18440.05
505.83	18594.17
506.199	18903.32
506.567	19155.74
506.936	19137.43
507.304	19249.52
507.672	19369.52
508.041	19494.26
508.409	19629.85
508.777	19836.17
509.145	20003.4
509.514	19994.59
509.882	20228.48
510.25	20323.84
510.618	20480.22
510.986	20521.35
511.354	20799.31
511.722	20885.86
512.09	21109.59
512.458	21204.5
512.826	21427.09
513.193	21430.71
513.561	21562.46
513.929	21851.71
514.297	22049.67
514.664	22230.46
515.032	22212.61
515.4	22510
515.767	22615.31
516.135	22888.52
516.502	22672.93
516.869	23236.08
517.237	23280.38
517.604	23335.29
517.972	23719.01
518.339	23769.63
518.706	23837.65
519.073	24026.8
519.44	24156.51
519.808	24384.08
520.175	24440.12
520.542	24799.88
520.909	25029.94
521.276	25007.34
521.643	25367.78
522.009	25415.91
522.376	25730.48
522.743	25916.92
523.11	26230.36
523.477	26364.14
523.843	26592.38
524.21	26842.77
524.577	27043.44
524.943	27151.46
525.31	27475.29
525.676	27640.49
526.043	27880.03
526.409	27819.47
526.776	28253.81
527.142	28301.94
527.508	28662.61
527.874	28721.36
528.241	28961.13
528.607	29058.76
528.973	29294.91
529.339	29322.93
529.705	29634.56
530.071	29826.87
530.437	30073.19
530.803	30079.52
531.169	30429.79
531.535	30274.32
531.901	30511.37
532.267	30618.71
532.632	30983.9
532.998	31085.14
533.364	31256.66
533.73	31303.89
534.095	31571.01
534.461	31702.3
534.826	31848.06
535.192	32015.06
535.557	32306.58
535.923	32226.13
536.288	32430.42
536.653	32688.04
537.019	32602.84
537.384	32810.07
537.749	32947.69
538.114	33156.95
538.479	33102.72
538.845	33343.39
539.21	33308.81
539.575	33510.39
539.94	33658.41
540.305	33903.6
540.67	33857.05
541.034	33953.54
541.399	34129.36
541.764	34101.56
542.129	34418.39
542.494	34382.68
542.858	34464.49
543.223	34700.19
543.587	34921.88
543.952	34801.43
544.316	34968.88
544.681	35027.19
545.045	35228.09
545.41	35427.63
545.774	35409.78
546.138	35616.1
546.503	35698.13
546.867	35718.92
547.231	36173.37
547.595	36139.93
547.959	36263.31
548.324	36269.19
548.688	36532.23
549.052	36572.91
549.416	36589.41
549.779	36587.37
550.143	36759.8
550.507	37139.9
550.871	37253.57
551.235	37147.13
551.599	37566.33
551.962	37464.41
552.326	37612.66
552.689	37899.43
553.053	37757.96
553.417	37835.7
553.78	38348
554.143	38273.43
554.507	38429.36
554.87	38638.84
555.234	39010.81
555.597	38760.2
555.96	39026.4
556.323	39165.83
556.686	39187.98
557.05	39728.98
557.413	39638.36
557.776	39796.78
558.139	40067.73
558.502	40265.92
558.865	40257.33
559.228	40606.25
559.59	40738
559.953	40843.76
560.316	41338.88
560.679	41339.34
561.041	41649.16
561.404	41795.6
561.767	42027.45
562.129	42014.35
562.492	42431.06
562.854	42358.74
563.217	42382.25
563.579	42648.68
563.941	42859.97
564.304	43057.71
564.666	43424.48
565.028	43658.6
565.39	43669.9
565.753	43895.65
566.115	44035.99
566.477	44358.69
566.839	44401.86
567.201	44657.89
567.563	44774.95
567.925	45101.27
568.287	45316.18
568.648	45252.68
569.01	45471.21
569.372	45727.7
569.734	45679.79
570.095	46032.55
570.457	46286.1
570.819	46433.89
571.18	46352.99
571.542	46692.64
571.903	46790.49
572.265	46980.09
572.626	46994.1
572.987	47186.87
573.349	47306.86
573.71	47554.09
574.071	47723.35
574.432	47712.5
574.794	48044.25
575.155	47990.91
575.516	47922.21
575.877	48152.94
576.238	48193.62
576.599	48473.16
576.96	48333.73
577.32	48343.67
577.681	48631.35
578.042	48790.89
578.403	48816.88
578.763	48812.81
579.124	48996.08
579.485	49066.82
579.845	49147.04
580.206	49157.66
580.566	49293.48
580.927	49321.5
581.287	49526.24
581.648	49450.76
582.008	49571.44
582.368	49507.48
582.728	49555.84
583.089	49630.19
583.449	49597.2
583.809	49646.24
584.169	49698.21
584.529	49631.1
584.889	49956.96
585.249	49678.55
585.609	49719.23
585.969	49948.6
586.329	49724.65
586.688	49889.39
587.048	49795.16
587.408	49809.62
587.768	49804.88
588.127	49863.18
588.487	49735.73
588.846	50057.3
589.206	49854.59
589.565	49839.45
589.925	50059.56
590.284	49905.21
590.643	50090.52
591.003	50078.54
591.362	50130.29
591.721	50108.82
592.08	50078.77
592.44	50206
592.799	50204.87
593.158	50140.69
593.517	50215.04
593.876	50188.14
594.235	50189.27
594.593	50307.46
594.952	50377.97
595.311	50139.11
595.67	50438.31
596.029	50497.74
596.387	50526.21
596.746	50554.69
597.104	50332.09
597.463	50419.55
597.822	50495.25
598.18	50374.13
598.538	50509.04
598.897	50622.71
599.255	50392.21
599.613	50824.96
599.972	50636.49
600.33	50645.53
600.688	50580.45
601.046	50720.33
601.404	50854.57
601.762	50831.52
602.12	50914.9
602.478	50969.14
602.836	51024.51
603.194	50820.22
603.552	50935.69
603.91	50781.8
604.268	51049.14
604.625	50945.64
604.983	51091.62
605.341	50937.73
605.698	51046.88
606.056	51120.32
606.413	51048.01
606.771	51129.36
607.128	51211.17
607.485	50974.79
607.843	51018.86
608.2	51368.23
608.557	51384.27
608.914	51282.35
609.272	51403.93
609.629	51472.18
609.986	51590.14
610.343	51355.57
610.7	51662.68
611.057	51562.12
611.414	51652.29
611.771	51617.03
612.127	51640.76
612.484	51664.94
612.841	51678.27
613.198	51707.65
613.554	51609.35
613.911	51855.9
614.267	51782.45
614.624	51766.86
614.98	51752.62
615.337	51981.32
615.693	51915.56
616.05	51875.33
616.406	52116
616.762	51979.06
617.118	51993.52
617.475	51957.59
617.831	51951.04
618.187	51986.74
618.543	52100.86
618.899	52159.84
619.255	52187.64
619.611	52212.72
619.967	52360.52
620.323	52370.91
620.678	52203.01
621.034	52231.71
621.39	52277.81
621.746	52195.1
622.101	52541.98
622.457	52293.4
622.812	52424.02
623.168	52467.63
623.523	52480.74
623.879	52577.69
624.234	52283.68
624.589	52372.04
624.945	52457.01
625.3	52472.38
625.655	52336.56
626.01	52415.2
626.365	52393.51
626.72	52348.31
627.075	52379.27
627.43	52246.85
627.785	52203.68
628.14	52371.14
628.495	52391.93
628.85	52329.78
629.205	52212.72
629.559	52446.16
629.914	52240.97
630.269	52321.42
630.623	52280.29
630.978	52123.01
631.332	52311.03
631.687	52285.94
632.041	52113.74
632.396	52270.8
632.75	52114.19
633.104	52235.55
633.459	52079.17
633.813	51959.85
634.167	52021.32
634.521	52002.56
634.875	51937.25
635.229	52014.54
635.583	51832.62
635.937	51725.05
636.291	51653.19
636.645	51643.7
636.999	51671.49
637.352	51650.03
637.706	51497.04
638.06	51633.98
638.413	51527.09
638.767	51451.16
639.121	51626.98
639.474	51304.05
639.828	51402.12
640.181	51386.08
640.534	51329.58
640.888	51213.65
641.241	51028.57
641.594	51080.78
641.947	51165.52
642.301	51101.57
642.654	51098.18
643.007	51079.65
643.36	51015.92
643.713	51005.3
644.066	51077.61
644.419	50873.1
644.771	50611.18
645.124	50204.64
645.477	50256.84
645.83	49919
646.182	49872.45
646.535	49810.3
646.888	49858.66
647.24	49615.05
647.593	49829.28
647.945	49827.7
648.298	49629.06
648.65	49410.54
649.002	49255.51
649.355	49432.91
649.707	49377.77
650.059	49347.04
650.411	49789.06
650.763	49960.58
651.115	50199.89
651.467	49968.49
651.819	50057.98
652.171	50100.69
652.523	49928.94
652.875	49970.3
653.227	49801.26
653.578	50127.58
653.93	49912.67
654.282	49795.61
654.633	49741.6
654.985	49770.98
655.337	49848.49
655.688	49779.11
656.039	49890.98
656.391	49505.68
656.742	49588.16
657.094	49693.92
657.445	49619.12
657.796	49596.97
658.147	49345.45
658.498	49240.82
658.849	49516.75
659.2	49235.17
659.551	49319.47
659.902	49291.9
660.253	49226.81
660.604	49379.35
660.955	49160.37
661.306	49256.64
661.656	49230.88
662.007	49216.42
662.358	49247.38
662.708	49151.79
663.059	49271.33
663.409	48943.66
663.76	49178.9
664.11	49174.38
664.461	49134.61
664.811	49215.74
665.161	49074.73
665.511	49092.13
665.862	49090.09
666.212	49114.95
666.562	49123.31
666.912	49008.29
667.262	48865.92
667.612	49024.78
667.962	48853.04
668.312	48864.79
668.662	49091
669.011	48890.78
669.361	48887.84
669.711	48935.52
670.06	48846.26
670.41	48585.7
670.76	48621.18
671.109	48900.27
671.459	48772.81
671.808	48605.81
672.157	48620.73
672.507	48355.42
672.856	48544.8
673.205	48440.17
673.554	48594.29
673.904	48455.53
674.253	48599.26
674.602	48508.87
674.951	48028.43
675.3	47728.77
675.649	48372.15
675.998	48159.27
676.346	48240.62
676.695	48314.29
677.044	48035.21
677.393	47939.84
677.741	48194.07
678.09	48057.58
678.438	47918.37
678.787	47999.73
679.135	48055.09
679.484	47684.93
679.832	47886.74
680.181	47518.84
680.529	47732.84
680.877	47574.88
681.225	47548.21
681.573	47620.98
681.922	47371.27
682.27	47284.49
682.618	47298.5
682.966	47181.44
683.314	47234.55
683.661	47217.37
684.009	46989.13
684.357	46997.95
684.705	46844.05
685.053	46782.13
685.4	46738.06
685.748	46629.37
686.095	46455.36
686.443	46395.02
686.79	46303.95
687.138	46381.24
687.485	46424.85
687.832	46110.96
688.18	46270.28
688.527	45936.28
688.874	45954.81
689.221	45911.65
689.568	45787.81
689.915	45637.3
690.262	45592.11
690.609	45528.15
690.956	45427.14
691.303	45304.2
691.65	45133.36
691.997	45201.61
692.344	44918.45
692.69	44854.72
693.037	44962.29
693.383	44528.86
693.73	44581.74
694.077	44441.18
694.423	44421.74
694.769	44226.04
695.116	44058.81
695.462	44001.41
695.808	43885.03
696.155	43947.63
696.501	43716.45
696.847	43656.79
697.193	43441.2
697.539	43643.68
697.885	43262.9
698.231	43207.99
698.577	43168.44
698.923	43126.86
699.269	42873.53
699.614	42702.01
699.96	42741.56
700.306	42650.71
700.651	42401.23
700.997	42297.5
701.342	42280.33
701.688	42170.95
702.033	42039.43
702.379	42071.52
702.724	41840.11
703.069	41804.86
703.415	41398.77
703.76	41401.26
704.105	41427.7
704.45	41368.26
704.795	41027.71
705.14	40984.54
705.485	40887.15
705.83	40762.63
706.175	40938.67
706.52	40657.32
706.865	40455.74
707.209	40394.28
707.554	40225.92
707.899	40391.57
708.243	40098.47
708.588	40101.18
708.932	39773.95
709.277	39665.48
709.621	39904.35
709.966	39459.61
710.31	39596.11
710.654	39171.71
710.998	39272.72
711.342	39358.37
711.687	39148.43
712.031	38989.79
712.375	38827.99
712.719	38918.84
713.063	38936.46
713.407	39020.08
713.75	38827.54
714.094	38767.88
714.438	38584.15
714.782	38644.04
715.125	38403.59
715.469	38500.99
715.812	38300.09
716.156	38109.59
716.499	38199.76
716.843	38219.87
717.186	37833.67
717.53	38134.68
717.873	37882.93
718.216	37769.71
718.559	37640.22
718.902	37461.47
719.246	37591.41
719.589	37396.39
719.932	37165.21
720.275	37239.56
720.617	36986
720.96	37131.54
721.303	36969.28
721.646	37147.81
721.989	36790.98
722.331	37135.15
722.674	36863.52
723.016	36775.84
723.359	36815.16
723.701	36737.2
724.044	36549.63
724.386	36427.6
724.729	36596.64
725.071	36470.31
725.413	36501.27
725.755	36470.99
726.097	36232.58
726.439	36184.44
726.782	36239.13
727.124	36292.46
727.465	36161.85
727.807	35914.62
728.149	35852.93
728.491	35962.08
728.833	35880.5
729.175	35669.88
729.516	35581.07
729.858	35575.42
730.199	35635.98
730.541	35509.21
730.882	35536.55
731.224	35517.79
731.565	35249.78
731.906	35346.05
732.248	35270.8
732.589	35103.79
732.93	34873.97
733.271	34996.9
733.612	34936.79
733.953	34847.76
734.294	34650.7
734.635	34604.37
734.976	34582.9
735.317	34393.98
735.658	34433.98
735.999	34404.83
736.339	34426.3
736.68	34365.96
737.021	34332.06
737.361	34115.12
737.702	34328.9
738.042	34115.57
738.383	34091.62
738.723	34137.94
739.063	34056.36
739.404	33954.45
739.744	33858.18
740.084	33630.61
740.424	33779.54
740.764	33654.57
741.104	33768.69
741.444	33430.39
741.784	33381.58
742.124	33380.9
742.464	33420.45
742.804	33339.55
743.143	33202.6
743.483	33231.98
743.823	32993.12
744.162	33045.54
744.502	33102.27
744.841	33003.06
745.181	33036.73
745.52	32911.99
745.86	32907.92
746.199	32840.35
746.538	32766.45
746.877	32768.94
747.216	32697.76
747.556	32563.97
747.895	32453.24
748.234	32349.06
748.573	32323.3
748.911	32236.07
749.25	32134.16
749.589	32028.4
749.928	32088.51
750.267	32080.37
750.605	31953.59
750.944	31772.58
751.283	31747.5
751.621	31837.44
751.96	31530.33
752.298	31606.71
752.636	31426.15
752.975	31416.43
