Data from aluminium_macbook_case_FLMS001491_021.txt Node
Date: Tue Feb 07 10:43:25 GMT 2017
User: dcchb
Spectrometer: FLMS00149
Trigger mode: 0
Integration Time (sec): 2.000000E-2
Scans to average: 10
Electric dark correction enabled: true
Nonlinearity correction enabled: false
Boxcar width: 0
XAxis mode: Wavelengths
Number of Pixels in Spectrum: 2048
>>>>>Begin Spectral Data<<<<<
341.393	-9.96
341.776	-9.96
342.16	-9.96
342.543	-67.58
342.927	-42.05
343.31	-63.06
343.693	-66
344.077	-60.13
344.46	-51.76
344.843	-64.42
345.226	-61.03
345.61	-40.69
345.993	-23.06
346.376	-2.5
346.759	23.26
347.142	21.23
347.525	37.5
347.908	59.42
348.291	74.11
348.674	86.54
349.057	130.6
349.44	131.06
349.823	146.65
350.206	205.86
350.588	258.28
350.971	265.29
351.354	291.73
351.737	297.61
352.119	288.79
352.502	336.02
352.884	336.93
353.267	319.53
353.65	351.84
354.032	371.05
354.414	357.04
354.797	378.73
355.179	372.41
355.562	389.81
355.944	370.15
356.326	386.64
356.709	406.08
357.091	393.2
357.473	401.33
357.855	403.37
358.238	396.59
358.62	406.3
359.002	422.12
359.384	387.32
359.766	405.17
360.148	423.25
360.53	406.08
360.912	419.64
361.294	404.72
361.676	416.02
362.057	419.64
362.439	423.03
362.821	444.04
363.203	409.47
363.584	431.39
363.966	409.01
364.348	413.31
364.729	441.1
365.111	419.64
365.493	397.49
365.874	428
366.256	419.18
366.637	424.38
367.019	418.28
367.4	432.97
367.781	437.04
368.163	450.6
368.544	428.45
368.925	435.23
369.306	445.85
369.688	420.09
370.069	440.43
370.45	435.91
370.831	400.43
371.212	452.18
371.593	449.69
371.974	464.15
372.355	444.72
372.736	472.29
373.117	474.1
373.498	465.96
373.879	459.41
374.26	462.12
374.641	433.19
375.021	460.09
375.402	483.59
375.783	491.27
376.163	514.1
376.544	525.17
376.925	527.66
377.305	500.09
377.686	504.83
378.066	520.65
378.447	513.42
378.827	508.67
379.208	531.95
379.588	530.82
379.968	526.98
380.349	544.83
380.729	541.89
381.109	532.18
381.489	557.49
381.87	561.55
382.25	558.16
382.63	579.86
383.01	585.28
383.39	601.1
383.77	625.51
384.15	618.73
384.53	596.13
384.91	609.01
385.29	599.74
385.67	605.85
386.049	623.02
386.429	640.87
386.809	651.27
387.189	648.1
387.568	679.52
387.948	654.88
388.328	682.45
388.707	677.03
389.087	678.39
389.466	714.09
389.846	693.53
390.225	709.57
390.605	709.57
390.984	745.28
391.363	729.01
391.743	731.04
392.122	759.51
392.501	776.24
392.881	787.54
393.26	793.19
393.639	802
394.018	835.22
394.397	830.92
394.776	802
395.155	841.55
395.534	841.09
395.913	841.09
396.292	845.84
396.671	878.38
397.05	869.57
397.429	895.56
397.808	898.27
398.186	883.13
398.565	890.13
398.944	913.18
399.323	922
399.701	937.59
400.08	950.47
400.458	935.1
400.837	961.77
401.215	994.08
401.594	986.17
401.972	1002.67
402.351	1025.5
402.729	1023.24
403.107	1052.84
403.486	1055.1
403.864	1036.34
404.242	1059.39
404.62	1091.93
404.999	1106.85
405.377	1121.99
405.755	1136
406.133	1115.21
406.511	1127.41
406.889	1196.56
407.267	1206.96
407.645	1235.43
408.023	1220.52
408.401	1220.74
408.779	1266.62
409.156	1276.34
409.534	1281.76
409.912	1318.14
410.29	1354.07
410.667	1363.11
411.045	1350.68
411.422	1406.28
411.8	1402.43
412.178	1417.58
412.555	1467.97
412.933	1464.81
413.31	1492.15
413.687	1521.3
414.065	1513.17
414.442	1518.14
414.819	1550.91
415.197	1575.31
415.574	1590.68
415.951	1640.85
416.328	1626.84
416.705	1629.32
417.082	1690.11
417.46	1691.69
417.837	1710.45
418.214	1762.43
418.591	1745.7
418.967	1762.43
419.344	1803.55
419.721	1816.44
420.098	1850.56
420.475	1846.04
420.852	1841.75
421.228	1869.99
421.605	1905.7
421.982	1926.94
422.358	1942.76
422.735	1983.21
423.111	1997.22
423.488	2014.85
423.864	2051.91
424.241	2061.17
424.617	2101.4
424.994	2089.87
425.37	2140.72
425.746	2162.19
426.123	2182.08
426.499	2222.98
426.875	2240.38
427.251	2275.86
427.627	2322.86
428.003	2348.4
428.379	2377.1
428.756	2418.23
429.132	2487.38
429.507	2476.08
429.883	2514.5
430.259	2546.81
430.635	2584.55
431.011	2608.28
431.387	2648.5
431.763	2701.38
432.138	2763.08
432.514	2777.77
432.89	2780.03
433.265	2826.8
433.641	2902.28
434.016	2950.87
434.392	2981.83
434.767	3043.3
435.143	3047.82
435.518	3047.59
435.894	3071.77
436.269	3136.4
436.644	3193.35
437.02	3258.88
437.395	3291.2
437.77	3320.8
438.145	3400.35
438.52	3395.15
438.895	3436.51
439.271	3446.67
439.646	3512.89
440.021	3534.81
440.395	3547.01
440.77	3518.76
441.145	3581.13
441.52	3682.37
441.895	3664.07
442.27	3713.56
442.645	3767.34
443.019	3766.89
443.394	3836.72
443.769	3849.83
444.143	3809.83
444.518	3931.86
444.892	3917.62
445.267	3908.81
445.641	3993.1
446.016	4037.62
446.39	4067
446.764	4138.41
447.139	4088.24
447.513	4151.74
447.887	4153.1
448.262	4197.39
448.636	4210.72
449.01	4270.83
449.384	4290.95
449.758	4334.34
450.132	4410.27
450.506	4425.86
450.88	4419.98
451.254	4502.47
451.628	4572.52
452.002	4612.29
452.376	4635.57
452.75	4706.3
453.123	4753.53
453.497	4848.9
453.871	4868.56
454.244	5029.46
454.618	4982.68
454.992	5057.48
455.365	5072.62
455.739	5243.69
456.112	5293.41
456.486	5392.84
456.859	5393.74
457.232	5528.43
457.606	5514.64
457.979	5614.75
458.352	5729.55
458.725	5782.43
459.099	5813.17
459.472	5965.25
459.845	5999.83
460.218	6050.45
460.591	6091.58
460.964	6088.64
461.337	6297.67
461.71	6378.35
462.083	6514.39
462.456	6534.5
462.829	6519.81
463.201	6666.25
463.574	6704.89
463.947	6826.47
464.32	7013.81
464.692	7052.91
465.065	7143.98
465.438	7245.67
465.81	7408.6
466.183	7411.54
466.555	7539.45
466.928	7592.55
467.3	7587.81
467.672	7765.21
468.045	7968.82
468.417	7953.9
468.789	7969.95
469.161	8167.45
469.534	8304.17
469.906	8463.04
470.278	8541.91
470.65	8607.44
471.022	8828
471.394	8958.62
471.766	9052.63
472.138	9239.06
472.51	9337.37
472.882	9567.87
473.253	9761.54
473.625	9896.45
473.997	10084.01
474.369	10193.39
474.74	10212.37
475.112	10370.56
475.484	10648.97
475.855	10768.52
476.227	10883.77
476.598	11227.49
476.97	11340.93
477.341	11572.11
477.713	11709.73
478.084	11832.67
478.455	12149.27
478.827	12285.09
479.198	12636.94
479.569	12690.5
479.94	13028.12
480.311	13130.49
480.682	13387.43
481.053	13737.7
481.424	13948.77
481.795	14053.18
482.166	14374.52
482.537	14599.83
482.908	14872.14
483.279	15151.9
483.65	15398.68
484.021	15566.13
484.391	15941.26
484.762	16079.79
485.133	16197.07
485.503	16399.78
485.874	16828.24
486.244	16944.4
486.615	17225.07
486.985	17414.44
487.356	17713.42
487.726	17944.82
488.097	18248.32
488.467	18299.84
488.837	18666.39
489.207	18945.7
489.578	19186.83
489.948	19396.76
490.318	19518.79
490.688	19679.92
491.058	20073.36
491.428	20295.72
491.798	20579.78
492.168	21055.7
492.538	21084.18
492.908	21471.29
493.278	21693.2
493.648	21706.08
494.017	22187.2
494.387	22373.63
494.757	22552.84
495.126	22666.73
495.496	22814.3
495.866	23090
496.235	23297.23
496.605	23552.81
496.974	23594.85
497.344	23823.31
497.713	23955.51
498.082	24202.97
498.452	24505.78
498.821	24457.87
499.19	24643.63
499.559	24864.19
499.928	25076.16
500.298	25199.78
500.667	25387.34
501.036	25420.33
501.405	25742.13
501.774	25734.22
502.143	26122.46
502.512	26139.86
502.88	26518.61
503.249	26516.58
503.618	26906.17
503.987	26984.14
504.356	27266.84
504.724	27340.96
505.093	27627.06
505.462	27776.2
505.83	27980.49
506.199	28249.64
506.567	28504.32
506.936	28436.3
507.304	28890.3
507.672	28917.42
508.041	29187.24
508.409	29395.82
508.777	29669.26
509.145	29940.89
509.514	29990.38
509.882	30110.83
510.25	30203.94
510.618	30552.18
510.986	30621.55
511.354	30890.7
511.722	31098.83
512.09	31357.13
512.458	31471.47
512.826	31655.42
513.193	31955.3
513.561	31980.84
513.929	32308.97
514.297	32572.24
514.664	32776.75
515.032	33163.86
515.4	33437.3
515.767	33456.06
516.135	33874.35
516.502	33727.46
516.869	34334
517.237	34506.65
517.604	34590.26
517.972	35133.75
518.339	35156.8
518.706	35490.8
519.073	35590.69
519.44	35821.87
519.808	36042.88
520.175	36144.12
520.542	36631.11
520.909	36789.53
521.276	36737.55
521.643	37226.8
522.009	37577.53
522.376	37685.1
522.743	37983.39
523.11	38395.36
523.477	38542.93
523.843	38839.87
524.21	39144.49
524.577	39591.49
524.943	39761.65
525.31	39970.23
525.676	40273.05
526.043	40622.19
526.409	40773.6
526.776	41224.21
527.142	41449.07
527.508	41762.05
527.874	42178.76
528.241	42252.89
528.607	42545.76
528.973	42917.95
529.339	42901.68
529.705	43355.46
530.071	43731.27
530.437	43865.05
530.803	44194.76
531.169	44372.15
531.535	44424.35
531.901	44563.11
532.267	44682.65
532.632	45053.94
532.998	44924.45
533.364	45358.57
533.73	45456.19
534.095	45699.8
534.461	45862.73
534.826	46059.34
535.192	46305.66
535.557	46480.35
535.923	46502.94
536.288	46603.05
536.653	46827.46
537.019	46912.65
537.384	46980.45
537.749	47183.38
538.114	47361.45
538.479	47380.89
538.845	47636.02
539.21	47768
539.575	47909.23
539.94	48090.25
540.305	48451.82
540.67	48427.87
541.034	48553.29
541.399	48833.05
541.764	48959.83
542.129	48966.83
542.494	49287.73
542.858	49447.73
543.223	49409.76
543.587	49664.22
543.952	49676.87
544.316	49760.26
544.681	49808.62
545.045	50038.9
545.41	50169.29
545.774	50198.89
546.138	50214.94
546.503	50325.67
546.867	50418.1
547.231	50605.21
547.595	50644.3
547.959	50810.63
548.324	50847.69
548.688	50975.82
549.052	51155.7
549.416	51208.13
549.779	51132.43
550.143	51314.57
550.507	51574.45
550.871	51659.64
551.235	51579.87
551.599	51996.13
551.962	52018.73
552.326	52166.75
552.689	52250.36
553.053	52184.15
553.417	52377.59
553.78	52859.61
554.143	52757.92
554.507	52943.9
554.87	53067.29
555.234	53368.07
555.597	53255.31
555.96	53455.3
556.323	53646.03
556.686	53611.68
557.05	53860.26
557.413	53914.5
557.776	53966.93
558.139	54076.76
558.502	54110.65
558.865	54232.68
559.228	54438.1
559.59	54589.96
559.953	54564.43
560.316	54834.7
560.679	54819.34
561.041	54966.9
561.404	55114.92
561.767	55320.34
562.129	55178.2
562.492	55586.09
562.854	55481.46
563.217	55531.86
563.579	55626.32
563.941	55805.07
564.304	55917.84
564.666	56135.46
565.028	56177.27
565.39	56276.7
565.753	56514.43
566.115	56537.48
566.477	56673.98
566.839	56811.83
567.201	56898.83
567.563	56920.07
567.925	57127.3
568.287	57204.36
568.648	57234.64
569.01	57393.73
569.372	57537.23
569.734	57510.34
570.095	57708.3
570.457	57885.47
570.819	57838.01
571.18	57904.9
571.542	58067.39
571.903	58084.56
572.265	58129.3
572.626	58233.03
572.987	58213.14
573.349	58311.9
573.71	58325.23
574.071	58419.92
574.432	58470.54
574.794	58626.47
575.155	58534.94
575.516	58432.35
575.877	58622.85
576.238	58647.26
576.599	58719.12
576.96	58750.08
577.32	58778.1
577.681	58908.49
578.042	58922.96
578.403	58947.59
578.763	58953.24
579.124	59091.09
579.485	59060.13
579.845	59144.65
580.206	59126.57
580.566	59168.15
580.927	59213.34
581.287	59363.17
581.648	59219.45
582.008	59349.84
582.368	59377.18
582.728	59457.41
583.089	59466.44
583.449	59451.08
583.809	59546.67
584.169	59530.17
584.529	59483.62
584.889	59647.68
585.249	59541.02
585.609	59426.9
585.969	59606.1
586.329	59579.21
586.688	59614.92
587.048	59518.65
587.408	59465.77
587.768	59488.14
588.127	59527.46
588.487	59452.21
588.846	59584.63
589.206	59456.95
589.565	59428.48
589.925	59553
590.284	59415.15
590.643	59419.44
591.003	59452.66
591.362	59509.83
591.721	59470.51
592.08	59420.57
592.44	59446.33
592.799	59505.31
593.158	59443.17
593.517	59476.84
593.876	59546.67
594.235	59465.09
594.593	59543.05
594.952	59631.86
595.311	59542.15
595.67	59577.63
596.029	59698.76
596.387	59695.82
596.746	59729.04
597.104	59666.89
597.463	59638.64
597.822	59781.69
598.18	59654.01
598.538	59724.29
598.897	59868.47
599.255	59674.8
599.613	60064.62
599.972	59963.83
600.33	59978.97
600.688	59942.59
601.046	60006.77
601.404	60109.14
601.762	60072.98
602.12	60188.69
602.478	60117.28
602.836	60166.09
603.194	60016.94
603.552	60054.45
603.91	60006.32
604.268	60112.08
604.625	59998.18
604.983	60092.87
605.341	59923.83
605.698	60079.76
606.056	60070.72
606.413	60068.01
606.771	60118.41
607.128	60130.61
607.485	60030.72
607.843	60020.78
608.2	60205.18
608.557	60201.11
608.914	60194.34
609.272	60265.29
609.629	60256.93
609.986	60389.81
610.343	60263.94
610.7	60460.99
611.057	60433.88
611.414	60382.8
611.771	60398.4
612.127	60559.3
612.484	60557.04
612.841	60587.77
613.198	60554.33
613.554	60581.9
613.911	60636.81
614.267	60627.77
614.624	60670.48
614.98	60744.15
615.337	60932.17
615.693	60865.96
616.05	60838.84
616.406	60877.26
616.762	60908.89
617.118	60918.38
617.475	60841.32
617.831	60997.25
618.187	60955.45
618.543	61027.08
618.899	61156.34
619.255	61035.44
619.611	61053.75
619.967	61051.49
620.323	61107.53
620.678	60977.59
621.034	60937.37
621.39	60975.33
621.746	60879.74
622.101	61112.5
622.457	60917.48
622.812	60921.32
623.168	60962.45
623.523	60916.35
623.879	60983.24
624.234	60808.78
624.589	60890.36
624.945	60912.06
625.3	60872.96
625.655	60861.21
626.01	60789.12
626.365	60765.17
626.72	60813.53
627.075	60759.74
627.43	60703.7
627.785	60756.58
628.14	60810.14
628.495	60814.21
628.85	60793.42
629.205	60696.24
629.559	60894.2
629.914	60687.2
630.269	60701.89
630.623	60726.3
630.978	60664.38
631.332	60800.2
631.687	60845.62
632.041	60644.49
632.396	60792.96
632.75	60670.03
633.104	60759.74
633.459	60648.33
633.813	60628.22
634.167	60674.1
634.521	60617.15
634.875	60630.48
635.229	60628.67
635.583	60545.06
635.937	60561.11
636.291	60493.76
636.645	60517.26
636.999	60470.03
637.352	60486.31
637.706	60307.33
638.06	60393.43
638.413	60257.38
638.767	60213.54
639.121	60294.9
639.474	60112.53
639.828	60059.2
640.181	60087.22
640.534	60031.85
640.888	59929.94
641.241	59870.28
641.594	59915.25
641.947	59924.29
642.301	59763.16
642.654	59738.75
643.007	59722.71
643.36	59695.59
643.713	59685.65
644.066	59657.17
644.419	59491.75
644.771	59328.14
645.124	59122.95
645.477	59119.79
645.83	58872.56
646.182	58764.54
646.535	58694.04
646.888	58727.71
647.24	58560.71
647.593	58744.66
647.945	58701.72
648.298	58548.5
648.65	58536.07
649.002	58491.33
649.355	58646.35
649.707	58548.95
650.059	58636.86
650.411	58974.25
650.763	59018.32
651.115	59284.75
651.467	59145.55
651.819	59211.31
652.171	59105.1
652.523	59195.94
652.875	59153.46
653.227	59057.19
653.578	59215.83
653.93	59098.32
654.282	59005.67
654.633	58921.83
654.985	59016.51
655.337	59011.99
655.688	58981.03
656.039	59008.38
656.391	58822.85
656.742	58881.15
657.094	58872.56
657.445	58939.91
657.796	58781.04
658.147	58732
658.498	58671.44
658.849	58717.99
659.2	58756.63
659.551	58583.98
659.902	58646.58
660.253	58529.52
660.604	58558.67
660.955	58416.3
661.306	58473.25
661.656	58384.21
662.007	58306.48
662.358	58317.1
662.708	58338.11
663.059	58284.33
663.409	58139.7
663.76	58228.29
664.11	58149.42
664.461	58201.62
664.811	58154.84
665.161	58050.66
665.511	58046.82
665.862	58071.45
666.212	58215.18
666.562	58186.48
666.912	58058.57
667.262	58098.8
667.612	58082.75
667.962	58131.34
668.312	58111.23
668.662	58210.88
669.011	58123.2
669.361	58154.16
669.711	58117.1
670.06	58115.52
670.41	58103.99
670.76	58057.89
671.109	58190.55
671.459	58076.88
671.808	58096.99
672.157	58132.92
672.507	57930.21
672.856	57985.35
673.205	57963.21
673.554	58039.59
673.904	57929.99
674.253	58106.25
674.602	58004.34
674.951	57628.75
675.3	57460.17
675.649	57901.06
675.998	57882.31
676.346	57880.95
676.695	58027.61
677.044	57741.52
677.393	57851.57
677.741	57813.38
678.09	57696.32
678.438	57685.47
678.787	57664.68
679.135	57657.9
679.484	57400.96
679.832	57526.16
680.181	57343.11
680.529	57438.7
680.877	57264.47
681.225	57203.68
681.573	57287.07
681.922	57171.36
682.27	56986.74
682.618	56977.02
682.966	56906.51
683.314	56997.81
683.661	56829.45
684.009	56744.93
684.357	56645.95
684.705	56500.65
685.053	56578.61
685.4	56551.49
685.748	56422.68
686.095	56441.44
686.443	56388.79
686.79	56324.61
687.138	56212.29
687.485	56260.2
687.832	56196.93
688.18	56252.97
688.527	56051.62
688.874	56102.92
689.221	56002.13
689.568	55997.84
689.915	55893.43
690.262	55887.56
690.609	55907.44
690.956	55881
691.303	55720.1
691.65	55611.63
691.997	55589.03
692.344	55377.51
692.69	55522.37
693.037	55471.75
693.383	55269.95
693.73	55441.69
694.077	55237.18
694.423	55163.06
694.769	55161.25
695.116	55081.02
695.462	55058.43
695.808	54948.37
696.155	55049.39
696.501	54768.04
696.847	54793.8
697.193	54484.2
697.539	54655.27
697.885	54395.84
698.231	54414.6
698.577	54286.02
698.923	54279.24
699.269	54135.96
699.614	53935.97
699.96	53838.8
700.306	53834.5
700.651	53712.92
700.997	53670.67
701.342	53520.39
701.688	53490.33
702.033	53409.65
702.379	53329.21
702.724	53232.48
703.069	53265.48
703.415	52915.88
703.76	52822.78
704.105	52808.99
704.45	52740.97
704.795	52443.8
705.14	52331.72
705.485	52242.23
705.83	52187.31
706.175	52250.59
706.52	52078.84
706.865	51962.91
707.209	51913.2
707.554	51698.51
707.899	51735.8
708.243	51557.95
708.588	51465.53
708.932	51290.16
709.277	51322.48
709.621	51310.28
709.966	51241.8
710.31	51092.43
710.654	50903.28
710.998	51024.63
711.342	50943.73
711.687	50831.42
712.031	50801.14
712.375	50596.62
712.719	50673.23
713.063	50574.48
713.407	50728.6
713.75	50494.93
714.094	50546.91
714.438	50296.06
714.782	50447.92
715.125	50184.88
715.469	50319.57
715.812	50147.59
716.156	50025.34
716.499	49984.43
716.843	50086.13
717.186	49899.24
717.53	50000.25
717.873	49931.55
718.216	49934.04
718.559	49740.15
718.902	49450.21
719.246	49528.85
719.589	49389.42
719.932	49180.39
720.275	49212.93
720.617	49147.62
720.96	49067.85
721.303	49150.78
721.646	49134.29
721.989	48784.47
722.331	48956.66
722.674	48752.83
723.016	48762.32
723.359	48588.99
723.701	48653.4
724.044	48240.53
724.386	48056.35
724.729	48267.42
725.071	48271.03
725.413	48016.12
725.755	48191.49
726.097	47816.58
726.439	47604.38
726.782	47581.56
727.124	47694.78
727.465	47530.71
727.807	47436.7
728.149	47315.58
728.491	47140.22
728.833	47243.49
729.175	47038.75
729.516	46830.62
729.858	46751.3
730.199	46864.52
730.541	46762.82
730.882	46717.85
731.224	46655.26
731.565	46353.12
731.906	46308.82
732.248	46374.13
732.589	46138.89
732.93	46098.89
733.271	46029.28
733.612	46125.78
733.953	46095.72
734.294	45847.82
734.635	45831.55
734.976	45909.51
735.317	45671.55
735.658	45538.45
735.999	45603.08
736.339	45592.01
736.68	45649.86
737.021	45486.93
737.361	45420.49
737.702	45516.98
738.042	45349.98
738.383	45472.91
738.723	45605.79
739.063	45293.26
739.404	45368.51
739.744	45022.3
740.084	44981.63
740.424	45095.75
740.764	44907.05
741.104	45073.38
741.444	44691.92
741.784	44626.16
742.124	44783.67
742.464	44591.58
742.804	44579.83
743.143	44606.27
743.483	44610.56
743.823	44383.23
744.162	44294.41
744.502	44297.35
744.841	43903.46
745.181	44271.59
745.52	44033.86
745.86	43960.19
746.199	43982.56
746.538	43870.02
746.877	43816.01
747.216	43782.56
747.556	43595.68
747.895	43536.92
748.234	43293.54
748.573	43337.83
748.911	43231.39
749.25	43210.15
749.589	42920.21
749.928	43058.06
750.267	42990.95
750.605	42727.45
750.944	42625.53
751.283	42458.3
751.621	42563.16
751.96	42367.91
752.298	42445.42
752.636	42295.37
