Data from aluminium_macbook_case_FLMS001491_086.txt Node
Date: Tue Feb 07 10:44:17 GMT 2017
User: dcchb
Spectrometer: FLMS00149
Trigger mode: 0
Integration Time (sec): 2.000000E-2
Scans to average: 10
Electric dark correction enabled: true
Nonlinearity correction enabled: false
Boxcar width: 0
XAxis mode: Wavelengths
Number of Pixels in Spectrum: 2048
>>>>>Begin Spectral Data<<<<<
341.393	-20.01
341.776	-20.01
342.16	-20.01
342.543	-77.41
342.927	-78.32
343.31	-58.66
343.693	-71.76
344.077	-62.27
344.46	-54.81
344.843	-34.93
345.226	-47.36
345.61	-33.35
345.993	-6.23
346.376	-21.14
346.759	25.86
347.142	3.94
347.525	42.58
347.908	60.44
348.291	83.49
348.674	74.45
349.057	99.76
349.44	123.03
349.823	146.54
350.206	167.55
350.588	257.95
350.971	250.04
351.354	264.5
351.737	290.71
352.119	284.61
352.502	321.22
352.884	342.01
353.267	348.34
353.65	353.08
354.032	377.72
354.414	353.76
354.797	379.75
355.179	393.76
355.562	393.08
355.944	421.33
356.326	388.56
356.709	417.72
357.091	378.17
357.473	416.81
357.855	398.51
358.238	408.9
358.62	414.1
359.002	436.02
359.384	410.94
359.766	412.07
360.148	426.08
360.53	403.93
360.912	420.65
361.294	409.81
361.676	412.74
362.057	419.3
362.439	406.87
362.821	432.18
363.203	413.65
363.584	434.66
363.966	417.26
364.348	424.95
364.729	416.59
365.111	442.35
365.493	427.88
365.874	447.77
366.256	425.62
366.637	414.1
367.019	433.99
367.4	435.79
367.781	440.09
368.163	421.1
368.544	461.56
368.925	427.43
369.306	438.96
369.688	424.04
370.069	460.43
370.45	454.78
370.831	487.54
371.212	447.09
371.593	473.08
371.974	468.56
372.355	452.97
372.736	467.43
373.117	495
373.498	474.89
373.879	464.04
374.26	472.4
374.641	446.64
375.021	457.71
375.402	463.59
375.783	514.66
376.163	535.45
376.544	539.07
376.925	536.13
377.305	505.85
377.686	514.21
378.066	532.51
378.447	558.28
378.827	546.98
379.208	550.82
379.588	549.01
379.968	539.52
380.349	551.5
380.729	549.24
381.109	570.71
381.489	592.4
381.87	583.36
382.25	577.03
382.63	591.27
383.01	602.34
383.39	606.18
383.77	588.78
384.15	632.17
384.53	617.94
384.91	607.09
385.29	642.12
385.67	647.54
386.049	672.17
386.429	664.04
386.809	647.31
387.189	667.43
387.568	671.95
387.948	694.54
388.328	714.43
388.707	704.04
389.087	713.53
389.466	731.38
389.846	728.89
390.225	741.55
390.605	749.91
390.984	761.43
391.363	758.5
391.743	769.57
392.122	789
392.501	790.13
392.881	818.16
393.26	807.08
393.639	840.3
394.018	852.28
394.397	858.83
394.776	869
395.155	861.77
395.534	850.92
395.913	875.78
396.292	902.9
396.671	918.49
397.05	913.97
397.429	945.61
397.808	940.41
398.186	952.39
398.565	950.13
398.944	955.55
399.323	964.59
399.701	998.26
400.08	1019.96
400.458	1006.17
400.837	1050.47
401.215	1016.8
401.594	1040.07
401.972	1049.11
402.351	1071.94
402.729	1079.62
403.107	1109.9
403.486	1097.02
403.864	1102.22
404.242	1158.03
404.62	1122.33
404.999	1142.44
405.377	1179.5
405.755	1189.9
406.133	1209.78
406.511	1224.47
406.889	1255.21
407.267	1247.75
407.645	1258.37
408.023	1315.54
408.401	1308.31
408.779	1344.24
409.156	1344.02
409.534	1352.83
409.912	1371.36
410.29	1432.83
410.667	1452.26
411.045	1490.46
411.422	1445.26
411.8	1468.31
412.178	1493.39
412.555	1526.16
412.933	1521.41
413.31	1579.27
413.687	1569.55
414.065	1597.12
414.442	1644.8
414.819	1671.69
415.197	1673.05
415.574	1709.88
415.951	1713.95
416.328	1748.08
416.705	1771.35
417.082	1766.38
417.46	1819.26
417.837	1795.53
418.214	1799.37
418.591	1876.43
418.967	1905.59
419.344	1905.81
419.721	1923.89
420.098	1924.79
420.475	1993.49
420.852	1977.9
421.228	2011.12
421.605	2019.03
421.982	2025.36
422.358	2080.72
422.735	2099.93
423.111	2121.63
423.488	2193.49
423.864	2185.8
424.241	2190.55
424.617	2256.76
424.994	2243.66
425.37	2310.09
425.746	2272.36
426.123	2322.52
426.499	2325.01
426.875	2383.99
427.251	2396.65
427.627	2468.06
428.003	2536.08
428.379	2555.74
428.756	2552.8
429.132	2591.44
429.507	2609.75
429.883	2661.5
430.259	2743.53
430.635	2712.8
431.011	2790.08
431.387	2822.62
431.763	2866.69
432.138	2880.02
432.514	2980.59
432.89	3018.32
433.265	3057.19
433.641	3096.29
434.016	3154.59
434.392	3171.77
434.767	3213.12
435.143	3226.68
435.518	3266.91
435.894	3291.54
436.269	3350.75
436.644	3404.76
437.02	3433.91
437.395	3444.75
437.77	3494.47
438.145	3546.45
438.52	3652.21
438.895	3627.57
439.271	3634.58
439.646	3777.63
440.021	3760.23
440.395	3784.41
440.77	3749.83
441.145	3820.79
441.52	3908.24
441.895	3919.09
442.27	3996.15
442.645	3946.44
443.019	4052.65
443.394	4021.91
443.769	4053.1
444.143	4061.69
444.518	4152.08
444.892	4139.2
445.267	4186.66
445.641	4189.82
446.016	4273.21
446.39	4288.35
446.764	4312.3
447.139	4324.28
447.513	4414.9
447.887	4400.66
448.262	4458.51
448.636	4460.32
449.01	4579.64
449.384	4570.37
449.758	4615.12
450.132	4716.59
450.506	4762.01
450.88	4782.57
451.254	4765.4
451.628	4873.19
452.002	4890.37
452.376	4943.7
452.75	4985.28
453.123	5073.19
453.497	5107.08
453.871	5130.13
454.244	5239.06
454.618	5270.02
454.992	5387.08
455.365	5403.35
455.739	5546.17
456.112	5625.94
456.486	5588.65
456.859	5726.28
457.232	5816.9
457.606	5860.96
457.979	5943.22
458.352	6126.94
458.725	6130.56
459.099	6171.46
459.472	6297.33
459.845	6353.83
460.218	6428.18
460.591	6458.01
460.964	6540.04
461.337	6715.18
461.71	6796.98
462.083	6886.92
462.456	6883.99
462.829	6962.4
463.201	7065
463.574	7120.14
463.947	7222.51
464.32	7413.01
464.692	7448.49
465.065	7453.69
465.438	7620.01
465.81	7770.97
466.183	7875.6
466.555	8023.84
466.928	8089.6
467.3	8065.88
467.672	8273.78
468.045	8444.62
468.417	8471.74
468.789	8552.42
469.161	8665.18
469.534	8821.11
469.906	9054.78
470.278	9155.79
470.65	9256.58
471.022	9377.93
471.394	9494.09
471.766	9591.03
472.138	9709.9
472.51	9925.26
472.882	10048.42
473.253	10197.57
473.625	10349.21
473.997	10605.24
474.369	10743.55
474.74	10847.05
475.112	11058.34
475.484	11176.3
475.855	11414.49
476.227	11412.45
476.598	11877.3
476.97	12001.82
477.341	12198.65
477.713	12387.12
478.084	12591.63
478.455	12894
478.827	13006.54
479.198	13384.61
479.569	13382.12
479.94	13848.32
480.311	13945.27
480.682	14209.89
481.053	14588.64
481.424	14735.53
481.795	14919.03
482.166	15211.45
482.537	15419.81
482.908	15758.1
483.279	15813.69
483.65	16249.84
484.021	16488.93
484.391	16647.57
484.762	16824.06
485.133	17051.18
485.503	17268.12
485.874	17676.47
486.244	17876.24
486.615	18267.87
486.985	18499.73
487.356	18697.23
487.726	18957.79
488.097	19351.23
488.467	19438.46
488.837	19839.35
489.207	20029.4
489.578	20437.75
489.948	20533.34
490.318	20965.42
490.688	21080.67
491.058	21365.19
491.428	21559.98
491.798	21712.3
492.168	22123.81
492.538	22305.05
492.908	22615.32
493.278	22753.4
493.648	22848.31
494.017	23209.43
494.387	23460.05
494.757	23529.88
495.126	23797.21
495.496	24000.15
495.866	24087.83
496.235	24477.2
496.605	24700.92
496.974	24799.67
497.344	25056.39
497.713	25182.26
498.082	25430.62
498.452	25702.47
498.821	25872.19
499.19	26014.1
499.559	26351.72
499.928	26500.42
500.298	26632.39
500.667	26946.51
501.036	26936.79
501.405	27327.74
501.774	27338.14
502.143	27689.99
502.512	27727.05
502.88	27947.39
503.249	28002.3
503.618	28153.93
503.987	28206.59
504.356	28503.98
504.724	28635.05
505.093	28894.25
505.462	29054.93
505.83	29168.6
506.199	29428.48
506.567	29857.17
506.936	29807
507.304	30218.97
507.672	30398.17
508.041	30509.13
508.409	30771.72
508.777	31169
509.145	31266.85
509.514	31411.93
509.882	31682.2
510.25	31855.31
510.618	32061.85
510.986	32189.53
511.354	32660.03
511.722	32816.64
512.09	33245.1
512.458	33091.21
512.826	33462.95
513.193	33591.31
513.561	33779.55
513.929	34071.29
514.297	34431.74
514.664	34542.02
515.032	34691.84
515.4	35100.19
515.767	35186.97
516.135	35434.87
516.502	35236.23
516.869	35966.38
517.237	35974.97
517.604	36122.31
517.972	36542.64
518.339	36727.72
518.706	36737.21
519.073	37029.86
519.44	37333.58
519.808	37738.77
520.175	37684.76
520.542	38347.11
520.909	38558.18
521.276	38662.59
521.643	39115.45
522.009	39354.54
522.376	39738.94
522.743	39934.87
523.11	40327.17
523.477	40735.3
523.843	40913.83
524.21	41501.83
524.577	41445.34
524.943	41918.32
525.31	41906.79
525.676	42527.57
526.043	42762.82
526.409	42792.87
526.776	43280.54
527.142	43344.5
527.508	43637.6
527.874	43880.08
528.241	44233.96
528.607	44292.49
528.973	44686.83
529.339	44763.44
529.705	45165.92
530.071	45385.57
530.437	45560.71
530.803	45914.82
531.169	46237.53
531.535	46159.56
531.901	46440.46
532.267	46540.8
532.632	46905.53
532.998	47004.29
533.364	47181.23
533.73	47354.11
534.095	47682.69
534.461	47881.55
534.826	48078.83
535.192	48248.32
535.557	48533.06
535.923	48592.95
536.288	48763.56
536.653	48916.33
537.019	48835.88
537.384	49104.57
537.749	49372.13
538.114	49329.42
538.479	49482.19
538.845	49672.92
539.21	49580.72
539.575	49827.04
539.94	50011.44
540.305	50164.2
540.67	50149.97
541.034	50195.62
541.399	50435.38
541.764	50468.15
542.129	50636.51
542.494	50756.96
542.858	50924.64
543.223	50821.59
543.587	51102.71
543.952	51037.17
544.316	51342.03
544.681	51293.21
545.045	51490.5
545.41	51655.01
545.774	51709.7
546.138	51927.32
546.503	51927.55
546.867	51996.7
547.231	52325.5
547.595	52416.8
547.959	52473.3
548.324	52537.93
548.688	52600.98
549.052	52717.58
549.416	52803.68
549.779	52935.66
550.143	53195.76
550.507	53328.19
550.871	53396.66
551.235	53449.31
551.599	53600.5
551.962	53749.65
552.326	53726.82
552.689	53939.25
553.053	53829.19
553.417	53987.15
553.78	54358.22
554.143	54173.36
554.507	54388.73
554.87	54479.12
555.234	54707.81
555.597	54529.06
555.96	54685.89
556.323	54805.44
556.686	54854.02
557.05	55095.83
557.413	55176.5
557.776	55217.86
558.139	55422.82
558.502	55511.18
558.865	55526.77
559.228	55820.1
559.59	55858.74
559.953	55947.55
560.316	56180.77
560.679	56140.32
561.041	56331.27
561.404	56528.33
561.767	56744.82
562.129	56607.65
562.492	56940.3
562.854	56965.61
563.217	57022.1
563.579	57170.35
563.941	57300.06
564.304	57384.8
564.666	57543.9
565.028	57568.75
565.39	57684.91
565.753	57827.28
566.115	57921.97
566.477	58031.34
566.839	58033.15
567.201	58185.24
567.563	58242.64
567.925	58451.9
568.287	58457.77
568.648	58480.37
569.01	58621.38
569.372	58747.48
569.734	58649.63
570.095	58890.08
570.457	58916.74
570.819	59012.56
571.18	59051.2
571.542	59163.74
571.903	59215.72
572.265	59324.41
572.626	59352.44
572.987	59413.45
573.349	59495.94
573.71	59624.75
574.071	59647.12
574.432	59754.23
574.794	59856.38
575.155	59850.5
575.516	59811.18
575.877	59928.24
576.238	59957.39
576.599	60069.03
576.96	60144.05
577.32	60106.99
577.681	60161.45
578.042	60372.97
578.403	60356.7
578.763	60378.62
579.124	60357.16
579.485	60458.85
579.845	60462.46
580.206	60464.27
580.566	60462.46
580.927	60556.47
581.287	60575
581.648	60431.73
582.008	60592.4
582.368	60569.13
582.728	60640.09
583.089	60584.27
583.449	60500.2
583.809	60630.37
584.169	60590.37
584.529	60537.04
584.889	60730.93
585.249	60552.18
585.609	60479.19
585.969	60680.76
586.329	60592.63
586.688	60673.98
587.048	60624.95
587.408	60595.12
587.768	60610.71
588.127	60592.4
588.487	60613.65
588.846	60835.11
589.206	60596.02
589.565	60621.33
589.925	60763.47
590.284	60737.03
590.643	60790.82
591.003	60738.84
591.362	60867.42
591.721	60820.87
592.08	60791.04
592.44	60855.67
592.799	60890.02
593.158	60855.67
593.517	60849.57
593.876	60891.61
594.235	60801.44
594.593	60922.79
594.952	60989.46
595.311	60810.93
595.67	60870.36
596.029	60986.07
596.387	61006.4
596.746	61007.99
597.104	60888.44
597.463	60883.02
597.822	61011.6
598.18	60850.48
598.538	60941.32
598.897	61026.06
599.255	60839.86
599.613	61163.46
599.972	60951.49
600.33	61029.45
600.688	60903.81
601.046	61022.22
601.404	61035.56
601.762	61064.03
602.12	61138.38
602.478	61132.95
602.836	61216.34
603.194	61057.48
603.552	61091.37
603.91	61050.92
604.268	61183.8
604.625	61162.56
604.983	61263.12
605.341	61118.94
605.698	61279.39
606.056	61349.45
606.413	61267.64
606.771	61421.31
607.128	61495.66
607.485	61404.36
607.843	61396
608.2	61523.23
608.557	61623.11
608.914	61544.02
609.272	61592.83
609.629	61650.23
609.986	61743.11
610.343	61638.93
610.7	61786.5
611.057	61775.65
611.414	61718.25
611.771	61733.16
612.127	61874.4
612.484	61803.45
612.841	61829.66
613.198	61712.6
613.554	61748.31
613.911	61893.61
614.267	61880.05
614.624	61865.59
614.98	61864.91
615.337	61945.81
615.693	61972.71
616.05	61880.05
616.406	62079.82
616.762	61956.66
617.118	61952.82
617.475	61942.42
617.831	61959.37
618.187	61974.51
618.543	62031.69
618.899	62120.05
619.255	62048.86
619.611	62035.08
619.967	62091.35
620.323	62112.59
620.678	62073.27
621.034	61984.91
621.39	61999.37
621.746	61986.49
622.101	62273.94
622.457	62070.56
622.812	62114.85
623.168	62172.7
623.523	62146.26
623.879	62250.89
624.234	62055.64
624.589	62218.8
624.945	62209.99
625.3	62292.25
625.655	62221.29
626.01	62236.65
626.365	62243.66
626.72	62220.16
627.075	62187.62
627.43	62184
627.785	62171.8
628.14	62229.88
628.495	62216.99
628.85	62198.92
629.205	62096.32
629.559	62248.41
629.914	62094.06
630.269	62070.11
630.623	62018.36
630.978	61972.71
631.332	62036.66
631.687	62101.06
632.041	61970.45
632.396	61970.67
632.75	61837.34
633.104	61868.53
633.459	61802.09
633.813	61722.32
634.167	61667.86
634.521	61686.84
634.875	61674.64
635.229	61648.65
635.583	61485.49
635.937	61513.28
636.291	61551.93
636.645	61521.65
636.999	61370.01
637.352	61478.03
637.706	61328.2
638.06	61520.29
638.413	61376.11
638.767	61327.07
639.121	61362.1
639.474	61162.78
639.828	61177.7
640.181	61244.14
640.534	61226.29
640.888	61162.56
641.241	61065.61
641.594	61133.63
641.947	61185.38
642.301	61134.31
642.654	61081.66
643.007	61109.23
643.36	61060.87
643.713	61081.43
644.066	61116.23
644.419	60960.3
644.771	60850.93
645.124	60635.11
645.477	60616.36
645.83	60415.01
646.182	60333.2
646.535	60224.73
646.888	60302.69
647.24	60166.2
647.593	60241.9
647.945	60180.21
648.298	60000.56
648.65	60034.9
649.002	59945.64
649.355	59995.81
649.707	60015.47
650.059	59956.04
650.411	60296.37
650.763	60346.31
651.115	60560.09
651.467	60416.82
651.819	60356.25
652.171	60285.29
652.523	60215.01
652.875	60260.89
653.227	60177.5
653.578	60277.16
653.93	60179.31
654.282	60035.81
654.633	60039.88
654.985	60058.41
655.337	60089.37
655.688	60047.79
656.039	60087.78
656.391	59839.88
656.742	59914.46
657.094	59875.36
657.445	59983.15
657.796	59926.66
658.147	59835.36
658.498	59917.17
658.849	59931.4
659.2	59935.47
659.551	59813.67
659.902	59855.7
660.253	59807.57
660.604	59828.13
660.955	59838.3
661.306	59857.28
661.656	59822.48
662.007	59744.74
662.358	59808.24
662.708	59829.26
663.059	59741.13
663.409	59650.73
663.76	59814.12
664.11	59795.14
664.461	59809.6
664.811	59810.5
665.161	59796.04
665.511	59641.02
665.862	59742.03
666.212	59740.9
666.562	59739.77
666.912	59739.32
667.262	59659.1
667.612	59652.99
667.962	59644.18
668.312	59558.31
668.662	59700
669.011	59602.15
669.361	59516.5
669.711	59424.98
670.06	59438.31
670.41	59367.13
670.76	59253.23
671.109	59407.58
671.459	59315.38
671.808	59323.51
672.157	59318.09
672.507	59062.95
672.856	59187.24
673.205	59156.96
673.554	59156.28
673.904	59075.16
674.253	59234.47
674.602	59138.43
674.951	58752.9
675.3	58621.83
675.649	58945.67
675.998	59010.52
676.346	58975.27
676.695	58995.61
677.044	58842.17
677.393	58904.99
677.741	58898.21
678.09	58828.16
678.438	58781.38
678.787	58849.17
679.135	58851.21
679.484	58686.69
679.832	58783.64
680.181	58665.9
680.529	58747.71
680.877	58685.79
681.225	58640.14
681.573	58799
681.922	58571.89
682.27	58493.7
682.618	58595.62
682.966	58469.75
683.314	58534.83
683.661	58465.91
684.009	58345.23
684.357	58302.97
684.705	58294.84
685.053	58354.5
685.4	58238.79
685.748	58084.45
686.095	58096.88
686.443	58053.04
686.79	58027.05
687.138	57963.55
687.485	58056.88
687.832	57906.37
688.18	57916.77
688.527	57784.57
688.874	57675.87
689.221	57593.39
689.568	57528.98
689.915	57442.2
690.262	57465.25
690.609	57382.09
690.956	57248.76
691.303	57255.09
691.65	57069.11
691.997	57036.79
692.344	56876.57
692.69	56866.17
693.037	56881.77
693.383	56587.76
693.73	56658.95
694.077	56483.13
694.423	56506.18
694.769	56324.49
695.116	56283.14
695.462	56242.24
695.808	56130.37
696.155	56198.62
696.501	55992.75
696.847	55988.46
697.193	55755.69
697.539	55886.99
697.885	55597.51
698.231	55569.26
698.577	55557.96
698.923	55543.5
699.269	55374.69
699.614	55233.9
699.96	55194.81
700.306	55201.36
700.651	55110.97
700.997	55113.23
701.342	54968.37
701.688	55007.01
702.033	54862.16
702.379	54883.18
702.724	54826.91
703.069	54884.53
703.415	54513.69
703.76	54581.71
704.105	54599.34
704.45	54501.26
704.795	54296.98
705.14	54237.77
705.485	54271.67
705.83	54068.51
706.175	54098.11
706.52	54082.97
706.865	53975.4
707.209	53894.73
707.554	53816.31
707.899	53931.11
708.243	53764.11
708.588	53639.14
708.932	53385.59
709.277	53523.21
709.621	53393.72
709.966	53282.09
710.31	53327.28
710.654	52964.36
710.998	53108.98
711.342	53014.52
711.687	52869.67
712.031	52732.95
712.375	52546.51
712.719	52645.95
713.063	52543.35
713.407	52667.87
713.75	52405.95
714.094	52283.24
714.438	52154.21
714.782	52222
715.125	51929.13
715.469	52052.52
715.812	51848.68
716.156	51646.2
716.499	51659.76
716.843	51600.55
717.186	51518.74
717.53	51657.95
717.873	51628.8
718.216	51443.72
718.559	51212.31
718.902	51089.38
719.246	51147.91
719.589	50897.74
719.932	50787.69
720.275	50917.18
720.617	50723.51
720.96	50691.42
721.303	50647.81
721.646	50668.82
721.989	50343.41
722.331	50537.53
722.674	50503.86
723.016	50479.68
723.359	50330.98
723.701	50357.64
724.044	50264.54
724.386	50041.27
724.729	50213.02
725.071	50165.56
725.413	50041.95
725.755	49988.39
726.097	49910.2
726.439	49701.16
726.782	49834.49
727.124	50028.61
727.465	49700.71
727.807	49644.22
728.149	49610.77
728.491	49686.48
728.833	49584.33
729.175	49493.03
729.516	49427.5
729.858	49312.25
730.199	49466.82
730.541	49262.31
730.882	49221.86
731.224	49348.63
731.565	48935.76
731.906	48992.71
732.248	48977.79
732.589	48769.44
732.93	48628.2
733.271	48582.32
733.612	48651.48
733.953	48569.22
734.294	48545.04
734.635	48358.6
734.976	48497.35
735.317	48266.85
735.658	48157.25
735.999	48046.52
736.339	47871.61
736.68	47924.94
737.021	47816.69
737.361	47652.63
737.702	47913.87
738.042	47663.25
738.383	47515.23
738.723	47519.53
739.063	47298.52
739.404	47374.22
739.744	47210.83
740.084	47018.52
740.424	47113.21
740.764	46916.83
741.104	46993.21
741.444	46688.81
741.784	46684.75
742.124	46604.07
742.464	46595.03
742.804	46508.03
743.143	46226.91
743.483	46322.27
743.823	46145.1
744.162	46117.76
744.502	46110.75
744.841	45914.6
745.181	45981.49
745.52	45838.67
745.86	45898.1
746.199	45792.57
746.538	45749.86
746.877	45763.87
747.216	45620.59
747.556	45442.75
747.895	45581.95
748.234	45393.93
748.573	45524.33
748.911	45223.32
749.25	45301.73
749.589	45042.08
749.928	45087.95
750.267	45250.43
750.605	45049.99
750.944	44930.67
751.283	44875.76
751.621	44871.46
751.96	44513.28
752.298	44657
