Data from aluminium_macbook_case_FLMS001491_011.txt Node
Date: Tue Feb 07 10:43:15 GMT 2017
User: dcchb
Spectrometer: FLMS00149
Trigger mode: 0
Integration Time (sec): 2.000000E-2
Scans to average: 10
Electric dark correction enabled: true
Nonlinearity correction enabled: false
Boxcar width: 0
XAxis mode: Wavelengths
Number of Pixels in Spectrum: 2048
>>>>>Begin Spectral Data<<<<<
341.393	-26.3
341.776	-26.3
342.16	-26.3
342.543	-74.89
342.927	-75.11
343.31	-91.83
343.693	-81.21
344.077	-55.68
344.46	-64.94
344.843	-54.77
345.226	-33.53
345.61	-48.22
345.993	-2.34
346.376	7.37
346.759	2.18
347.142	28.62
347.525	45.56
347.908	77.2
348.291	78.33
348.674	97.77
349.057	95.51
349.44	130.53
349.823	131.66
350.206	166.69
350.588	215.28
350.971	258.44
351.354	276.07
351.737	283.52
352.119	310.19
352.502	318.78
352.884	319
353.267	334.82
353.65	330.98
354.032	349.06
354.414	360.36
354.797	380.47
355.179	369.62
355.562	371.88
355.944	378.66
356.326	378.44
356.709	385.67
357.091	389.06
357.473	395.39
357.855	414.37
358.238	414.14
358.62	391.32
359.002	395.39
359.384	394.03
359.766	423.63
360.148	402.39
360.53	424.31
360.912	424.31
361.294	413.01
361.676	414.82
362.057	394.71
362.439	401.26
362.821	430.64
363.203	408.49
363.584	411.2
363.966	437.87
364.348	407.36
364.729	406.23
365.111	426.57
365.493	423.18
365.874	415.72
366.256	430.19
366.637	413.92
367.019	431.77
367.4	452.11
367.781	415.27
368.163	427.47
368.544	415.72
368.925	407.36
369.306	433.35
369.688	431.09
370.069	456.17
370.45	443.29
370.831	428.6
371.212	448.94
371.593	455.5
371.974	438.1
372.355	467.93
372.736	457.3
373.117	462.05
373.498	472.9
373.879	498.21
374.26	454.82
374.641	448.04
375.021	453.24
375.402	451.88
375.783	493.01
376.163	533.01
376.544	516.06
376.925	522.39
377.305	495.27
377.686	512.67
378.066	498.21
378.447	522.61
378.827	528.94
379.208	535.49
379.588	533.91
379.968	533.01
380.349	543.86
380.729	544.31
381.109	579.11
381.489	547.47
381.87	570.07
382.25	554.02
382.63	564.65
383.01	591.31
383.39	582.5
383.77	592.89
384.15	629.96
384.53	615.94
384.91	608.49
385.29	604.42
385.67	610.07
386.049	629.05
386.429	638.99
386.809	645.77
387.189	631.99
387.568	670.18
387.948	693.91
388.328	682.16
388.707	678.77
389.087	715.15
389.466	718.31
389.846	710.63
390.225	729.16
390.605	736.62
390.984	735.04
391.363	757.64
391.743	775.71
392.122	767.35
392.501	778.65
392.881	777.07
393.26	766.45
393.639	815.26
394.018	798.76
394.397	820.23
394.776	815.71
395.155	835.83
395.534	826.11
395.913	877.86
396.292	872.21
396.671	871.08
397.05	904.52
397.429	898.2
397.808	896.39
398.186	915.15
398.565	905.43
398.944	913.34
399.323	916.28
399.701	968.25
400.08	966.22
400.458	960.34
400.837	998.76
401.215	984.52
401.594	989.04
401.972	982.71
402.351	995.82
402.729	1010.74
403.107	1048.7
403.486	1088.02
403.864	1064.07
404.242	1105.42
404.62	1121.24
404.999	1113.56
405.377	1143.16
405.755	1152.43
406.133	1151.75
406.511	1170.96
406.889	1179.32
407.267	1220.67
407.645	1217.51
408.023	1234.91
408.401	1241.69
408.779	1265.42
409.156	1283.95
409.534	1299.32
409.912	1332.31
410.29	1335.47
410.667	1378.18
411.045	1407.11
411.422	1419.31
411.8	1448.69
412.178	1467.67
412.555	1490.05
412.933	1487.33
413.31	1525.75
413.687	1534.79
414.065	1572.53
414.442	1560.1
414.819	1584.96
415.197	1621.57
415.574	1633.32
415.951	1656.14
416.328	1677.84
416.705	1700.66
417.082	1685.97
417.46	1724.16
417.837	1755.35
418.214	1790.83
418.591	1799.42
418.967	1784.73
419.344	1842.13
419.721	1851.17
420.098	1883.03
420.475	1909.7
420.852	1909.02
421.228	1907.66
421.605	1949.24
421.982	1981.56
422.358	1975.46
422.735	2015.91
423.111	2009.13
423.488	2062.23
423.864	2069.24
424.241	2128.67
424.617	2137.71
424.994	2151.5
425.37	2180.42
425.746	2186.98
426.123	2242.34
426.499	2217.94
426.875	2299.97
427.251	2323.24
427.627	2361.44
428.003	2384.94
428.379	2450.02
428.756	2465.39
429.132	2512.17
429.507	2520.07
429.883	2583.35
430.259	2572.95
430.635	2605.72
431.011	2663.35
431.387	2766.17
431.763	2764.81
432.138	2751.71
432.514	2836.45
432.89	2844.81
433.265	2950.57
433.641	2962.1
434.016	2956.45
434.392	3061.76
434.767	3099.72
435.143	3117.8
435.518	3165.71
435.894	3176.78
436.269	3209.1
436.644	3244.58
437.02	3295.42
437.395	3344.91
437.77	3386.27
438.145	3449.09
438.52	3469.65
438.895	3515.76
439.271	3490.67
439.646	3635.53
440.021	3612.25
440.395	3649.99
440.77	3621.51
441.145	3656.54
441.52	3741.06
441.895	3755.97
442.27	3819.25
442.645	3837.78
443.019	3876.42
443.394	3893.37
443.769	3959.81
444.143	3916.2
444.518	3983.31
444.892	3946.48
445.267	4048.17
445.641	4083.42
446.016	4111.9
446.39	4147.83
446.764	4174.04
447.139	4176.08
447.513	4280.71
447.887	4274.38
448.262	4284.55
448.636	4336.52
449.01	4425.34
449.384	4396.41
449.758	4422.85
450.132	4528.61
450.506	4592.11
450.88	4593.47
451.254	4595.95
451.628	4675.27
452.002	4707.81
452.376	4824.87
452.75	4880.01
453.123	4874.36
453.497	4953.68
453.871	5004.53
454.244	5074.81
454.618	5178.54
454.992	5179.89
455.365	5177.86
455.739	5378.53
456.112	5424.18
456.486	5454.01
456.859	5523.39
457.232	5599.99
457.606	5602.48
457.979	5697.62
458.352	5778.29
458.725	5885.18
459.099	5939.19
459.472	6043.82
459.845	6200.66
460.218	6197.04
460.591	6222.58
460.964	6253.08
461.337	6478.39
461.71	6554.55
462.083	6630.7
462.456	6670.02
462.829	6680.87
463.201	6864.59
463.574	6845.16
463.947	6971.03
464.32	7062.78
464.692	7122.21
465.065	7211.93
465.438	7338.71
465.81	7450.57
466.183	7588.42
466.555	7730.79
466.928	7756.1
467.3	7739.82
467.672	7922.42
468.045	8108.4
468.417	8148.4
468.789	8194.5
469.161	8356.98
469.534	8472.46
469.906	8670.42
470.278	8712.91
470.65	8865.44
471.022	9000.36
471.394	9207.36
471.766	9328.03
472.138	9431.76
472.51	9595.6
472.882	9772.54
473.253	9886.89
473.625	10000.1
473.997	10227.44
474.369	10307.67
474.74	10448.91
475.112	10650.71
475.484	10788.56
475.855	11020.42
476.227	11114.2
476.598	11420.86
476.97	11539.27
477.341	11768.87
477.713	11975.42
478.084	12061.29
478.455	12376.99
478.827	12458.34
479.198	12828.28
479.569	12945.79
479.94	13327.93
480.311	13468.49
480.682	13723.62
481.053	14017.63
481.424	14260.56
481.795	14475.24
482.166	14700.09
482.537	14859.86
482.908	15187.99
483.279	15303.02
483.65	15552.27
484.021	15910.01
484.391	16129.21
484.762	16226.16
485.133	16414.62
485.503	16632.25
485.874	17018.45
486.244	17166.24
486.615	17543.86
486.985	17674.03
487.356	17982.49
487.726	18196.95
488.097	18642.81
488.467	18634.91
488.837	19098.85
489.207	19335.23
489.578	19627.42
489.948	19816.12
490.318	20041.65
490.688	20270.79
491.058	20536.1
491.428	20924.79
491.798	21054.5
492.168	21494.94
492.538	21564.32
492.908	21812.45
493.278	22097.87
493.648	22074.14
494.017	22525.2
494.387	22659.43
494.757	22811.29
495.126	23164.5
495.496	23085.18
495.866	23360.88
496.235	23684.26
496.605	23724.49
496.974	23881.77
497.344	24138.26
497.713	24313.17
498.082	24517.46
498.452	24802.65
498.821	25054.17
499.19	25038.13
499.559	25365.8
499.928	25557.44
500.298	25719.46
500.667	26078.55
501.036	25990.42
501.405	26323.97
501.774	26468.6
502.143	26698.65
502.512	26851.64
502.88	27159.2
503.249	27127.79
503.618	27445.3
503.987	27440.78
504.356	27718.28
504.724	27870.37
505.093	27950.37
505.462	28082.79
505.83	28277.14
506.199	28508.09
506.567	28953.05
506.936	28847.52
507.304	29320.95
507.672	29317.34
508.041	29580.61
508.409	29847.72
508.777	30055.4
509.145	30211.32
509.514	30386.46
509.882	30675.49
510.25	30755.49
510.618	30979.89
510.986	31108.93
511.354	31618.52
511.722	31789.81
512.09	32100.99
512.458	32073.2
512.826	32370.59
513.193	32799.05
513.561	32761.09
513.929	33121.08
514.297	33449.21
514.664	33520.39
515.032	33882.64
515.4	34146.36
515.767	34169.19
516.135	34562.85
516.502	34226.81
516.869	34951.09
517.237	35057.07
517.604	35042.38
517.972	35485.76
518.339	35732.99
518.706	35871.74
519.073	36009.14
519.44	36257.94
519.808	36603.92
520.175	36646.41
520.542	37177.92
520.909	37454.98
521.276	37466.95
521.643	37809.32
522.009	38140.83
522.376	38560.71
522.743	38737.65
523.11	39220.8
523.477	39609.27
523.843	39677.97
524.21	40220.55
524.577	40592.52
524.943	40656.25
525.31	40926.75
525.676	41368.77
526.043	41627.07
526.409	41726.73
526.776	42151.8
527.142	42312.7
527.508	42594.95
527.874	42821.61
528.241	43042.17
528.607	43087.14
528.973	43643.29
529.339	43537.75
529.705	43941.58
530.071	44377.05
530.437	44390.39
530.803	44622.24
531.169	44876.48
531.535	44926.87
531.901	45121.44
532.267	45478.72
532.632	45531.37
532.998	45925.49
533.364	46006.39
533.73	46224.69
534.095	46509.65
534.461	46595.07
534.826	46946.93
535.192	47009.53
535.557	47430.31
535.923	47452.9
536.288	47685.22
536.653	47961.82
537.019	47876.4
537.384	48075.94
537.749	48164.07
538.114	48493.56
538.479	48501.69
538.845	48744.17
539.21	48572.88
539.575	48830.5
539.94	48983.49
540.305	49326.98
540.67	49115.01
541.034	49411.27
541.399	49490.14
541.764	49499.86
542.129	49673.64
542.494	49710.7
542.858	49848.77
543.223	49941.43
543.587	50284.47
543.952	50118.82
544.316	50272.72
544.681	50410.57
545.045	50505.48
545.41	50762.87
545.774	50764.23
546.138	50859.14
546.503	51102.53
546.867	51048.97
547.231	51415.06
547.595	51452.57
547.959	51574.15
548.324	51682.62
548.688	51802.39
549.052	51918.55
549.416	52015.04
549.779	52135.49
550.143	52319.9
550.507	52551.53
550.871	52683.95
551.235	52609.61
551.599	52830.62
551.962	52987.9
552.326	53079.42
552.689	53174.79
553.053	53059.76
553.417	53224.73
553.78	53579.52
554.143	53384.73
554.507	53618.39
554.87	53668.79
555.234	54006.4
555.597	53886.86
555.96	53940.42
556.323	54112.16
556.686	54051.15
557.05	54372.5
557.413	54424.7
557.776	54480.97
558.139	54641.42
558.502	54684.35
558.865	54755.99
559.228	55015.19
559.59	55045.7
559.953	55127.51
560.316	55468.74
560.679	55476.42
561.041	55721.61
561.404	55796.41
561.767	55923.87
562.129	55926.35
562.492	56258.1
562.854	56248.38
563.217	56352.78
563.579	56542.84
563.941	56677.97
564.304	56807.69
564.666	56957.97
565.028	57009.72
565.39	57032.09
565.753	57218.07
566.115	57284.96
566.477	57405.86
566.839	57458.29
567.201	57625.29
567.563	57577.16
567.925	57864.83
568.287	57785.06
568.648	57861.67
569.01	58017.82
569.372	58113.87
569.734	58062.8
570.095	58187.54
570.457	58378.95
570.819	58352.05
571.18	58400.19
571.542	58499.39
571.903	58531.71
572.265	58599.5
572.626	58653.74
572.987	58739.39
573.349	58840.85
573.71	58907.74
574.071	58932.38
574.432	59034.52
574.794	59204.69
575.155	59190.45
575.516	59147.06
575.877	59253.95
576.238	59299.6
576.599	59461.85
576.96	59474.51
577.32	59535.52
577.681	59644.67
578.042	59703.66
578.403	59720.38
578.763	59726.03
579.124	59785.46
579.485	59902.07
579.845	59940.94
580.206	59950.2
580.566	59960.82
580.927	59993.82
581.287	60052.35
581.648	59942.07
582.008	60077.66
582.368	60007.83
582.728	60102.97
583.089	60074.04
583.449	59980.49
583.809	60021.16
584.169	60086.47
584.529	59973.03
584.889	60115.17
585.249	59971.9
585.609	59941.84
585.969	60065.45
586.329	60018.45
586.688	60099.8
587.048	60011.22
587.408	59974.61
587.768	59992.01
588.127	59990.65
588.487	59948.4
588.846	60139.12
589.206	59960.15
589.565	60022.29
589.925	60060.71
590.284	60142.97
590.643	60102.52
591.003	60138.67
591.362	60157.88
591.721	60168.95
592.08	60103.19
592.44	60282.17
592.799	60236.3
593.158	60213.47
593.517	60247.14
593.876	60281.04
594.235	60262.06
594.593	60282.17
594.952	60378.21
595.311	60233.59
595.67	60391.1
596.029	60521.26
596.387	60473.13
596.746	60593.58
597.104	60396.52
597.463	60375.73
597.822	60537.53
598.18	60360.36
598.538	60337.31
598.897	60493.69
599.255	60321.72
599.613	60627.25
599.972	60476.97
600.33	60532.33
600.688	60490.3
601.046	60509.74
601.404	60528.95
601.762	60525.56
602.12	60655.5
602.478	60635.61
602.836	60576.18
603.194	60481.71
603.552	60578.89
603.91	60472.45
604.268	60606.46
604.625	60584.31
604.983	60662.95
605.341	60514.48
605.698	60709.96
606.056	60698.66
606.413	60658.89
606.771	60739.79
607.128	60796.06
607.485	60691.2
607.843	60684.2
608.2	60866.79
608.557	60993.34
608.914	60864.3
609.272	61012.1
609.629	61071.53
609.986	61146.78
610.343	61091.87
610.7	61263.62
611.057	61154.01
611.414	61197.4
611.771	61217.29
612.127	61178.19
612.484	61247.8
612.841	61334.8
613.198	61256.16
613.554	61237.85
613.911	61405.53
614.267	61367.79
614.624	61309.72
614.98	61411.63
615.337	61484.85
615.693	61410.5
616.05	61415.7
616.406	61478.52
616.762	61431.52
617.118	61422.48
617.475	61452.54
617.831	61485.53
618.187	61482.59
618.543	61504.51
618.899	61639.2
619.255	61530.5
619.611	61532.76
619.967	61582.48
620.323	61601.01
620.678	61532.99
621.034	61507.45
621.39	61544.29
621.746	61419.77
622.101	61668.12
622.457	61444.85
622.812	61547.68
623.168	61578.64
623.523	61510.84
623.879	61674.9
624.234	61517.62
624.589	61603.72
624.945	61547
625.3	61616.37
625.655	61597.39
626.01	61599.88
626.365	61594.45
626.72	61602.14
627.075	61584.06
627.43	61603.27
627.785	61514.23
628.14	61566.88
628.495	61609.59
628.85	61622.93
629.205	61564.85
629.559	61685.07
629.914	61515.59
630.269	61612.98
630.623	61493.21
630.978	61481.46
631.332	61516.72
631.687	61568.92
632.041	61423.16
632.396	61523.27
632.75	61414.12
633.104	61362.82
633.459	61237.85
633.813	61263.62
634.167	61237.18
634.521	61210.96
634.875	61241.02
635.229	61189.27
635.583	61070.85
635.937	61041.7
636.291	61067.91
636.645	61016.62
636.999	60918.09
637.352	60999.22
637.706	60872.44
638.06	60980.91
638.413	60885.55
638.767	60792.89
639.121	60808.94
639.474	60661.82
639.828	60661.6
640.181	60735.04
640.534	60575.05
640.888	60563.29
641.241	60469.74
641.594	60432.45
641.947	60520.58
642.301	60428.16
642.654	60497.53
643.007	60433.35
643.36	60384.09
643.713	60328.05
644.066	60380.25
644.419	60267.94
644.771	60190.42
645.124	59939.36
645.477	59893.71
645.83	59773.03
646.182	59641.28
646.535	59585.92
646.888	59706.82
647.24	59561.51
647.593	59644.45
647.945	59562.64
648.298	59459.82
648.65	59390.44
649.002	59382.99
649.355	59519.25
649.707	59483.55
650.059	59556.54
650.411	59796.54
650.763	59803.77
651.115	59998.79
651.467	59907.72
651.819	59878.57
652.171	59803.77
652.523	59824.33
652.875	59750.66
653.227	59674.05
653.578	59808.51
653.93	59732.13
654.282	59654.62
654.633	59606.03
654.985	59622.75
655.337	59582.98
655.688	59518.58
656.039	59640.61
656.391	59430.44
656.742	59452.36
657.094	59384.12
657.445	59517.67
657.796	59374.85
658.147	59331.69
658.498	59245.36
658.849	59348.86
659.2	59310.67
659.551	59192.48
659.902	59246.27
660.253	59195.19
660.604	59280.39
660.955	59077.91
661.306	59200.84
661.656	59128.53
662.007	59108.64
662.358	59091.02
662.708	59133.95
663.059	58995.88
663.409	58834.07
663.76	59088.53
664.11	59055.54
664.461	59092.15
664.811	59072.26
665.161	59011.92
665.511	58952.49
665.862	59009.21
666.212	59018.48
666.562	59080.4
666.912	59066.38
667.262	59046.72
667.612	59026.39
667.962	59070.45
668.312	58947.07
668.662	59144.12
669.011	59098.47
669.361	58987.06
669.711	58974.41
670.06	58967.63
670.41	58848.31
670.76	58818.26
671.109	58992.71
671.459	58873.85
671.808	58829.78
672.157	58939.61
672.507	58738.94
672.856	58762.66
673.205	58728.54
673.554	58789.78
673.904	58649.67
674.253	58782.78
674.602	58704.36
674.951	58325.16
675.3	58167.88
675.649	58546.85
675.998	58519.05
676.346	58541.2
676.695	58575.78
677.044	58403.35
677.393	58370.81
677.741	58490.13
678.09	58308.66
678.438	58278.16
678.787	58279.96
679.135	58326.97
679.484	58081.1
679.832	58158.84
680.181	58038.16
680.529	58119.07
680.877	58027.54
681.225	57923.36
681.573	58067.31
681.922	57884.72
682.27	57725.18
682.618	57771.73
682.966	57688.34
683.314	57711.84
683.661	57587.78
684.009	57483.83
684.357	57436.82
684.705	57361.34
685.053	57452.19
685.4	57440.21
685.748	57286.09
686.095	57305.3
686.443	57187.34
686.79	57170.39
687.138	57228.47
687.485	57205.87
687.832	57166.55
688.18	57151.63
688.527	57035.7
688.874	57068.47
689.221	57052.88
689.568	56935.59
689.915	56882.49
690.262	56907.57
690.609	56838.65
690.956	56744.64
691.303	56721.81
691.65	56589.61
691.997	56534.02
692.344	56373.35
692.69	56350.75
693.037	56452.67
693.383	56219.45
693.73	56309.62
694.077	56050.87
694.423	56004.54
694.769	55945.34
695.116	55859.01
695.462	55740.37
695.808	55715.29
696.155	55709.18
696.501	55538.57
696.847	55547.38
697.193	55365.69
697.539	55467.38
697.885	55214.73
698.231	55085.92
698.577	55162.53
698.923	54973.16
699.269	54844.8
699.614	54713.73
699.96	54644.13
700.306	54643
700.651	54445.72
700.997	54372.27
701.342	54375.66
701.688	54232.84
702.033	54109.23
702.379	54194.42
702.724	54060.87
703.069	54073.07
703.415	53616.81
703.76	53666.3
704.105	53672.18
704.45	53478.28
704.795	53362.81
705.14	53282.13
705.485	53332.98
705.83	53136.82
706.175	53231.06
706.52	53050.27
706.865	52918.3
707.209	52909.03
707.554	52898.64
707.899	52847.79
708.243	52636.95
708.588	52567.12
708.932	52404.87
709.277	52487.35
709.621	52514.47
709.966	52238.32
710.31	52345.66
710.654	52110.41
710.998	52262.72
711.342	52218.88
711.687	52134.82
712.031	52090.75
712.375	51951.09
712.719	51959.45
713.063	51918.1
713.407	51928.72
713.75	51699.12
714.094	51740.48
714.438	51579.12
714.782	51667.26
715.125	51463.42
715.469	51496.19
715.812	51230.88
716.156	51256.42
716.499	51207.38
716.843	51222.3
717.186	51011.46
717.53	51109.98
717.873	50970.33
718.216	50782.53
718.559	50740.05
718.902	50546.38
719.246	50568.76
719.589	50343
719.932	50333.51
720.275	50218.03
720.617	50249.22
720.96	50197.01
721.303	50109.56
721.646	50001.09
721.989	49711.6
722.331	49913.18
722.674	49762
723.016	49849.45
723.359	49636.12
723.701	49466.86
724.044	49334.44
724.386	49070.49
724.729	49312.74
725.071	49188.23
725.413	49205.4
725.755	49060.32
726.097	48837.05
726.439	48654.68
726.782	48689.03
727.124	48960.44
727.465	48534.46
727.807	48416.95
728.149	48317.29
728.491	48264.63
728.833	48368.59
729.175	48218.53
729.516	48080.23
729.858	48022.16
730.199	48058.09
730.541	47813.57
730.882	47716.4
731.224	47867.81
731.565	47689.06
731.906	47790.3
732.248	47775.16
732.589	47696.29
732.93	47562.05
733.271	47496.52
733.612	47550.53
733.953	47579.68
734.294	47390.31
734.635	47270.31
734.976	47413.58
735.317	47189.86
735.658	47052.46
735.999	47190.76
736.339	47133.37
736.68	47268.73
737.021	46980.6
737.361	47023.31
737.702	47162.29
738.042	46964.33
738.383	46968.17
738.723	46902.41
739.063	46781.96
739.404	46756.2
739.744	46600.5
740.084	46452.71
740.424	46577
740.764	46375.19
741.104	46534.74
741.444	46224.91
741.784	46077.12
742.124	46305.82
742.464	46291.58
742.804	45934.53
743.143	45862.89
743.483	45901.31
743.823	45730.01
744.162	45608.66
744.502	45574.08
744.841	45518.72
745.181	45504.71
745.52	45252.74
745.86	45215.68
746.199	45123.47
746.538	44977.26
746.877	45075.11
747.216	44932.29
747.556	44682.13
747.895	44838.96
748.234	44513.1
748.573	44604.84
748.911	44394
749.25	44263.16
749.589	44143.39
749.928	44195.36
750.267	44089.15
750.605	43940.23
750.944	43701.37
751.283	43499.79
751.621	43731.65
751.96	43247.37
