Data from aluminium_surface_pro_back_FLMS001491_00019.txt Node
Date: Wed Feb 08 15:33:42 GMT 2017
User: dcchb
Spectrometer: FLMS00149
Trigger mode: 0
Integration Time (sec): 2.000000E-2
Scans to average: 10
Electric dark correction enabled: true
Nonlinearity correction enabled: false
Boxcar width: 0
XAxis mode: Wavelengths
Number of Pixels in Spectrum: 2048
>>>>>Begin Spectral Data<<<<<
341.393	-11.81
341.776	-11.81
342.16	-11.81
342.543	-73.5
342.927	-46.16
343.31	-77.12
343.693	-63.33
344.077	-55.87
344.46	-51.35
344.843	-59.49
345.226	-29.43
345.61	-26.04
345.993	-20.85
346.376	-6.16
346.759	14.18
347.142	27.97
347.525	32.03
347.908	51.47
348.291	83.78
348.674	81.52
349.057	98.7
349.44	120.62
349.823	150
350.206	175.31
350.588	228.64
350.971	227.96
351.354	266.38
351.737	258.24
352.119	266.38
352.502	298.01
352.884	300.05
353.267	297.56
353.65	347.28
354.032	334.4
354.414	341.4
354.797	335.53
355.179	347.05
355.562	347.05
355.944	342.31
356.326	371.69
356.709	362.65
357.091	377.11
357.473	374.4
357.855	369.88
358.238	366.71
358.62	394.28
359.002	387.73
359.384	373.94
359.766	378.01
360.148	363.55
360.53	383.21
360.912	376.43
361.294	342.31
361.676	360.16
362.057	349.31
362.439	380.05
362.821	373.72
363.203	370.1
363.584	370.56
363.966	370.78
364.348	372.82
364.729	385.24
365.111	346.38
365.493	361.06
365.874	357
366.256	365.58
366.637	378.69
367.019	363.32
367.4	385.24
367.781	374.62
368.163	371.91
368.544	387.5
368.925	373.04
369.306	350.44
369.688	370.1
370.069	376.88
370.45	366.04
370.831	372.14
371.212	357.45
371.593	363.78
371.974	384.11
372.355	384.34
372.736	376.88
373.117	392.93
373.498	395.87
373.879	373.72
374.26	377.56
374.641	393.83
375.021	394.51
375.402	404
375.783	403.32
376.163	433.83
376.544	404.45
376.925	436.09
377.305	399.26
377.686	412.36
378.066	414.17
378.447	440.84
378.827	417.33
379.208	418.24
379.588	428.41
379.968	427.95
380.349	430.89
380.729	433.6
381.109	461.4
381.489	446.71
381.87	441.74
382.25	461.4
382.63	441.51
383.01	467.95
383.39	462.76
383.77	462.53
384.15	486.71
384.53	494.39
384.91	466.37
385.29	486.48
385.67	491.91
386.049	498.69
386.429	507.73
386.809	508.86
387.189	499.82
387.568	532.81
387.948	519.93
388.328	508.63
388.707	505.24
389.087	542.98
389.466	556.77
389.846	546.82
390.225	554.96
390.605	566.71
390.984	563.77
391.363	571.68
391.743	572.13
392.122	602.64
392.501	583.21
392.881	589.31
393.26	580.95
393.639	601.28
394.018	622.98
394.397	635.63
394.776	629.08
395.155	632.02
395.534	633.83
395.913	645.12
396.292	672.24
396.671	674.05
397.05	635.86
397.429	689.64
397.808	695.74
398.186	679.7
398.565	681.28
398.944	683.77
399.323	702.98
399.701	707.72
400.08	728.51
400.458	730.77
400.837	726.48
401.215	716.31
401.594	750.21
401.972	766.03
402.351	756.76
402.729	762.86
403.107	800.6
403.486	778.68
403.864	803.09
404.242	810.09
404.62	815.74
404.999	821.62
405.377	824.55
405.755	857.55
406.133	853.71
406.511	870.88
406.889	872.91
407.267	911.78
407.645	916.3
408.023	917.66
408.401	924.21
408.779	921.28
409.156	967.38
409.534	968.96
409.912	963.08
410.29	985.91
410.667	1022.52
411.045	1032.23
411.422	997.21
411.8	1051.44
412.178	1056.19
412.555	1058.9
412.933	1105.45
413.31	1082.85
413.687	1109.07
414.065	1121.95
414.442	1117.2
414.819	1152.68
415.197	1155.62
415.574	1182.06
415.951	1194.71
416.328	1189.97
416.705	1214.15
417.082	1197.65
417.46	1244.66
417.837	1219.8
418.214	1256.63
418.591	1260.93
418.967	1265.22
419.344	1302.51
419.721	1320.59
420.098	1302.96
420.475	1337.76
420.852	1349.29
421.228	1378.66
421.605	1370.75
421.982	1416.4
422.358	1427.48
422.735	1418.21
423.111	1413.92
423.488	1453.69
423.864	1454.59
424.241	1476.51
424.617	1465.22
424.994	1513.58
425.37	1523.29
425.746	1528.94
426.123	1590.64
426.499	1569.85
426.875	1605.33
427.251	1612.78
427.627	1674.25
428.003	1637.87
428.379	1666.57
428.756	1700.24
429.132	1696.4
429.507	1740.24
429.883	1781.59
430.259	1778.65
430.635	1823.62
431.011	1825.88
431.387	1864.08
431.763	1911.31
432.138	1924.64
432.514	1944.53
432.89	1940.01
433.265	2010.06
433.641	2012.32
434.016	2042.83
434.392	2073.79
434.767	2078.53
435.143	2125.54
435.518	2144.07
435.894	2178.42
436.269	2196.04
436.644	2223.61
437.02	2250.05
437.395	2246.44
437.77	2286.89
438.145	2351.07
438.52	2339.77
438.895	2375.25
439.271	2391.75
439.646	2428.81
440.021	2437.39
440.395	2473.32
440.77	2432.87
441.145	2472.42
441.52	2518.75
441.895	2529.14
442.27	2573.66
442.645	2562.14
443.019	2622.93
443.394	2597.84
443.769	2631.51
444.143	2643.04
444.518	2669.7
444.892	2634.9
445.267	2690.27
445.641	2718.74
446.016	2751.96
446.39	2753.09
446.764	2799.64
447.139	2802.36
447.513	2798.51
447.887	2825.18
448.262	2838.51
448.636	2886.42
449.01	2973.88
449.384	2932.52
449.758	2950.15
450.132	2983.82
450.506	2977.49
450.88	3027.21
451.254	3029.69
451.628	3105.62
452.002	3116.92
452.376	3135.45
452.75	3194.89
453.123	3203.7
453.497	3265.62
453.871	3306.75
454.244	3327.77
454.618	3311.95
454.992	3429.46
455.365	3454.54
455.739	3489.8
456.112	3551.71
456.486	3630.13
456.859	3640.75
457.232	3647.31
457.606	3698.83
457.979	3742.67
458.352	3839.84
458.725	3874.42
459.099	3913.29
459.472	3979.27
459.845	3992.83
460.218	4057.46
460.591	4098.37
460.964	4109.89
461.337	4211.81
461.71	4241.64
462.083	4308.76
462.456	4307.85
462.829	4385.59
463.201	4490.9
463.574	4508.07
463.947	4540.62
464.32	4581.74
464.692	4717.33
465.065	4735.64
465.438	4782.87
465.81	4813.38
466.183	4912.13
466.555	5024.9
466.928	5057.66
467.3	5011.56
467.672	5172.91
468.045	5288.84
468.417	5272.57
468.789	5360.48
469.161	5360.71
469.534	5459.46
469.906	5549.18
470.278	5686.57
470.65	5722.96
471.022	5807.93
471.394	5991.2
471.766	6001.14
472.138	6061.71
472.51	6157.07
472.882	6294.92
473.253	6374.24
473.625	6380.79
473.997	6572.2
474.369	6629.6
474.74	6680.67
475.112	6862.36
475.484	6945.3
475.855	7062.13
476.227	7108.68
476.598	7312.07
476.97	7443.82
477.341	7569.46
477.713	7651.04
478.084	7680.42
478.455	8010.58
478.827	8034.08
479.198	8277.47
479.569	8257.81
479.94	8542.77
480.311	8655.76
480.682	8783.89
481.053	9009.42
481.424	9114.51
481.795	9231.34
482.166	9336.87
482.537	9474.95
482.908	9749.97
483.279	9828.39
483.65	9945.67
484.021	10132.11
484.391	10293.91
484.762	10343.85
485.133	10508.82
485.503	10631.3
485.874	10850.73
486.244	10996.49
486.615	11227.22
486.985	11294.79
487.356	11536.82
487.726	11646.19
488.097	11866.07
488.467	11932.74
488.837	12203.46
489.207	12333.86
489.578	12586.73
489.948	12634.64
490.318	12875.76
490.688	12895.65
491.058	13214.74
491.428	13283.89
491.798	13463.32
492.168	13788.73
492.538	13749.64
492.908	13953.02
493.278	14128.61
493.648	14119.12
494.017	14458.09
494.387	14530.63
494.757	14545.78
495.126	14793.9
495.496	14825.99
495.866	14935.14
496.235	15138.98
496.605	15332.87
496.974	15325.64
497.344	15538.07
497.713	15682.69
498.082	15754.11
498.452	15988.22
498.821	16110.93
499.19	16149.8
499.559	16265.28
499.928	16376.91
500.298	16577.13
500.667	16679.96
501.036	16678.15
501.405	16996.56
501.774	16829.11
502.143	17082.66
502.512	17160.4
502.88	17371.69
503.249	17358.13
503.618	17616.88
503.987	17619.14
504.356	17759.25
504.724	17872.69
505.093	17911.79
505.462	18087.6
505.83	18215.06
506.199	18405.79
506.567	18552.68
506.936	18570.53
507.304	18825.89
507.672	18903.85
508.041	19015.71
508.409	19215.94
508.777	19277.4
509.145	19525.08
509.514	19518.07
509.882	19604.85
510.25	19664.06
510.618	19939.08
510.986	20033.54
511.354	20236.47
511.722	20422.01
512.09	20669.46
512.458	20599.4
512.826	20816.57
513.193	20948.77
513.561	20981.31
513.929	21153.96
514.297	21434.41
514.664	21522.99
515.032	21699.94
515.4	21912.36
515.767	21952.81
516.135	22137.67
516.502	22107.84
516.869	22498.56
517.237	22617.65
517.604	22582.63
517.972	22927.48
518.339	23097.87
518.706	23171.99
519.073	23291.76
519.44	23533.11
519.808	23821.46
520.175	23813.1
520.542	24120.44
520.909	24255.12
521.276	24329.25
521.643	24689.92
522.009	24732.17
522.376	25024.6
522.743	25122.67
523.11	25424.36
523.477	25668.2
523.843	25915.65
524.21	26064.57
524.577	26311.34
524.943	26452.81
525.31	26565.57
525.676	26815.74
526.043	27021.61
526.409	27170.98
526.776	27581.14
527.142	27676.96
527.508	27942.71
527.874	28127.11
528.241	28287.34
528.607	28398.97
528.973	28658.4
529.339	28745.4
529.705	29042.34
530.071	29341.32
530.437	29459.28
530.803	29623.35
531.169	29789.67
531.535	29777.69
531.901	29843.45
532.267	30043.67
532.632	30284.34
532.998	30405.7
533.364	30701.74
533.73	30635.52
534.095	30930.43
534.461	30974.27
534.826	31174.49
535.192	31402.51
535.557	31622.39
535.923	31702.61
536.288	31726.34
536.653	31862.83
537.019	31921.14
537.384	32102.38
537.749	32165.65
538.114	32381.46
538.479	32434.57
538.845	32618.07
539.21	32516.15
539.575	32780.32
539.94	32806.31
540.305	33079.75
540.67	32893.09
541.034	33173.76
541.399	33315.68
541.764	33317.03
542.129	33425.51
542.494	33572.85
542.858	33642.22
543.223	33846.51
543.587	34082.66
543.952	34076.56
544.316	34214.86
544.681	34157.24
545.045	34303
545.41	34515.19
545.774	34562.65
546.138	34641.07
546.503	34761.06
546.867	34800.38
547.231	35143.43
547.595	35101.85
547.959	35472.23
548.324	35413.25
548.688	35563.08
549.052	35622.06
549.416	35750.42
549.779	35773.47
550.143	35947.92
550.507	36164.42
550.871	36292.55
551.235	36292.1
551.599	36560.34
551.962	36690.96
552.326	36756.49
552.689	37109.02
553.053	36987.45
553.417	37121
553.78	37584.49
554.143	37372.07
554.507	37624.72
554.87	37842.11
555.234	38035.78
555.597	37938.83
555.96	38101.77
556.323	38248.43
556.686	38342.66
557.05	38543.34
557.413	38713.95
557.776	38777.91
558.139	39165.92
558.502	39179.03
558.865	39354.61
559.228	39528.62
559.59	39709.18
559.953	39768.62
560.316	40249.96
560.679	40312.1
561.041	40549.39
561.404	40610.63
561.767	41037.06
562.129	40917.29
562.492	41356.82
562.854	41291.51
563.217	41496.93
563.579	41660.77
563.941	41871.16
564.304	42140.08
564.666	42351.6
565.028	42337.36
565.39	42560.63
565.753	42788.42
566.115	42834.75
566.477	42895.54
566.839	42993.62
567.201	43319.71
567.563	43471.34
567.925	43732.13
568.287	43772.35
568.648	43976.19
569.01	44248.95
569.372	44639.67
569.734	44481.94
570.095	44682.61
570.457	44972.77
570.819	45071.3
571.18	45209.83
571.542	45451.63
571.903	45413.66
572.265	45641.23
572.626	45843.94
572.987	45730.04
573.349	46069.92
573.71	46175.68
574.071	46346.52
574.432	46424.94
574.794	46797.36
575.155	46724.14
575.516	46773.4
575.877	46807.75
576.238	46931.82
576.599	47240.28
576.96	47223.33
577.32	47170.68
577.681	47309.89
578.042	47483.67
578.403	47619.48
578.763	47577.9
579.124	47697.9
579.485	47837.56
579.845	48065.8
580.206	47884.56
580.566	48098.57
580.927	48066.93
581.287	48271.89
581.648	48063.76
582.008	48296.98
582.368	48209.07
582.728	48400.25
583.089	48391.67
583.449	48315.51
583.809	48437.99
584.169	48577.42
584.529	48359.35
584.889	48745.1
585.249	48515.96
585.609	48292.91
585.969	48784.2
586.329	48628.27
586.688	48533.81
587.048	48552.79
587.408	48485.22
587.768	48444.55
588.127	48513.02
588.487	48495.17
588.846	48789.85
589.206	48602.51
589.565	48628.27
589.925	48728.15
590.284	48603.86
590.643	48776.29
591.003	48717.08
591.362	48869.84
591.721	48804.31
592.08	48768.38
592.44	48833.01
592.799	48859
593.158	48786.46
593.517	48770.19
593.876	48855.83
594.235	48786.68
594.593	48790.53
594.952	48888.6
595.311	48805.67
595.67	48855.38
596.029	49089.27
596.387	49028.26
596.746	49146.67
597.104	48954.59
597.463	48971.09
597.822	49248.59
598.18	48949.62
598.538	49009.05
598.897	49286.56
599.255	48909.62
599.613	49430.51
599.972	49221.93
600.33	49311.42
600.688	49266.44
601.046	49280.91
601.404	49563.84
601.762	49413.79
602.12	49603.39
602.478	49648.81
602.836	49643.16
603.194	49591.86
603.552	49636.83
603.91	49604.97
604.268	49731.29
604.625	49785.98
604.983	49905.98
605.341	49730.39
605.698	49875.02
606.056	49984.17
606.413	49950.72
606.771	50089.93
607.128	50105.07
607.485	49957.27
607.843	50041.11
608.2	50275.23
608.557	50273.88
608.914	50132.18
609.272	50355.46
609.629	50342.12
609.986	50479.29
610.343	50311.84
610.7	50591.38
611.057	50484.27
611.414	50422.35
611.771	50418.28
612.127	50594.09
612.484	50528.33
612.841	50686.97
613.198	50592.51
613.554	50604.26
613.911	50791.38
614.267	50737.82
614.624	50758.16
614.98	50886.97
615.337	50946.63
615.693	50887.65
616.05	50866.18
616.406	51089.45
616.762	50861.21
617.118	50900.53
617.475	51070.24
617.831	50950.92
618.187	51017.13
618.543	51055.1
618.899	51174.64
619.255	51068.66
619.611	51197.69
619.967	51310.23
620.323	51380.06
620.678	51276.56
621.034	51166.28
621.39	51180.97
621.746	51190.01
622.101	51452.38
622.457	51263
622.812	51275.66
623.168	51480.62
623.523	51430.68
623.879	51503.22
624.234	51278.14
624.589	51333.51
624.945	51431.36
625.3	51531.02
625.655	51430.68
626.01	51452.15
626.365	51435.65
626.72	51386.61
627.075	51393.85
627.43	51320.4
627.785	51413.73
628.14	51346.39
628.495	51444.24
628.85	51384.58
629.205	51195.66
629.559	51337.12
629.914	51257.35
630.269	51224.13
630.623	51195.21
630.978	51074.53
631.332	51250.57
631.687	51282.44
632.041	51030.92
632.396	51287.18
632.75	51087.41
633.104	51089
633.459	51019.17
633.813	50921.54
634.167	50952.28
634.521	50854.43
634.875	50983.01
635.229	50914.76
635.583	50721.32
635.937	50727.65
636.291	50766.52
636.645	50705.73
636.999	50692.17
637.352	50802.68
637.706	50510.48
638.06	50718.16
638.413	50406.3
638.767	50370.37
639.121	50612.17
639.474	50260.32
639.828	50292.18
640.181	50253.99
640.534	50282.24
640.888	50209.92
641.241	50006.76
641.594	50099.87
641.947	50242.01
642.301	50039.08
642.654	50169.47
643.007	50046.54
643.36	49989.36
643.713	49860.78
644.066	50028.91
644.419	49897.61
644.771	49461.47
645.124	49160.68
645.477	49118.65
645.83	48970.18
646.182	48760.24
646.535	48630.53
646.888	48704.43
647.24	48503.53
647.593	48771.54
647.945	48518.22
648.298	48330.2
648.65	48290.65
649.002	48180.37
649.355	48479.8
649.707	48228.73
650.059	48409.74
650.411	48843.4
650.763	48828.72
651.115	49211.3
651.467	48995.27
651.819	48937.87
652.171	48963.63
652.523	49019.9
652.875	48817.19
653.227	48772.22
653.578	49046.79
653.93	48754.82
654.282	48630.98
654.633	48611.55
654.985	48588.5
655.337	48639.57
655.688	48599.8
656.039	48693.58
656.391	48273.93
656.742	48379.91
657.094	48372.91
657.445	48400.03
657.796	48409.74
658.147	48296.75
658.498	48262.4
658.849	48442.29
659.2	48206.13
659.551	48279.58
659.902	48276.64
660.253	48302.63
660.604	48363.42
660.955	48144.44
661.306	48297.2
661.656	47998.68
662.007	48134.05
662.358	48002.3
662.708	47995.07
663.059	47839.14
663.409	47827.84
663.76	48132.69
664.11	48108.06
664.461	48120.49
664.811	48136.76
665.161	48093.59
665.511	47819.25
665.862	47889.53
666.212	47933.37
666.562	47955.29
666.912	47878.23
667.262	47753.26
667.612	47650.44
667.962	47760.27
668.312	47617.9
668.662	47811.79
669.011	47712.14
669.361	47565.25
669.711	47497.45
670.06	47441.18
670.41	47441.41
670.76	47371.58
671.109	47370
671.459	47363.44
671.808	47282.32
672.157	47432.59
672.507	47266.5
672.856	47110.57
673.205	47293.84
673.554	47269.21
673.904	47084.13
674.253	47327.06
674.602	47233.05
674.951	46650.24
675.3	46529.57
675.649	47098.82
675.998	47047.97
676.346	47125.94
676.695	47149.21
677.044	46812.5
677.393	46927.75
677.741	46860.41
678.09	46883.23
678.438	46845.94
678.787	46934.08
679.135	46932.72
679.484	46539.96
679.832	46728.88
680.181	46600.07
680.529	46538.83
680.877	46606.18
681.225	46307.88
681.573	46779.05
681.922	46360.08
682.27	46352.17
682.618	46177.26
682.966	46100.2
683.314	46211.61
683.661	45941.33
684.009	45857.49
684.357	45638.74
684.705	45769.59
685.053	45768.46
685.4	45609.14
685.748	45527.56
686.095	45437.39
686.443	45288.24
686.79	45343.16
687.138	45400.78
687.485	45338.41
687.832	45101.58
688.18	45090.96
688.527	44938.2
688.874	44949.5
689.221	44821.59
689.568	44671.09
689.915	44489.62
690.262	44397.65
690.609	44432.22
690.956	44295.73
691.303	44269.06
691.65	44101.83
691.997	44104.77
692.344	43710.88
692.69	43665.69
693.037	43685.8
693.383	43434.06
693.73	43512.25
694.077	43281.07
694.423	43196.1
694.769	43037.46
695.116	43057.79
695.462	43090.11
695.808	42876.78
696.155	42961.75
696.501	42509.79
696.847	42672.27
697.193	42198.61
697.539	42560.41
697.885	42179.17
698.231	42028.89
698.577	42052.17
698.923	41862.57
699.269	41713.2
699.614	41622.58
699.96	41580.77
700.306	41437.5
700.651	41190.72
700.997	41237.5
701.342	41225.75
701.688	41046.77
702.033	40870.96
702.379	40895.37
702.724	40698.53
703.069	40830.73
703.415	40447.47
703.76	40460.12
704.105	40546.22
704.45	40377.86
704.795	40141.03
705.14	40116.85
705.485	40067.59
705.83	40010.87
706.175	40006.8
706.52	39849.97
706.865	39704.89
707.209	39660.6
707.554	39477.55
707.899	39491.33
708.243	39285.46
708.588	39129.54
708.932	39093.38
709.277	38963.21
709.621	38978.81
709.966	38717.12
710.31	38729.55
710.654	38501.08
710.998	38723.45
711.342	38551.02
711.687	38447.97
712.031	38259.28
712.375	38253.4
712.719	38219.05
713.063	38197.13
713.407	38229.9
713.75	38098.15
714.094	37872.17
714.438	37764.83
714.782	37803.24
715.125	37658.16
715.469	37715.79
715.812	37473.76
716.156	37342.24
716.499	37385.4
716.843	37415
717.186	37128.68
717.53	37355.12
717.873	37096.37
718.216	36986.54
718.559	36962.14
718.902	36715.36
719.246	36796.49
719.589	36569.38
719.932	36331.42
720.275	36651.86
720.617	36372.09
720.96	36364.64
721.303	36398.76
721.646	36337.07
721.989	36147.69
722.331	36170.97
722.674	36069.28
723.016	36078.32
723.359	35914.48
723.701	36016.62
724.044	35706.58
724.386	35436.3
724.729	35551.78
725.071	35384.32
725.413	35490.99
725.755	35477.2
726.097	35182.52
726.439	35147.04
726.782	35086.25
727.124	35177.78
727.465	34933.94
727.807	35038.57
728.149	34914.96
728.491	34756.77
728.833	34741.18
729.175	34612.59
729.516	34663.44
729.858	34509.32
730.199	34421.86
730.541	34365.37
730.882	34336.89
731.224	34458.47
731.565	34303
731.906	34152.72
732.248	34190.46
732.589	33978.71
732.93	33996.79
733.271	33852.61
733.612	34007.86
733.953	34013.96
734.294	33904.59
734.635	33754.31
734.976	33786.85
735.317	33636.35
735.658	33536.01
735.999	33640.19
736.339	33572.39
736.68	33486.07
737.021	33521.1
737.361	33496.46
737.702	33486.97
738.042	33326.3
738.383	33277.94
738.723	33254.66
739.063	33040.88
739.404	33098.51
739.744	33081.56
740.084	32940.32
740.424	32897.61
740.764	32780.78
741.104	32793.88
741.444	32690.61
741.784	32572.65
742.124	32609.71
742.464	32555.7
742.804	32487.9
743.143	32453.78
743.483	32332.43
743.823	32221.7
744.162	32160.23
744.502	32171.98
744.841	32056.95
745.181	32284.74
745.52	32097.18
745.86	32082.94
746.199	32019.89
746.538	31923.85
746.877	31902.38
747.216	31927.69
747.556	31766.57
747.895	31731.76
748.234	31646.8
748.573	31555.72
748.911	31471.66
749.25	31597.53
749.589	31393.69
749.928	31444.77
750.267	31470.53
750.605	31393.02
750.944	31253.81
751.283	31183.76
751.621	31211.55
751.96	31032.35
752.298	30997.32
752.636	30981.05
