Data from aluminium_surface_pro_back_FLMS001491_00002.txt Node
Date: Wed Feb 08 15:33:29 GMT 2017
User: dcchb
Spectrometer: FLMS00149
Trigger mode: 0
Integration Time (sec): 2.000000E-2
Scans to average: 10
Electric dark correction enabled: true
Nonlinearity correction enabled: false
Boxcar width: 0
XAxis mode: Wavelengths
Number of Pixels in Spectrum: 2048
>>>>>Begin Spectral Data<<<<<
341.393	5.59
341.776	5.59
342.16	5.59
342.543	-36.21
342.927	-59.72
343.31	-85.25
343.693	-64.24
344.077	-69.89
344.46	-50.45
344.843	-59.94
345.226	-38.25
345.61	-33.95
345.993	-20.62
346.376	15.31
346.759	10.79
347.142	28.87
347.525	47.63
347.908	70.9
348.291	55.54
348.674	81.98
349.057	111.58
349.44	120.39
349.823	155.87
350.206	184.57
350.588	201.52
350.971	218.02
351.354	241.29
351.737	274.51
352.119	289.65
352.502	284
352.884	298.69
353.267	302.53
353.65	321.74
354.032	317.45
354.414	338.47
354.797	347.73
355.179	352.02
355.562	357.22
355.944	355.87
356.326	375.07
356.709	361.97
357.091	374.17
357.473	395.41
357.855	379.37
358.238	386.15
358.62	364.45
359.002	374.4
359.384	355.41
359.766	382.08
360.148	376.2
360.53	373.04
360.912	366.26
361.294	368.97
361.676	359.03
362.057	378.92
362.439	372.14
362.821	376.2
363.203	378.01
363.584	374.85
363.966	362.65
364.348	357.9
364.729	356.09
365.111	354.06
365.493	391.57
365.874	376.43
366.256	395.64
366.637	355.87
367.019	357.67
367.4	375.07
367.781	371.01
368.163	368.3
368.544	360.16
368.925	385.92
369.306	359.26
369.688	392.7
370.069	375.53
370.45	362.42
370.831	375.98
371.212	361.97
371.593	377.33
371.974	371.46
372.355	376.88
372.736	387.05
373.117	381.63
373.498	372.36
373.879	381.18
374.26	408.97
374.641	375.53
375.021	404.45
375.402	390.22
375.783	410.55
376.163	449.42
376.544	405.58
376.925	390.89
377.305	419.82
377.686	408.07
378.066	403.1
378.447	433.83
378.827	433.83
379.208	417.11
379.588	422.08
379.968	425.7
380.349	438.35
380.729	455.98
381.109	441.29
381.489	437.67
381.87	452.36
382.25	455.52
382.63	448.52
383.01	459.59
383.39	462.53
383.77	456.2
384.15	454.39
384.53	451.68
384.91	488.07
385.29	491.91
385.67	479.7
386.049	495.52
386.429	505.69
386.809	493.49
387.189	502.08
387.568	487.61
387.948	512.02
388.328	525.58
388.707	543.66
389.087	553.15
389.466	559.25
389.846	560.15
390.225	557.67
390.605	574.17
390.984	547.73
391.363	567.16
391.743	583.21
392.122	570.32
392.501	604.9
392.881	582.53
393.26	578.69
393.639	624.56
394.018	621.4
394.397	626.59
394.776	627.5
395.155	630.21
395.534	649.19
395.913	671.11
396.292	639.02
396.671	667.95
397.05	681.96
397.429	677.44
397.808	669.98
398.186	678.57
398.565	705.91
398.944	684.22
399.323	694.39
399.701	720.38
400.08	734.84
400.458	717.21
400.837	733.26
401.215	766.25
401.594	734.16
401.972	781.62
402.351	790.43
402.729	764.22
403.107	800.15
403.486	807.38
403.864	815.74
404.242	797.44
404.62	832.24
404.999	843.09
405.377	840.6
405.755	857.32
406.133	862.97
406.511	878.34
406.889	888.51
407.267	912.24
407.645	894.84
408.023	918.34
408.401	928.73
408.779	935.74
409.156	954.27
409.534	974.61
409.912	980.03
410.29	1000.14
410.667	1024.78
411.045	1046.47
411.422	1035.4
411.8	1044.21
412.178	1071.55
412.555	1078.79
412.933	1089.18
413.31	1116.98
413.687	1130.99
414.065	1140.93
414.442	1126.69
414.819	1181.61
415.197	1179.12
415.574	1177.31
415.951	1219.57
416.328	1207.6
416.705	1216.86
417.082	1246.69
417.46	1257.09
417.837	1274.71
418.214	1274.94
418.591	1269.29
418.967	1292.11
419.344	1334.15
419.721	1349.51
420.098	1334.6
420.475	1357.87
420.852	1361.72
421.228	1384.09
421.605	1380.02
421.982	1395.39
422.358	1412.56
422.735	1466.8
423.111	1419.12
423.488	1484.88
423.864	1502.28
424.241	1519.9
424.617	1525.33
424.994	1532.33
425.37	1539.79
425.746	1574.37
426.123	1601.71
426.499	1619.11
426.875	1648.71
427.251	1639
427.627	1670.41
428.003	1690.97
428.379	1722.38
428.756	1717.64
429.132	1771.2
429.507	1792.66
429.883	1805.09
430.259	1838.31
430.635	1863.85
431.011	1850.74
431.387	1882.15
431.763	1955.15
432.138	1948.59
432.514	1987.24
432.89	1985.2
433.265	2047.12
433.641	2094.35
434.016	2087.35
434.392	2092.77
434.767	2168.7
435.143	2146.1
435.518	2182.71
435.894	2244.18
436.269	2265.87
436.644	2256.83
437.02	2267.68
437.395	2303.84
437.77	2330.05
438.145	2387.9
438.52	2391.97
438.895	2396.04
439.271	2442.82
439.646	2512.42
440.021	2476.71
440.395	2506.77
440.77	2473.78
441.145	2544.74
441.52	2573.44
441.895	2594.68
442.27	2586.09
442.645	2600.55
443.019	2651.85
443.394	2660.21
443.769	2724.84
444.143	2682.36
444.518	2763.71
444.892	2728.46
445.267	2779.53
445.641	2790.38
446.016	2803.03
446.39	2875.8
446.764	2858.63
447.139	2883.94
447.513	2889.13
447.887	2915.8
448.262	2929.36
448.636	2961.45
449.01	2998.51
449.384	3061.78
449.758	3057.26
450.132	3106.08
450.506	3088
450.88	3118.96
451.254	3118.28
451.628	3161.89
452.002	3220.65
452.376	3233.08
452.75	3292.06
453.123	3316.92
453.497	3398.27
453.871	3402.34
454.244	3420.87
454.618	3474.2
454.992	3497.25
455.365	3544.71
455.739	3654.76
456.112	3680.52
456.486	3674.65
456.859	3680.75
457.232	3774.31
457.606	3816.79
457.979	3880.52
458.352	3933.4
458.725	3989.9
459.099	3978.37
459.472	4100.17
459.845	4105.82
460.218	4174.3
460.591	4212.26
460.964	4211.36
461.337	4311.69
461.71	4414.97
462.083	4489.32
462.456	4460.39
462.829	4479.37
463.201	4550.33
463.574	4601.86
463.947	4694.74
464.32	4749.88
464.692	4832.13
465.065	4823.09
465.438	4910.32
465.81	4996.65
466.183	5045.23
466.555	5128.85
466.928	5174.04
467.3	5229.41
467.672	5321.84
468.045	5399.35
468.417	5386.69
468.789	5469.18
469.161	5527.71
469.534	5679.34
469.906	5752.33
470.278	5850.19
470.65	5847.93
471.022	6009.95
471.394	6093.79
471.766	6134.47
472.138	6214.7
472.51	6353.9
472.882	6444.29
473.253	6527.68
473.625	6643.38
473.997	6756.38
474.369	6785.53
474.74	6845.64
475.112	7038.63
475.484	7107.33
475.855	7300.54
476.227	7320.65
476.598	7583.92
476.97	7630.03
477.341	7766.07
477.713	7913.18
478.084	7972.39
478.455	8254.87
478.827	8320.18
479.198	8553.84
479.569	8524.01
479.94	8789.32
480.311	8877.45
480.682	9072.47
481.053	9235.18
481.424	9431.79
481.795	9522.63
482.166	9657.77
482.537	9811.44
482.908	9988.16
483.279	10145.44
483.65	10291.2
484.021	10452.32
484.391	10618.87
484.762	10686.44
485.133	10830.85
485.503	10960.33
485.874	11191.29
486.244	11314.22
486.615	11508.57
486.985	11699.75
487.356	11951.95
487.726	12045.05
488.097	12269
488.467	12239.62
488.837	12552.61
489.207	12707.63
489.578	12838.25
489.948	13015.19
490.318	13210.9
490.688	13240.73
491.058	13501.51
491.428	13634.39
491.798	13792.35
492.168	14089.06
492.538	14140.81
492.908	14325.22
493.278	14479.79
493.648	14555.27
494.017	14744.41
494.387	14884.75
494.757	15063.05
495.126	15171.07
495.496	15254.68
495.866	15333.33
496.235	15524.73
496.605	15720.89
496.974	15819.19
497.344	15921.56
497.713	16031.84
498.082	16154.77
498.452	16454.88
498.821	16374.43
499.19	16467.76
499.559	16790.01
499.928	16870.69
500.298	16997.91
500.667	17155.88
501.036	17086.5
501.405	17285.14
501.774	17304.35
502.143	17519.71
502.512	17688.07
502.88	17775.07
503.249	17822.3
503.618	18050.32
503.987	18062.75
504.356	18116.3
504.724	18270.88
505.093	18368.27
505.462	18447.37
505.83	18692.79
506.199	18828.15
506.567	18953.57
506.936	19112.21
507.304	19313.11
507.672	19407.12
508.041	19575.47
508.409	19671.74
508.777	19883.04
509.145	20007.33
509.514	20107.66
509.882	20249.58
510.25	20397.83
510.618	20517.6
510.986	20595.79
511.354	20780.19
511.722	20942.44
512.09	21204.58
512.458	21266.05
512.826	21424.01
513.193	21619.71
513.561	21578.36
513.929	21932.25
514.297	22146.03
514.664	22193.26
515.032	22295.85
515.4	22550.31
515.767	22677.54
516.135	22819.68
516.502	22741.72
516.869	23164.98
517.237	23234.36
517.604	23306.22
517.972	23586.22
518.339	23663.5
518.706	23753.9
519.073	23881.8
519.44	24084.73
519.808	24496.47
520.175	24459.41
520.542	24711.61
520.909	24865.5
521.276	24971.26
521.643	25206.96
522.009	25413.29
522.376	25598.59
522.743	25746.39
523.11	26014.4
523.477	26272.93
523.843	26500.26
524.21	26783.87
524.577	27048.05
524.943	27173.24
525.31	27264.09
525.676	27576.62
526.043	27702.72
526.409	27881.47
526.776	28229.94
527.142	28460.21
527.508	28509.48
527.874	28685.74
528.241	28938.84
528.607	29045.06
528.973	29310.13
529.339	29264.94
529.705	29704.93
530.071	29907.86
530.437	30009.1
530.803	30153.5
531.169	30380.16
531.535	30417.22
531.901	30632.36
532.267	30738.8
532.632	30913.48
532.998	30945.12
533.364	31119.35
533.73	31331.78
534.095	31609.73
534.461	31698.55
534.826	31852.44
535.192	32128.82
535.557	32350.96
535.923	32234.8
536.288	32396.38
536.653	32457.85
537.019	32477.51
537.384	32771.74
537.749	32936.93
538.114	32958.4
538.479	33079.07
538.845	33409.91
539.21	33346.86
539.575	33478.39
539.94	33581.21
540.305	33825.27
540.67	33826.4
541.034	34014.87
541.399	34110.23
541.764	34232.04
542.129	34381.64
542.494	34365.82
542.858	34511.13
543.223	34661.86
543.587	34839.48
543.952	34880.38
544.316	35074.73
544.681	34916.31
545.045	35138.91
545.41	35434.27
545.774	35401.05
546.138	35598.56
546.503	35697.99
546.867	35629.52
547.231	36049.39
547.595	36074.25
547.959	36210.52
548.324	36301.14
548.688	36327.12
549.052	36483.28
549.416	36682.14
549.779	36846.21
550.143	36818.18
550.507	37218.17
550.871	37217.27
551.235	37237.38
551.599	37425.4
551.962	37513.53
552.326	37511.95
552.689	37763.47
553.053	37765.73
553.417	37760.53
553.78	38349.9
554.143	38271.93
554.507	38410.01
554.87	38635.54
555.234	38870.56
555.597	38786.95
555.96	38843.89
556.323	39023.1
556.686	39162.53
557.05	39507.38
557.413	39599.35
557.776	39762.29
558.139	40012
558.502	40157.53
558.865	40200.92
559.228	40583.51
559.59	40706.44
559.953	40767.01
560.316	41157.51
560.679	41133.33
561.041	41397.73
561.404	41648.57
561.767	41931.72
562.129	41848.79
562.492	42317.47
562.854	42306.18
563.217	42335.78
563.579	42727.41
563.941	42831.81
564.304	43001.07
564.666	43276.55
565.028	43311.8
565.39	43511.12
565.753	43790.43
566.115	43964.66
566.477	44157.88
566.839	44206.92
567.201	44620.01
567.563	44618.66
567.925	44878.54
568.287	44853
568.648	45088.7
569.01	45365.76
569.372	45549.25
569.734	45499.99
570.095	45808.91
570.457	45866.76
570.819	46046.42
571.18	46149.01
571.542	46328.67
571.903	46386.07
572.265	46457.48
572.626	46762.56
572.987	46913.51
573.349	46920.97
573.71	47280.96
574.071	47430.79
574.432	47502.42
574.794	47709.2
575.155	47765.02
575.516	47663.1
575.877	47838.23
576.238	47910.32
576.599	48216.98
576.96	48095.85
577.32	48212.24
577.681	48290.65
578.042	48552.11
578.403	48534.49
578.763	48480.02
579.124	48708.04
579.485	48768.83
579.845	48739.68
580.206	48881.14
580.566	48906.23
580.927	49094.7
581.287	49188.48
581.648	49012.89
582.008	49170.85
582.368	49209.27
582.728	49337.63
583.089	49305.99
583.449	49285.65
583.809	49324.07
584.169	49480.45
584.529	49383.28
584.889	49627.57
585.249	49507.79
585.609	49413.79
585.969	49597.96
586.329	49407.91
586.688	49411.07
587.048	49407.91
587.408	49441.58
587.768	49460.56
588.127	49514.12
588.487	49485.65
588.846	49739.43
589.206	49500.56
589.565	49579.66
589.925	49680.67
590.284	49553.89
590.643	49729.03
591.003	49853.55
591.362	49925.86
591.721	49762.7
592.08	49815.13
592.44	50048.35
592.799	49905.3
593.158	49792.76
593.517	49728.13
593.876	49884.06
594.235	49811.06
594.593	49853.1
594.952	50002.92
595.311	49893.09
595.67	49967.22
596.029	50171.73
596.387	50235.68
596.746	50222.8
597.104	49977.39
597.463	50073.2
597.822	50194.78
598.18	49964.73
598.538	50098.29
598.897	50282.24
599.255	50032.07
599.613	50546.64
599.972	50244.95
600.33	50402.69
600.688	50241.56
601.046	50403.36
601.404	50515.9
601.762	50560.87
602.12	50587.77
602.478	50650.59
602.836	50673.87
603.194	50509.58
603.552	50569.69
603.91	50477.03
604.268	50739.85
604.625	50609.46
604.983	50762.45
605.341	50560.65
605.698	50757.48
606.056	50827.08
606.413	50817.82
606.771	50858.04
607.128	51017.36
607.485	50742.11
607.843	50860.3
608.2	51018.26
608.557	51044.93
608.914	51012.61
609.272	51165.38
609.629	51104.81
609.986	51287.63
610.343	51181.87
610.7	51343.23
611.057	51255.54
611.414	51199.95
611.771	51162.67
612.127	51371.02
612.484	51269.1
612.841	51410.34
613.198	51333.96
613.554	51384.58
613.911	51555.65
614.267	51533.05
614.624	51587.51
614.98	51700.73
615.337	51789.09
615.693	51768.98
616.05	51664.57
616.406	51944.34
616.762	51788.86
617.118	51730.33
617.475	51690.11
617.831	51897.11
618.187	51893.49
618.543	51884.45
618.899	52066.37
619.255	52100.72
619.611	51996.54
619.967	52167.39
620.323	52207.84
620.678	52028.41
621.034	52027.05
621.39	52021.85
621.746	51888.07
622.101	52258.23
622.457	51933.04
622.812	52084.45
623.168	52159.25
623.523	52000.16
623.879	52160.38
624.234	51959.48
624.589	52058.69
624.945	52111.34
625.3	52162.41
625.655	52019.14
626.01	52145.01
626.365	52031.12
626.72	51997.45
627.075	51987.5
627.43	51968.29
627.785	51924.23
628.14	51993.6
628.495	51916.09
628.85	51955.87
629.205	51861.86
629.559	52050.33
629.914	51938.69
630.269	51994.73
630.623	51925.13
630.978	51840.39
631.332	52034.06
631.687	51931.23
632.041	51785.25
632.396	51942.76
632.75	51675.65
633.104	51804.68
633.459	51689.21
633.813	51686.95
634.167	51605.14
634.521	51682.65
634.875	51592.94
635.229	51464.35
635.583	51319.27
635.937	51350.23
636.291	51335.32
636.645	51329.22
636.999	51223.23
637.352	51388.87
637.706	51194.08
638.06	51303.45
638.413	51264.13
638.767	51064.14
639.121	51159.73
639.474	50993.18
639.828	50951.82
640.181	50911.15
640.534	50987.3
640.888	50944.59
641.241	50704.15
641.594	50702.34
641.947	50798.83
642.301	50688.1
642.654	50676.13
643.007	50683.13
643.36	50673.87
643.713	50567.2
644.066	50660.98
644.419	50462.35
644.771	50202.92
645.124	49882.7
645.477	49884.73
645.83	49606.55
646.182	49524.52
646.535	49480.9
646.888	49487
647.24	49233.68
647.593	49378.31
647.945	49250.63
648.298	49052.21
648.65	49096.05
649.002	49027.35
649.355	49178.99
649.707	49019.9
650.059	49295.6
650.411	49734.68
650.763	49787.11
651.115	50031.4
651.467	49833.66
651.819	49917.73
652.171	49807.9
652.523	49814.68
652.875	49794.34
653.227	49561.13
653.578	49883.6
653.93	49710.5
654.282	49495.82
654.633	49421.69
654.985	49370.62
655.337	49456.72
655.688	49448.13
656.039	49499.43
656.391	49173.57
656.742	49237.07
657.094	49281.13
657.445	49291.08
657.796	49037.07
658.147	49155.94
658.498	49174.02
658.849	49121.82
659.2	49136.28
659.551	49035.94
659.902	49202.49
660.253	48978.99
660.604	49157.07
660.955	48865.1
661.306	49031.65
661.656	48939.45
662.007	48862.61
662.358	48965.44
662.708	48921.14
663.059	48774.48
663.409	48635.27
663.76	48854.7
664.11	48736.97
664.461	48877.3
664.811	48809.51
665.161	48574.94
665.511	48592.79
665.862	48527.93
666.212	48720.47
666.562	48655.61
666.912	48536.75
667.262	48469.4
667.612	48314.38
667.962	48517.54
668.312	48417.2
668.662	48576.07
669.011	48486.58
669.361	48377.65
669.711	48290.43
670.06	48289.52
670.41	48218.56
670.76	48222.86
671.109	48392.12
671.459	48299.69
671.808	48179.92
672.157	48298.11
672.507	48198.45
672.856	48150.77
673.205	48133.14
673.554	48268.5
673.904	48282.06
674.253	48373.81
674.602	48201.84
674.951	47621.97
675.3	47358.7
675.649	47979.47
675.998	48034.16
676.346	47939.02
676.695	48100.6
677.044	47574.96
677.393	47771.79
677.741	47817.9
678.09	47625.36
678.438	47504.46
678.787	47689.99
679.135	47679.37
679.484	47407.06
679.832	47451.35
680.181	47280.51
680.529	47537.9
680.877	47332.48
681.225	47156.22
681.573	47362.99
681.922	47016.79
682.27	47099.95
682.618	47109.89
682.966	46924.81
683.314	47173.84
683.661	46901.76
684.009	46731.37
684.357	46674.42
684.705	46589
685.053	46654.54
685.4	46562.11
685.748	46323.92
686.095	46296.81
686.443	46170.93
686.79	46019.75
687.138	46185.62
687.485	46316.92
687.832	45900.88
688.18	45911.73
688.527	45824.28
688.874	45718.52
689.221	45657.5
689.568	45566.88
689.915	45387.9
690.262	45324.85
690.609	45369.82
690.956	45132.99
691.303	45124.86
691.65	45050.06
691.997	44954.24
692.344	44687.58
692.69	44662.72
693.037	44700.92
693.383	44368.27
693.73	44578.88
694.077	44264.77
694.423	44165.11
694.769	44204.43
695.116	44126.24
695.462	43907.04
695.808	43821.62
696.155	43978.45
696.501	43321.97
696.847	43612.58
697.193	43210.78
697.539	43351.35
697.885	43112.93
698.231	43089.88
698.577	42929.89
698.923	42752.94
699.269	42721.76
699.614	42499.84
699.96	42401.31
700.306	42462.56
700.651	42160.42
700.997	41925.39
701.342	42028.89
701.688	41974.89
702.033	41852.63
702.379	41722.46
702.724	41582.35
703.069	41705.97
703.415	41285.64
703.76	41223.72
704.105	41385.75
704.45	41187.34
704.795	40938.75
705.14	40790.28
705.485	40668.93
705.83	40502.61
706.175	40593
706.52	40552.78
706.865	40471.87
707.209	40251.31
707.554	40196.85
707.899	40103.07
708.243	40028.27
708.588	39966.8
708.932	39614.04
709.277	39575.17
709.621	39527.49
709.966	39277.55
710.31	39543.99
710.654	39107.39
710.998	39124.11
711.342	39025.13
711.687	39007.96
712.031	38858.36
712.375	38656.78
712.719	38802.31
713.063	38556.22
713.407	38789.43
713.75	38592.15
714.094	38481.19
714.438	38224.02
714.782	38376.79
715.125	38186.74
715.469	38181.09
715.812	38011.83
716.156	37909.46
716.499	37873.75
716.843	37867.65
717.186	37739.52
717.53	37950.36
717.873	37871.94
718.216	37671.95
718.559	37534.1
718.902	37310.6
719.246	37333.65
719.589	37233.31
719.932	37070.61
720.275	36982.47
720.617	36976.37
720.96	36956.03
721.303	36923.27
721.646	36880.78
721.989	36699.09
722.331	36770.73
722.674	36644.18
723.016	36589.26
723.359	36537.51
723.701	36597.63
724.044	36141.82
724.386	36194.7
724.729	36319.44
725.071	36293.9
725.413	36222.04
725.755	36310.63
726.097	35942.05
726.439	35850.3
726.782	35897.08
727.124	35930.07
727.465	35737.76
727.807	35647.37
728.149	35580.7
728.491	35444.66
728.833	35549.29
729.175	35449.63
729.516	35342.52
729.858	35234.05
730.199	35212.8
730.541	35220.71
730.882	35028.18
731.224	35162.86
731.565	35034.05
731.906	34934.84
732.248	34928.52
732.589	34865.69
732.93	34547.51
733.271	34544.35
733.612	34629.77
733.953	34600.39
734.294	34417.12
734.635	34335.54
734.976	34462.77
735.317	34235.65
735.658	34285.14
735.999	34063.45
736.339	33999.95
736.68	34162.21
737.021	34079.5
737.361	33905.27
737.702	34097.58
738.042	33875.44
738.383	33652.62
738.723	33787.76
739.063	33681.77
739.404	33744.37
739.744	33623.24
740.084	33423.92
740.424	33634.77
740.764	33385.28
741.104	33566.07
741.444	33346.86
741.784	33248.56
742.124	33431.83
742.464	33201.56
742.804	33181.67
743.143	33099.41
743.483	33166.76
743.823	32933.99
744.162	32905.74
744.502	32797.5
744.841	32732.42
745.181	32884.5
745.52	32606.77
745.86	32716.82
746.199	32597.73
746.538	32574.68
746.877	32527.45
747.216	32535.59
747.556	32258.3
747.895	32330.62
748.234	32102.83
748.573	32095.6
748.911	32065.09
749.25	31944.64
749.589	31834.59
749.928	31901.7
750.267	31786.23
750.605	31714.14
750.944	31592.79
751.283	31539.91
751.621	31672.56
751.96	31343.3
752.298	31346.46
752.636	31252.46
752.975	31070.76
