Data from aluminium_surface_pro_back_FLMS001491_00026.txt Node
Date: Wed Feb 08 15:33:50 GMT 2017
User: dcchb
Spectrometer: FLMS00149
Trigger mode: 0
Integration Time (sec): 2.000000E-2
Scans to average: 10
Electric dark correction enabled: true
Nonlinearity correction enabled: false
Boxcar width: 0
XAxis mode: Wavelengths
Number of Pixels in Spectrum: 2048
>>>>>Begin Spectral Data<<<<<
341.393	-3.94
341.776	-3.94
342.16	-3.94
342.543	-60.21
342.927	-75.58
343.31	-73.77
343.693	-73.77
344.077	-71.28
344.46	-50.04
344.843	-63.37
345.226	-31.74
345.61	-17.27
345.993	-18.18
346.376	-10.27
346.759	13.01
347.142	25.21
347.525	50.75
347.908	52.33
348.291	70.41
348.674	78.32
349.057	119.67
349.44	121.48
349.823	168.71
350.206	152.21
350.588	222.04
350.971	241.93
351.354	251.42
351.737	275.6
352.119	301.81
352.502	274.92
352.884	294.81
353.267	306.33
353.65	313.79
354.032	346.33
354.414	349.27
354.797	352.66
355.179	340.23
355.562	350.17
355.944	341.14
356.326	364.64
356.709	387.69
357.091	375.94
357.473	378.2
357.855	373.22
358.238	369.61
358.62	381.36
359.002	375.71
359.384	361.93
359.766	375.26
360.148	359.44
360.53	389.27
360.912	366.45
361.294	358.08
361.676	375.94
362.057	398.53
362.439	380.91
362.821	369.61
363.203	384.07
363.584	388.82
363.966	396.27
364.348	383.85
364.729	377.74
365.111	391.76
365.493	362.38
365.874	375.94
366.256	387.69
366.637	359.67
367.019	384.98
367.4	357.18
367.781	348.82
368.163	363.96
368.544	382.26
368.925	387.46
369.306	379.78
369.688	384.52
370.069	381.59
370.45	392.66
370.831	378.42
371.212	388.59
371.593	382.72
371.974	394.69
372.355	404.41
372.736	391.08
373.117	415.48
373.498	384.07
373.879	373.45
374.26	386.78
374.641	390.4
375.021	396.27
375.402	386.78
375.783	416.39
376.163	425.2
376.544	408.7
376.925	433.11
377.305	434.92
377.686	421.58
378.066	432.88
378.447	431.53
378.827	427.23
379.208	428.59
379.588	415.94
379.968	458.19
380.349	431.98
380.729	434.69
381.109	451.64
381.489	448.7
381.87	443.73
382.25	452.32
382.63	457.52
383.01	476.27
383.39	471.53
383.77	473.11
384.15	474.69
384.53	480.79
384.91	498.65
385.29	472.21
385.67	481.92
386.049	510.4
386.429	505.42
386.809	512.66
387.189	516.72
387.568	519.89
387.948	524.86
388.328	520.79
388.707	525.76
389.087	535.25
389.466	546.55
389.846	529.6
390.225	550.85
390.605	571.86
390.984	562.82
391.363	587
391.743	590.85
392.122	588.59
392.501	596.27
392.881	602.15
393.26	604.86
393.639	623.39
394.018	605.76
394.397	643.05
394.776	638.75
395.155	624.52
395.534	628.13
395.913	624.97
396.292	664.74
396.671	652.09
397.05	696.38
397.429	672.88
397.808	699.09
398.186	678.08
398.565	686.21
398.944	714.91
399.323	694.8
399.701	737.51
400.08	729.83
400.458	746.55
400.837	761.69
401.215	770.5
401.594	757.4
401.972	751.07
402.351	775.93
402.729	791.97
403.107	768.24
403.486	792.42
403.864	822.03
404.242	810.95
404.62	810.28
404.999	837.39
405.377	831.07
405.755	837.39
406.133	867.22
406.511	904.06
406.889	892.31
407.267	914.68
407.645	902.02
408.023	938.41
408.401	935.92
408.779	923.04
409.156	951.06
409.534	962.14
409.912	966.2
410.29	1010.72
410.667	1047.56
411.045	1049.14
411.422	1053.43
411.8	1051.4
412.178	1079.42
412.555	1072.64
412.933	1108.8
413.31	1136.14
413.687	1115.58
414.065	1140.21
414.442	1173.2
414.819	1175.69
415.197	1186.08
415.574	1189.47
415.951	1205.07
416.328	1248.23
416.705	1208.91
417.082	1239.87
417.46	1267.21
417.837	1275.35
418.214	1278.29
418.591	1286.19
418.967	1305.18
419.344	1317.15
419.721	1335.69
420.098	1358.28
420.475	1358.96
420.852	1362.8
421.228	1392.41
421.605	1423.37
421.982	1415.01
422.358	1442.8
422.735	1473.76
423.111	1471.05
423.488	1527.32
423.864	1477.83
424.241	1499.52
424.617	1544.49
424.994	1560.54
425.37	1567.32
425.746	1539.3
426.123	1574.55
426.499	1570.48
426.875	1606.19
427.251	1618.39
427.627	1670.37
428.003	1693.64
428.379	1702.23
428.756	1732.06
429.132	1753.08
429.507	1776.35
429.883	1788.1
430.259	1797.59
430.635	1850.02
431.011	1880.3
431.387	1883.69
431.763	1928.44
432.138	1944.71
432.514	1970.92
432.89	2014.31
433.265	2037.36
433.641	2067.64
434.016	2090.47
434.392	2118.72
434.767	2157.58
435.143	2196.91
435.518	2230.35
435.894	2215.89
436.269	2256.79
436.644	2273.97
437.02	2282.55
437.395	2283
437.77	2348.31
438.145	2355.09
438.52	2404.58
438.895	2406.17
439.271	2404.36
439.646	2480.97
440.021	2523.9
440.395	2521.64
440.77	2509.67
441.145	2514.64
441.52	2586.95
441.895	2581.08
442.27	2583.56
442.645	2604.58
443.019	2698.59
443.394	2659.94
443.769	2669.66
444.143	2726.61
444.518	2725.48
444.892	2692.03
445.267	2790.11
445.641	2756.44
446.016	2791.92
446.39	2832.6
446.764	2854.52
447.139	2861.29
447.513	2901.07
447.887	2876.66
448.262	2908.98
448.636	2954.17
449.01	2968.64
449.384	2977.68
449.758	3030.56
450.132	3081.4
450.506	3085.7
450.88	3125.69
451.254	3154.17
451.628	3152.81
452.002	3211.57
452.376	3224.68
452.75	3244.56
453.123	3297.67
453.497	3352.36
453.871	3363.2
454.244	3462.86
454.618	3452.92
454.992	3499.02
455.365	3511.9
455.739	3598.68
456.112	3598.9
456.486	3623.08
456.859	3697.66
457.232	3773.14
457.606	3753.47
457.979	3844.77
458.352	3916.41
458.725	3955.96
459.099	3975.16
459.472	4091.09
459.845	4088.16
460.218	4128.61
460.591	4187.36
460.964	4230.75
461.337	4313.69
461.71	4311.88
462.083	4442.5
462.456	4437.07
462.829	4439.33
463.201	4508.48
463.574	4561.36
463.947	4631.42
464.32	4715.26
464.692	4764.97
465.065	4825.08
465.438	4884.97
465.81	4936.49
466.183	5012.88
466.555	5133.33
466.928	5145.98
467.3	5138.98
467.672	5271.85
468.045	5333.32
468.417	5353.66
468.789	5400.44
469.161	5501
469.534	5625.74
469.906	5755.91
470.278	5758.62
470.65	5860.54
471.022	5963.59
471.394	6104.6
471.766	6086.52
472.138	6158.84
472.51	6255.78
472.882	6428.43
473.253	6431.6
473.625	6512.95
473.997	6681.53
474.369	6733.06
474.74	6839.72
475.112	6985.71
475.484	7054.18
475.855	7213.5
476.227	7285.36
476.598	7451.46
476.97	7550.66
477.341	7721.73
477.713	7825.68
478.084	7927.15
478.455	8089.63
478.827	8140.48
479.198	8409.4
479.569	8429.74
479.94	8678.54
480.311	8760.8
480.682	8949.5
481.053	9176.83
481.424	9292.09
481.795	9427
482.166	9563.04
482.537	9624.05
482.908	9839.19
483.279	10081.44
483.65	10167.54
484.021	10374.77
484.391	10479.17
484.762	10599.4
485.133	10675.33
485.503	10800.75
485.874	11098.82
486.244	11196.44
486.615	11379.04
486.985	11551.01
487.356	11750.1
487.726	11802.75
488.097	12129.53
488.467	12089.3
488.837	12450.2
489.207	12527.26
489.578	12697.65
489.948	12811.09
490.318	13140.57
490.688	13133.79
491.058	13330.62
491.428	13515.93
491.798	13638.19
492.168	13897.39
492.538	13887.9
492.908	14045.86
493.278	14348.9
493.648	14312.52
494.017	14586.18
494.387	14795.44
494.757	14942.11
495.126	15082.67
495.496	15171.48
495.866	15259.39
496.235	15331.93
496.605	15631.81
496.974	15665.25
497.344	15877.45
497.713	15937.11
498.082	16020.5
498.452	16125.58
498.821	16301.39
499.19	16318.34
499.559	16500.03
499.928	16680.14
500.298	16683.3
500.667	16924.2
501.036	16897.54
501.405	17123.97
501.774	17076.74
502.143	17366.45
502.512	17411.42
502.88	17575.48
503.249	17561.25
503.618	17663.17
503.987	17844.86
504.356	18026.77
504.724	18146.99
505.093	18215.47
505.462	18331.17
505.83	18405.52
506.199	18597.83
506.567	18841.44
506.936	18845.06
507.304	19123.47
507.672	19172.5
508.041	19286.63
508.409	19446.85
508.777	19669.21
509.145	19779.72
509.514	19864.24
509.882	20115.3
510.25	20107.62
510.618	20332.02
510.986	20210.67
511.354	20672.8
511.722	20813.82
512.09	20964.77
512.458	20935.4
512.826	21191.43
513.193	21296.97
513.561	21283.64
513.929	21536.06
514.297	21734.02
514.664	21903.51
515.032	21924.07
515.4	22189.6
515.767	22314.12
516.135	22459.88
516.502	22470.5
516.869	22835.46
517.237	22942.57
517.604	22964.5
517.972	23165.39
518.339	23273.19
518.706	23423.47
519.073	23604.7
519.44	23759.05
519.808	24035.43
520.175	24053.28
520.542	24460.73
520.909	24545.92
521.276	24655.98
521.643	24940.49
522.009	25163.31
522.376	25408.95
522.743	25555.16
523.11	25951.99
523.477	26085.09
523.843	26166.67
524.21	26506.1
524.577	26684.62
524.943	26842.81
525.31	26996.25
525.676	27188.34
526.043	27389.01
526.409	27562.34
526.776	27944.25
527.142	27967.53
527.508	28198.93
527.874	28297.91
528.241	28579.26
528.607	28616.32
528.973	28918.69
529.339	28883.89
529.705	29075.07
530.071	29455.4
530.437	29548.95
530.803	29760.93
531.169	30007.25
531.535	29965.21
531.901	30197.53
532.267	30278.88
532.632	30551.64
532.998	30666.21
533.364	30710.28
533.73	31031.18
534.095	31233.66
534.461	31284.73
534.826	31582.12
535.192	31493.31
535.557	31775.56
535.923	31673.87
536.288	31881.77
536.653	32172.84
537.019	31981.21
537.384	32210.13
537.749	32387.3
538.114	32485.15
538.479	32524.02
538.845	32747.29
539.21	32766.95
539.575	32926.94
539.94	33041.29
540.305	33215.75
540.67	33145.92
541.034	33343.21
541.399	33482.18
541.764	33679.92
542.129	33789.52
542.494	33783.87
542.858	33949.74
543.223	33935.51
543.587	34363.29
543.952	34190.19
544.316	34267.25
544.681	34404.42
545.045	34569.39
545.41	34686.22
545.774	34759.44
546.138	34899.77
546.503	34967.34
546.867	35064.06
547.231	35377.28
547.595	35320.78
547.959	35577.5
548.324	35641
548.688	35617.27
549.052	35772.97
549.416	35865.85
549.779	35863.59
550.143	36089.57
550.507	36334.99
550.871	36437.81
551.235	36432.84
551.599	36727.07
551.962	36773.62
552.326	36820.63
552.689	37138.81
553.053	37009.1
553.417	37115.76
553.78	37596.88
554.143	37515.3
554.507	37847.95
554.87	37728.17
555.234	38190.76
555.597	38097.43
555.96	38408.83
556.323	38466.91
556.686	38461.71
557.05	38941.02
557.413	38966.33
557.776	39099.44
558.139	39398.41
558.502	39500.78
558.865	39601.35
559.228	39849.02
559.59	40084.04
559.953	40111.84
560.316	40598.61
560.679	40638.38
561.041	40792.5
561.404	41020.74
561.767	41128.99
562.129	41092.61
562.492	41429.77
562.854	41559.26
563.217	41613.5
563.579	41740.72
563.941	42119.02
564.304	42203.09
564.666	42655.05
565.028	42596.97
565.39	42683.07
565.753	43161.25
566.115	43198.77
566.477	43456.61
566.839	43551.98
567.201	43858.63
567.563	44003.04
567.925	44191.96
568.287	44190.6
568.648	44276.48
569.01	44605.28
569.372	44892.28
569.734	44885.27
570.095	45245.27
570.457	45538.59
570.819	45426.96
571.18	45388.76
571.542	45706.27
571.903	45904.91
572.265	46079.82
572.626	46198.91
572.987	46276.88
573.349	46363.43
573.71	46652.23
574.071	46678.67
574.432	46788.5
574.794	47091.32
575.155	47106.46
575.516	47124.99
575.877	47245.21
576.238	47303.74
576.599	47591.87
576.96	47640.91
577.32	47672.55
577.681	47783.96
578.042	47958.87
578.403	48076.83
578.763	47967.23
579.124	48124.06
579.485	48312.3
579.845	48442.24
580.206	48222.36
580.566	48346.65
580.927	48466.42
581.287	48640.2
581.648	48450.6
582.008	48539.19
582.368	48500.09
582.728	48566.53
583.089	48632.97
583.449	48607.66
583.809	48683.14
584.169	48711.61
584.529	48770.14
584.889	49087.65
585.249	48848.33
585.609	48781.44
585.969	49120.19
586.329	48961.55
586.688	48956.58
587.048	48954.32
587.408	48907.09
587.768	48925.17
588.127	48754.1
588.487	48805.4
588.846	49144.6
589.206	48830.93
589.565	48854.66
589.925	48987.99
590.284	49023.24
590.643	49025.73
591.003	49093.53
591.362	49203.13
591.721	49166.97
592.08	49210.36
592.44	49197.48
592.799	49248.78
593.158	49228.66
593.517	49320.19
593.876	49318.83
594.235	49234.99
594.593	49251.71
594.952	49364.93
595.311	49263.01
595.67	49404.93
596.029	49613.96
596.387	49577.81
596.746	49643.12
597.104	49433.18
597.463	49536.68
597.822	49538.26
598.18	49469.56
598.538	49530.12
598.897	49658.93
599.255	49492.39
599.613	50027.74
599.972	49758.37
600.33	49823
600.688	49721.53
601.046	49895.76
601.404	49952.71
601.762	49947.97
602.12	50015.76
602.478	50015.54
602.836	49958.81
603.194	49854.86
603.552	50043.78
603.91	49910.91
604.268	50039.94
604.625	49891.92
604.983	50191.12
605.341	49935.76
605.698	50124.23
606.056	50143.89
606.413	50124.01
606.771	50352.02
607.128	50328.3
607.485	50237.68
607.843	50338.01
608.2	50566.93
608.557	50626.14
608.914	50433.38
609.272	50733.93
609.629	50810.77
609.986	50879.69
610.343	50627.27
610.7	51013.7
611.057	50941.39
611.414	50795.18
611.771	50822.52
612.127	50926.7
612.484	51002.4
612.841	51148.39
613.198	51036.98
613.554	50990.2
613.911	51179.35
614.267	51228.16
614.624	51174.6
614.98	51186.35
615.337	51369.17
615.693	51293.02
616.05	51251.43
616.406	51450.53
616.762	51392.9
617.118	51364.2
617.475	51380.92
617.831	51391.77
618.187	51342.73
618.543	51435.84
618.899	51617.75
619.255	51670.18
619.611	51499.11
619.967	51687.36
620.323	51775.04
620.678	51451.2
621.034	51442.16
621.39	51425.89
621.746	51448.72
622.101	51674.47
622.457	51382.96
622.812	51511.54
623.168	51676.73
623.523	51661.82
623.879	51631.54
624.234	51452.56
624.589	51631.99
624.945	51704.08
625.3	51659.11
625.655	51617.3
626.01	51642.16
626.365	51681.03
626.72	51635.61
627.075	51677.86
627.43	51494.14
627.785	51540.69
628.14	51608.94
628.495	51551.99
628.85	51581.6
629.205	51439.68
629.559	51597.41
629.914	51348.61
630.269	51416.85
630.623	51381.15
630.978	51302.06
631.332	51385.22
631.687	51400.81
632.041	51271.77
632.396	51455.72
632.75	51248.95
633.104	51279.46
633.459	51207.82
633.813	51200.36
634.167	51184.32
634.521	51227.25
634.875	51249.18
635.229	51189.29
635.583	51058.9
635.937	51012.57
636.291	50967.15
636.645	50956.53
636.999	50820.94
637.352	50966.47
637.706	50595.86
638.06	50747.72
638.413	50731
638.767	50587.05
639.121	50620.94
639.474	50458.91
639.828	50428.41
640.181	50371.01
640.534	50525.13
640.888	50425.69
641.241	50199.49
641.594	50327.84
641.947	50373.94
642.301	50320.39
642.654	50285.13
643.007	50220.5
643.36	50278.58
643.713	50079.71
644.066	50036.78
644.419	49894.86
644.771	49590.91
645.124	49304.59
645.477	49268.21
645.83	48862.35
646.182	48838.84
646.535	48743.7
646.888	48825.51
647.24	48693.76
647.593	48849.69
647.945	48581.67
648.298	48567.44
648.65	48504.39
649.002	48360.89
649.355	48455.8
649.707	48247.45
650.059	48572.41
650.411	49095.33
650.763	48959.29
651.115	49357.47
651.467	49114.77
651.819	49234.09
652.171	49106.41
652.523	49086.75
652.875	49095.56
653.227	48871.16
653.578	49210.36
653.93	49026.63
654.282	48797.04
654.633	48716.13
654.985	48649.47
655.337	48726.98
655.688	48708.9
656.039	48801.56
656.391	48580.32
656.742	48653.76
657.094	48611.05
657.445	48758.62
657.796	48677.49
658.147	48718.17
658.498	48542.35
658.849	48685.17
659.2	48443.83
659.551	48469.14
659.902	48575.12
660.253	48320.89
660.604	48535.8
660.955	48177.84
661.306	48317.95
661.656	48265.07
662.007	48268.91
662.358	48259.2
662.708	48093.33
663.059	48177.62
663.409	47962.93
663.76	48201.35
664.11	48207.22
664.461	48117.96
664.811	48125.87
665.161	48115.02
665.511	47960.45
665.862	47979.2
666.212	48244.73
666.562	48084.06
666.912	47923.61
667.262	47970.62
667.612	47987.11
667.962	47966.1
668.312	47922.03
668.662	48167.67
669.011	47936.04
669.361	47918.64
669.711	47819.43
670.06	47837.29
670.41	47710.74
670.76	47639.33
671.109	47815.82
671.459	47593.68
671.808	47594.36
672.157	47628.48
672.507	47391.2
672.856	47478.43
673.205	47572.21
673.554	47645.43
673.904	47413.34
674.253	47676.16
674.602	47446.34
674.951	46824.66
675.3	46626.7
675.649	47231.65
675.998	47295.15
676.346	47198.43
676.695	47420.35
677.044	46935.84
677.393	47040.25
677.741	47119.79
678.09	46993.92
678.438	46897.43
678.787	47035.27
679.135	46751.67
679.484	46676.41
679.832	46736.98
680.181	46635.06
680.529	46716.64
680.877	46573.82
681.225	46491.11
681.573	46727.71
681.922	46376.53
682.27	46193.26
682.618	46238.01
682.966	46111.68
683.314	46123.43
683.661	45995.98
684.009	45737
684.357	45758.02
684.705	45658.81
685.053	45813.39
685.4	45765.93
685.748	45583.11
686.095	45503.79
686.443	45392.15
686.79	45212.27
687.138	45284.13
687.485	45290.91
687.832	45263.34
688.18	45210.01
688.527	44861.55
688.874	44902.45
689.221	44784.49
689.568	44698.16
689.915	44612.97
690.262	44553.53
690.609	44524.38
690.956	44507.43
691.303	44465.85
691.65	44261.34
691.997	44245.74
692.344	43995.58
692.69	43987.9
693.037	43969.14
693.383	43731.86
693.73	43712.65
694.077	43470.85
694.423	43517.17
694.769	43396.73
695.116	43320.8
695.462	43344.75
695.808	43180.23
696.155	43124.19
696.501	42873.58
696.847	42850.07
697.193	42553.13
697.539	42685.56
697.885	42394.27
698.231	42327.15
698.577	42331.67
698.923	42053.03
699.269	41992.92
699.614	41787.28
699.96	41753.15
700.306	41661.18
700.651	41430.68
700.997	41286.73
701.342	41312.71
701.688	41337.8
702.033	41108.42
702.379	41037.01
702.724	40910.01
703.069	41091.48
703.415	40637.93
703.76	40646.52
704.105	40644.93
704.45	40572.62
704.795	40287.88
705.14	40185.96
705.485	40225.06
705.83	39910.72
706.175	39989.36
706.52	39827.55
706.865	39687.67
707.209	39510.95
707.554	39448.58
707.899	39549.14
708.243	39419.43
708.588	39331.3
708.932	39078.65
709.277	39164.3
709.621	39062.15
709.966	38837.3
710.31	39012.43
710.654	38494.93
710.998	38709.39
711.342	38699
711.687	38581.03
712.031	38369.29
712.375	38313.7
712.719	38336.75
713.063	38270.53
713.407	38475.95
713.75	38118.67
714.094	37947.6
714.438	37858.57
714.782	38034.38
715.125	37755.07
715.469	37754.16
715.812	37580.61
716.156	37350.56
716.499	37346.26
716.843	37547.61
717.186	37237.11
717.53	37408.18
717.873	37270.79
718.216	37311.91
718.559	37058.36
718.902	36866.5
719.246	36957.35
719.589	36804.58
719.932	36510.81
720.275	36669.45
720.617	36560.52
720.96	36577.92
721.303	36463.8
721.646	36538.38
721.989	36354.2
722.331	36387.42
722.674	36275.56
723.016	36261.55
723.359	36269.68
723.701	36184.26
724.044	35814.33
724.386	35818.62
724.729	35982.68
725.071	35853.42
725.413	35788.56
725.755	35719.41
726.097	35499.98
726.439	35390.38
726.782	35427.44
727.124	35560.32
727.465	35363.49
727.807	35379.31
728.149	35165.08
728.491	35172.08
728.833	35108.13
729.175	35118.07
729.516	35076.04
729.858	34881.24
730.199	34883.28
730.541	34885.31
730.882	34791.53
731.224	34890.74
731.565	34707.01
731.906	34661.14
732.248	34674.7
732.589	34495.49
732.93	34409.62
733.271	34465.21
733.612	34505.21
733.953	34378.21
734.294	34283.75
734.635	34104.99
734.976	34123.98
735.317	33936.41
735.658	33984.32
735.999	33918.78
736.339	33767.15
736.68	33909.97
737.021	33671.56
737.361	33581.84
737.702	33911.55
738.042	33615.74
738.383	33690.54
738.723	33617.32
739.063	33413.94
739.404	33572.58
739.744	33456.65
740.084	33280.83
740.424	33373.26
740.764	33219.59
741.104	33238.58
741.444	33046.49
741.784	33016.21
742.124	33051.91
742.464	32960.16
742.804	33034.74
743.143	32966.72
743.483	32865.48
743.823	32712.94
744.162	32667.74
744.502	32690.57
744.841	32610.12
745.181	32777.12
745.52	32730.11
745.86	32599.5
746.199	32555.88
746.538	32461.65
746.877	32442.44
747.216	32385.72
747.556	32340.52
747.895	32296.45
748.234	32036.8
748.573	32002.9
748.911	32018.49
749.25	31935.33
749.589	31734.21
749.928	31673.19
750.267	31814.21
750.605	31604.27
750.944	31566.3
751.283	31443.59
751.621	31451.96
751.96	31266.88
752.298	31279.76
752.636	31254.22
752.975	31181.68
