Data from aluminium_surface_pro_back_FLMS001491_00044.txt Node
Date: Wed Feb 08 15:34:06 GMT 2017
User: dcchb
Spectrometer: FLMS00149
Trigger mode: 0
Integration Time (sec): 2.000000E-2
Scans to average: 10
Electric dark correction enabled: true
Nonlinearity correction enabled: false
Boxcar width: 0
XAxis mode: Wavelengths
Number of Pixels in Spectrum: 2048
>>>>>Begin Spectral Data<<<<<
341.393	-5.28
341.776	-5.28
342.16	-5.28
342.543	-24.26
342.927	-73.3
343.31	-60.87
343.693	-65.17
344.077	-69.69
344.46	-78.05
344.843	-43.47
345.226	-49.57
345.61	-24.94
345.993	-17.26
346.376	-4.83
346.759	24.1
347.142	25
347.525	42.4
347.908	37.43
348.291	72.68
348.674	107.94
349.057	104.32
349.44	131.89
349.823	137.99
350.206	164.66
350.588	209.85
350.971	241.26
351.354	247.82
351.737	280.81
352.119	264.09
352.502	300.47
352.884	300.47
353.267	300.92
353.65	326.91
354.032	300.7
354.414	334.37
354.797	309.51
355.179	347.7
355.562	350.87
355.944	354.48
356.326	372.11
356.709	352.67
357.091	369.62
357.473	394.93
357.855	367.82
358.238	395.61
358.62	377.53
359.002	396.06
359.384	370.75
359.766	365.1
360.148	373.24
360.53	365.33
360.912	364.43
361.294	386.57
361.676	379.34
362.057	367.59
362.439	374.82
362.821	381.37
363.203	372.56
363.584	384.54
363.966	372.56
364.348	362.17
364.729	359.68
365.111	352.45
365.493	359
365.874	379.79
366.256	363.52
366.637	374.82
367.019	342.73
367.4	385.67
367.781	360.58
368.163	366.69
368.544	349.51
368.925	373.24
369.306	364.43
369.688	371.66
370.069	359.23
370.45	366.01
370.831	375.95
371.212	392.9
371.593	357.42
371.974	390.64
372.355	389.28
372.736	380.92
373.117	371.88
373.498	381.15
373.879	387.7
374.26	391.54
374.641	384.76
375.021	409.4
375.402	403.52
375.783	400.81
376.163	398.32
376.544	439.68
376.925	393.13
377.305	403.97
377.686	389.51
378.066	407.59
378.447	416.18
378.827	440.81
379.208	415.95
379.588	436.29
379.968	419.34
380.349	431.77
380.729	428.38
381.109	445.1
381.489	431.32
381.87	455.04
382.25	456.85
382.63	442.16
383.01	473.58
383.39	469.51
383.77	471.09
384.15	461.6
384.53	459.79
384.91	482.61
385.29	483.52
385.67	487.81
386.049	493.91
386.429	473.12
386.809	510.64
387.189	511.31
387.568	516.29
387.948	494.59
388.328	512.22
388.707	506.12
389.087	532.56
389.466	505.21
389.846	550.41
390.225	563.06
390.605	535.04
390.984	546.79
391.363	541.37
391.743	563.06
392.122	559.45
392.501	582.27
392.881	584.98
393.26	586.34
393.639	599.45
394.018	615.04
394.397	619.56
394.776	614.59
395.155	618.43
395.534	621.59
395.913	604.42
396.292	651.88
396.671	627.7
397.05	648.71
397.429	662.95
397.808	669.5
398.186	664.3
398.565	647.81
398.944	690.97
399.323	690.97
399.701	696.85
400.08	705.89
400.458	699.56
400.837	699.78
401.215	735.49
401.594	723.74
401.972	738.88
402.351	759.9
402.729	765.32
403.107	773.45
403.486	747.24
403.864	781.59
404.242	799.22
404.62	807.58
404.999	803.74
405.377	816.16
405.755	839.89
406.133	853.45
406.511	825.43
406.889	859.78
407.267	864.3
407.645	883.06
408.023	869.27
408.401	896.16
408.779	897.97
409.156	918.08
409.534	931.64
409.912	898.65
410.29	967.8
410.667	974.35
411.045	985.2
411.422	982.71
411.8	982.04
412.178	1044.86
412.555	1025.88
412.933	1058.19
413.31	1054.35
413.687	1085.31
414.065	1079.43
414.442	1108.59
414.819	1122.82
415.197	1115.82
415.574	1151.52
415.951	1160.34
416.328	1161.01
416.705	1162.6
417.082	1169.15
417.46	1203.05
417.837	1190.62
418.214	1205.08
418.591	1250.05
418.967	1234.01
419.344	1273.33
419.721	1263.16
420.098	1254.57
420.475	1282.59
420.852	1339.32
421.228	1319.88
421.605	1353.1
421.982	1310.39
422.358	1354.46
422.735	1377.96
423.111	1388.81
423.488	1373.66
423.864	1422.7
424.241	1429.03
424.617	1469.71
424.994	1450.05
425.37	1475.36
425.746	1493.21
426.123	1496.83
426.499	1523.72
426.875	1511.74
427.251	1546.99
427.627	1589.48
428.003	1602.58
428.379	1615.47
428.756	1647.1
429.132	1691.4
429.507	1681.9
429.883	1707.44
430.259	1774.33
430.635	1748.8
431.011	1749.47
431.387	1801.22
431.763	1868.57
432.138	1844.84
432.514	1884.61
432.89	1851.84
433.265	1921.45
433.641	1969.35
434.016	1934.33
434.392	2019.52
434.767	2040.09
435.143	2022.46
435.518	2040.09
435.894	2066.98
436.269	2113.76
436.644	2142.91
437.02	2206.64
437.395	2165.51
437.77	2205.96
438.145	2217.03
438.52	2251.83
438.895	2288.67
439.271	2285.5
439.646	2369.8
440.021	2368.67
440.395	2354.66
440.77	2349.46
441.145	2425.16
441.52	2467.42
441.895	2441.66
442.27	2481.88
442.645	2464.94
443.019	2518.04
443.394	2501.09
443.769	2527.53
444.143	2532.05
444.518	2565.72
444.892	2546.51
445.267	2596.01
445.641	2621.54
446.016	2652.27
446.39	2655.21
446.764	2646.17
447.139	2694.08
447.513	2712.39
447.887	2765.04
448.262	2731.14
448.636	2779.05
449.01	2814.3
449.384	2823.8
449.758	2844.36
450.132	2895.66
450.506	2896.79
450.88	2901.31
451.254	2937.69
451.628	3003.45
452.002	3002.1
452.376	3050.23
452.75	3085.94
453.123	3064.69
453.497	3175.65
453.871	3188.76
454.244	3231.47
454.618	3240.06
454.992	3354.18
455.365	3343.33
455.739	3419.26
456.112	3440.73
456.486	3492.25
456.859	3469.43
457.232	3554.62
457.606	3521.63
457.979	3597.79
458.352	3683.43
458.725	3728.86
459.099	3762.08
459.472	3840.27
459.845	3872.36
460.218	3887.72
460.591	3945.12
460.964	3948.96
461.337	4070.09
461.71	4076.42
462.083	4155.96
462.456	4201.39
462.829	4223.76
463.201	4273.7
463.574	4339.91
463.947	4397.31
464.32	4511.21
464.692	4488.16
465.065	4528.61
465.438	4591.88
465.81	4694.93
466.183	4746.91
466.555	4820.13
466.928	4890.86
467.3	4860.13
467.672	4910.07
468.045	5040.91
468.417	5084.08
468.789	5142.83
469.161	5189.16
469.534	5304.41
469.906	5334.69
470.278	5438.87
470.65	5467.57
471.022	5604.74
471.394	5675.47
471.766	5756.37
472.138	5866.43
472.51	5941.23
472.882	6031.4
473.253	6063.71
473.625	6202.46
473.997	6298.28
474.369	6397.04
474.74	6449.01
475.112	6612.85
475.484	6691.49
475.855	6816.01
476.227	6872.05
476.598	7051.71
476.97	7080.86
477.341	7282.89
477.713	7306.16
478.084	7420.96
478.455	7688.98
478.827	7691.92
479.198	7971.01
479.569	7931.23
479.94	8165.12
480.311	8261.39
480.682	8436.3
481.053	8629.97
481.424	8793.13
481.795	8848.5
482.166	8947.7
482.537	9066.12
482.908	9222.05
483.279	9396.73
483.65	9608.02
484.021	9786.78
484.391	9848.47
484.762	9962.14
485.133	10118.97
485.503	10274.45
485.874	10403.71
486.244	10557.15
486.615	10742.01
486.985	10850.03
487.356	11073.52
487.726	11197.36
488.097	11400.29
488.467	11476.9
488.837	11763.9
489.207	11839.38
489.578	12061.29
489.948	12087.73
490.318	12329.99
490.688	12350.78
491.058	12613.14
491.428	12757.32
491.798	12958.67
492.168	13146.46
492.538	13211.09
492.908	13347.59
493.278	13501.03
493.648	13588.94
494.017	13689.95
494.387	13869.16
494.757	14032.31
495.126	14108.24
495.496	14216.72
495.866	14253.78
496.235	14492.42
496.605	14613.54
496.974	14731.51
497.344	14943.03
497.713	15014.21
498.082	15111.61
498.452	15202.45
498.821	15284.71
499.19	15398.15
499.559	15636.79
499.928	15668.2
500.298	15785.71
500.667	15971.47
501.036	15977.12
501.405	16186.38
501.774	16138.7
502.143	16251.47
502.512	16414.17
502.88	16619.14
503.249	16632.02
503.618	16771.45
503.987	16846.48
504.356	16934.16
504.724	17081.5
505.093	17119.47
505.462	17220.25
505.83	17427.93
506.199	17524.43
506.567	17773.01
506.936	17825.21
507.304	17983.17
507.672	18050.06
508.041	18139.33
508.409	18297.06
508.777	18396.95
509.145	18599.43
509.514	18584.51
509.882	18792.19
510.25	18914.22
510.618	19006.42
510.986	19270.37
511.354	19381.55
511.722	19445.51
512.09	19753.97
512.458	19700.87
512.826	19982.21
513.193	20025.6
513.561	20045.49
513.929	20260.4
514.297	20573.84
514.664	20688.18
515.032	20716.21
515.4	20968.86
515.767	21062.41
516.135	21166.36
516.502	21139.02
516.869	21567.94
517.237	21694.26
517.604	21651.78
517.972	21900.58
518.339	22136.06
518.706	22098.09
519.073	22331.53
519.44	22524.52
519.808	22847.9
520.175	22727.45
520.542	23091.06
520.909	23254.67
521.276	23225.52
521.643	23548
522.009	23588.67
522.376	23931.49
522.743	24088.77
523.11	24440.18
523.477	24604.47
523.843	24724.69
524.21	24985.92
524.577	25155.19
524.943	25392.47
525.31	25434.73
525.676	25698.9
526.043	25799.91
526.409	25946.13
526.776	26363.29
527.142	26466.34
527.508	26516.05
527.874	26823.16
528.241	26861.13
528.607	27082.37
528.973	27432.41
529.339	27333.89
529.705	27715.34
530.071	27855.45
530.437	28090.48
530.803	28252.05
531.169	28485.49
531.535	28292.5
531.901	28601.65
532.267	28745.15
532.632	28982.88
532.998	29132.93
533.364	29325.7
533.73	29402.53
534.095	29634.16
534.461	29711.9
534.826	29857.66
535.192	29998.9
535.557	30259.01
535.923	30299.46
536.288	30271.44
536.653	30517.08
537.019	30560.02
537.384	30767.02
537.749	30894.24
538.114	30909.84
538.479	30958.65
538.845	31151.41
539.21	31180.56
539.575	31349.6
539.94	31443.83
540.305	31695.13
540.67	31579.42
541.034	31765.63
541.399	31812.19
541.764	31971.73
542.129	32158.17
542.494	32202.23
542.858	32186.19
543.223	32247.2
543.587	32456.69
543.952	32495.11
544.316	32644.03
544.681	32696.91
545.045	32879.28
545.41	33034.3
545.774	32954.3
546.138	33149.33
546.503	33366.72
546.867	33222.09
547.231	33598.58
547.595	33709.76
547.959	33855.75
548.324	33733.49
548.688	33895.3
549.052	34142.29
549.416	34127.83
549.779	34368.73
550.143	34391.1
550.507	34673.81
550.871	34860.24
551.235	34733.92
551.599	34995.61
551.962	35122.38
552.326	35195.37
552.689	35528.25
553.053	35353.11
553.417	35525.08
553.78	35936.82
554.143	35883.94
554.507	35965.3
554.87	36108.57
555.234	36484.38
555.597	36295.01
555.96	36571.16
556.323	36673.98
556.686	36731.38
557.05	37096.34
557.413	37073.52
557.776	37217.24
558.139	37495.2
558.502	37625.59
558.865	37768.19
559.228	38108.52
559.59	38176.99
559.953	38279.13
560.316	38638
560.679	38683.87
561.041	38783.75
561.404	39010.19
561.767	39215.16
562.129	39226.68
562.492	39439.33
562.854	39636.39
563.217	39521.81
563.579	39819.66
563.941	40117.96
564.304	40231.4
564.666	40521.11
565.028	40546.65
565.39	40963.36
565.753	41100.3
566.115	41262.79
566.477	41313.86
566.839	41508.43
567.201	41836.56
567.563	41927.85
567.925	42035.65
568.287	42248.07
568.648	42225.47
569.01	42666.14
569.372	42846.02
569.734	42777.77
570.095	43009.86
570.457	43227.03
570.819	43368.27
571.18	43460.02
571.542	43660.01
571.903	43827.24
572.265	43960.34
572.626	44066.1
572.987	44032.43
573.349	44275.14
573.71	44421.57
574.071	44548.12
574.432	44647.55
574.794	45074.44
575.155	45121.21
575.516	44862.69
575.877	45263.13
576.238	45237.37
576.599	45415.9
576.96	45536.8
577.32	45411.6
577.681	45687.3
578.042	45804.59
578.403	45901.53
578.763	45850.24
579.124	46026.73
579.485	46231.92
579.845	46443.67
580.206	46538.35
580.566	46509.65
580.927	46546.49
581.287	46638.46
581.648	46553.04
582.008	46686.15
582.368	46689.31
582.728	46842.75
583.089	46727.73
583.449	46830.77
583.809	46900.15
584.169	47031
584.529	46791.45
584.889	47114.38
585.249	47006.36
585.609	47029.41
585.969	47125.68
586.329	46898.12
586.688	47212.91
587.048	47080.94
587.408	47086.13
587.768	47164.32
588.127	47058.56
588.487	47016.76
588.846	47405.45
589.206	47094.5
589.565	47200.03
589.925	47259.69
590.284	47230.54
590.643	47265.57
591.003	47278.67
591.362	47370.87
591.721	47367.26
592.08	47276.86
592.44	47538.1
592.799	47477.08
593.158	47265.34
593.517	47344.89
593.876	47421.49
594.235	47336.3
594.593	47383.08
594.952	47587.36
595.311	47454.49
595.67	47590.3
596.029	47698.32
596.387	47770.64
596.746	47791.43
597.104	47665.33
597.463	47689.73
597.822	47843.85
598.18	47708.94
598.538	47752.33
598.897	47992.33
599.255	47671.2
599.613	48250.4
599.972	47945.77
600.33	48079.56
600.688	47976.05
601.046	47985.32
601.404	48095.15
601.762	48091.31
602.12	48282.94
602.478	48258.76
602.836	48310.96
603.194	48079.78
603.552	48166.11
603.91	48194.58
604.268	48310.28
604.625	48234.13
604.983	48315.93
605.341	48206.56
605.698	48390.51
606.056	48472.09
606.413	48485.19
606.771	48506.44
607.128	48729.71
607.485	48441.13
607.843	48544.18
608.2	48631.63
608.557	48783.72
608.914	48704.4
609.272	48886.09
609.629	48818.52
609.986	48883.38
610.343	48807.67
610.7	49119.08
611.057	49093.99
611.414	48985.75
611.771	48951.17
612.127	49207.21
612.484	49123.37
612.841	49186.19
613.198	49119.3
613.554	49107.32
613.911	49343.93
614.267	49412.18
614.624	49303.7
614.98	49396.58
615.337	49604.26
615.693	49540.08
616.05	49566.97
616.406	49697.14
616.762	49618.72
617.118	49509.57
617.475	49594.09
617.831	49633.86
618.187	49643.13
618.543	49710.7
618.899	49922.22
619.255	49891.94
619.611	49692.85
619.967	49875.89
620.323	49958.15
620.678	49919.05
621.034	49840.19
621.39	49877.25
621.746	49887.42
622.101	50191.14
622.457	49997.02
622.812	50010.58
623.168	50020.29
623.523	50048.32
623.879	50136.45
624.234	49933.29
624.589	50031.59
624.945	50141.42
625.3	50100.74
625.655	49991.14
626.01	50022.33
626.365	50103.46
626.72	49872.95
627.075	49880.41
627.43	49852.84
627.785	49878.6
628.14	49983.01
628.495	50042.67
628.85	49989.56
629.205	49784.82
629.559	49980.07
629.914	49807.19
630.269	49850.81
630.623	49846.06
630.978	49764.93
631.332	49876.34
631.687	49934.65
632.041	49649.01
632.396	49847.19
632.75	49663.69
633.104	49788.66
633.459	49520.2
633.813	49572.62
634.167	49559.29
634.521	49460.54
634.875	49470.7
635.229	49420.31
635.583	49218.73
635.937	49291.27
636.291	49259.19
636.645	49170.37
636.999	49135.12
637.352	49230.03
637.706	49050.6
638.06	49007.44
638.413	49012.64
638.767	48949.36
639.121	48959.31
639.474	48710.05
639.828	48735.58
640.181	48857.16
640.534	48901.91
640.888	48725.87
641.241	48620.33
641.594	48706.66
641.947	48745.53
642.301	48577.17
642.654	48622.14
643.007	48652.87
643.36	48599.32
643.713	48451.07
644.066	48546.21
644.419	48265.31
644.771	48013.79
645.124	47644.54
645.477	47645.67
645.83	47388.73
646.182	47326.13
646.535	47092.91
646.888	47185.79
647.24	46950.32
647.593	47078.45
647.945	47051.79
648.298	46808.85
648.65	46858.57
649.002	46601.63
649.355	46816.31
649.707	46666.94
650.059	46920.94
650.411	47421.95
650.763	47307.6
651.115	47587.82
651.467	47574.03
651.819	47492
652.171	47332.46
652.523	47237.32
652.875	47281.84
653.227	47233.02
653.578	47366.35
653.93	47154.16
654.282	47125
654.633	46938.79
654.985	46964.78
655.337	47006.14
655.688	47031.22
656.039	46936.08
656.391	46673.26
656.742	46695.18
657.094	46742.42
657.445	46666.26
657.796	46699.48
658.147	46716.43
658.498	46782.19
658.849	46718.46
659.2	46508.75
659.551	46452.03
659.902	46596.66
660.253	46624.23
660.604	46536.09
660.955	46316.89
661.306	46506.04
661.656	46326.15
662.007	46287.06
662.358	46395.53
662.708	46453.38
663.059	46423.1
663.409	46105.14
663.76	46361.86
664.11	46279.6
664.461	46330.22
664.811	46325.7
665.161	46231.69
665.511	46143.56
665.862	46218.14
666.212	46278.7
666.562	46141.53
666.912	46171.58
667.262	46064.01
667.612	46078.93
667.962	46108.31
668.312	46017.24
668.662	46115.76
669.011	45994.41
669.361	45988.99
669.711	45898.37
670.06	45859.73
670.41	45855.66
670.76	45701.76
671.109	45848.88
671.459	45805.04
671.808	45763.46
672.157	45865.38
672.507	45601.43
672.856	45514.65
673.205	45727.53
673.554	45788.99
673.904	45430.59
674.253	45718.26
674.602	45514.65
674.951	44982.24
675.3	44805.29
675.649	45327.09
675.998	45400.08
676.346	45323.7
676.695	45497.48
677.044	45123.02
677.393	45265.62
677.741	45374.54
678.09	45186.98
678.438	45128.67
678.787	45262
679.135	45250.25
679.484	45075.11
679.832	45106.3
680.181	44853.2
680.529	44936.36
680.877	44794.67
681.225	44669.93
681.573	45020.2
681.922	44702.69
682.27	44501.34
682.618	44483.72
682.966	44414.57
683.314	44619.31
683.661	44417.96
684.009	44215.25
684.357	44072.88
684.705	44161.01
685.053	44115.14
685.4	44227
685.748	43921.25
686.095	43924.64
686.443	43756.5
686.79	43641.71
687.138	43599.9
687.485	43639.22
687.832	43522.61
688.18	43474.03
688.527	43257.76
688.874	43266.8
689.221	43107.26
689.568	43041.27
689.915	42815.96
690.262	42712.92
690.609	42777.77
690.956	42651
691.303	42578.91
691.65	42469.31
691.997	42364
692.344	42189.31
692.69	42217.34
693.037	42262.31
693.383	41801.08
693.73	41938.93
694.077	41677.01
694.423	41706.16
694.769	41502.78
695.116	41417.36
695.462	41363.57
695.808	41137.59
696.155	41369.67
696.501	40917.71
696.847	40899.4
697.193	40672.29
697.539	40880.87
697.885	40573.09
698.231	40632.97
698.577	40646.08
698.923	40391.85
699.269	40098.52
699.614	40080.22
699.96	40069.37
700.306	39952.99
700.651	39668.93
700.997	39480.01
701.342	39607.46
701.688	39561.81
702.033	39338.09
702.379	39263.52
702.724	39099.68
703.069	39270.75
703.415	38824.21
703.76	38892.23
704.105	38884.99
704.45	38586.02
704.795	38625.34
705.14	38477.32
705.485	38406.59
705.83	38357.32
706.175	38268.51
706.52	38244.33
706.865	37873.5
707.209	37929.77
707.554	37806.6
707.899	37866.94
708.243	37777
708.588	37605.25
708.932	37337.46
709.277	37330.46
709.621	37307.86
709.966	37007.3
710.31	37137.24
710.654	36873.07
710.998	36936.8
711.342	36964.82
711.687	36844.82
712.031	36672.85
712.375	36386.53
712.719	36603.25
713.063	36465.4
713.407	36472.18
713.75	36378.17
714.094	36269.24
714.438	36150.15
714.782	36099.08
715.125	35941.8
715.469	35913.77
715.812	35828.58
716.156	35557.62
716.499	35652.54
716.843	35633.78
717.186	35424.97
717.53	35538.19
717.873	35521.47
718.216	35380.23
718.559	35173.23
718.902	35090.29
719.246	35146.79
719.589	34960.35
719.932	34843.07
720.275	34797.87
720.617	34749.74
720.96	34717.87
721.303	34672.45
721.646	34682.39
721.989	34475.17
722.331	34472.91
722.674	34438.56
723.016	34441.95
723.359	34227.94
723.701	34148.62
724.044	34020.26
724.386	33948.85
724.729	34131.67
725.071	33830.44
725.413	33892.13
725.755	33810.55
726.097	33729.88
726.439	33568.75
726.782	33645.81
727.124	33825.92
727.465	33587.28
727.807	33719.25
728.149	33571.46
728.491	33411.01
728.833	33450.56
729.175	33303.45
729.516	33200.4
729.858	33247.18
730.199	33167.18
730.541	33156.78
730.882	33030.46
731.224	33167.18
731.565	32851.93
731.906	32950.69
732.248	32827.75
732.589	32675.21
732.93	32569.68
733.271	32557.48
733.612	32579.17
733.953	32642.45
734.294	32376.69
734.635	32299.86
734.976	32341.21
735.317	32363.58
735.658	32127.88
735.999	32189.8
736.339	31963.59
736.68	32181.22
737.021	32074.1
737.361	31837.27
737.702	32035.91
738.042	31697.84
738.383	31544.17
738.723	31853.09
739.063	31625.98
739.404	31657.61
739.744	31524.51
740.084	31388.47
740.424	31515.02
740.764	31411.07
741.104	31575.81
741.444	31286.32
741.784	31218.08
742.124	31267.79
742.464	31117.52
742.804	31017.86
743.143	31084.52
743.483	31011.08
743.823	30829.84
744.162	30748.03
744.502	30772.44
744.841	30620.81
745.181	30797.98
745.52	30501.03
745.86	30764.08
746.199	30608.6
746.538	30553.69
746.877	30449.28
747.216	30406.8
747.556	30243.41
747.895	30369.96
748.234	30172.68
748.573	30055.4
748.911	30209.74
749.25	29979.69
749.589	29935.17
749.928	29958.68
750.267	30012.69
750.605	29899.92
750.944	29798.68
751.283	29816.53
751.621	29753.48
751.96	29641.17
752.298	29514.85
752.636	29553.71
752.975	29384.68
753.313	29395.75
