Data from aluminium_surface_pro_back_FLMS001491_00051.txt Node
Date: Wed Feb 08 15:34:14 GMT 2017
User: dcchb
Spectrometer: FLMS00149
Trigger mode: 0
Integration Time (sec): 2.000000E-2
Scans to average: 10
Electric dark correction enabled: true
Nonlinearity correction enabled: false
Boxcar width: 0
XAxis mode: Wavelengths
Number of Pixels in Spectrum: 2048
>>>>>Begin Spectral Data<<<<<
341.393	-10.49
341.776	-10.49
342.16	-10.49
342.543	-39.87
342.927	-46.2
343.31	-61.34
343.693	-68.8
344.077	-59.98
344.46	-79.19
344.843	-47.1
345.226	-40.55
345.61	-44.62
345.993	-41.91
346.376	0.58
346.759	11.65
347.142	39.22
347.525	57.75
347.908	46.68
348.291	85.77
348.674	96.4
349.057	105.44
349.44	115.38
349.823	145.66
350.206	148.6
350.588	225.66
350.971	230.4
351.354	246.45
351.737	268.82
352.119	273.79
352.502	303.85
352.884	307.01
353.267	304.98
353.65	319.44
354.032	342.72
354.414	349.5
354.797	366.9
355.179	350.85
355.562	391.98
355.944	339.55
356.326	351.3
356.709	370.06
357.091	372.09
357.473	375.94
357.855	387.01
358.238	382.26
358.62	372.09
359.002	381.81
359.384	370.74
359.766	377.52
360.148	363.96
360.53	398.99
360.912	403.96
361.294	350.4
361.676	385.88
362.057	376.16
362.439	386.78
362.821	359.44
363.203	386.33
363.584	370.06
363.966	380
364.348	375.26
364.729	352.43
365.111	368.48
365.493	371.87
365.874	373.45
366.256	356.73
366.637	352.66
367.019	385.65
367.4	386.56
367.781	362.6
368.163	382.72
368.544	375.71
368.925	371.64
369.306	380.23
369.688	375.48
370.069	400.79
370.45	372.55
370.831	387.01
371.212	396.5
371.593	386.56
371.974	399.89
372.355	395.6
372.736	380.68
373.117	380
373.498	396.95
373.879	396.95
374.26	386.11
374.641	388.14
375.021	381.59
375.402	406.22
375.783	397.18
376.163	431.08
376.544	438.99
376.925	402.15
377.305	413.9
377.686	399.66
378.066	443.51
378.447	433.56
378.827	431.53
379.208	425.43
379.588	434.01
379.968	450.51
380.349	449.83
380.729	438.31
381.109	451.41
381.489	454.58
381.87	436.05
382.25	457.74
382.63	444.41
383.01	453.45
383.39	462.26
383.77	469.72
384.15	471.3
384.53	462.04
384.91	466.1
385.29	484.41
385.67	468.59
386.049	488.48
386.429	502.26
386.809	515.82
387.189	522.15
387.568	511.98
387.948	512.43
388.328	526.89
388.707	525.09
389.087	540.23
389.466	556.72
389.846	549.27
390.225	553.56
390.605	563.95
390.984	578.19
391.363	580.9
391.743	581.13
392.122	581.13
392.501	597.17
392.881	571.41
393.26	595.14
393.639	589.72
394.018	610.28
394.397	642.37
394.776	625.65
395.155	651.41
395.534	639.66
395.913	639.21
396.292	666.78
396.671	627
397.05	678.3
397.429	664.06
397.808	695.02
398.186	669.49
398.565	708.81
398.944	700.9
399.323	712.65
399.701	697.06
400.08	702.71
400.458	733.67
400.837	749.71
401.215	740.45
401.594	759.66
401.972	754.91
402.351	775.02
402.729	770.28
403.107	802.82
403.486	794
403.864	797.62
404.242	798.98
404.62	824.74
404.999	841.46
405.377	856.15
405.755	848.24
406.133	886.88
406.511	871.97
406.889	895.24
407.267	930.5
407.645	914.91
408.023	942.25
408.401	949.48
408.779	930.27
409.156	942.93
409.534	964.62
409.912	1008.46
410.29	998.07
410.667	1037.84
411.045	1033.77
411.422	1019.99
411.8	1052.08
412.178	1067.67
412.555	1089.36
412.933	1071.96
413.31	1117.16
413.687	1091.62
414.065	1145.18
414.442	1136.82
414.819	1177.27
415.197	1150.15
415.574	1188.8
415.951	1210.26
416.328	1218.4
416.705	1202.58
417.082	1209.36
417.46	1269.7
417.837	1285.07
418.214	1260.88
418.591	1283.48
418.967	1292.97
419.344	1314.22
419.721	1318.96
420.098	1352.86
420.475	1373.42
420.852	1341.11
421.228	1411.84
421.605	1375.91
421.982	1404.61
422.358	1434.44
422.735	1403.93
423.111	1438.28
423.488	1486.87
423.864	1468.79
424.241	1515.34
424.617	1479.18
424.994	1526.87
425.37	1526.64
425.746	1563.93
426.123	1558.96
426.499	1597.15
426.875	1607.32
427.251	1666.98
427.627	1644.15
428.003	1684.6
428.379	1711.72
428.756	1717.37
429.132	1743.58
429.507	1751.95
429.883	1783.13
430.259	1823.81
430.635	1843.47
431.011	1862
431.387	1903.81
431.763	1916.23
432.138	1950.81
432.514	1953.07
432.89	1997.14
433.265	2044.82
433.641	2063.58
434.016	2072.39
434.392	2077.13
434.767	2144.03
435.143	2147.19
435.518	2181.09
435.894	2197.81
436.269	2227.19
436.644	2233.51
437.02	2274.19
437.395	2298.82
437.77	2301.76
438.145	2349.9
438.52	2377.01
438.895	2398.26
439.271	2401.42
439.646	2469.89
440.021	2436.9
440.395	2482.77
440.77	2493.85
441.145	2523.22
441.52	2553.05
441.895	2550.12
442.27	2550.12
442.645	2598.48
443.019	2661.07
443.394	2650.45
443.769	2652.49
444.143	2657.91
444.518	2686.38
444.892	2658.36
445.267	2693.62
445.641	2758.92
446.016	2760.96
446.39	2808.19
446.764	2855.87
447.139	2805.03
447.513	2867.62
447.887	2878.7
448.262	2870.11
448.636	2912.37
449.01	2962.08
449.384	2995.53
449.758	2980.84
450.132	3039.6
450.506	3058.58
450.88	3058.58
451.254	3107.39
451.628	3127.5
452.002	3179.25
452.376	3194.39
452.75	3226.71
453.123	3254.96
453.497	3322.75
453.871	3371.79
454.244	3381.51
454.618	3446.36
454.992	3462.63
455.365	3491.11
455.739	3600.03
456.112	3623.08
456.486	3674.83
456.859	3674.38
457.232	3779.01
457.606	3736.53
457.979	3791.21
458.352	3882.96
458.725	3908.27
459.099	3913.47
459.472	4049.06
459.845	4055.16
460.218	4115.05
460.591	4154.14
460.964	4166.35
461.337	4256.29
461.71	4323.86
462.083	4411.99
462.456	4405.66
462.829	4435.26
463.201	4581.02
463.574	4531.53
463.947	4609.95
464.32	4692.66
464.692	4805.88
465.065	4775.14
465.438	4899.21
465.81	4931.07
466.183	4981.69
466.555	5072.31
466.928	5119.77
467.3	5142.59
467.672	5223.04
468.045	5324.05
468.417	5365.18
468.789	5372.64
469.161	5432.53
469.534	5528.12
469.906	5671.84
470.278	5732.41
470.65	5790.71
471.022	5919.97
471.394	5970.82
471.766	6062.79
472.138	6152.73
472.51	6291.71
472.882	6354.54
473.253	6443.8
473.625	6483.35
473.997	6655.55
474.369	6713.4
474.74	6764.47
475.112	6860.51
475.484	7058.25
475.855	7152.03
476.227	7265.7
476.598	7521.74
476.97	7506.6
477.341	7675.18
477.713	7791.11
478.084	7815.29
478.455	8042.4
478.827	8109.07
479.198	8372.11
479.569	8391.32
479.94	8626.11
480.311	8733.68
480.682	8860.23
481.053	9097.74
481.424	9193.33
481.795	9355.59
482.166	9480.33
482.537	9615.69
482.908	9878.06
483.279	9942.92
483.65	10104.04
484.021	10305.84
484.391	10493.86
484.762	10548.55
485.133	10597.81
485.503	10763.91
485.874	11063.11
486.244	11180.17
486.615	11287.51
486.985	11483.67
487.356	11719.37
487.726	11772.7
488.097	12063.31
488.467	12091.33
488.837	12358.67
489.207	12447.26
489.578	12674.82
489.948	12734.93
490.318	12990.97
490.688	12995.04
491.058	13226.67
491.428	13515.25
491.798	13592.54
492.168	13845.64
492.538	13939.87
492.908	14118.17
493.278	14283.82
493.648	14339.64
494.017	14557.48
494.387	14749.12
494.757	14860.3
495.126	14983.24
495.496	15065.72
495.866	15194.3
496.235	15317.24
496.605	15555.65
496.974	15616.44
497.344	15790.9
497.713	15942.08
498.082	15945.92
498.452	16177.1
498.821	16261.39
499.19	16300.49
499.559	16538.22
499.928	16689.63
500.298	16717.88
500.667	16939.34
501.036	16976.18
501.405	17192.9
501.774	17132.78
502.143	17337.3
502.512	17426.56
502.88	17651.41
503.249	17689.83
503.618	17823.39
503.987	17945.19
504.356	18067.67
504.724	18107.9
505.093	18283.26
505.462	18335.69
505.83	18420.21
506.199	18579.75
506.567	18813.19
506.936	18802.8
507.304	19020.19
507.672	19108.1
508.041	19218.6
508.409	19483.46
508.777	19548.99
509.145	19729.1
509.514	19756.22
509.882	19955.53
510.25	20089.32
510.618	20218.58
510.986	20268.97
511.354	20626.25
511.722	20751.45
512.09	21032.12
512.458	20940.82
512.826	21214.94
513.193	21311.43
513.561	21328.15
513.929	21569.5
514.297	21780.57
514.664	21900.57
515.032	22120.22
515.4	22211.97
515.767	22445.64
516.135	22444.96
516.502	22384.85
516.869	22908.9
517.237	22976.7
517.604	23076.13
517.972	23319.74
518.339	23476.35
518.706	23487.65
519.073	23678.15
519.44	23774.64
519.808	24142.09
520.175	24177.12
520.542	24459.37
520.909	24704.56
521.276	24603.1
521.643	25000.37
522.009	25123.53
522.376	25312.23
522.743	25518.1
523.11	25772.1
523.477	25975.04
523.843	26223.39
524.21	26398.53
524.577	26659.77
524.943	26766.2
525.31	26999.19
525.676	27344.04
526.043	27492.06
526.409	27678.95
526.776	27956
527.142	28067.41
527.508	28238.71
527.874	28418.14
528.241	28696.55
528.607	28603.44
528.973	29024
529.339	29108.97
529.705	29396.64
530.071	29482.06
530.437	29667.82
530.803	29812.68
531.169	30097.19
531.535	29982.16
531.901	30179.67
532.267	30297.86
532.632	30480.46
532.998	30631.86
533.364	30918.41
533.73	30898.98
534.095	31167.9
534.461	31328.34
534.826	31456.25
535.192	31628.9
535.557	31823.02
535.923	31730.82
536.288	31888.33
536.653	32154.08
537.019	32124.93
537.384	32411.93
537.749	32616.44
538.114	32528.54
538.479	32625.26
538.845	32894.18
539.21	32787.74
539.575	32991.8
539.94	33168.29
540.305	33285.35
540.67	33272.92
541.034	33445.12
541.399	33606.7
541.764	33782.97
542.129	33774.38
542.494	33936.64
542.858	34109.29
543.223	34162.62
543.587	34313.35
543.952	34346.34
544.316	34403.06
544.681	34565.09
545.045	34771.87
545.41	34842.15
545.774	35108.13
546.138	34983.84
546.503	35088.7
546.867	35159.43
547.231	35457.27
547.595	35536.14
547.959	35593.77
548.324	35727.32
548.688	35725.52
549.052	35949.01
549.416	36035.11
549.779	36094.55
550.143	36287.99
550.507	36482.11
550.871	36482.56
551.235	36426.06
551.599	36867.86
551.962	36885.03
552.326	37022.66
552.689	37316.89
553.053	37065.37
553.417	37507.84
553.78	37828.29
554.143	37666.71
554.507	38010.88
554.87	38006.81
555.234	38444.77
555.597	38309.85
555.96	38478.44
556.323	38686.57
556.686	38654.7
557.05	38931.31
557.413	39158.65
557.776	39163.39
558.139	39446.1
558.502	39624.17
558.865	39666.43
559.228	39969.7
559.59	40089.92
559.953	40227.77
560.316	40717.02
560.679	40745.27
561.041	40980.52
561.404	41185.48
561.767	41425.93
562.129	41147.52
562.492	41697.34
562.854	41794.06
563.217	41632.03
563.579	41888.74
563.941	42214.16
564.304	42465.23
564.666	42690.3
565.028	42716.07
565.39	42860.92
565.753	43138.88
566.115	43335.26
566.477	43586.55
566.839	43718.07
567.201	43909.03
567.563	44064.96
567.925	44303.37
568.287	44558.5
568.648	44487.77
569.01	44809.8
569.372	45095.44
569.734	45034.2
570.095	45242.78
570.457	45349.9
570.819	45536.1
571.18	45721.18
571.542	46099.71
571.903	46037.33
572.265	46175.18
572.626	46271.9
572.987	46404.33
573.349	46628.05
573.71	46738.33
574.071	46871.89
574.432	46990.98
574.794	47291.09
575.155	47314.14
575.516	47165.44
575.877	47369.05
576.238	47504.64
576.599	47539.22
576.96	47719.1
577.32	47770.4
577.681	47983.72
578.042	48121.57
578.403	48118.41
578.763	48154.79
579.124	48300.33
579.485	48450.15
579.845	48733.99
580.206	48559.3
580.566	48558.62
580.927	48684.27
581.287	48847.88
581.648	48707.32
582.008	48793.42
582.368	48784.16
582.728	48958.61
583.089	48958.39
583.449	48827.54
583.809	48859.86
584.169	48906.41
584.529	48976.24
584.889	49136.46
585.249	49019.18
585.609	49069.57
585.969	49314.08
586.329	49091.04
586.688	49199.29
587.048	49072.74
587.408	49052.17
587.768	49082.23
588.127	49184.6
588.487	49122.23
588.846	49290.36
589.206	49190.7
589.565	49119.06
589.925	49319.51
590.284	49266.85
590.643	49319.28
591.003	49339.62
591.362	49437.7
591.721	49369.68
592.08	49373.07
592.44	49514.08
592.799	49513.63
593.158	49454.19
593.517	49478.6
593.876	49553.85
594.235	49457.13
594.593	49553.4
594.952	49660.97
595.311	49529.45
595.67	49627.07
596.029	49662.1
596.387	49826.39
596.746	49828.87
597.104	49569.9
597.463	49617.58
597.822	49853.28
598.18	49647.64
598.538	49715.2
598.897	49888.98
599.255	49532.16
599.613	50142.54
599.972	49848.53
600.33	49952.03
600.688	49761.98
601.046	49907.52
601.404	50104.12
601.762	49955.2
602.12	50109.54
602.478	50079.26
602.836	50197.45
603.194	49955.2
603.552	50107.51
603.91	49930.57
604.268	50194.74
604.625	50115.87
604.983	50267.96
605.341	50162.2
605.698	50389.54
606.056	50543.2
606.413	50500.27
606.771	50414.39
607.128	50545.69
607.485	50350.89
607.843	50465.69
608.2	50609.19
608.557	50737.1
608.914	50540.27
609.272	50799.24
609.629	50848.96
609.986	50847.38
610.343	50542.75
610.7	50845.12
611.057	50871.56
611.414	50828.62
611.771	50793.37
612.127	50952.69
612.484	50898.22
612.841	51161.27
613.198	50937.32
613.554	51023.42
613.911	51223.86
614.267	51213.92
614.624	51145.67
614.98	51212.79
615.337	51492.56
615.693	51376.4
616.05	51289.63
616.406	51568.04
616.762	51469.73
617.118	51384.09
617.475	51401.26
617.831	51495.72
618.187	51540.92
618.543	51651.65
618.899	51739.78
619.255	51676.51
619.611	51674.7
619.967	51741.59
620.323	51830.85
620.678	51721.93
621.034	51645.1
621.39	51613.46
621.746	51601.03
622.101	51952.89
622.457	51652.1
622.812	51797.64
623.168	51793.12
623.523	51798.54
623.879	51963.73
624.234	51685.32
624.589	51860.46
624.945	51815.94
625.3	51939.33
625.655	51886.22
626.01	52045.09
626.365	51887.35
626.72	51843.96
627.075	51909.95
627.43	51785.66
627.785	51764.42
628.14	51805.32
628.495	51834.7
628.85	51736.17
629.205	51640.13
629.559	51836.5
629.914	51641.48
630.269	51759.67
630.623	51405.56
630.978	51474.93
631.332	51591.76
631.687	51642.61
632.041	51349.74
632.396	51490.07
632.75	51282.17
633.104	51391.09
633.459	51288.95
633.813	51155.62
634.167	51185
634.521	51176.18
634.875	51164.21
635.229	51032.68
635.583	50933.7
635.937	51028.84
636.291	50999.01
636.645	50894.16
636.999	50908.17
637.352	50954.04
637.706	50680.83
638.06	50837.21
638.413	50769.87
638.767	50727.38
639.121	50806.93
639.474	50549.76
639.828	50644.9
640.181	50547.27
640.534	50528.06
640.888	50325.58
641.241	50305.92
641.594	50468.18
641.947	50546.37
642.301	50369.88
642.654	50397.67
643.007	50338.92
643.36	50274.96
643.713	50194.06
644.066	50238.35
644.419	49992.48
644.771	49776.22
645.124	49439.73
645.477	49367.19
645.83	49169.68
646.182	49079.97
646.535	48989.35
646.888	49010.14
647.24	48724.04
647.593	49054.2
647.945	48764.95
648.298	48650.83
648.65	48513.65
649.002	48593.43
649.355	48642.01
649.707	48542.58
650.059	48596.36
650.411	49193.64
650.763	49177.82
651.115	49537.58
651.467	49338.94
651.819	49361.09
652.171	49180.98
652.523	49069.57
652.875	49053.53
653.227	49038.84
653.578	49213.52
653.93	49094.66
654.282	48865.06
654.633	48749.35
654.985	48797.49
655.337	48752.74
655.688	48695.8
656.039	48780.09
656.391	48492.19
656.742	48529.47
657.094	48606.76
657.445	48676.59
657.796	48495.12
658.147	48510.49
658.498	48522.69
658.849	48532.64
659.2	48398.4
659.551	48396.59
659.902	48456.03
660.253	48335.81
660.604	48368.12
660.955	48279.99
661.306	48365.41
661.656	48311.85
662.007	48398.4
662.358	48292.87
662.708	48332.42
663.059	48325.64
663.409	48128.58
663.76	48368.12
664.11	48346.88
664.461	48279.76
664.811	48263.26
665.161	48242.25
665.511	48026.21
665.862	48164.06
666.212	48159.76
666.562	48210.61
666.912	48126.55
667.262	47978.75
667.612	48069.82
667.962	48143.95
668.312	48047.9
668.662	48238.86
669.011	48082.48
669.361	47974.91
669.711	48073.21
670.06	48028.69
670.41	47918.42
670.76	47941.24
671.109	47945.53
671.459	47876.16
671.808	47878.87
672.157	47889.04
672.507	47646.56
672.856	47787.8
673.205	47839.1
673.554	47888.13
673.904	47857.4
674.253	47924.97
674.602	47695.37
674.951	47070.98
675.3	46854.04
675.649	47527.92
675.998	47418.77
676.346	47573.79
676.695	47511.42
677.044	47252.22
677.393	47349.39
677.741	47468.48
678.09	47365.89
678.438	47201.82
678.787	47384.87
679.135	47220.13
679.484	47002.51
679.832	47171.09
680.181	46833.47
680.529	47079.12
680.877	46918.67
681.225	46880.25
681.573	46977.2
681.922	46778.33
682.27	46692.68
682.618	46647.26
682.966	46551.22
683.314	46702.63
683.661	46513.25
684.009	46339.7
684.357	46347.38
684.705	46138.57
685.053	46172.92
685.4	46065.13
685.748	45761.18
686.095	45836.66
686.443	45698.59
686.79	45460.17
687.138	45753.73
687.485	45736.1
687.832	45404.58
688.18	45394.19
688.527	45309.67
688.874	45356.22
689.221	45108.55
689.568	45051.15
689.915	44962.79
690.262	44911.71
690.609	44789.01
690.956	44792.4
691.303	44656.58
691.65	44389.24
691.997	44361.67
692.344	44187.21
692.69	44225.63
693.037	44263.37
693.383	43750.16
693.73	44049.82
694.077	43651.63
694.423	43906.09
694.769	43551.52
695.116	43602.37
695.462	43469.04
695.808	43312.43
696.155	43331.42
696.501	42916.74
696.847	42915.38
697.193	42739.57
697.539	42912.9
697.885	42625.45
698.231	42401.5
698.577	42328.73
698.923	42131.9
699.269	42147.27
699.614	42037.67
699.96	41828.63
700.306	41931.45
700.651	41658.69
700.997	41549.09
701.342	41510.67
701.688	41553.38
702.033	41273.84
702.379	41317.01
702.724	41131.93
703.069	41236.33
703.415	40734.2
703.76	40963.12
704.105	40861.2
704.45	40672.5
704.795	40410.36
705.14	40231.39
705.485	40258.5
705.83	40123.14
706.175	40172.63
706.52	40149.35
706.865	39822.81
707.209	39747.56
707.554	39601.57
707.899	39675.47
708.243	39405.19
708.588	39326.55
708.932	39278.87
709.277	39108.48
709.621	39065.09
709.966	38828.48
710.31	38847.47
710.654	38518.21
710.998	38624.65
711.342	38528.83
711.687	38478.44
712.031	38395.5
712.375	38294.94
712.719	38308.72
713.063	38110.99
713.407	38266.24
713.75	38039.13
714.094	37989.18
714.438	37873.93
714.782	37919.13
715.125	37734.95
715.469	37791.9
715.812	37563.89
716.156	37428.3
716.499	37484.34
716.843	37506.03
717.186	37262.88
717.53	37395.75
717.873	37339.71
718.216	37110.79
718.559	37062.88
718.902	36945.82
719.246	36912.38
719.589	36838.71
719.932	36673.97
720.275	36518.04
720.617	36505.83
720.96	36399.17
721.303	36264.94
721.646	36349.45
721.989	36136.35
722.331	36297.03
722.674	36104.49
723.016	36146.97
723.359	35995.34
723.701	35984.27
724.044	35753.31
724.386	35710.6
724.729	35807.32
725.071	35594.9
725.413	35650.04
725.755	35536.82
726.097	35367.33
726.439	35095.25
726.782	35272.19
727.124	35368.01
727.465	35152.65
727.807	35036.04
728.149	34925.76
728.491	34986.1
728.833	34886.22
729.175	34929.15
729.516	34743.62
729.858	34800.79
730.199	34735.71
730.541	34724.19
730.882	34625.21
731.224	34657.07
731.565	34497.07
731.906	34519.22
732.248	34549.28
732.589	34400.13
732.93	34245.33
733.271	34194.03
733.612	34300.69
733.953	34244.65
734.294	33927.37
734.635	33915.62
734.976	33977.76
735.317	33709.98
735.658	33877.65
735.999	33751.1
736.339	33706.36
736.68	33702.74
737.021	33549.08
737.361	33372.13
737.702	33692.12
738.042	33388.4
738.383	33402.19
738.723	33422.3
739.063	33151.8
739.404	33220.04
739.744	33125.13
740.084	32965.14
740.424	33120.39
740.764	32857.79
741.104	33070.22
741.444	32809.66
741.784	32833.84
742.124	32784.12
742.464	32754.07
742.804	32653.96
743.143	32572.6
743.483	32467.97
743.823	32481.31
744.162	32289.22
744.502	32335.32
744.841	32096.91
745.181	32245.15
745.52	32110.92
745.86	32099.17
746.199	31977.37
746.538	32063.92
746.877	31990.92
747.216	31913.86
747.556	31797.94
747.895	31783.25
748.234	31647.66
748.573	31705.51
748.911	31672.51
749.25	31610.82
749.589	31458.96
749.928	31413.31
750.267	31428.23
750.605	31302.13
750.944	31229.81
751.283	31114.56
751.621	31169.7
751.96	31012.19
752.298	31040.67
752.636	31108.01
752.975	30939.43
753.313	30823.95
