Data from aluminium_surface_pro_back_FLMS001491_00096.txt Node
Date: Wed Feb 08 15:34:47 GMT 2017
User: dcchb
Spectrometer: FLMS00149
Trigger mode: 0
Integration Time (sec): 2.000000E-2
Scans to average: 10
Electric dark correction enabled: true
Nonlinearity correction enabled: false
Boxcar width: 0
XAxis mode: Wavelengths
Number of Pixels in Spectrum: 2048
>>>>>Begin Spectral Data<<<<<
341.393	-17.17
341.776	-17.17
342.16	-17.17
342.543	-55.14
342.927	-63.95
343.31	-71.86
343.693	-79.77
344.077	-56.72
344.46	-56.72
344.843	-45.87
345.226	-45.42
345.61	-14.46
345.993	-31.64
346.376	-16.04
346.759	16.5
347.142	35.03
347.525	52.88
347.908	44.97
348.291	86.1
348.674	94.91
349.057	88.13
349.44	105.53
349.823	139.88
350.206	161.13
350.588	225.3
350.971	240.67
351.354	256.72
351.737	275.7
352.119	263.5
352.502	297.17
352.884	293.33
353.267	296.72
353.65	321.12
354.032	316.38
354.414	334.45
354.797	329.26
355.179	360.67
355.562	334
355.944	337.62
356.326	371.74
356.709	369.48
357.091	374.45
357.473	364.74
357.855	360.89
358.238	381.01
358.62	361.12
359.002	379.43
359.384	385.75
359.766	367
360.148	376.49
360.53	371.97
360.912	377.84
361.294	377.17
361.676	361.12
362.057	386.2
362.439	363.15
362.821	363.83
363.203	381.23
363.584	357.73
363.966	370.39
364.348	342.14
364.729	346.21
365.111	373.78
365.493	360.67
365.874	390.05
366.256	372.19
366.637	369.26
367.019	358.63
367.4	366.32
367.781	366.54
368.163	377.17
368.544	357.05
368.925	358.86
369.306	393.89
369.688	376.04
370.069	370.84
370.45	381.91
370.831	378.97
371.212	371.29
371.593	373.55
371.974	388.92
372.355	367.9
372.736	358.86
373.117	398.18
373.498	379.2
373.879	389.37
374.26	370.39
374.641	367
375.021	381.23
375.402	393.21
375.783	401.57
376.163	427.33
376.544	405.19
376.925	402.25
377.305	423.72
377.686	402.02
378.066	429.59
378.447	421.23
378.827	437.05
379.208	414.9
379.588	433.66
379.968	439.31
380.349	433.66
380.729	444.28
381.109	428.01
381.489	430.72
381.87	452.64
382.25	428.92
382.63	455.13
383.01	440.89
383.39	461.68
383.77	463.72
384.15	467.78
384.53	463.04
384.91	502.59
385.29	487.22
385.67	483.83
386.049	482.93
386.429	499.42
386.809	483.6
387.189	499.87
387.568	516.6
387.948	530.16
388.328	508.24
388.707	540.1
389.087	509.37
389.466	522.25
389.846	545.52
390.225	546.88
390.605	557.95
390.984	565.18
391.363	567.44
391.743	549.14
392.122	566.54
392.501	581.68
392.881	596.82
393.26	609.02
393.639	613.09
394.018	590.49
394.397	614.67
394.776	625.75
395.155	632.75
395.534	619.19
395.913	636.14
396.292	641.11
396.671	646.31
397.05	644.73
397.429	667.33
397.808	661
398.186	682.24
398.565	694.45
398.944	701.68
399.323	687.44
399.701	680.21
400.08	708.23
400.458	717.5
400.837	731.28
401.215	729.02
401.594	738.74
401.972	759.75
402.351	724.27
402.729	750.26
403.107	768.12
403.486	797.72
403.864	789.36
404.242	783.03
404.62	801.33
404.999	821.9
405.377	814.22
405.755	836.81
406.133	856.47
406.511	856.25
406.889	863.48
407.267	892.41
407.645	879.52
408.023	895.34
408.401	893.08
408.779	922.46
409.156	923.59
409.534	962.01
409.912	947.55
410.29	991.39
410.667	991.16
411.045	998.39
411.422	1035.9
411.8	1012.85
412.178	1041.33
412.555	1015.34
412.933	1064.15
413.31	1055.11
413.687	1085.85
414.065	1093.76
414.442	1130.82
414.819	1104.83
415.197	1127.43
415.574	1144.83
415.951	1154.77
416.328	1162
416.705	1187.77
417.082	1165.39
417.46	1227.09
417.837	1232.06
418.214	1225.73
418.591	1238.16
418.967	1255.11
419.344	1291.27
419.721	1304.37
420.098	1275.67
420.475	1308.67
420.852	1314.32
421.228	1329.68
421.605	1334.2
421.982	1385.05
422.358	1373.52
422.735	1399.74
423.111	1396.8
423.488	1388.44
423.864	1419.85
424.241	1458.04
424.617	1443.13
424.994	1472.28
425.37	1517.25
425.746	1486.74
426.123	1508.89
426.499	1539.39
426.875	1551.6
427.251	1564.03
427.627	1601.09
428.003	1627.08
428.379	1655.1
428.756	1664.14
429.132	1695.55
429.507	1696.23
429.883	1721.08
430.259	1777.13
430.635	1779.16
431.011	1796.79
431.387	1810.35
431.763	1851.48
432.138	1835.88
432.514	1890.12
432.89	1921.98
433.265	1960.4
433.641	1940.97
434.016	2004.47
434.392	2006.5
434.767	2054.86
435.143	2044.69
435.518	2087.4
435.894	2083.56
436.269	2138.93
436.644	2156.78
437.02	2170.79
437.395	2161.75
437.77	2208.53
438.145	2243.78
438.52	2275.19
438.895	2279.71
439.271	2317.23
439.646	2351.12
440.021	2399.26
440.395	2394.97
440.77	2352.03
441.145	2397.45
441.52	2432.03
441.895	2464.57
442.27	2478.58
442.645	2502.76
443.019	2527.62
443.394	2492.82
443.769	2503.66
444.143	2531.01
444.518	2588.86
444.892	2571.68
445.267	2605.81
445.641	2606.94
446.016	2674.73
446.39	2666.6
446.764	2660.04
447.139	2679.25
447.513	2736.65
447.887	2751.34
448.262	2748.4
448.636	2768.97
449.01	2823.2
449.384	2827.27
449.758	2871.56
450.132	2876.99
450.506	2917.89
450.88	2908.85
451.254	2939.13
451.628	3006.02
452.002	3005.34
452.376	3074.27
452.75	3069.75
453.123	3106.81
453.497	3152.01
453.871	3174.83
454.244	3192.46
454.618	3253.7
454.992	3304.32
455.365	3305.45
455.739	3383.64
456.112	3411.66
456.486	3435.62
456.859	3490.53
457.232	3564.88
457.606	3592.22
457.979	3582.05
458.352	3649.4
458.725	3685.78
459.099	3747.25
459.472	3851.65
459.845	3806.68
460.218	3851.2
460.591	3927.35
460.964	3977.07
461.337	4038.31
461.71	4042.61
462.083	4149.95
462.456	4132.77
462.829	4224.75
463.201	4257.06
463.574	4284.41
463.947	4365.53
464.32	4420.22
464.692	4484.63
465.065	4484.4
465.438	4625.64
465.81	4607.79
466.183	4708.12
466.555	4764.39
466.928	4831.74
467.3	4836.48
467.672	4981.56
468.045	5016.37
468.417	5046.42
468.789	5079.19
469.161	5140.43
469.534	5231.73
469.906	5364.6
470.278	5400.08
470.65	5474.88
471.022	5581.1
471.394	5682.34
471.766	5706.52
472.138	5786.97
472.51	5889.79
472.882	6001.88
473.253	6046.62
473.625	6156.22
473.997	6295.88
474.369	6285.26
474.74	6404.58
475.112	6514.18
475.484	6656.32
475.855	6748.75
476.227	6812.02
476.598	7010.44
476.97	7113.71
477.341	7249.07
477.713	7297.21
478.084	7363.87
478.455	7569.07
478.827	7563.87
479.198	7933.58
479.569	7937.42
479.94	8119.11
480.311	8166.56
480.682	8374.7
481.053	8499.21
481.424	8691.3
481.795	8797.06
482.166	8921.8
482.537	9088.8
482.908	9267.1
483.279	9314.33
483.65	9473.42
484.021	9711.84
484.391	9775.34
484.762	9888.55
485.133	9900.3
485.503	10169.45
485.874	10367.19
486.244	10482.89
486.615	10677.46
486.985	10789.09
487.356	10989.09
487.726	11071.12
488.097	11285.58
488.467	11312.7
488.837	11636.3
489.207	11682.18
489.578	11913.13
489.948	12039.01
490.318	12217.31
490.688	12357.19
491.058	12437.41
491.428	12663.62
491.798	12805.31
492.168	13082.37
492.538	13136.15
492.908	13288.24
493.278	13448.91
493.648	13480.1
494.017	13706.53
494.387	13824.5
494.757	13871.5
495.126	14144.71
495.496	14118.72
495.866	14291.83
496.235	14419.96
496.605	14506.06
496.974	14649.56
497.344	14855.65
497.713	14905.82
498.082	15084.58
498.452	15177.23
498.821	15232.14
499.19	15391.23
499.559	15486.6
499.928	15553.04
500.298	15756.65
500.667	15859.92
501.036	15928.17
501.405	16032.8
501.774	16117.32
502.143	16314.15
502.512	16302.17
502.88	16463.97
503.249	16625.55
503.618	16745.1
503.987	16798.88
504.356	16948.03
504.724	17046.56
505.093	17211.3
505.462	17224.63
505.83	17342.82
506.199	17576.04
506.567	17705.75
506.936	17753.88
507.304	17987.78
507.672	18082.69
508.041	18106.87
508.409	18300.99
508.777	18509.12
509.145	18606.29
509.514	18648.32
509.882	18733.52
510.25	18835.89
510.618	18985.04
510.986	18999.5
511.354	19254.86
511.722	19483.1
512.09	19576.66
512.458	19598.58
512.826	19840.16
513.193	19849.42
513.561	19964.9
513.929	20169.41
514.297	20472.91
514.664	20515.17
515.032	20708.16
515.4	20839
515.767	20947.47
516.135	21027.92
516.502	21024.76
516.869	21612.99
517.237	21592.88
517.604	21584.52
517.972	21865.64
518.339	22041.68
518.706	22114.9
519.073	22229.02
519.44	22482.35
519.808	22711.49
520.175	22711.49
520.542	23022.22
520.909	23117.81
521.276	23170.92
521.643	23453.39
522.009	23614.29
522.376	23788.75
522.743	23972.25
523.11	24215.18
523.477	24425.8
523.843	24659.24
524.21	24894.71
524.577	25134.03
524.943	25234.14
525.31	25389.39
525.676	25643.62
526.043	25852.2
526.409	25939.88
526.776	26241.12
527.142	26367.44
527.508	26506.65
527.874	26701.44
528.241	26906.86
528.607	26988.67
528.973	27157.03
529.339	27286.06
529.705	27477.47
530.071	27892.6
530.437	27924.01
530.803	27999.94
531.169	28258.69
531.535	28285.81
531.901	28342.98
532.267	28504.11
532.632	28785.01
532.998	28770.99
533.364	28939.35
533.73	29120.59
534.095	29287.37
534.461	29471.54
534.826	29636.06
535.192	29653.68
535.557	29832.66
535.923	29812.1
536.288	30063.84
536.653	30182.71
537.019	30167.57
537.384	30406.21
537.749	30570.95
538.114	30681.68
538.479	30756.25
538.845	30831.96
539.21	30797.61
539.575	31118.28
539.94	31210.7
540.305	31343.13
540.67	31389.46
541.034	31490.92
541.399	31553.29
541.764	31709
542.129	31849.56
542.494	31828.32
542.858	32081.42
543.223	32179.04
543.587	32390.33
543.952	32339.04
544.316	32490.45
544.681	32518.47
545.045	32649.09
545.41	32955.52
545.774	33005.01
546.138	33012.01
546.503	33141.28
546.867	33165.23
547.231	33383.98
547.595	33414.49
547.959	33655.84
548.324	33616.97
548.688	33763.86
549.052	33881.82
549.416	33980.35
549.779	34073.45
550.143	34178.99
550.507	34393.67
550.871	34473.9
551.235	34541.69
551.599	34788.24
551.962	34869.37
552.326	34972.41
552.689	35109.13
553.053	35035.24
553.417	35210.6
553.78	35711.6
554.143	35548.67
554.507	35765.16
554.87	35739.63
555.234	36048.09
555.597	36093.51
555.96	36178.94
556.323	36404.92
556.686	36490.11
557.05	36817.34
557.413	36900.95
557.776	37018.91
558.139	37198.57
558.502	37426.36
558.865	37403.54
559.228	37745.9
559.59	37772.79
559.953	37790.42
560.316	38394.7
560.679	38365.77
561.041	38626.1
561.404	38899.99
561.767	38962.37
562.129	38984.06
562.492	39374.11
562.854	39393.09
563.217	39397.16
563.579	39632.4
563.941	39885.28
564.304	40174.76
564.666	40393.97
565.028	40404.36
565.39	40602.32
565.753	40637.8
566.115	40960.73
566.477	41104
566.839	41192.82
567.201	41667.83
567.563	41565.46
567.925	41904.21
568.287	41869.18
568.648	42015.84
569.01	42330.86
569.372	42595.72
569.734	42532.44
570.095	42706.9
570.457	43117.28
570.819	43128.58
571.18	43143.05
571.542	43416.26
571.903	43488.35
572.265	43566.76
572.626	43810.6
572.987	43832.97
573.349	44090.37
573.71	44200.87
574.071	44376.01
574.432	44559.51
574.794	44859.61
575.155	44872.04
575.516	44775.09
575.877	45079.27
576.238	45136.44
576.599	45344.34
576.96	45371.24
577.32	45366.94
577.681	45552.02
578.042	45630.21
578.403	45816.42
578.763	45789.3
579.124	45895.52
579.485	46041.28
579.845	45987.27
580.206	45962.63
580.566	46145.23
580.927	46108.17
581.287	46357.65
581.648	46293.47
582.008	46403.3
582.368	46373.24
582.728	46359.46
583.089	46452.11
583.449	46464.99
583.809	46557.19
584.169	46538.21
584.529	46568.72
584.889	46888.03
585.249	46618.66
585.609	46595.39
585.969	46904.76
586.329	46831.31
586.688	46789.05
587.048	46744.76
587.408	46715.61
587.768	46726.23
588.127	46678.09
588.487	46638.55
588.846	46934.81
589.206	46638.1
589.565	46663.86
589.925	46742.95
590.284	46781.14
590.643	46804.42
591.003	46873.57
591.362	47090.51
591.721	46762.16
592.08	46932.55
592.44	47023.4
592.799	46966.67
593.158	46850.07
593.517	46960.8
593.876	47019.55
594.235	46942.49
594.593	47074.47
594.952	47135.71
595.311	46956.28
595.67	47180
596.029	47286.44
596.387	47345.2
596.746	47364.18
597.104	47355.14
597.463	47308.36
597.822	47323.05
598.18	47211.41
598.538	47234.24
598.897	47481.46
599.255	47099.78
599.613	47742.02
599.972	47409.37
600.33	47501.58
600.688	47373.22
601.046	47558.52
601.404	47644.4
601.762	47549.26
602.12	47767.33
602.478	47839.65
602.836	47811.85
603.194	47668.8
603.552	47777.27
603.91	47792.19
604.268	47916.93
604.625	47836.93
604.983	48018.4
605.341	47773.21
605.698	48080.32
606.056	48241.22
606.413	48190.15
606.771	48286.19
607.128	48244.83
607.485	48188.11
607.843	48208.9
608.2	48373.19
608.557	48585.62
608.914	48381.33
609.272	48565.73
609.629	48595.78
609.986	48674.2
610.343	48628.1
610.7	48924.59
611.057	48686.86
611.414	48667.42
611.771	48673.52
612.127	48881.65
612.484	48805.27
612.841	48916.23
613.198	48851.82
613.554	48927.98
613.911	49073.74
614.267	48981.76
614.624	49036.9
614.98	49113.51
615.337	49293.17
615.693	49234.19
616.05	49184.02
616.406	49398.48
616.762	49242.1
617.118	49339.95
617.475	49324.8
617.831	49497.23
618.187	49410
618.543	49466.27
618.899	49628.3
619.255	49643.21
619.611	49576.1
619.967	49689.31
620.323	49750.33
620.678	49589.88
621.034	49627.85
621.39	49593.72
621.746	49633.05
622.101	49997.33
622.457	49628.3
622.812	49758.47
623.168	49806.37
623.523	49830.55
623.879	49913.94
624.234	49631.01
624.589	49811.57
624.945	49852.47
625.3	49873.72
625.655	49817
626.01	49965.47
626.365	49916.2
626.72	49853.38
627.075	49843.44
627.43	49889.99
627.785	49754.85
628.14	49805.92
628.495	49778.58
628.85	49759.82
629.205	49700.39
629.559	49890.21
629.914	49644.34
630.269	49682.31
630.623	49703.1
630.978	49541.3
631.332	49833.72
631.687	49700.61
632.041	49602.54
632.396	49513.5
632.75	49488.64
633.104	49608.87
633.459	49482.31
633.813	49292.49
634.167	49316.9
634.521	49289.55
634.875	49338.14
635.229	49270.34
635.583	48988.32
635.937	49014.08
636.291	48965.49
636.645	48893.4
636.999	48865.61
637.352	48955.77
637.706	48786.51
638.06	48826.06
638.413	48726.18
638.767	48580.19
639.121	48567.08
639.474	48357.15
639.828	48395.56
640.181	48523.92
640.534	48374.55
640.888	48274.66
641.241	48166.19
641.594	48106.98
641.947	48195.12
642.301	48254.55
642.654	48182.46
643.007	48226.3
643.36	48129.36
643.713	48030.15
644.066	48154.21
644.419	47868.8
644.771	47573.89
645.124	47220.45
645.477	47151.3
645.83	47016.16
646.182	46791.76
646.535	46759.45
646.888	46777.75
647.24	46541.15
647.593	46835.83
647.945	46640.13
648.298	46334.15
648.65	46406.92
649.002	46236.07
649.355	46321.27
649.707	46425.22
650.059	46459.34
650.411	46846.9
650.763	46944.53
651.115	47233.79
651.467	47113.11
651.819	47119.21
652.171	46863.4
652.523	46870.18
652.875	46868.15
653.227	46664.99
653.578	47006.45
653.93	46730.97
654.282	46589.28
654.633	46615.72
654.985	46536.18
655.337	46531.88
655.688	46537.53
656.039	46765.55
656.391	46352.45
656.742	46535.05
657.094	46485.56
657.445	46729.62
657.796	46479.46
658.147	46515.16
658.498	46473.58
658.849	46604.42
659.2	46407.59
659.551	46335.5
659.902	46538.89
660.253	46342.74
660.604	46450.76
660.955	46241.27
661.306	46379.35
661.656	46279.01
662.007	46307.93
662.358	46251.89
662.708	46205.56
663.059	46132.35
663.409	45949.75
663.76	46279.01
664.11	46143.19
664.461	46255.51
664.811	46204.89
665.161	46006.93
665.511	46018.45
665.862	45979.81
666.212	46158.79
666.562	46075.17
666.912	45910.88
667.262	45934.16
667.612	45832.24
667.962	45848.74
668.312	45800.6
668.662	45924.22
669.011	45636.09
669.361	45601.29
669.711	45460.5
670.06	45408.75
670.41	45349.32
670.76	45219.6
671.109	45472.25
671.459	45334.4
671.808	45301.18
672.157	45350.67
672.507	45043.11
672.856	45118.36
673.205	45138.25
673.554	45173.73
673.904	44926.95
674.253	45309.54
674.602	45079.04
674.951	44397.25
675.3	44230.25
675.649	45016.22
675.998	44859.84
676.346	44943.45
676.695	44896.9
677.044	44679.28
677.393	44735.32
677.741	44827.52
678.09	44847.18
678.438	44630.92
678.787	44703.91
679.135	44722.67
679.484	44437.25
679.832	44516.12
680.181	44355.44
680.529	44479.28
680.877	44303.69
681.225	44359.29
681.573	44471.6
681.922	44297.82
682.27	44115
682.618	44139.63
682.966	44032.06
683.314	44155.9
683.661	44104.15
684.009	43756.82
684.357	43653.77
684.705	43770.6
685.053	43700.55
685.4	43589.36
685.748	43494
686.095	43411.06
686.443	43209.26
686.79	42980.11
687.138	43213.78
687.485	43188.47
687.832	43056.95
688.18	43023.28
688.527	42804.98
688.874	42671.87
689.221	42700.12
689.568	42530.18
689.915	42322.05
690.262	42371.32
690.609	42230.53
690.956	42000.7
691.303	42135.39
691.65	41925.45
691.997	41996.86
692.344	41626.7
692.69	41693.37
693.037	41762.07
693.383	41342.87
693.73	41588.06
694.077	41376.31
694.423	41224.45
694.769	41184.91
695.116	41016.1
695.462	40911.24
695.808	40826.95
696.155	40867.17
696.501	40724.13
696.847	40511.25
697.193	40384.25
697.539	40471.03
697.885	40167.98
698.231	40059.29
698.577	39893.41
698.923	40018.61
699.269	39675.57
699.614	39560.54
699.96	39397.83
700.306	39389.25
700.651	39214.34
700.997	39050.5
701.342	39003.04
701.688	38987.45
702.033	38914.46
702.379	38793.78
702.724	38640.11
703.069	38759.43
703.415	38315.6
703.76	38470.4
704.105	38438.09
704.45	38306.34
704.795	38010.3
705.14	37817.08
705.485	37923.97
705.83	37808.5
706.175	37779.12
706.52	37807.82
706.865	37667.48
707.209	37541.61
707.554	37359.47
707.899	37519.01
708.243	37068.18
708.588	37049.42
708.932	36908.86
709.277	36910.89
709.621	37001.29
709.966	36620.28
710.31	36703.67
710.654	36407.86
710.998	36418.25
711.342	36538.7
711.687	36311.59
712.031	36240.86
712.375	36038.6
712.719	36094.64
713.063	36063.01
713.407	36111.59
713.75	35924.71
714.094	35873.18
714.438	35738.5
714.782	35794.77
715.125	35590.25
715.469	35647.88
715.812	35362.69
716.156	35228.68
716.499	35326.3
716.843	35205.63
717.186	35105.52
717.53	35165.18
717.873	35141.22
718.216	35081.34
718.559	34915.47
718.902	34824.62
719.246	34778.97
719.589	34658.98
719.932	34531.52
720.275	34446.33
720.617	34443.39
720.96	34369.27
721.303	34274.58
721.646	34252.88
721.989	34059.67
722.331	34169.95
722.674	34197.74
723.016	34041.59
723.359	34026
723.701	33956.4
724.044	33670.08
724.386	33645.22
724.729	33784.87
725.071	33603.18
725.413	33476.18
725.755	33478.89
726.097	33397.54
726.439	33193.7
726.782	33134.27
727.124	33312.12
727.465	33136.76
727.807	33084.55
728.149	32905.12
728.491	32937.21
728.833	32943.54
729.175	32699.25
729.516	32728.4
729.858	32785.58
730.199	32683.21
730.541	32562.99
730.882	32591.23
731.224	32616.77
731.565	32451.35
731.906	32328.19
732.248	32411.8
732.589	32247.06
732.93	32160.74
733.271	32172.49
733.612	32182.88
733.953	32172.04
734.294	31978.82
734.635	31882.78
734.976	32018.82
735.317	31861.54
735.658	31855.43
735.999	31847.75
736.339	31690.69
736.68	31984.24
737.021	31827.64
737.361	31579.28
737.702	31697.25
738.042	31601.65
738.383	31510.81
738.723	31575.89
739.063	31442.56
739.404	31422.22
739.744	31426.07
740.084	31179.07
740.424	31248.44
740.764	31229.91
741.104	31261.78
741.444	31067.43
741.784	30966.87
742.124	31065.62
742.464	30823.82
742.804	30816.82
743.143	30657.27
743.483	30683.04
743.823	30595.58
744.162	30428.8
744.502	30527.56
744.841	30455.24
745.181	30528.69
745.52	30245.31
745.86	30281.69
746.199	30283.95
746.538	30275.14
746.877	30127.34
747.216	30175.03
747.556	30116.04
747.895	29970.74
748.234	29791.99
748.573	29840.35
748.911	29722.16
749.25	29717.86
749.589	29621.14
749.928	29696.17
750.267	29561.03
750.605	29564.42
750.944	29489.85
751.283	29273.81
751.621	29259.8
751.96	29244.2
752.298	29185.67
752.636	29093.7
752.975	28865.68
753.313	28874.95
753.651	28879.24
