Data from aluminium_macbook_case_FLMS001491_052.txt Node
Date: Tue Feb 07 10:43:49 GMT 2017
User: dcchb
Spectrometer: FLMS00149
Trigger mode: 0
Integration Time (sec): 2.000000E-2
Scans to average: 10
Electric dark correction enabled: true
Nonlinearity correction enabled: false
Boxcar width: 0
XAxis mode: Wavelengths
Number of Pixels in Spectrum: 2048
>>>>>Begin Spectral Data<<<<<
341.393	-19.66
341.776	-19.66
342.16	-19.66
342.543	-81.58
342.927	-68.92
343.31	-74.57
343.693	-62.82
344.077	-66.21
344.46	-58.08
344.843	-52.2
345.226	-51.52
345.61	-26.89
345.993	-6.1
346.376	-7.68
346.759	-8.36
347.142	41.81
347.525	34.8
347.908	57.85
348.291	74.12
348.674	107.79
349.057	98.08
349.44	141.01
349.823	148.02
350.206	160.67
350.588	246.1
350.971	262.82
351.354	279.77
351.737	298.98
352.119	327.22
352.502	330.16
352.884	329.48
353.267	367.9
353.65	339.43
354.032	358.63
354.414	367.67
354.797	365.41
355.179	374.91
355.562	391.18
355.944	397.05
356.326	390.5
356.709	403.61
357.091	414.9
357.473	397.96
357.855	417.84
358.238	411.51
358.62	427.11
359.002	434.79
359.384	434.56
359.766	409.48
360.148	421.46
360.53	433.89
360.912	400.89
361.294	418.97
361.676	429.14
362.057	431.18
362.439	452.87
362.821	432.08
363.203	414.9
363.584	438.63
363.966	438.18
364.348	403.38
364.729	421.23
365.111	441.57
365.493	438.86
365.874	446.54
366.256	432.53
366.637	415.36
367.019	414.45
367.4	433.43
367.781	455.36
368.163	444.51
368.544	439.76
368.925	462.81
369.306	452.19
369.688	441.57
370.069	463.72
370.45	458.07
370.831	459.87
371.212	471.85
371.593	478.86
371.974	454.23
372.355	449.25
372.736	472.3
373.117	472.76
373.498	475.02
373.879	464.62
374.26	444.06
374.641	483.83
375.021	453.55
375.402	485.64
375.783	504.17
376.163	528.8
376.544	527.9
376.925	524.96
377.305	504.85
377.686	526.31
378.066	537.61
378.447	525.41
378.827	535.81
379.208	569.93
379.588	555.69
379.968	548.91
380.349	585.75
380.729	593.66
381.109	561.79
381.489	571.06
381.87	598.63
382.25	598.18
382.63	606.09
383.01	592.98
383.39	582.58
383.77	636.14
384.15	601.79
384.53	620.55
384.91	610.15
385.29	639.76
385.67	639.76
386.049	661.23
386.429	693.54
386.809	681.11
387.189	675.46
387.568	680.66
387.948	712.07
388.328	698.51
388.707	717.5
389.087	712.52
389.466	744.84
389.846	737.16
390.225	755.91
390.605	753.43
390.984	784.16
391.363	768.34
391.743	802.69
392.122	785.06
392.501	819.87
392.881	816.48
393.26	847.44
393.639	851.28
394.018	859.64
394.397	861.22
394.776	881.56
395.155	904.83
395.534	887.21
395.913	876.81
396.292	928.34
396.671	895.57
397.05	959.07
397.429	919.98
397.808	942.35
398.186	953.2
398.565	972.86
398.944	985.51
399.323	997.71
399.701	1016.92
400.08	1032.52
400.458	1033.87
400.837	1023.02
401.215	1058.5
401.594	1041.1
401.972	1074.77
402.351	1063.47
402.729	1091.5
403.107	1122.46
403.486	1126.52
403.864	1140.76
404.242	1170.59
404.62	1176.69
404.999	1180.08
405.377	1190.25
405.755	1202.23
406.133	1229.8
406.511	1235.45
406.889	1258.5
407.267	1293.07
407.645	1313.41
408.023	1327.87
408.401	1342.56
408.779	1375.56
409.156	1390.7
409.534	1379.85
409.912	1428.89
410.29	1440.87
410.667	1468.66
411.045	1491.94
411.422	1496.46
411.8	1528.55
412.178	1549.11
412.555	1589.56
412.933	1602.44
413.31	1606.06
413.687	1633.4
414.065	1686.74
414.442	1685.15
414.819	1700.52
415.197	1703.91
415.574	1741.65
415.951	1758.15
416.328	1765.83
416.705	1768.99
417.082	1838.6
417.46	1861.42
417.837	1867.52
418.214	1884.92
418.591	1910.23
418.967	1922.21
419.344	1956.56
419.721	1961.76
420.098	1996.33
420.475	2013.96
420.852	2032.71
421.228	2059.15
421.605	2091.47
421.982	2099.61
422.358	2135.09
422.735	2141.19
423.111	2201.07
423.488	2218.02
423.864	2251.47
424.241	2264.8
424.617	2299.37
424.994	2347.06
425.37	2340.96
425.746	2383.21
426.123	2411.91
426.499	2420.73
426.875	2464.79
427.251	2494.62
427.627	2553.61
428.003	2571.01
428.379	2598.12
428.756	2630.21
429.132	2709.76
429.507	2690.32
429.883	2768.74
430.259	2822.3
430.635	2853.03
431.011	2884.22
431.387	2960.83
431.763	2970.77
432.138	3014.84
432.514	3070.43
432.89	3074.5
433.265	3170.54
433.641	3205.79
434.016	3223.42
434.392	3265.45
434.767	3352.23
435.143	3375.73
435.518	3394.04
435.894	3419.8
436.269	3507.93
436.644	3511.55
437.02	3579.57
437.395	3601.49
437.77	3653.46
438.145	3704.76
438.52	3759.22
438.895	3770.52
439.271	3822.27
439.646	3890.52
440.021	3890.97
440.395	3993.79
440.77	3934.36
441.145	4005.32
441.52	4075.37
441.895	4060.46
442.27	4089.84
442.645	4090.97
443.019	4190.4
443.394	4177.29
443.769	4276.95
444.143	4226.78
444.518	4351.52
444.892	4293.9
445.267	4397.62
445.641	4393.78
446.016	4470.16
446.39	4463.84
446.764	4483.27
447.139	4520.33
447.513	4600.33
447.887	4579.77
448.262	4645.75
448.636	4704.96
449.01	4752.64
449.384	4804.17
449.758	4815.24
450.132	4916.25
450.506	4883.26
450.88	4939.08
451.254	4989.25
451.628	5060.66
452.002	5137.04
452.376	5165.06
452.75	5186.76
453.123	5287.54
453.497	5332.52
453.871	5383.36
454.244	5472.17
454.618	5505.39
454.992	5624.48
455.365	5657.03
455.739	5842.78
456.112	5901.77
456.486	5907.64
456.859	6004.81
457.232	6118.26
457.606	6118.26
457.979	6227.41
458.352	6356.67
458.725	6425.82
459.099	6466.5
459.472	6548.53
459.845	6653.38
460.218	6739.94
460.591	6790.1
460.964	6816.77
461.337	6986.71
461.71	7064.67
462.083	7224.89
462.456	7207.95
462.829	7273.93
463.201	7459.69
463.574	7418.34
463.947	7624.21
464.32	7748.95
464.692	7790.98
465.065	7880.02
465.438	8013.12
465.81	8130.63
466.183	8190.52
466.555	8440
466.928	8468.93
467.3	8506.22
467.672	8635.25
468.045	8913.66
468.417	8842.93
468.789	8896.94
469.161	9089.48
469.534	9222.58
469.906	9411.28
470.278	9523.59
470.65	9556.36
471.022	9873.86
471.394	10045.39
471.766	10088.32
472.138	10207.42
472.51	10509.33
472.882	10562.89
473.253	10726.27
473.625	10936.66
473.997	11122.42
474.369	11280.38
474.74	11310.44
475.112	11660.26
475.484	11817.99
475.855	12093.02
476.227	12147.25
476.598	12544.53
476.97	12581.14
477.341	12942.26
477.713	13085.98
478.084	13235.58
478.455	13612.3
478.827	13641.22
479.198	14060.2
479.569	14160.08
479.94	14460.86
480.311	14648.43
480.682	14973.62
481.053	15329.54
481.424	15520.27
481.795	15698.57
482.166	16015.62
482.537	16210.42
482.908	16596.4
483.279	16768.6
483.65	17087.91
484.021	17394.8
484.391	17703.94
484.762	17869.81
485.133	17977.15
485.503	18338.27
485.874	18593.64
486.244	18909.11
486.615	19245.14
486.985	19419.15
487.356	19814.17
487.726	20031.34
488.097	20352.01
488.467	20401.27
488.837	20975.49
489.207	21092.1
489.578	21517.85
489.948	21710.84
490.318	21996.48
490.688	22091.85
491.058	22484.38
491.428	22700.19
491.798	22923.69
492.168	23408.2
492.538	23570.91
492.908	23684.57
493.278	24056.77
493.648	24094.73
494.017	24414.73
494.387	24794.15
494.757	24915.5
495.126	25261.71
495.496	25381.93
495.866	25610.63
496.235	25828.25
496.605	26232.76
496.974	26348.01
497.344	26573.76
497.713	26624.84
498.082	26906.64
498.452	27223.46
498.821	27400.18
499.19	27488.99
499.559	27802.88
499.928	28015.08
500.298	28148.19
500.667	28591.34
501.036	28506.37
501.405	28967.15
501.774	28828.85
502.143	29190.19
502.512	29251.66
502.88	29525.33
503.249	29574.59
503.618	29761.03
503.987	30028.36
504.356	30264.06
504.724	30226.55
505.093	30534.34
505.462	30663.15
505.83	30976.81
506.199	31202.12
506.567	31560.75
506.936	31634.87
507.304	32014.07
507.672	32125.48
508.041	32369.77
508.409	32736.77
508.777	32903.99
509.145	33254.04
509.514	33246.36
509.882	33501.04
510.25	33649.96
510.618	33908.26
510.986	34060.35
511.354	34504.4
511.722	34579.2
512.09	35181.67
512.458	35038.17
512.826	35445.17
513.193	35582.34
513.561	35670.7
513.929	36102.33
514.297	36289.22
514.664	36585.48
515.032	36762.65
515.4	37050.33
515.767	37236.54
516.135	37316.76
516.502	37279.7
516.869	38006.68
517.237	38044.65
517.604	38137.75
517.972	38648.25
518.339	38872.42
518.706	39122.14
519.073	39293.43
519.44	39485.06
519.808	40005.28
520.175	40040.3
520.542	40543.34
520.909	40767.06
521.276	40857.68
521.643	41447.5
522.009	41666.48
522.376	41922.29
522.743	42105.33
523.11	42575.83
523.477	43056.72
523.843	43197.06
524.21	43616.71
524.577	43972.18
524.943	44164.49
525.31	44336.01
525.676	44730.12
526.043	44976.9
526.409	45094.86
526.776	45487.84
527.142	45603.77
527.508	45913.37
527.874	46218.67
528.241	46475.16
528.607	46506.8
528.973	46921.25
529.339	46965.09
529.705	47344.29
530.071	47636.94
530.437	47892.53
530.803	48087.32
531.169	48459.97
531.535	48505.17
531.901	48687.53
532.267	48856.34
532.632	49137.24
532.998	49373.17
533.364	49596.89
533.73	49658.13
534.095	49984.67
534.461	50009.76
534.826	50156.87
535.192	50424.21
535.557	50611.32
535.923	50652.91
536.288	50816.06
536.653	51003.18
537.019	50942.39
537.384	51144.64
537.749	51384.19
538.114	51364.53
538.479	51407.24
538.845	51603.39
539.21	51646.78
539.575	51866.21
539.94	51974
540.305	52067.11
540.67	52056.48
541.034	52189.14
541.399	52266.2
541.764	52392.75
542.129	52469.81
542.494	52671.16
542.858	52732.17
543.223	52846.97
543.587	53023.92
543.952	52998.38
544.316	53208.32
544.681	53119.28
545.045	53581.87
545.41	53546.39
545.774	53695.54
546.138	53685.59
546.503	53820.28
546.867	53838.81
547.231	54129.2
547.595	54173.04
547.959	54240.61
548.324	54337.78
548.688	54406.03
549.052	54585.46
549.416	54629.52
549.779	54716.08
550.143	54815.51
550.507	54988.16
550.871	55140.92
551.235	55039.91
551.599	55299.79
551.962	55320.35
552.326	55504.53
552.689	55576.17
553.053	55464.53
553.417	55556.28
553.78	55925.54
554.143	55807.8
554.507	55983.39
554.87	56017.28
555.234	56283.27
555.597	56154
555.96	56281.23
556.323	56445.97
556.686	56447.78
557.05	56664.5
557.413	56679.64
557.776	56791.05
558.139	57066.75
558.502	57065.62
558.865	57087.54
559.228	57339.96
559.59	57417.25
559.953	57499.73
560.316	57731.59
560.679	57800.97
561.041	57871.7
561.404	58046.38
561.767	58207.06
562.129	58123.67
562.492	58433.04
562.854	58434.4
563.217	58441.18
563.579	58659.7
563.941	58770.66
564.304	58800.94
564.666	58979.01
565.028	59058.11
565.39	59189.18
565.753	59287.93
566.115	59370.87
566.477	59484.76
566.839	59519.56
567.201	59733.57
567.563	59651.09
567.925	59868.93
568.287	59865.09
568.648	59943.06
569.01	59952.55
569.372	60136.27
569.734	60110.96
570.095	60187.34
570.457	60311.18
570.819	60424.85
571.18	60432.31
571.542	60518.18
571.903	60557.28
572.265	60692.42
572.626	60758.63
572.987	60803.6
573.349	60877.27
573.71	61009.02
574.071	61005.18
574.432	61157.94
574.794	61209.24
575.155	61232.74
575.516	61205.85
575.877	61393.87
576.238	61462.56
576.599	61479.29
576.96	61459.85
577.32	61547.99
577.681	61609.23
578.042	61631.83
578.403	61677.25
578.763	61754.76
579.124	61724.7
579.485	61861.2
579.845	61929.45
580.206	61841.09
580.566	61805.61
580.927	61904.59
581.287	61985.94
581.648	61893.29
582.008	62060.52
582.368	61977.35
582.728	62036.56
583.089	61933.29
583.449	61962.89
583.809	62043.11
584.169	62067.52
584.529	62001.31
584.889	62148.2
585.249	61931.25
585.609	61885.38
585.969	62022.32
586.329	61950.69
586.688	62041.98
587.048	61989.78
587.408	61959.73
587.768	61988.43
588.127	61998.37
588.487	61959.73
588.846	62089.89
589.206	62016
589.565	62040.18
589.925	62138.71
590.284	62051.93
590.643	62128.76
591.003	62184.13
591.362	62199.72
591.721	62139.84
592.08	62188.42
592.44	62205.6
592.799	62176.44
593.158	62172.38
593.517	62237.91
593.876	62244.69
594.235	62192.94
594.593	62227.52
594.952	62276.55
595.311	62197.46
595.67	62242.43
596.029	62382.31
596.387	62325.82
596.746	62395.2
597.104	62350.68
597.463	62277.01
597.822	62427.51
598.18	62293.05
598.538	62332.6
598.897	62492.82
599.255	62246.72
599.613	62575.53
599.972	62399.72
600.33	62426.16
600.688	62320.4
601.046	62405.14
601.404	62468.41
601.762	62461.41
602.12	62584.12
602.478	62516.1
602.836	62567.39
603.194	62419.38
603.552	62403.1
603.91	62372.37
604.268	62547.28
604.625	62459.6
604.983	62572.59
605.341	62488.53
605.698	62616.21
606.056	62690.33
606.413	62695.07
606.771	62786.15
607.128	62800.61
607.485	62685.81
607.843	62675.64
608.2	62795.41
608.557	62863.88
608.914	62808.07
609.272	62913.6
609.629	62981.62
609.986	63039.47
610.343	62919.93
610.7	63100.26
611.057	63027.95
611.414	63058.91
611.771	63082.64
612.127	63133.93
612.484	63104.1
612.841	63176.19
613.198	63123.99
613.554	63168.96
613.911	63183.42
614.267	63188.62
614.624	63166.93
614.98	63184.78
615.337	63191.33
615.693	63191.33
616.05	63188.85
616.406	63191.33
616.762	63180.71
617.118	63191.33
617.475	63187.94
617.831	63185.46
618.187	63191.33
618.543	63191.33
618.899	63191.33
619.255	63191.33
619.611	63191.33
619.967	63191.33
620.323	63191.33
620.678	63191.33
621.034	63191.33
621.39	63191.33
621.746	63191.33
622.101	63191.33
622.457	63191.33
622.812	63191.33
623.168	63191.33
623.523	63191.33
623.879	63191.33
624.234	63191.33
624.589	63191.33
624.945	63191.33
625.3	63191.33
625.655	63191.33
626.01	63191.33
626.365	63191.33
626.72	63191.33
627.075	63191.33
627.43	63191.33
627.785	63191.33
628.14	63191.33
628.495	63191.33
628.85	63191.33
629.205	63191.33
629.559	63191.33
629.914	63191.33
630.269	63191.33
630.623	63191.33
630.978	63191.33
631.332	63191.33
631.687	63191.33
632.041	63187.49
632.396	63191.33
632.75	63164.67
633.104	63186.14
633.459	63172.8
633.813	63167.38
634.167	63151.33
634.521	63127.61
634.875	63059.36
635.229	63052.13
635.583	62896.43
635.937	62929.19
636.291	62884.9
636.645	62900.49
636.999	62815.3
637.352	62910.44
637.706	62702.98
638.06	62798.8
638.413	62725.81
638.767	62619.82
639.121	62689.65
639.474	62572.59
639.828	62588.18
640.181	62583.44
640.534	62580.5
640.888	62535.98
641.241	62478.81
641.594	62462.76
641.947	62563.78
642.301	62476.32
642.654	62432.26
643.007	62408.08
643.36	62443.78
643.713	62364.24
644.066	62432.71
644.419	62306.38
644.771	62189.78
645.124	62024.13
645.477	61872.05
645.83	61801.31
646.182	61671.15
646.535	61592.73
646.888	61619.62
647.24	61434.54
647.593	61551.6
647.945	61436.8
648.298	61388.22
648.65	61369.23
649.002	61296.47
649.355	61362
649.707	61376.01
650.059	61426.63
650.411	61758.38
650.763	61799.96
651.115	61993.17
651.467	61863.23
651.819	61853.74
652.171	61728.32
652.523	61715.21
652.875	61656.01
653.227	61618.49
653.578	61747.98
653.93	61678.15
654.282	61569.23
654.633	61488.33
654.985	61490.81
655.337	61445.84
655.688	61407.65
656.039	61494.43
656.391	61248.56
656.742	61274.77
657.094	61280.42
657.445	61371.72
657.796	61343.25
658.147	61190.48
658.498	61163.36
658.849	61228.22
659.2	61182.8
659.551	61125.85
659.902	61246.53
660.253	61167.21
660.604	61226.41
660.955	61068.9
661.306	61164.95
661.656	61121.78
662.007	61143.93
662.358	61108.9
662.708	61183.93
663.059	61161.1
663.409	60987.32
663.76	61178.28
664.11	61146.87
664.461	61124.49
664.811	61167.21
665.161	61117.49
665.511	61088.56
665.862	61069.81
666.212	61130.82
666.562	61093.99
666.912	60980.77
667.262	61025.06
667.612	61017.15
667.962	60995.46
668.312	60977.83
668.662	61069.81
669.011	60879.53
669.361	60959.3
669.711	60945.06
670.06	60884.95
670.41	60885.18
670.76	60791.85
671.109	60819.42
671.459	60816.93
671.808	60755.92
672.157	60810.15
672.507	60640.67
672.856	60639.08
673.205	60661.46
673.554	60696.71
673.904	60620.33
674.253	60694.22
674.602	60513.89
674.951	60139.66
675.3	60006.78
675.649	60398.41
675.998	60397.06
676.346	60310.73
676.695	60412.87
677.044	60186.67
677.393	60274.8
677.741	60345.76
678.09	60203.39
678.438	60161.81
678.787	60249.04
679.135	60235.03
679.484	60079.78
679.832	60164.75
680.181	60004.52
680.529	60142.15
680.877	60059.21
681.225	60070.96
681.573	60119.55
681.922	60012.89
682.27	59920.68
682.618	59909.39
682.966	59941.7
683.314	59899.89
683.661	59870.97
684.009	59740.8
684.357	59739.22
684.705	59726.79
685.053	59736.28
685.4	59711.88
685.748	59544.42
686.095	59619
686.443	59467.14
686.79	59419.23
687.138	59486.35
687.485	59457.87
687.832	59327.93
688.18	59450.41
688.527	59163.64
688.874	59171.1
689.221	59181.49
689.568	59085.45
689.915	58987.83
690.262	58931.11
690.609	58933.59
690.956	58872.35
691.303	58836.19
691.65	58646.14
691.997	58611.79
692.344	58462.87
692.69	58489.54
693.037	58471.68
693.383	58192.37
693.73	58337.45
694.077	58008.87
694.423	58098.13
694.769	57992.15
695.116	57934.3
695.462	57863.11
695.808	57725.94
696.155	57699.95
696.501	57539.96
696.847	57529.56
697.193	57389.45
697.539	57438.94
697.885	57154.88
698.231	57123.7
698.577	57160.98
698.923	57076.24
699.269	56909.01
699.614	56825.62
699.96	56725.97
700.306	56797.6
700.651	56640.09
700.997	56584.73
701.342	56503.83
701.688	56537.04
702.033	56452.75
702.379	56367.56
702.724	56230.16
703.069	56407.33
703.415	56075.14
703.76	56115.59
704.105	56149.26
704.45	56102.93
704.795	55967.12
705.14	55934.35
705.485	55772.77
705.83	55745.65
706.175	55783.17
706.52	55713.11
706.865	55600.12
707.209	55501.59
707.554	55462.27
707.899	55477.41
708.243	55356.74
708.588	55332.33
708.932	55091.21
709.277	55056.86
709.621	55061.38
709.966	54909.74
710.31	54982.28
710.654	54701.39
710.998	54762.18
711.342	54757.43
711.687	54703.87
712.031	54634.95
712.375	54540.03
712.719	54469.98
713.063	54426.59
713.407	54507.27
713.75	54270.66
714.094	54278.12
714.438	54111.35
714.782	54080.16
715.125	53905.25
715.469	54002.2
715.812	53889.66
716.156	53686.27
716.499	53656.44
716.843	53717.46
717.186	53502.32
717.53	53489.22
717.873	53514.3
718.216	53461.19
718.559	53269.11
718.902	53030.02
719.246	53100.98
719.589	52949.12
719.932	52791.15
720.275	52809.01
720.617	52808.33
720.96	52702.8
721.303	52634.77
721.646	52626.41
721.989	52293.99
722.331	52457.38
722.674	52425.97
723.016	52351.62
723.359	52310.94
723.701	52264.39
724.044	52079.76
724.386	51912.08
724.729	52123.15
725.071	52063.49
725.413	51981.01
725.755	51985.3
726.097	51729.94
726.439	51587.34
726.782	51630.51
727.124	51904.4
727.465	51628.02
727.807	51650.85
728.149	51682.26
728.491	51597.29
728.833	51609.94
729.175	51317.07
729.516	51304.41
729.858	51245.66
730.199	51292.66
730.541	51247.01
730.882	51212.89
731.224	51287.69
731.565	51100.13
731.906	51173.8
732.248	51110.52
732.589	50944.42
732.93	50867.82
733.271	50813.35
733.612	50725.22
733.953	50803.86
734.294	50611.78
734.635	50532.68
734.976	50720.25
735.317	50439.58
735.658	50478.67
735.999	50510.08
736.339	50241.84
736.68	50403.42
737.021	50167.49
737.361	49935.18
737.702	50275.06
738.042	49920.27
738.383	49932.25
738.723	49935.64
739.063	49747.17
739.404	49814.74
739.744	49640.05
740.084	49456.33
740.424	49548.3
740.764	49416.55
741.104	49510.79
741.444	49392.6
741.784	49160.06
742.124	49178.59
742.464	48939.5
742.804	48840.07
743.143	48700.19
743.483	48831.03
743.823	48558.72
744.162	48603.92
744.502	48643.01
744.841	48351.27
745.181	48454.09
745.52	48154.44
745.86	48242.8
746.199	48039.64
746.538	47967.33
746.877	48098.85
747.216	48062.24
747.556	47842.36
747.895	47853.21
748.234	47676.03
748.573	47590.61
748.911	47560.78
749.25	47491.63
749.589	47331.86
749.928	47406.66
750.267	47484.63
750.605	47316.72
750.944	47330.96
751.283	47209.61
