Data from aluminium_macbook_case_FLMS001491_036.txt Node
Date: Tue Feb 07 10:43:31 GMT 2017
User: dcchb
Spectrometer: FLMS00149
Trigger mode: 0
Integration Time (sec): 2.000000E-2
Scans to average: 10
Electric dark correction enabled: true
Nonlinearity correction enabled: false
Boxcar width: 0
XAxis mode: Wavelengths
Number of Pixels in Spectrum: 2048
>>>>>Begin Spectral Data<<<<<
341.393	-8.71
341.776	-8.71
342.16	-8.71
342.543	-45.32
342.927	-49.62
343.31	-58.2
343.693	-61.82
344.077	-75.15
344.46	-48.71
344.843	-63.63
345.226	-40.8
345.61	-35.15
345.993	-20.01
346.376	-6.68
346.759	7.1
347.142	39.42
347.525	29.48
347.908	60.21
348.291	62.92
348.674	104.28
349.057	106.76
349.44	124.16
349.823	129.59
350.206	188.12
350.588	230.38
350.971	263.37
351.354	260.43
351.737	285.06
352.119	308.79
352.502	320.54
352.884	346.08
353.267	338.85
353.65	346.98
354.032	364.16
354.414	344.95
354.797	364.38
355.179	400.09
355.562	372.97
355.944	385.85
356.326	404.16
356.709	412.52
357.091	410.03
357.473	411.16
357.855	419.97
358.238	417.04
358.62	408.45
359.002	405.74
359.384	402.57
359.766	412.52
360.148	414.78
360.53	410.48
360.912	398.96
361.294	418.39
361.676	416.81
362.057	399.18
362.439	433.31
362.821	405.96
363.203	415.91
363.584	414.55
363.966	408.45
364.348	409.58
364.729	433.31
365.111	392.86
365.493	429.01
365.874	416.81
366.256	425.85
366.637	400.54
367.019	438.73
367.4	431.27
367.781	430.6
368.163	409.35
368.544	425.17
368.925	416.36
369.306	430.6
369.688	431.05
370.069	419.75
370.45	446.64
370.831	427.88
371.212	448.67
371.593	436.47
371.974	446.19
372.355	452.97
372.736	438.28
373.117	458.39
373.498	433.53
373.879	463.59
374.26	446.64
374.641	440.09
375.021	454.55
375.402	489.13
375.783	475.79
376.163	532.97
376.544	503.81
376.925	503.14
377.305	509.92
377.686	495.68
378.066	502.01
378.447	506.75
378.827	516.24
379.208	518.28
379.588	525.96
379.968	514.44
380.349	508.56
380.729	546.98
381.109	559.86
381.489	546.75
381.87	578.39
382.25	563.47
382.63	571.61
383.01	576.81
383.39	591.04
383.77	576.58
384.15	573.42
384.53	603.47
384.91	616.13
385.29	606.18
385.67	623.59
386.049	640.31
386.429	629.69
386.809	627.2
387.189	650.03
387.568	646.64
387.948	670.36
388.328	645.73
388.707	655.9
389.087	710.59
389.466	687.54
389.846	686.18
390.225	705.17
390.605	717.14
390.984	708.55
391.363	722.79
391.743	727.09
392.122	768.67
392.501	761.66
392.881	756.69
393.26	777.48
393.639	791.04
394.018	806.86
394.397	810.93
394.776	821.09
395.155	825.16
395.534	805.5
395.913	841.21
396.292	858.38
396.671	874.2
397.05	862.9
397.429	853.64
397.808	896.35
398.186	878.95
398.565	904.71
398.944	910.81
399.323	935.67
399.701	940.87
400.08	936.35
400.458	974.76
400.837	951.26
401.215	974.99
401.594	975.89
401.972	979.28
402.351	1024.48
402.729	1026.29
403.107	1037.81
403.486	1062.67
403.864	1056.12
404.242	1068.09
404.62	1091.14
404.999	1099.96
405.377	1081.43
405.755	1113.29
406.133	1141.09
406.511	1141.76
406.889	1174.98
407.267	1168.66
407.645	1198.71
408.023	1201.65
408.401	1251.59
408.779	1228.54
409.156	1266.28
409.534	1290.91
409.912	1303.57
410.29	1343.11
410.667	1330.23
411.045	1368.65
411.422	1385.37
411.8	1407.97
412.178	1433.51
412.555	1419.04
412.933	1460.63
413.31	1497.23
413.687	1495.2
414.065	1561.41
414.442	1554.63
414.819	1553.5
415.197	1591.02
415.574	1611.13
415.951	1644.12
416.328	1635.08
416.705	1648.42
417.082	1695.65
417.46	1663.11
417.837	1712.37
418.214	1707.4
418.591	1714.63
418.967	1761.63
419.344	1781.97
419.721	1805.7
420.098	1805.48
420.475	1859.49
420.852	1849.54
421.228	1873.95
421.605	1903.1
421.982	1939.93
422.358	1947.84
422.735	1986.26
423.111	1999.37
423.488	2039.37
423.864	2018.35
424.241	2042.98
424.617	2113.04
424.994	2085.92
425.37	2149.42
425.746	2153.94
426.123	2160.49
426.499	2174.73
426.875	2255.18
427.251	2258.8
427.627	2324.33
428.003	2332.24
428.379	2396.19
428.756	2404.56
429.132	2474.84
429.507	2455.18
429.883	2489.52
430.259	2556.19
430.635	2583.99
431.011	2612.23
431.387	2646.81
431.763	2706.47
432.138	2735.17
432.514	2753.47
432.89	2794.83
433.265	2842.51
433.641	2871.89
434.016	2908.5
434.392	2948.04
434.767	3024.88
435.143	3014.03
435.518	3083.86
435.894	3131.54
436.269	3161.6
436.644	3202.05
437.02	3248.38
437.395	3273.23
437.77	3322.5
438.145	3370.18
438.52	3384.19
438.895	3440.23
439.271	3400.24
439.646	3553.45
440.021	3537.86
440.395	3577.63
440.77	3554.58
441.145	3594.13
441.52	3684.97
441.895	3663.51
442.27	3706.67
442.645	3672.32
443.019	3799.32
443.394	3758.64
443.769	3846.33
444.143	3811.75
444.518	3921.35
444.892	3896.95
445.267	3947.11
445.641	4007
446.016	4032.08
446.39	4094.45
446.764	4056.04
447.139	4052.87
447.513	4136.04
447.887	4168.58
448.262	4182.36
448.636	4198.86
449.01	4289.25
449.384	4357.95
449.758	4387.33
450.132	4457.61
450.506	4430.49
450.88	4433.2
451.254	4484.5
451.628	4542.58
452.002	4656.93
452.376	4660.32
452.75	4724.72
453.123	4757.26
453.497	4859.63
453.871	4917.03
454.244	4984.15
454.618	5063.24
454.992	5117.25
455.365	5126.07
455.739	5253.52
456.112	5288.32
456.486	5322.44
456.859	5409.45
457.232	5509.33
457.606	5499.16
457.979	5584.36
458.352	5717.91
458.725	5801.08
459.099	5758.14
459.472	5933.05
459.845	5976.21
460.218	6046.27
460.591	6083.78
460.964	6166.49
461.337	6314.74
461.71	6429.99
462.083	6530.1
462.456	6544.79
462.829	6563.54
463.201	6689.87
463.574	6709.75
463.947	6789.3
464.32	6983.42
464.692	7041.72
465.065	7085.34
465.438	7207.37
465.81	7309.06
466.183	7371.88
466.555	7620.69
466.928	7613.68
467.3	7617.98
467.672	7738.88
468.045	7997.63
468.417	7931.64
468.789	7985.43
469.161	8184.52
469.534	8257.28
469.906	8502.25
470.278	8538.63
470.65	8630.61
471.022	8742.02
471.394	8958.96
471.766	9082.57
472.138	9175
472.51	9430.81
472.882	9577.7
473.253	9678.71
473.625	9859.27
473.997	10099.27
474.369	10167.29
474.74	10229.43
475.112	10455.19
475.484	10612.25
475.855	10802.07
476.227	10902.86
476.598	11253.81
476.97	11277.09
477.341	11536.07
477.713	11663.97
478.084	11811.31
478.455	12152.1
478.827	12228.7
479.198	12654.23
479.569	12636.83
479.94	12974
480.311	13150.71
480.682	13352.29
481.053	13715.9
481.424	14023.68
481.795	14067.75
482.166	14464.58
482.537	14586.16
482.908	14920.16
483.279	15077.67
483.65	15404.44
484.021	15722.4
484.391	15858.21
484.762	16051.2
485.133	16225.43
485.503	16498.42
485.874	16757.62
486.244	16950.84
486.615	17372.98
486.985	17539.07
487.356	17807.31
487.726	17921.44
488.097	18291.37
488.467	18288.88
488.837	18704.92
489.207	18878.7
489.578	19107.39
489.948	19378.35
490.318	19672.35
490.688	19769.52
491.058	20034.15
491.428	20426.23
491.798	20460.58
492.168	21105.31
492.538	21082.71
492.908	21348.92
493.278	21713.65
493.648	21728.79
494.017	22119.52
494.387	22331.04
494.757	22505.95
495.126	22888.31
495.496	22902.32
495.866	22992.94
496.235	23305.7
496.605	23500.95
496.974	23617.11
497.344	23926.25
497.713	23992.91
498.082	24238.33
498.452	24434.48
498.821	24572.79
499.19	24574.59
499.559	24939.78
499.928	25013
500.298	25192.88
500.667	25370.73
501.036	25385.65
501.405	25719.87
501.774	25739.99
502.143	26080.09
502.512	26258.17
502.88	26596.46
503.249	26576.35
503.618	26786.06
503.987	26924.14
504.356	27193.06
504.724	27391.02
505.093	27580.62
505.462	27760.95
505.83	27990.32
506.199	28228.06
506.567	28567.48
506.936	28548.73
507.304	28913.91
507.672	29023.29
508.041	29023.29
508.409	29372.66
508.777	29666.21
509.145	29856.94
509.514	29959.31
509.882	30028.01
510.25	30178.74
510.618	30453.31
510.986	30523.82
511.354	30838.84
511.722	31207.19
512.09	31434.53
512.458	31403.11
512.826	31729.89
513.193	31774.18
513.561	32073.83
513.929	32285.58
514.297	32545.68
514.664	32826.81
515.032	33115.16
515.4	33437.41
515.767	33530.06
516.135	33857.06
516.502	33754.92
516.869	34366.65
517.237	34518.97
517.604	34578.85
517.972	35069.46
518.339	35278.49
518.706	35338.6
519.073	35496.34
519.44	35790.8
519.808	36181.97
520.175	36192.37
520.542	36738.57
520.909	36823.54
521.276	36864.67
521.643	37192.12
522.009	37535.38
522.376	37731.31
522.743	37945.54
523.11	38381.46
523.477	38652.42
523.843	38880.21
524.21	39243.81
524.577	39536.23
524.943	39692.39
525.31	39894.19
525.676	40395.65
526.043	40485.14
526.409	40880.83
526.776	41215.06
527.142	41514.04
527.508	41750.41
527.874	42047.58
528.241	42269.95
528.607	42477.4
528.973	42959.42
529.339	42993.77
529.705	43473.31
530.071	43752.85
530.437	43842.56
530.803	44051.14
531.169	44289.78
531.535	44353.51
531.901	44495.43
532.267	44758.92
532.632	44897.45
532.998	45088.86
533.364	45357.78
533.73	45480.03
534.095	45732.91
534.461	45886.58
534.826	46161.82
535.192	46125.89
535.557	46555.94
535.923	46552.32
536.288	46638.42
536.653	46868.02
537.019	46843.16
537.384	47079.99
537.749	47192.53
538.114	47356.14
538.479	47463.48
538.845	47636.36
539.21	47736.92
539.575	47987.09
539.94	48114.31
540.305	48417.58
540.67	48389.79
541.034	48663
541.399	48786.39
541.764	48926.95
542.129	49078.36
542.494	49266.83
542.858	49333.49
543.223	49425.24
543.587	49683.99
543.952	49744.55
544.316	49816.42
544.681	49754.27
545.045	49888.05
545.41	50103.41
545.774	50224.54
546.138	50242.62
546.503	50279
546.867	50304.54
547.231	50604.87
547.595	50585.89
547.959	50749.05
548.324	50923.28
548.688	50941.81
549.052	51117.17
549.416	51208.47
549.779	51170.73
550.143	51319.65
550.507	51522.59
550.871	51675.58
551.235	51621.79
551.599	51894.55
551.962	52074.66
552.326	52185.39
552.689	52302.9
553.053	52297.48
553.417	52389.91
553.78	52812.72
554.143	52717.36
554.507	52949.67
554.87	52992.38
555.234	53388.53
555.597	53300.17
555.96	53449.09
556.323	53607.28
556.686	53631.23
557.05	53843.2
557.413	53892.24
557.776	54069.19
558.139	54233.48
558.502	54185.57
558.865	54260.59
559.228	54442.51
559.59	54454.03
559.953	54566.12
560.316	54832.33
560.679	54795.95
561.041	54979.22
561.404	55121.81
561.767	55306.89
562.129	55101.7
562.492	55486.1
562.854	55467.57
563.217	55539.2
563.579	55676.38
563.941	55854
564.304	55921.57
564.666	56169.47
565.028	56180.09
565.39	56309.58
565.753	56423.7
566.115	56555.9
566.477	56685.39
566.839	56748.89
567.201	56991.59
567.563	56938.94
567.925	57086.28
568.287	57134.42
568.648	57175.09
569.01	57375.54
569.372	57522.2
569.734	57502.77
570.095	57721.29
570.457	57833.83
570.819	57839.93
571.18	57929.65
571.542	58072.47
571.903	58094.16
572.265	58114.05
572.626	58189.08
572.987	58209.64
573.349	58276.98
573.71	58371.9
574.071	58462.29
574.432	58503.42
574.794	58643.98
575.155	58547.03
575.516	58503.65
575.877	58649.86
576.238	58656.86
576.599	58800.36
576.96	58783.41
577.32	58763.98
577.681	58880.13
578.042	58934.37
578.403	58930.98
578.763	58967.81
579.124	59005.33
579.485	59132.78
579.845	59168.26
580.206	59120.58
580.566	59201.03
580.927	59222.04
581.287	59358.09
581.648	59240.12
582.008	59355.15
582.368	59349.72
582.728	59395.83
583.089	59405.99
583.449	59424.53
583.809	59519.21
584.169	59554.92
584.529	59446.22
584.889	59684.86
585.249	59467.69
585.609	59495.94
585.969	59574.35
586.329	59506.78
586.688	59615.03
587.048	59531.41
587.408	59537.97
587.768	59495.48
588.127	59490.74
588.487	59461.36
588.846	59588.81
589.206	59454.35
589.565	59463.85
589.925	59455.71
590.284	59428.14
590.643	59393.79
591.003	59501.36
591.362	59517.63
591.721	59434.69
592.08	59466.56
592.44	59475.37
592.799	59459.33
593.158	59527.8
593.517	59464.98
593.876	59578.19
594.235	59493.68
594.593	59528.93
594.952	59652.09
595.311	59512.43
595.67	59595.37
596.029	59699.55
596.387	59668.59
596.746	59750.39
597.104	59656.38
597.463	59699.32
597.822	59796.94
598.18	59727.57
598.538	59664.29
598.897	59921.46
599.255	59698.19
599.613	59988.13
599.972	59938.64
600.33	60000.33
600.688	59881.01
601.046	59998.52
601.404	60046.2
601.762	60033.55
602.12	60148.12
602.478	60121.91
602.836	60134.56
603.194	60043.72
603.552	60055.24
603.91	59972.08
604.268	60044.62
604.625	59982.48
604.983	60086.65
605.341	59953.1
605.698	60090.04
606.056	60055.92
606.413	60055.92
606.771	60088.46
607.128	60163.71
607.485	60053.21
607.843	59998.3
608.2	60225.86
608.557	60217.5
608.914	60144.05
609.272	60219.98
609.629	60202.36
609.986	60404.16
610.343	60256.59
610.7	60450.03
611.057	60452.97
611.414	60360.09
611.771	60443.26
612.127	60465.63
612.484	60466.53
612.841	60564.38
613.198	60523.71
613.554	60591.73
613.911	60653.19
614.267	60697.26
614.624	60651.61
614.98	60688.67
615.337	60870.59
615.693	60860.42
616.05	60800.76
616.406	60999.17
616.762	60845.96
617.118	60919.85
617.475	60880.31
617.831	61012.73
618.187	60965.5
618.543	60996.69
618.899	61140.41
619.255	61085.72
619.611	60994.88
619.967	61096.57
620.323	61121.66
620.678	60985.84
621.034	60915.11
621.39	60941.1
621.746	60904.26
622.101	61153.52
622.457	60901.55
622.812	60935.9
623.168	60982
623.523	60926.18
623.879	60949.23
624.234	60779.97
624.589	60829.91
624.945	60899.74
625.3	60822.68
625.655	60862.45
626.01	60851.15
626.365	60793.53
626.72	60789.46
627.075	60720.08
627.43	60793.75
627.785	60743.59
628.14	60763.7
628.495	60796.92
628.85	60788.56
629.205	60707.66
629.559	60850.48
629.914	60647.54
630.269	60727.09
630.623	60677.6
630.978	60647.09
631.332	60744.26
631.687	60855
632.041	60698.84
632.396	60796.47
632.75	60742.46
633.104	60690.48
633.459	60634.21
633.813	60625.85
634.167	60561.22
634.521	60616.81
634.875	60638.73
635.229	60580.2
635.583	60514.21
635.937	60509.69
636.291	60445.29
636.645	60487.1
636.999	60436.25
637.352	60554.89
637.706	60353.54
638.06	60390.6
638.413	60266.54
638.767	60285.29
639.121	60253.2
639.474	60032.42
639.828	60087.11
640.181	60070.84
640.534	60035.36
640.888	59909.94
641.241	59817.06
641.594	59873.55
641.947	59798.53
642.301	59790.62
642.654	59700.22
643.007	59725.76
643.36	59753.33
643.713	59669.04
644.066	59692.09
644.419	59469.04
644.771	59295.26
645.124	59099.56
645.477	59054.82
645.83	58944.31
646.182	58788.38
646.535	58727.82
646.888	58700.7
647.24	58593.13
647.593	58706.8
647.945	58632.68
648.298	58623.64
648.65	58543.87
649.002	58435.17
649.355	58599.46
649.707	58598.33
650.059	58697.31
650.411	59064.31
650.763	58996.29
651.115	59258.2
651.467	59163.51
651.819	59197.64
652.171	59130.52
652.523	59125.1
652.875	59209.16
653.227	58993.8
653.578	59229.28
653.93	59134.82
654.282	58955.84
654.633	58937.53
654.985	59043.74
655.337	58991.09
655.688	59026.34
656.039	59062.95
656.391	58897.08
656.742	58806.46
657.094	58866.8
657.445	58874.48
657.796	58848.5
658.147	58773.24
658.498	58683.3
658.849	58736.86
659.2	58629.97
659.551	58610.08
659.902	58729.4
660.253	58589.97
660.604	58535.96
660.955	58417.09
661.306	58472.69
661.656	58310.88
662.007	58348.17
662.358	58240.38
662.708	58294.16
663.059	58241.05
663.409	58017.56
663.76	58144.56
664.11	58148.4
664.461	58190.66
664.811	58148.4
665.161	58139.81
665.511	58025.47
665.862	58097.33
666.212	58212.13
666.562	58141.62
666.912	58119.02
667.262	58050.32
667.612	58106.14
667.962	58131.45
668.312	58121.28
668.662	58245.12
669.011	58130.1
669.361	58137.55
669.711	58080.83
670.06	58143.43
670.41	58089.19
670.76	58025.47
671.109	58164.67
671.459	58150.21
671.808	58073.83
672.157	58123.09
672.507	57931.23
672.856	57959.93
673.205	58027.05
673.554	58065.24
673.904	58010.1
674.253	58086.93
674.602	57992.92
674.951	57675.19
675.3	57529.43
675.649	57823.21
675.998	57848.3
676.346	57868.41
676.695	57865.47
677.044	57764.68
677.393	57747.28
677.741	57740.5
678.09	57627.74
678.438	57666.83
678.787	57608.75
679.135	57558.13
679.484	57364.69
679.832	57409.89
680.181	57347.74
680.529	57383.67
680.877	57265.03
681.225	57194.08
681.573	57264.36
681.922	57085.6
682.27	57038.37
682.618	56946.17
682.966	56904.82
683.314	56897.59
683.661	56804.71
684.009	56713.41
684.357	56623.69
684.705	56600.42
685.053	56635.22
685.4	56541.44
685.748	56397.49
686.095	56449.91
686.443	56298.73
686.79	56275
687.138	56237.26
687.485	56289.92
687.832	56170.83
688.18	56197.72
688.527	56076.36
688.874	56006.08
689.221	55997.5
689.568	55896.26
689.915	55825.07
690.262	55912.98
690.609	55814.45
690.956	55848.57
691.303	55728.13
691.65	55574.23
691.997	55613.33
692.344	55490.84
692.69	55510.28
693.037	55420.34
693.383	55197.07
693.73	55399.55
694.077	55176.28
694.423	55246.33
694.769	55067.58
695.116	55087.01
695.462	55030.52
695.808	54993
696.155	55025.54
696.501	54794.14
696.847	54771.77
697.193	54589.4
697.539	54645.44
697.885	54365.9
698.231	54377.65
698.577	54279.12
698.923	54227.6
699.269	54099.02
699.614	53888.85
699.96	53782.87
700.306	53893.37
700.651	53695.18
700.997	53441.63
701.342	53483.66
701.688	53488.18
702.033	53319.6
702.379	53241.18
702.724	53158.48
703.069	53181.53
703.415	52871.25
703.76	52892.49
704.105	52754.64
704.45	52644.14
704.795	52408.44
705.14	52299.51
705.485	52293.64
705.83	52014.1
706.175	52153.3
706.52	51997.15
706.865	51789.02
707.209	51860.88
707.554	51652.3
707.899	51683.03
708.243	51435.13
708.588	51446.2
708.932	51179.32
709.277	51189.04
709.621	51266.77
709.966	51035.14
710.31	51147.68
710.654	50768.93
710.998	50909.95
711.342	50930.74
711.687	50830.85
712.031	50638.77
712.375	50556.74
712.719	50674.25
713.063	50539.33
713.407	50661.82
713.75	50399.23
714.094	50483.97
714.438	50331.66
714.782	50348.38
715.125	50298.66
715.469	50319.23
715.812	50196.07
716.156	49889.63
716.499	50156.97
716.843	50096.86
717.186	49903.65
717.53	50045.11
717.873	49808.05
718.216	49888.96
718.559	49679.02
718.902	49459.82
719.246	49428.63
719.589	49410.55
719.932	49248.52
720.275	49200.16
720.617	49086.04
720.96	48991.35
721.303	49037
721.646	49050.56
721.989	48757.23
722.331	48891.47
722.674	48692.83
723.016	48746.84
723.359	48617.8
723.701	48583.45
724.044	48300.98
724.386	48043.13
724.729	48267.08
725.071	48220.75
725.413	48062.79
725.755	47999.29
726.097	47733.31
726.439	47637.26
726.782	47458.74
727.124	47706.19
727.465	47470.49
727.807	47386.88
728.149	47271.85
728.491	47250.16
728.833	47177.39
729.175	47014
729.516	46744.41
729.858	46733.11
730.199	46908.24
730.541	46704.18
730.882	46496.96
731.224	46649.04
731.565	46208.6
731.906	46499.67
732.248	46342.16
732.589	45994.82
732.93	46059.45
733.271	46075.72
733.612	46157.08
733.953	46124.54
734.294	45890.64
734.635	45731.55
734.976	45969.29
735.317	45699.46
735.658	45536.3
735.999	45689.29
736.339	45502.63
736.68	45656.3
737.021	45553.48
737.361	45343.31
737.702	45556.19
738.042	45388.96
738.383	45471.9
738.723	45462.41
739.063	45136.99
739.404	45242.07
739.744	45209.53
740.084	44977.22
740.424	45113.71
740.764	45021.29
741.104	44973.61
741.444	44720.96
741.784	44636.67
742.124	44633.95
742.464	44473.96
742.804	44486.39
743.143	44518.02
743.483	44544.01
743.823	44187.86
744.162	44169.33
744.502	44280.52
744.841	44177.02
745.181	44428.31
745.52	43984.71
745.86	43982.22
746.199	43875.1
746.538	43841.66
746.877	43819.06
747.216	43740.87
747.556	43537.03
747.895	43601.44
748.234	43377.04
748.573	43232.63
748.911	43130.94
749.25	43056.37
749.589	43028.12
749.928	43048.46
750.267	42943.15
750.605	42795.36
750.944	42702.03
751.283	42477.63
751.621	42508.81
751.96	42249.16
