Data from aluminium_surface_pro_back_FLMS001491_00068.txt Node
Date: Wed Feb 08 15:34:24 GMT 2017
User: dcchb
Spectrometer: FLMS00149
Trigger mode: 0
Integration Time (sec): 2.000000E-2
Scans to average: 10
Electric dark correction enabled: true
Nonlinearity correction enabled: false
Boxcar width: 0
XAxis mode: Wavelengths
Number of Pixels in Spectrum: 2048
>>>>>Begin Spectral Data<<<<<
341.393	-20.72
341.776	-20.72
342.16	-20.72
342.543	-63.66
342.927	-47.16
343.31	-54.39
343.693	-73.37
344.077	-55.3
344.46	-62.53
344.843	-50.32
345.226	-53.94
345.61	-29.76
345.993	-16.65
346.376	-14.62
346.759	-15.3
347.142	13.18
347.525	45.04
347.908	73.97
348.291	80.07
348.674	98.83
349.057	115.1
349.44	113.74
349.823	143.34
350.206	156
350.588	237.58
350.971	238.03
351.354	273.51
351.737	271.48
352.119	282.55
352.502	312.6
352.884	297.69
353.267	330.23
353.65	356.45
354.032	358.93
354.414	349.44
354.797	356.9
355.179	360.97
355.562	362.77
355.944	352.83
356.326	362.55
356.709	378.59
357.091	363.68
357.473	365.03
357.855	377.46
358.238	363.45
358.62	367.97
359.002	396.67
359.384	386.95
359.766	375.43
360.148	374.52
360.53	400.51
360.912	382.43
361.294	370.91
361.676	364.81
362.057	383.56
362.439	372.49
362.821	384.24
363.203	371.36
363.584	403.68
363.966	370.23
364.348	377.69
364.729	374.75
365.111	369.55
365.493	345.6
365.874	377.46
366.256	353.06
366.637	362.55
367.019	363
367.4	384.24
367.781	383.11
368.163	377.01
368.544	363.22
368.925	375.43
369.306	377.46
369.688	375.88
370.069	383.56
370.45	371.13
370.831	375.2
371.212	376.78
371.593	392.15
371.974	406.16
372.355	390.79
372.736	384.92
373.117	407.07
373.498	368.42
373.879	383.11
374.26	371.81
374.641	374.3
375.021	387.86
375.402	406.16
375.783	401.19
376.163	417.23
376.544	420.17
376.925	435.77
377.305	405.71
377.686	427.86
378.066	423.79
378.447	427.86
378.827	411.59
379.208	437.12
379.588	445.93
379.968	459.27
380.349	452.49
380.729	448.19
381.109	466.73
381.489	465.37
381.87	466.95
382.25	467.63
382.63	459.04
383.01	457.69
383.39	480.51
383.77	499.72
384.15	475.99
384.53	463.11
384.91	472.15
385.29	491.81
385.67	527.06
386.049	509.21
386.429	503.56
386.809	511.47
387.189	530.9
387.568	549.66
387.948	528.64
388.328	540.62
388.707	561.19
389.087	579.26
389.466	537.46
389.846	541.98
390.225	547.85
390.605	567.06
390.984	570.68
391.363	579.49
391.743	573.16
392.122	595.08
392.501	609.32
392.881	591.24
393.26	611.81
393.639	610.45
394.018	632.37
394.397	640.28
394.776	633.5
395.155	648.19
395.534	649.32
395.913	679.6
396.292	661.07
396.671	672.6
397.05	656.32
397.429	672.82
397.808	691.35
398.186	683.44
398.565	715.08
398.944	711.01
399.323	717.34
399.701	723.44
400.08	751.24
400.458	765.47
400.837	757.79
401.215	749.2
401.594	761.41
401.972	769.77
402.351	781.29
402.729	799.37
403.107	800.73
403.486	792.14
403.864	803.44
404.242	825.59
404.62	829.43
404.999	838.92
405.377	869.65
405.755	868.52
406.133	875.53
406.511	895.19
406.889	904
407.267	911.23
407.645	914.17
408.023	929.31
408.401	943.55
408.779	958.24
409.156	987.39
409.534	993.49
409.912	1001.85
410.29	1033.72
410.667	1019.03
411.045	1044.79
411.422	1038.24
411.8	1072.36
412.178	1089.99
412.555	1117.56
412.933	1112.81
413.31	1148.51
413.687	1138.12
414.065	1165.69
414.442	1150.1
414.819	1189.19
415.197	1173.83
415.574	1230.09
415.951	1237.33
416.328	1235.07
416.705	1243.88
417.082	1239.36
417.46	1273.71
417.837	1299.02
418.214	1314.39
418.591	1322.07
418.967	1312.58
419.344	1318.23
419.721	1349.41
420.098	1363.42
420.475	1355.74
420.852	1404.78
421.228	1405.23
421.605	1398
421.982	1414.72
422.358	1450.65
422.735	1447.72
423.111	1480.03
423.488	1513.03
423.864	1497.21
424.241	1522.29
424.617	1562.97
424.994	1557.09
425.37	1573.36
425.746	1597.32
426.123	1598.9
426.499	1617.88
426.875	1644.1
427.251	1662.63
427.627	1704.43
428.003	1705.79
428.379	1775.84
428.756	1733.58
429.132	1775.84
429.507	1811.1
429.883	1830.53
430.259	1881.83
430.635	1888.83
431.011	1918.89
431.387	1943.97
431.763	1946.46
432.138	1970.64
432.514	1987.81
432.89	2027.14
433.265	2039.79
433.641	2065.33
434.016	2124.08
434.392	2150.07
434.767	2136.96
435.143	2170.86
435.518	2203.18
435.894	2228.71
436.269	2280.24
436.644	2299.67
437.02	2324.53
437.395	2333.79
437.77	2387.13
438.145	2400.91
438.52	2420.35
438.895	2446.33
439.271	2427.13
439.646	2500.8
440.021	2539.66
440.395	2595.71
440.77	2544.41
441.145	2548.7
441.52	2614.47
441.895	2602.94
442.27	2630.96
442.645	2657.85
443.019	2711.86
443.394	2697.4
443.769	2721.35
444.143	2756.38
444.518	2775.36
444.892	2799.09
445.267	2806.55
445.641	2810.39
446.016	2847.45
446.39	2867.11
446.764	2912.99
447.139	2897.4
447.513	2944.4
447.887	2950.28
448.262	2968.13
448.636	3018.97
449.01	3032.31
449.384	3057.39
449.758	3082.48
450.132	3108.24
450.506	3113.44
450.88	3181.68
451.254	3132.87
451.628	3175.35
452.002	3243.83
452.376	3270.95
452.75	3312.53
453.123	3384.61
453.497	3408.12
453.871	3407.89
454.244	3457.83
454.618	3506.65
454.992	3563.59
455.365	3578.28
455.739	3655.34
456.112	3677.71
456.486	3711.16
456.859	3764.72
457.232	3840.87
457.606	3812.85
457.979	3878.84
458.352	3951.38
458.725	4043.13
459.099	4021.66
459.472	4107.99
459.845	4132.17
460.218	4207.42
460.591	4234.54
460.964	4282.44
461.337	4361.09
461.71	4456.45
462.083	4444.02
462.456	4472.5
462.829	4554.75
463.201	4618.71
463.574	4620.06
463.947	4713.39
464.32	4816.22
464.692	4880.62
465.065	4886.5
465.438	4958.81
465.81	5008.53
466.183	5060.28
466.555	5163.32
466.928	5236.09
467.3	5208.75
467.672	5312.93
468.045	5484.9
468.417	5458.68
468.789	5510.66
469.161	5553.37
469.534	5684.67
469.906	5800.82
470.278	5797.43
470.65	5944.77
471.022	6017.54
471.394	6107.93
471.766	6207.37
472.138	6250.08
472.51	6435.38
472.882	6471.76
473.253	6543.4
473.625	6660.69
473.997	6816.84
474.369	6770.97
474.74	6944.07
475.112	7095.48
475.484	7219.32
475.855	7325.75
476.227	7396.94
476.598	7657.95
476.97	7699.3
477.341	7876.02
477.713	7937.72
478.084	8085.51
478.455	8207.09
478.827	8374.09
479.198	8606.85
479.569	8569.11
479.94	8841.65
480.311	8922.77
480.682	9136.55
481.053	9337.45
481.424	9375.87
481.795	9556.88
482.166	9694.73
482.537	9933.37
482.908	10069.18
483.279	10132.23
483.65	10300.59
484.021	10566.12
484.391	10704.2
484.762	10752.78
485.133	10860.35
485.503	11049.5
485.874	11303.05
486.244	11371.97
486.615	11676.15
486.985	11759.31
487.356	11924.28
487.726	12088.57
488.097	12309.8
488.467	12407.2
488.837	12725.16
489.207	12876.79
489.578	13008.54
489.948	13083.79
490.318	13334.41
490.688	13380.96
491.058	13639.49
491.428	13777.11
491.798	13953.6
492.168	14255.06
492.538	14260.03
492.908	14445.79
493.278	14665.22
493.648	14723.98
494.017	14965.1
494.387	15120.8
494.757	15146.79
495.126	15383.17
495.496	15349.5
495.866	15538.19
496.235	15725.98
496.605	15864.06
496.974	15855.92
497.344	16120.78
497.713	16202.58
498.082	16300.21
498.452	16493.65
498.821	16638.96
499.19	16684.83
499.559	16837.14
499.928	16913.75
500.298	17045.27
500.667	17319.84
501.036	17244.14
501.405	17459.5
501.774	17510.12
502.143	17683
502.512	17837.57
502.88	17959.82
503.249	18031.91
503.618	18120.95
503.987	18234.85
504.356	18345.8
504.724	18546.02
505.093	18606.81
505.462	18652.24
505.83	18859.46
506.199	19111.66
506.567	19279.34
506.936	19321.6
507.304	19543.29
507.672	19583.06
508.041	19717.29
508.409	19828.25
508.777	20089.26
509.145	20275.02
509.514	20282.02
509.882	20380.33
510.25	20594.11
510.618	20692.41
510.986	20772.63
511.354	21040.2
511.722	21184.82
512.09	21400.64
512.458	21388.89
512.826	21656.45
513.193	21762.89
513.561	21829.78
513.929	22037.01
514.297	22182.31
514.664	22462.3
515.032	22554.51
515.4	22726.03
515.767	22985.45
516.135	23034.04
516.502	22993.82
516.869	23401.72
517.237	23576.17
517.604	23538.21
517.972	23822.04
518.339	23872.21
518.706	24021.36
519.073	24185.88
519.44	24359.43
519.808	24733.88
520.175	24770.49
520.542	25052.97
520.909	25286.64
521.276	25320.08
521.643	25585.39
522.009	25721.2
522.376	25925.04
522.743	26113.28
523.11	26442.99
523.477	26676.66
523.843	26755.98
524.21	27111
524.577	27212.91
524.943	27462.63
525.31	27613.36
525.676	27929.73
526.043	28071.42
526.409	28173.57
526.776	28475.93
527.142	28585.76
527.508	28837.05
527.874	29072.75
528.241	29130.6
528.607	29348
528.973	29596.35
529.339	29713.41
529.705	29907.76
530.071	30206.73
530.437	30367.18
530.803	30552.71
531.169	30854.17
531.535	30692.82
531.901	31002.87
532.267	31162.87
532.632	31387.27
532.998	31417.1
533.364	31651.22
533.73	31746.81
534.095	31981.38
534.461	32027.25
534.826	32225.66
535.192	32489.39
535.557	32708.59
535.923	32592.21
536.288	32697.52
536.653	32941.13
537.019	32952.42
537.384	33037.85
537.749	33285.07
538.114	33351.51
538.479	33627.21
538.845	33783.36
539.21	33743.82
539.575	33903.81
539.94	34046.41
540.305	34280.07
540.67	34148.33
541.034	34429
541.399	34557.81
541.764	34662.21
542.129	34796.44
542.494	34808.42
542.858	34980.85
543.223	35075.98
543.587	35419.7
543.952	35227.84
544.316	35334.73
544.681	35389.42
545.045	35474.62
545.41	35838.45
545.774	35940.14
546.138	35972.23
546.503	36099.69
546.867	36136.97
547.231	36380.81
547.595	36431.88
547.959	36684.08
548.324	36712.33
548.688	36860.8
549.052	36996.61
549.416	37119.09
549.779	36946.22
550.143	37104.41
550.507	37435.02
550.871	37544.17
551.235	37740.55
551.599	37875.23
551.962	37927.21
552.326	38089.01
552.689	38340.08
553.053	38112.74
553.417	38414.88
553.78	38881.76
554.143	38761.31
554.507	38983.68
554.87	39100.51
555.234	39522.42
555.597	39245.37
555.96	39559.71
556.323	39747.27
556.686	39810.32
557.05	40079.92
557.413	40169.18
557.776	40370.31
558.139	40709.06
558.502	40716.51
558.865	40997.18
559.228	41178.2
559.59	41388.13
559.953	41513.56
560.316	41794.9
560.679	41936.14
561.041	42145.4
561.404	42403.7
561.767	42615.45
562.129	42477.82
562.492	42949
562.854	43083.46
563.217	43059.96
563.579	43346.95
563.941	43649.32
564.304	43824
564.666	44028.52
565.028	44061.96
565.39	44320.26
565.753	44514.38
566.115	44639.57
566.477	44813.13
566.839	44974.48
567.201	45286.34
567.563	45368.14
567.925	45613.79
568.287	45763.84
568.648	45855.59
569.01	46061.91
569.372	46349.81
569.734	46358.85
570.095	46756.81
570.457	46770.37
570.819	46982.79
571.18	47017.82
571.542	47401.76
571.903	47231.15
572.265	47593.4
572.626	47641.08
572.987	47812.82
573.349	47854.41
573.71	48149.09
574.071	48203.77
574.432	48320.16
574.794	48572.58
575.155	48634.5
575.516	48586.14
575.877	48694.84
576.238	48825.45
576.599	48968.27
576.96	49013.92
577.32	49080.81
577.681	49161.26
578.042	49404.87
578.403	49443.29
578.763	49423.4
579.124	49611.87
579.485	49714.24
579.845	49874.01
580.206	49759.21
580.566	49783.17
580.927	49793.34
581.287	50055.7
581.648	49831.3
582.008	50116.94
582.368	50008.25
582.728	50149.49
583.089	50077.17
583.449	50085.99
583.809	50113.56
584.169	50237.85
584.529	50203.04
584.889	50503.38
585.249	50255.25
585.609	50101.13
585.969	50377.28
586.329	50247.11
586.688	50249.37
587.048	50247.11
587.408	50269.48
587.768	50132.76
588.127	50160.33
588.487	50235.59
588.846	50603.94
589.206	50329.37
589.565	50285.3
589.925	50591.51
590.284	50481.23
590.643	50390.84
591.003	50422.93
591.362	50623.6
591.721	50518.06
592.08	50590.38
592.44	50729.81
592.799	50612.53
593.158	50570.49
593.517	50596.25
593.876	50708.57
594.235	50678.29
594.593	50729.81
594.952	50707.21
595.311	50723.71
595.67	50795.8
596.029	51021.33
596.387	51020.88
596.746	51054.55
597.104	50930.48
597.463	50920.09
597.822	50982.68
598.18	50966.19
598.538	50950.14
598.897	51172.28
599.255	50873.08
599.613	51291.38
599.972	51124.6
600.33	51120.31
600.688	51111.27
601.046	51234.66
601.404	51309.91
601.762	51353.75
602.12	51577.92
602.478	51455.44
602.836	51390.58
603.194	51372.73
603.552	51387.42
603.91	51242.79
604.268	51497.93
604.625	51375.89
604.983	51529.34
605.341	51426.74
605.698	51607.53
606.056	51776.56
606.413	51624.93
606.771	51799.84
607.128	51824.92
607.485	51672.61
607.843	51704.47
608.2	51923
608.557	52036.67
608.914	51916.9
609.272	52049.32
609.629	52034.86
609.986	52175.87
610.343	52009.78
610.7	52195.31
611.057	52085.71
611.414	52151.92
611.771	52071.24
612.127	52221.75
612.484	52254.52
612.841	52305.36
613.198	52286.15
613.554	52281.63
613.911	52497.9
614.267	52570.89
614.624	52433.95
614.98	52466.26
615.337	52720.04
615.693	52613.15
616.05	52567.95
616.406	52654.51
616.762	52599.14
617.118	52564.56
617.475	52602.3
617.831	52686.37
618.187	52704.22
618.543	52708.97
618.899	52932.46
619.255	52784.22
619.611	52728.18
619.967	52872.58
620.323	52903.76
620.678	52764.11
621.034	52727.27
621.39	52730.21
621.746	52792.58
622.101	53025.8
622.457	52743.32
622.812	52812.02
623.168	52911.9
623.523	52905.35
623.879	53039.35
624.234	52742.41
624.589	52890.66
624.945	53037.77
625.3	52994.38
625.655	52898.34
626.01	52915.52
626.365	52953.03
626.72	52823.54
627.075	52861.73
627.43	52790.09
627.785	52831.68
628.14	52796.87
628.495	52821.73
628.85	52822.18
629.205	52694.05
629.559	52903.31
629.914	52684.79
630.269	52776.31
630.623	52667.84
630.978	52652.47
631.332	52837.1
631.687	52813.82
632.041	52726.59
632.396	52823.54
632.75	52649.99
633.104	52718.68
633.459	52586.03
633.813	52545.58
634.167	52616.99
634.521	52490.44
634.875	52534.96
635.229	52443.89
635.583	52244.35
635.937	52294.74
636.291	52271.92
636.645	52351.91
636.999	52270.79
637.352	52349.43
637.706	52058.14
638.06	52229.43
638.413	52125.48
638.767	52050.23
639.121	52206.61
639.474	51843
639.828	51862.44
640.181	51921.64
640.534	51849.1
640.888	51876.67
641.241	51635.32
641.594	51784.25
641.947	51819.5
642.301	51670.12
642.654	51649.33
643.007	51653.18
643.36	51590.58
643.713	51453.18
644.066	51582.9
644.419	51429.45
644.771	51230.59
645.124	50929.8
645.477	50793.09
645.83	50677.16
646.182	50430.38
646.535	50490.04
646.888	50560.55
647.24	50393.55
647.593	50628.8
647.945	50466.99
648.298	50210.28
648.65	50119.43
649.002	50112.65
649.355	50298.86
649.707	50175.93
650.059	50306.32
650.411	50581.34
650.763	50544.96
651.115	50966.19
651.467	50852.29
651.819	50790.6
652.171	50660.89
652.523	50717.38
652.875	50687.33
653.227	50516.48
653.578	50722.8
653.93	50602.36
654.282	50451.17
654.633	50394
654.985	50432.19
655.337	50398.52
655.688	50477.61
656.039	50521.23
656.391	50181.58
656.742	50167.57
657.094	50285.53
657.445	50415.24
657.796	50256.83
658.147	50280.56
658.498	50072.43
658.849	50275.13
659.2	50128.92
659.551	50039.43
659.902	50200.33
660.253	50135.7
660.604	50135.7
660.955	49899.78
661.306	50076.27
661.656	49950.62
662.007	50045.31
662.358	49899.32
662.708	49965.31
663.059	49906.1
663.409	49758.54
663.76	50063.61
664.11	50044.63
664.461	50083.5
664.811	50074.69
665.161	49881.92
665.511	49836.5
665.862	49830.4
666.212	49926.89
666.562	49906.55
666.912	49835.6
667.262	49840.79
667.612	49777.29
667.962	49740.91
668.312	49730.51
668.662	49876.5
669.011	49821.13
669.361	49652.1
669.711	49566
670.06	49537.75
670.41	49521.93
670.76	49435.83
671.109	49597.41
671.459	49455.49
671.808	49407.13
672.157	49448.49
672.507	49289.62
672.856	49365.78
673.205	49305.89
673.554	49444.19
673.904	49303.18
674.253	49471.09
674.602	49238.55
674.951	48706.13
675.3	48534.16
675.649	49056.41
675.998	48990.19
676.346	48978.67
676.695	49081.27
677.044	48743.65
677.393	48791.78
677.741	48869.52
678.09	48796.3
678.438	48676.53
678.787	48746.59
679.135	48742.07
679.484	48527.16
679.832	48560.6
680.181	48393.15
680.529	48479.25
680.877	48528.96
681.225	48359.25
681.573	48524.44
681.922	48259.14
682.27	48222.76
682.618	48307.73
682.966	48185.7
683.314	48135.08
683.661	48146.15
684.009	47858.7
684.357	47908.64
684.705	47750.68
685.053	47755.65
685.4	47692.83
685.748	47632.72
686.095	47466.17
686.443	47371.71
686.79	47368.99
687.138	47352.95
687.485	47459.16
687.832	47259.62
688.18	47279.96
688.527	47050.36
688.874	46990.7
689.221	46969.91
689.568	46931.04
689.915	46663.02
690.262	46609.92
690.609	46633.42
690.956	46461
691.303	46380.32
691.65	46291.28
691.997	46242.7
692.344	45943.04
692.69	45889.71
693.037	45867.79
693.383	45618.98
693.73	45883.16
694.077	45595.71
694.423	45461.02
694.769	45451.08
695.116	45305.55
695.462	45313
695.808	45027.14
696.155	45067.36
696.501	44921.15
696.847	44850.64
697.193	44584.44
697.539	44661.72
697.885	44435.96
698.231	44331.11
698.577	44174.95
698.923	44075.07
699.269	44056.09
699.614	43725.25
699.96	43889.54
700.306	43872.82
700.651	43602.54
700.997	43409.78
701.342	43372.94
701.688	43192.38
702.033	43211.14
702.379	43127.75
702.724	42970.47
703.069	43012.27
703.415	42664.94
703.76	42561.89
704.105	42584.94
704.45	42473.08
704.795	42212.29
705.14	42069.7
705.485	42255.23
705.83	41968.23
706.175	42133.43
706.52	41913.09
706.865	41708.8
707.209	41699.99
707.554	41479.21
707.899	41544.74
708.243	41412.77
708.588	41204.41
708.932	41135.49
709.277	41185.88
709.621	41043.06
709.966	40866.79
710.31	41029.27
710.654	40529.85
710.998	40755.38
711.342	40767.13
711.687	40694.14
712.031	40465
712.375	40289.63
712.719	40339.12
713.063	40303.87
713.407	40487.37
713.75	40156.98
714.094	40111.78
714.438	39904.78
714.782	39976.19
715.125	39796.76
715.469	39772.36
715.812	39561.06
716.156	39269.77
716.499	39354.97
716.843	39401.29
717.186	39086.73
717.53	39335.99
717.873	39305.25
718.216	39124.92
718.559	38909.78
718.902	38520.87
719.246	38725.83
719.589	38454.2
719.932	38324.49
720.275	38499.85
720.617	38309.12
720.96	38274.32
721.303	38338.72
721.646	38231.61
721.989	37985.29
722.331	38032.74
722.674	37949.58
723.016	37987.09
723.359	37908.23
723.701	37839.3
724.044	37599.99
724.386	37410.61
724.729	37622.36
725.071	37514.79
725.413	37524.96
725.755	37472.53
726.097	37337.17
726.439	37042.71
726.782	37163.16
727.124	37318.64
727.465	37103.73
727.807	37028.02
728.149	36972.88
728.491	36862.15
728.833	36932.88
729.175	36731.76
729.516	36746.22
729.858	36640.24
730.199	36699.9
730.541	36482.05
730.882	36514.36
731.224	36425.1
731.565	36282.51
731.906	36402.05
732.248	36355.05
732.589	36131.1
732.93	35888.17
733.271	35985.57
733.612	35957.32
733.953	35887.26
734.294	35762.29
734.635	35654.05
734.976	35838.45
735.317	35448.4
735.658	35593.49
735.999	35507.39
736.339	35493.83
736.68	35463.09
737.021	35380.84
737.361	35140.39
737.702	35240.27
738.042	35171.12
738.383	35186.94
738.723	35133.38
739.063	34882.77
739.404	35089.77
739.744	35055.19
740.084	34890.23
740.424	34756.44
740.764	34655.43
741.104	34856.1
741.444	34540.86
741.784	34419.73
742.124	34409.79
742.464	34382.22
742.804	34182.22
743.143	34181.09
743.483	34236.91
743.823	34042.57
744.162	34028.55
744.502	34152.62
744.841	33963.25
745.181	34153.07
745.52	33909.46
745.86	33990.36
746.199	33826.98
746.538	33835.34
746.877	33771.16
747.216	33900.42
747.556	33675.12
747.895	33699.07
748.234	33512.86
748.573	33549.92
748.911	33413.2
749.25	33343.83
749.589	33288.69
749.928	33247.78
750.267	33318.06
750.605	33112.65
750.944	32976.38
751.283	32900.22
751.621	32907.68
751.96	32751.3
752.298	32780.68
752.636	32806.44
752.975	32530.51
