Data from aluminium_surface_pro_back_FLMS001491_00048.txt Node
Date: Wed Feb 08 15:34:07 GMT 2017
User: dcchb
Spectrometer: FLMS00149
Trigger mode: 0
Integration Time (sec): 2.000000E-2
Scans to average: 10
Electric dark correction enabled: true
Nonlinearity correction enabled: false
Boxcar width: 0
XAxis mode: Wavelengths
Number of Pixels in Spectrum: 2048
>>>>>Begin Spectral Data<<<<<
341.393	-4.12
341.776	-4.12
342.16	-4.12
342.543	-73.95
342.927	-51.81
343.31	-66.5
343.693	-90.68
344.077	-61.98
344.46	-59.72
344.843	-57
345.226	-45.25
345.61	-26.27
345.993	-17.01
346.376	-14.29
346.759	19.38
347.142	38.81
347.525	43.33
347.908	53.95
348.291	74.07
348.674	91.24
349.057	117.91
349.44	117.91
349.823	131.47
350.206	166.04
350.588	199.94
350.971	235.42
351.354	235.42
351.737	244.23
352.119	266.83
352.502	258.92
352.884	277.22
353.267	312.7
353.65	303.89
354.032	324.23
354.414	321.74
354.797	347.5
355.179	342.31
355.562	349.31
355.944	366.04
356.326	366.49
356.709	348.63
357.091	365.81
357.473	361.97
357.855	358.58
358.238	371.23
358.62	366.04
359.002	360.61
359.384	367.62
359.766	365.13
360.148	381.18
360.53	394.06
360.912	388.41
361.294	372.14
361.676	354.28
362.057	368.3
362.439	358.58
362.821	368.52
363.203	361.52
363.584	372.14
363.966	374.4
364.348	362.19
364.729	371.01
365.111	375.98
365.493	353.38
365.874	361.29
366.256	386.6
366.637	370.78
367.019	359.93
367.4	354.74
367.781	339.14
368.163	372.59
368.544	359.71
368.925	359.71
369.306	371.91
369.688	349.99
370.069	357.22
370.45	385.02
370.831	369.43
371.212	375.98
371.593	366.71
371.974	357.67
372.355	395.19
372.736	380.5
373.117	375.53
373.498	366.94
373.879	388.63
374.26	366.04
374.641	371.46
375.021	378.69
375.402	411.01
375.783	398.58
376.163	421.4
376.544	424.57
376.925	407.39
377.305	419.37
377.686	399.03
378.066	421.18
378.447	407.62
378.827	423.21
379.208	415.07
379.588	415.75
379.968	407.16
380.349	423.66
380.729	429.76
381.109	422.53
381.489	430.21
381.87	454.62
382.25	455.75
382.63	438.58
383.01	465.69
383.39	435.41
383.77	459.14
384.15	452.14
384.53	459.59
384.91	449.88
385.29	474.96
385.67	502.53
386.049	502.53
386.429	481.74
386.809	503.66
387.189	476.77
387.568	512.47
387.948	508.18
388.328	503.89
388.707	515.86
389.087	525.35
389.466	538.01
389.846	535.07
390.225	543.43
390.605	535.97
390.984	569.87
391.363	524.68
391.743	542.53
392.122	568.52
392.501	597.67
392.881	584.79
393.26	601.51
393.639	589.76
394.018	599.02
394.397	612.36
394.776	625.69
395.155	612.36
395.534	632.47
395.913	636.54
396.292	647.84
396.671	626.14
397.05	651.23
397.429	649.64
397.808	653.03
398.186	656.65
398.565	688.51
398.944	680.15
399.323	686.71
399.701	681.51
400.08	688.74
400.458	709.76
400.837	726.7
401.215	746.59
401.594	735.07
401.972	738.91
402.351	716.31
402.729	737.33
403.107	779.13
403.486	777.32
403.864	781.84
404.242	776.19
404.62	780.94
404.999	807.38
405.377	815.29
405.755	824.55
406.133	801.73
406.511	855.74
406.889	810.54
407.267	837.21
407.645	887.15
408.023	878.11
408.401	893.71
408.779	912.24
409.156	916.76
409.534	917.66
409.912	927.15
410.29	972.35
410.667	981.84
411.045	974.16
411.422	996.75
411.8	1023.87
412.178	1015.51
412.555	1018.67
412.933	1055.51
413.31	1073.36
413.687	1067.94
414.065	1086.92
414.442	1115.85
414.819	1125.34
415.197	1125.56
415.574	1152
415.951	1137.54
416.328	1152.46
416.705	1168.5
417.082	1167.37
417.46	1193.58
417.837	1206.92
418.214	1208.73
418.591	1237.65
418.967	1229.06
419.344	1234.94
419.721	1268.84
420.098	1261.15
420.475	1300.25
420.852	1335.95
421.228	1319
421.605	1345.22
421.982	1319.46
422.358	1357.65
422.735	1384.54
423.111	1391.77
423.488	1426.35
423.864	1421.15
424.241	1442.39
424.617	1454.37
424.994	1455.27
425.37	1487.59
425.746	1469.06
426.123	1518.77
426.499	1504.99
426.875	1540.24
427.251	1564.87
427.627	1584.76
428.003	1624.99
428.379	1613.23
428.756	1663.63
429.132	1674.93
429.507	1691.88
429.883	1713.34
430.259	1727.81
430.635	1756.73
431.011	1789.05
431.387	1827.47
431.763	1851.87
432.138	1831.99
432.514	1896.16
432.89	1890.74
433.265	1912.66
433.641	1925.99
434.016	1994.02
434.392	2003.51
434.767	2037.86
435.143	2025.65
435.518	2044.41
435.894	2095.26
436.269	2132.77
436.644	2150.62
437.02	2164.41
437.395	2154.01
437.77	2231.98
438.145	2247.79
438.52	2283.95
438.895	2273.33
439.271	2283.27
439.646	2338.87
440.021	2340.67
440.395	2385.19
440.77	2380.22
441.145	2416.38
441.52	2405.3
441.895	2414.12
442.27	2474.91
442.645	2472.42
443.019	2505.19
443.394	2483.72
443.769	2558.07
444.143	2541.57
444.518	2543.83
444.892	2568.69
445.267	2594
445.641	2629.7
446.016	2616.15
446.39	2673.77
446.764	2690.95
447.139	2701.34
447.513	2718.97
447.887	2729.36
448.262	2767.55
448.636	2762.81
449.01	2814.78
449.384	2840.09
449.758	2840.09
450.132	2862.47
450.506	2887.1
450.88	2936.36
451.254	2923.26
451.628	2999.19
452.002	3000.09
452.376	3035.34
452.75	3047.32
453.123	3107.21
453.497	3148.56
453.871	3200.09
454.244	3191.5
454.618	3278.95
454.992	3304.72
455.365	3304.26
455.739	3371.83
456.112	3446.41
456.486	3484.6
456.859	3513.3
457.232	3567.08
457.606	3554.65
457.979	3583.35
458.352	3705.61
458.725	3756.45
459.099	3781.31
459.472	3827.64
459.845	3856.79
460.218	3888.43
460.591	3937.24
460.964	3964.13
461.337	4055.2
461.71	4142.21
462.083	4155.09
462.456	4234.86
462.829	4222.66
463.201	4252.04
463.574	4318.47
463.947	4374.97
464.32	4449.54
464.692	4504.91
465.065	4498.13
465.438	4588.52
465.81	4631.01
466.183	4727.28
466.555	4818.35
466.928	4848.18
467.3	4832.58
467.672	4920.72
468.045	5070.32
468.417	5087.49
468.789	5099.92
469.161	5153.71
469.534	5283.19
469.906	5452.46
470.278	5397.32
470.65	5497.2
471.022	5617.2
471.394	5718.21
471.766	5788.94
472.138	5826.91
472.51	5930.41
472.882	6038.65
473.253	6075.26
473.625	6168.37
473.997	6319.55
474.369	6322.72
474.74	6490.62
475.112	6609.49
475.484	6722.25
475.855	6782.14
476.227	6844.06
476.598	7054.9
476.97	7114.78
477.341	7314.1
477.713	7396.13
478.084	7433.65
478.455	7651.95
478.827	7757.93
479.198	7946.85
479.569	7999.51
479.94	8180.07
480.311	8213.74
480.682	8407.86
481.053	8630.68
481.424	8763.1
481.795	8867.96
482.166	9019.37
482.537	9169.87
482.908	9293.48
483.279	9370.09
483.65	9591.78
484.021	9820.93
484.391	9857.54
484.762	9978.21
485.133	10075.84
485.503	10198.32
485.874	10474.47
486.244	10573.68
486.615	10749.49
486.985	10945.64
487.356	11099.31
487.726	11212.08
488.097	11418.63
488.467	11448.68
488.837	11746.53
489.207	11892.74
489.578	12024.03
489.948	12153.07
490.318	12373.63
490.688	12446.4
491.058	12599.84
491.428	12775.88
491.798	12847.52
492.168	13082.31
492.538	13181.97
492.908	13381.96
493.278	13515.29
493.648	13619.7
494.017	13767.94
494.387	13899.69
494.757	14086.8
495.126	14206.58
495.496	14146.24
495.866	14330.41
496.235	14613.34
496.605	14586
496.974	14802.72
497.344	14870.29
497.713	14998.19
498.082	15167
498.452	15307.79
498.821	15456.26
499.19	15369.48
499.559	15649.02
499.928	15641.57
500.298	15713.43
500.667	15999.52
501.036	15952.97
501.405	16099.18
501.774	16096.7
502.143	16336.46
502.512	16465.05
502.88	16602.44
503.249	16615.1
503.618	16691.48
503.987	16797.02
504.356	16915.88
504.724	17085.82
505.093	17206.95
505.462	17300.73
505.83	17441.52
506.199	17596.99
506.567	17734.84
506.936	17818.68
507.304	17931.45
507.672	18017.32
508.041	18157.43
508.409	18293.47
508.777	18416.63
509.145	18593.58
509.514	18678.32
509.882	18806.91
510.25	18901.14
510.618	19074.24
510.986	19173.9
511.354	19340
511.722	19487.57
512.09	19757.16
512.458	19705.19
512.826	19936.14
513.193	20104.95
513.561	20128.23
513.929	20363.02
514.297	20494.09
514.664	20596.92
515.032	20770.92
515.4	20956.45
515.767	21056.34
516.135	21231.48
516.502	21108.77
516.869	21579.49
517.237	21542.65
517.604	21723.21
517.972	22000.72
518.339	22067.16
518.706	22255.4
519.073	22307.83
519.44	22558.67
519.808	22851.77
520.175	22742.85
520.542	23174.25
520.909	23291.08
521.276	23336.28
521.643	23456.73
522.009	23760.22
522.376	23802.93
522.743	24017.17
523.11	24377.61
523.477	24599.75
523.843	24720.2
524.21	24989.79
524.577	25331.93
524.943	25357.92
525.31	25517.46
525.676	25702.32
526.043	25867.06
526.409	25992.48
526.776	26334.17
527.142	26430.43
527.508	26594.95
527.874	26814.61
528.241	27001.72
528.607	27097.76
528.973	27381.14
529.339	27452.1
529.705	27659.56
530.071	27869.72
530.437	28001.47
530.803	28249.37
531.169	28443.72
531.535	28503.37
531.901	28616.59
532.267	28741.33
532.632	28974.77
532.998	29092.74
533.364	29197.82
533.73	29365.5
534.095	29647.53
534.461	29707.86
534.826	29916.22
535.192	30061.98
535.557	30369.09
535.923	30381.74
536.288	30340.16
536.653	30573.15
537.019	30631.45
537.384	30671.23
537.749	30878.91
538.114	30957.55
538.479	30977.21
538.845	31121.16
539.21	31135.62
539.575	31339.68
539.94	31477.53
540.305	31589.17
540.67	31503.07
541.034	31725.21
541.399	31876.85
541.764	31931.31
542.129	32036.16
542.494	32221.02
542.858	32260.34
543.223	32264.18
543.587	32524.06
543.952	32470.28
544.316	32630.5
544.681	32734
545.045	32825.3
545.41	32953.2
545.774	32954.56
546.138	33153.42
546.503	33284.27
546.867	33277.94
547.231	33672.96
547.595	33659.4
547.959	33875.21
548.324	33881.99
548.688	33957.92
549.052	34107.75
549.416	34201.98
549.779	34388.64
550.143	34458.47
550.507	34557.68
550.871	34769.88
551.235	34798.12
551.599	35067.04
551.962	35094.61
552.326	35207.61
552.689	35555.62
553.053	35332.35
553.417	35674.71
553.78	36003.74
554.143	35732.11
554.507	36094.36
554.87	36122.38
555.234	36487.12
555.597	36289.84
555.96	36531.41
556.323	36782.71
556.686	36761.01
557.05	36991.51
557.413	37148.57
557.776	37229.02
558.139	37490.26
558.502	37453.65
558.865	37669.91
559.228	38064.03
559.59	38214.31
559.953	38196.91
560.316	38634.18
560.679	38588.08
561.041	38995.3
561.404	38921.41
561.767	39308.74
562.129	39290.21
562.492	39558.23
562.854	39494.5
563.217	39608.85
563.579	39885.9
563.941	40042.51
564.304	40202.05
564.666	40515.49
565.028	40582.61
565.39	40837.29
565.753	40937.62
566.115	41183.95
566.477	41324.28
566.839	41383.26
567.201	41796.81
567.563	41852.18
567.925	42128.78
568.287	42313.41
568.648	42401.31
569.01	42632.49
569.372	42881.98
569.734	42811.47
570.095	43104.8
570.457	43342.31
570.819	43301.18
571.18	43427.28
571.542	43575.07
571.903	43789.07
572.265	43965.34
572.626	44039.69
572.987	44145.45
573.349	44280.36
573.71	44590.18
574.071	44570.52
574.432	44827.69
574.794	45081.02
575.155	44999.66
575.516	44886.22
575.877	45123.73
576.238	45220.22
576.599	45429.03
576.96	45445.53
577.32	45557.84
577.681	45751.51
578.042	45871.51
578.403	45908.79
578.763	45981.56
579.124	46050.71
579.485	46343.81
579.845	46342.68
580.206	46470.59
580.566	46418.38
580.927	46557.82
581.287	46761.88
581.648	46616.8
582.008	46723.69
582.368	46643.01
582.728	46711.71
583.089	46897.24
583.449	46711.03
583.809	46874.19
584.169	47000.52
584.529	46834.19
584.889	47301.98
585.249	46921.87
585.609	46922.55
585.969	47100.17
586.329	47018.82
586.688	47172.71
587.048	47044.13
587.408	47037.8
587.768	47043.45
588.127	47047.07
588.487	47021.76
588.846	47360.28
589.206	47155.31
589.565	47161.42
589.925	47321.41
590.284	47329.55
590.643	47318.7
591.003	47420.84
591.362	47464.46
591.721	47387.17
592.08	47323.44
592.44	47503.33
592.799	47393.5
593.158	47379.71
593.517	47497.45
593.876	47513.27
594.235	47424.69
594.593	47503.78
594.952	47645.92
595.311	47419.49
595.67	47567.28
596.029	47694.51
596.387	47820.61
596.746	47909.87
597.104	47664.23
597.463	47746.26
597.822	47832.13
598.18	47758.69
598.538	47760.72
598.897	47983.99
599.255	47639.37
599.613	48234.16
599.972	47919.14
600.33	48028.74
600.688	48045.46
601.046	48127.49
601.404	48210.43
601.762	48117.32
602.12	48260.82
602.478	48127.72
602.836	48282.06
603.194	48118.45
603.552	48171.78
603.91	47971.11
604.268	48194.38
604.625	48183.76
604.983	48469.4
605.341	48251.78
605.698	48486.13
606.056	48498.33
606.413	48482.96
606.771	48683.64
607.128	48715.27
607.485	48387.37
607.843	48553.24
608.2	48744.88
608.557	48769.28
608.914	48589.17
609.272	48884.76
609.629	48914.59
609.986	48959.79
610.343	48895.61
610.7	49204.53
611.057	49003.17
611.414	49091.99
611.771	49035.72
612.127	49195.71
612.484	49147.13
612.841	49210.4
613.198	49146
613.554	49184.86
613.911	49348.93
614.267	49285.88
614.624	49304.18
614.98	49439.32
615.337	49586.89
615.693	49526.32
616.05	49446.33
616.406	49642.71
616.762	49504.63
617.118	49531.75
617.475	49548.02
617.831	49659.43
618.187	49748.01
618.543	49703.04
618.899	49816.26
619.255	49815.58
619.611	49865.3
619.967	49958.63
620.323	50016.93
620.678	49912.76
621.034	49856.49
621.39	49807.9
621.746	49817.39
622.101	50276.14
622.457	49964.51
622.812	49939.2
623.168	49986.2
623.523	50040.66
623.879	50180.32
624.234	49948.91
624.589	50141.68
624.945	50089.7
625.3	50032.07
625.655	50195.23
626.01	50044.28
626.365	50072.98
626.72	49954.11
627.075	49996.82
627.43	49934.68
627.785	49804.96
628.14	49989.59
628.495	50029.14
628.85	49953.21
629.205	49752.31
629.559	50000.21
629.914	49777.62
630.269	49890.61
630.623	49767.67
630.978	49791.18
631.332	49956.6
631.687	50031.62
632.041	49721.57
632.396	49790.72
632.75	49750.05
633.104	49675.25
633.459	49628.02
633.813	49463.95
634.167	49512.31
634.521	49474.35
634.875	49491.75
635.229	49355.26
635.583	49390.51
635.937	49297.86
636.291	49255.82
636.645	49365.65
636.999	49133.34
637.352	49288.37
637.706	48955.49
638.06	49017.19
638.413	49060.35
638.767	48832.33
639.121	48967.02
639.474	48732.45
639.828	48749.62
640.181	48848.6
640.534	48849.96
640.888	48687.48
641.241	48588.72
641.594	48673.24
641.947	48753.01
642.301	48550.31
642.654	48698.78
643.007	48604.32
643.36	48563.19
643.713	48417.88
644.066	48616.29
644.419	48178.34
644.771	48091.11
645.124	47709.65
645.477	47692.7
645.83	47426.27
646.182	47048.65
646.535	47125.48
646.888	47169.1
647.24	46905.83
647.593	47184.92
647.945	46950.8
648.298	46826.51
648.65	46762.1
649.002	46765.04
649.355	46810.69
649.707	46850.92
650.059	46936.79
650.411	47346.5
650.763	47251.81
651.115	47662.87
651.467	47558.02
651.819	47557.11
652.171	47403.44
652.523	47289.32
652.875	47260.4
653.227	47185.6
653.578	47393.27
653.93	47281.41
654.282	46900.63
654.633	46985.15
654.985	47002.78
655.337	47061.3
655.688	46968.88
656.039	47007.07
656.391	46753.06
656.742	46717.13
657.094	46728.43
657.445	46799.62
657.796	46633.07
658.147	46562.34
658.498	46572.05
658.849	46728.21
659.2	46613.18
659.551	46650.92
659.902	46671.03
660.253	46581.77
660.604	46552.39
660.955	46431.49
661.306	46510.13
661.656	46472.39
662.007	46506.74
662.358	46378.61
662.708	46438.95
663.059	46392.85
663.409	46031.5
663.76	46302
664.11	46286.86
664.461	46342
664.811	46276.24
665.161	46246.64
665.511	46101.56
665.862	46202.57
666.212	46271.27
666.562	46336.35
666.912	46074.66
667.262	46216.58
667.612	46077.83
667.962	46099.07
668.312	45880.09
668.662	46160.76
669.011	45958.96
669.361	46000.77
669.711	45943.14
670.06	45647.78
670.41	45753.54
670.76	45692.08
671.109	45946.08
671.459	45878.74
671.808	45733.43
672.157	45795.12
672.507	45473.32
672.856	45625.64
673.205	45641.46
673.554	45707.44
673.904	45662.02
674.253	45771.4
674.602	45514
674.951	44933.68
675.3	44832.44
675.649	45477.39
675.998	45389.03
676.346	45341.58
676.695	45504.51
677.044	45135.25
677.393	45258.41
677.741	45250.73
678.09	45139.77
678.438	45038.31
678.787	45260
679.135	45267.68
679.484	45003.96
679.832	45142.94
680.181	44745.21
680.529	44978.2
680.877	44960.34
681.225	44751.54
681.573	45062.26
681.922	44584.53
682.27	44422.5
682.618	44539.34
682.966	44440.36
683.314	44570.3
683.661	44300.25
684.009	44223.41
684.357	44118.78
684.705	44253.24
685.053	44169.86
685.4	43991.1
685.748	43938.45
686.095	43784.78
686.443	43735.29
686.79	43705.69
687.138	43872.46
687.485	43790.2
687.832	43479.25
688.18	43361.29
688.527	43395.64
688.874	43345.92
689.221	43315.64
689.568	43119.26
689.915	42851.02
690.262	42951.81
690.609	42639.05
690.956	42678.37
691.303	42628.2
691.65	42506.62
691.997	42558.6
692.344	42199.74
692.69	42127.65
693.037	42194.99
693.383	41699.64
693.73	41927.2
694.077	41675.91
694.423	41740.54
694.769	41582.8
695.116	41430.72
695.462	41304.39
695.808	41189.14
696.155	41338.74
696.501	40990.73
696.847	40955.93
697.193	40815.14
697.539	40897.63
697.885	40635.49
698.231	40565.66
698.577	40585.77
698.923	40387.36
699.269	40093.13
699.614	40051.55
699.96	39995.95
700.306	40082.51
700.651	39740.82
700.997	39595.29
701.342	39618.79
701.688	39548.73
702.033	39388.29
702.379	39431
702.724	39044.79
703.069	39279.59
703.415	38902.2
703.76	38808.41
704.105	38975.42
704.45	38763.44
704.795	38521.42
705.14	38452.49
705.485	38472.38
705.83	38183.12
706.175	38210.69
706.52	38158.71
706.865	37983.13
707.209	37970.24
707.554	37818.38
707.899	37939.74
708.243	37702.45
708.588	37663.59
708.932	37407.55
709.277	37315.8
709.621	37365.06
709.966	37125.3
710.31	37128.68
710.654	36932.76
710.998	36778.86
711.342	36962.36
711.687	36812.31
712.031	36595.82
712.375	36575.48
712.719	36512.66
713.063	36645.08
713.407	36519.66
713.75	36293.45
714.094	36502.26
714.438	36088.49
714.782	36180.01
715.125	35981.6
715.469	36112.21
715.812	35739.57
716.156	35700.25
716.499	35615.28
716.843	35663.19
717.186	35277.21
717.53	35450.76
717.873	35408.5
718.216	35282.18
718.559	35193.14
718.902	35100.26
719.246	35056.2
719.589	34875.64
719.932	34917.22
720.275	34951.11
720.617	34737.79
720.96	34686.04
721.303	34662.31
721.646	34709.31
721.989	34453.95
722.331	34557.45
722.674	34355.88
723.016	34413.5
723.359	34246.73
723.701	34257.12
724.044	34068.65
724.386	33947.75
724.729	34040.4
725.071	33997.92
725.413	33872.5
725.755	33924.25
726.097	33724.03
726.439	33518.38
726.782	33664.82
727.124	33779.85
727.465	33543.24
727.807	33519.97
728.149	33455.11
728.491	33352.74
728.833	33352.51
729.175	33275.23
729.516	33354.09
729.858	33116.59
730.199	33161.33
730.541	32995.23
730.882	33021
731.224	33047.21
731.565	32923.15
731.906	32810.38
732.248	32814.9
732.589	32673.43
732.93	32521.12
733.271	32614.91
733.612	32618.07
733.953	32602.02
734.294	32369.94
734.635	32353.9
734.976	32484.74
735.317	32252.65
735.658	32185.76
735.999	32237.29
736.339	31995.03
736.68	32157.06
737.021	31995.71
737.361	31941.93
737.702	31959.56
738.042	31841.59
738.383	31705.78
738.723	31705.32
739.063	31652.9
739.404	31647.25
739.744	31569.06
740.084	31457.65
740.424	31523.86
740.764	31380.36
741.104	31500.13
741.444	31179.91
741.784	31260.82
742.124	31203.64
742.464	31155.28
742.804	31097.43
743.143	30875.29
743.483	31093.82
743.823	30893.37
744.162	30917.55
744.502	30966.36
744.841	30633.71
745.181	30807.04
745.52	30600.04
745.86	30595.75
746.199	30508.97
746.538	30423.1
746.877	30416.77
747.216	30409.09
747.556	30332.48
747.895	30404.79
748.234	30151.92
748.573	30216.78
748.911	30182.88
749.25	30138.81
749.589	30012.49
749.928	29972.49
750.267	30090.45
750.605	29830.12
750.944	29839.84
751.283	29652.5
751.621	29760.52
751.96	29613.4
752.298	29591.03
752.636	29565.27
752.975	29395.78
