Data from aluminium_surface_pro_back_FLMS001491_00063.txt Node
Date: Wed Feb 08 15:34:23 GMT 2017
User: dcchb
Spectrometer: FLMS00149
Trigger mode: 0
Integration Time (sec): 2.000000E-2
Scans to average: 10
Electric dark correction enabled: true
Nonlinearity correction enabled: false
Boxcar width: 0
XAxis mode: Wavelengths
Number of Pixels in Spectrum: 2048
>>>>>Begin Spectral Data<<<<<
341.393	-16.36
341.776	-16.36
342.16	-16.36
342.543	-42.57
342.927	-71.5
343.31	-78.95
343.693	-66.98
344.077	-72.85
344.46	-61.33
344.843	-57.94
345.226	-36.02
345.61	-35.56
345.993	-0.76
346.376	-19.07
346.759	28.84
347.142	22.74
347.525	33.13
347.908	62.96
348.291	80.82
348.674	98.44
349.057	102.51
349.44	119.01
349.823	130.31
350.206	161.49
350.588	211.44
350.971	227.93
351.354	253.69
351.737	273.35
352.119	288.5
352.502	294.82
352.884	294.37
353.267	313.35
353.65	322.17
354.032	316.97
354.414	330.75
354.797	349.28
355.179	353.35
355.562	359
355.944	350.64
356.326	369.17
356.709	344.76
357.091	372.79
357.473	395.84
357.855	359.23
358.238	366.01
358.62	388.61
359.002	383.18
359.384	388.83
359.766	388.83
360.148	386.12
360.53	367.14
360.912	367.59
361.294	380.02
361.676	369.4
362.057	408.49
362.439	364.88
362.821	374.14
363.203	377.53
363.584	368.27
363.966	368.72
364.348	374.82
364.729	361.71
365.111	365.1
365.493	344.54
365.874	350.87
366.256	362.17
366.637	339.57
367.019	373.01
367.4	356.74
367.781	358.32
368.163	359.23
368.544	369.62
368.925	376.18
369.306	387.48
369.688	383.63
370.069	363.97
370.45	378.66
370.831	374.14
371.212	382.28
371.593	360.58
371.974	375.95
372.355	373.92
372.736	372.56
373.117	398.55
373.498	386.57
373.879	373.92
374.26	380.7
374.641	367.36
375.021	392.45
375.402	396.51
375.783	396.06
376.163	423.41
376.544	405.33
376.925	419.34
377.305	402.62
377.686	416.63
378.066	416.4
378.447	422.28
378.827	433.35
379.208	439.45
379.588	414.82
379.968	439
380.349	426.8
380.729	417.98
381.109	446.46
381.489	449.85
381.87	456.63
382.25	459.34
382.63	456.4
383.01	463.63
383.39	458.43
383.77	473.35
384.15	458.66
384.53	493.01
384.91	475.38
385.29	483.97
385.67	506.79
386.049	502.27
386.429	502.05
386.809	489.85
387.189	497.76
387.568	509.51
387.948	532.78
388.328	511.99
388.707	532.56
389.087	541.14
389.466	535.95
389.846	555.61
390.225	560.35
390.605	552.67
390.984	549.51
391.363	579.34
391.743	575.04
392.122	594.25
392.501	586.34
392.881	625.44
393.26	606.9
393.639	605.78
394.018	613.68
394.397	618.66
394.776	612.1
395.155	631.76
395.534	648.71
395.913	639.9
396.292	668.15
396.671	649.84
397.05	660.46
397.429	686.45
397.808	675.83
398.186	695.26
398.565	704.53
398.944	696.62
399.323	706.34
399.701	723.74
400.08	735.26
400.458	753.57
400.837	747.01
401.215	775.04
401.594	771.65
401.972	771.65
402.351	773
402.729	789.72
403.107	764.41
403.486	802.38
403.864	813
404.242	828.37
404.62	849.16
404.999	826.56
405.377	851.87
405.755	874.02
406.133	870.4
406.511	873.34
406.889	883.73
407.267	913.11
407.645	925.99
408.023	914.24
408.401	922.83
408.779	939.1
409.156	973.9
409.534	989.49
409.912	1000.79
410.29	1014.13
410.667	1029.04
411.045	1013
411.422	1048.7
411.8	1049.61
412.178	1063.39
412.555	1100.45
412.933	1104.97
413.31	1124.63
413.687	1092.09
414.065	1126.89
414.442	1145.87
414.819	1169.15
415.197	1204.86
415.574	1205.31
415.951	1230.17
416.328	1235.59
416.705	1219.32
417.082	1234.01
417.46	1260.67
417.837	1268.13
418.214	1287.57
418.591	1288.69
418.967	1336.83
419.344	1331.63
419.721	1375.7
420.098	1338.19
420.475	1379.31
420.852	1396.94
421.228	1401.01
421.605	1424.51
421.982	1424.06
422.358	1451.18
422.735	1455.92
423.111	1485.98
423.488	1520.33
423.864	1478.29
424.241	1516.03
424.617	1538.63
424.994	1578.86
425.37	1584.05
425.746	1574.11
426.123	1599.2
426.499	1586.31
426.875	1644.84
427.251	1652.98
427.627	1691.17
428.003	1726.42
428.379	1731.62
428.756	1744.05
429.132	1768.68
429.507	1820.66
429.883	1809.81
430.259	1859.53
430.635	1869.47
431.011	1876.93
431.387	1953.54
431.763	1968.9
432.138	1998.51
432.514	1987.66
432.89	2003.93
433.265	2059.52
433.641	2090.26
434.016	2159.86
434.392	2140.65
434.767	2183.59
435.143	2142.68
435.518	2193.53
435.894	2242.79
436.269	2253.87
436.644	2294.32
437.02	2285.28
437.395	2331.61
437.77	2362.11
438.145	2403.47
438.52	2390.59
438.895	2438.95
439.271	2478.04
439.646	2502.67
440.021	2505.84
440.395	2537.93
440.77	2506.52
441.145	2565.27
441.52	2598.49
441.895	2607.98
442.27	2638.72
442.645	2627.19
443.019	2693.63
443.394	2720.52
443.769	2722.78
444.143	2695.21
444.518	2779.73
444.892	2772.5
445.267	2795.55
445.641	2805.49
446.016	2850.24
446.39	2901.99
446.764	2873.96
447.139	2875.55
447.513	2918.48
447.887	2907.64
448.262	2914.41
448.636	2940.85
449.01	3009.1
449.384	3040.74
449.758	3064.02
450.132	3104.47
450.506	3118.03
450.88	3122.55
451.254	3127.06
451.628	3217.23
452.002	3232.82
452.376	3279.83
452.75	3291.81
453.123	3355.08
453.497	3412.03
453.871	3415.64
454.244	3438.24
454.618	3490.44
454.992	3551.91
455.365	3552.14
455.739	3645.92
456.112	3675.75
456.486	3716.2
456.859	3739.93
457.232	3826.71
457.606	3837.55
457.979	3886.37
458.352	3956.65
458.725	4043.42
459.099	3993.03
459.472	4136.98
459.845	4140.37
460.218	4175.85
460.591	4257.66
460.964	4258.11
461.337	4357.31
461.71	4427.82
462.083	4468.72
462.456	4488.16
462.829	4487.93
463.201	4595.5
463.574	4640.02
463.947	4752.11
464.32	4792.33
464.692	4843.4
465.065	4849.73
465.438	4966.79
465.81	5025.77
466.183	5046.79
466.555	5135.15
466.928	5218.31
467.3	5223.51
467.672	5344.18
468.045	5490.39
468.417	5457.4
468.789	5502.82
469.161	5598.86
469.534	5664.4
469.906	5767.45
470.278	5861.23
470.65	5904.39
471.022	5961.11
471.394	6112.3
471.766	6175.8
472.138	6247.43
472.51	6314.33
472.882	6491.72
473.253	6592.06
473.625	6677.93
473.997	6820.98
474.369	6773.3
474.74	6957.92
475.112	7058.94
475.484	7203.57
475.855	7324.47
476.227	7367.18
476.598	7566.72
476.97	7637
477.341	7834.51
477.713	8026.6
478.084	8009.2
478.455	8266.82
478.827	8321.73
479.198	8530.76
479.569	8593.59
479.94	8822.73
480.311	8828.61
480.682	9137.98
481.053	9292.55
481.424	9482.15
481.795	9544.52
482.166	9710.85
482.537	9781.58
482.908	9979.77
483.279	10058.86
483.65	10372.3
484.021	10568.45
484.391	10720.76
484.762	10802.34
485.133	10824.04
485.503	11072.39
485.874	11294.08
486.244	11383.57
486.615	11628.08
486.985	11802.32
487.356	11960.05
487.726	12096.55
488.097	12345.81
488.467	12398.01
488.837	12631
489.207	12825.79
489.578	12956.18
489.948	13094.71
490.318	13357.3
490.688	13320.69
491.058	13613.34
491.428	13853.34
491.798	13914.35
492.168	14215.59
492.538	14350.27
492.908	14411.29
493.278	14717.72
493.648	14726.08
494.017	14938.05
494.387	15053.3
494.757	15247.88
495.126	15354.54
495.496	15372.17
495.866	15573.29
496.235	15671.82
496.605	15831.59
496.974	15838.14
497.344	16111.36
497.713	16197.23
498.082	16309.77
498.452	16541.18
498.821	16667.05
499.19	16682.87
499.559	16893.03
499.928	17038.11
500.298	17053.93
500.667	17288.95
501.036	17234.72
501.405	17490.3
501.774	17519
502.143	17590.87
502.512	17790.63
502.88	18015.26
503.249	17988.14
503.618	18185.2
503.987	18296.61
504.356	18379.77
504.724	18530.05
505.093	18580.44
505.462	18619.09
505.83	18801.45
506.199	18927.33
506.567	19295.45
506.936	19284.83
507.304	19432.62
507.672	19503.13
508.041	19694.09
508.409	19875.32
508.777	20001.42
509.145	20191.25
509.514	20360.51
509.882	20462.43
510.25	20526.16
510.618	20664.68
510.986	20728.18
511.354	20967.73
511.722	21134.05
512.09	21414.04
512.458	21393.7
512.826	21729.74
513.193	21689.51
513.561	21927.47
513.929	22060.8
514.297	22311.64
514.664	22513.22
515.032	22644.29
515.4	22688.81
515.767	22877.96
516.135	23017.62
516.502	22974.23
516.869	23353.43
517.237	23459.86
517.604	23500.31
517.972	23888.78
518.339	23952.05
518.706	24064.14
519.073	24159.51
519.44	24320.41
519.808	24780.28
520.175	24813.73
520.542	25014.85
520.909	25275.41
521.276	25407.61
521.643	25630.2
522.009	25846.02
522.376	26002.4
522.743	26031.55
523.11	26406.68
523.477	26674.92
523.843	26826.1
524.21	27162.36
524.577	27241.23
524.943	27368.01
525.31	27511.06
525.676	27885.51
526.043	28077.82
526.409	28231.26
526.776	28585.83
527.142	28590.58
527.508	28934.07
527.874	29002.09
528.241	29133.61
528.607	29352.82
528.973	29654.73
529.339	29636.88
529.705	29961.61
530.071	30166.35
530.437	30282.28
530.803	30525.89
531.169	30699.67
531.535	30604.08
531.901	30909.61
532.267	31067.35
532.632	31303.72
532.998	31380.56
533.364	31590.5
533.73	31671.4
534.095	32025.74
534.461	32076.36
534.826	32225.51
535.192	32503.02
535.557	32609.45
535.923	32703.01
536.288	32716.8
536.653	32860.07
537.019	32834.08
537.384	33027.3
537.749	33361.98
538.114	33465.48
538.479	33487.62
538.845	33787.05
539.21	33611.46
539.575	33926.48
539.94	33883.54
540.305	34263.42
540.67	34185.46
541.034	34313.82
541.399	34593.81
541.764	34601.94
542.129	34773.24
542.494	34749.96
542.858	34970.52
543.223	34958.32
543.587	35309.72
543.952	35195.83
544.316	35369.15
544.681	35405.09
545.045	35607.79
545.41	35839.2
545.774	35881.01
546.138	35751.07
546.503	36012.53
546.867	36158.51
547.231	36289.81
547.595	36470.59
547.959	36552.17
548.324	36774.99
548.688	36711.49
549.052	36989
549.416	37059.05
549.779	37060.18
550.143	37307.41
550.507	37413.62
550.871	37607.51
551.235	37626.95
551.599	37819.94
551.962	37990.78
552.326	38141.51
552.689	38318.23
553.053	38181.96
553.417	38373.37
553.78	38968.16
554.143	38689.75
554.507	38956.18
554.87	39054.48
555.234	39381.25
555.597	39233.23
555.96	39494.7
556.323	39620.12
556.686	39732.43
557.05	40079.31
557.413	40163.38
557.776	40345.07
558.139	40574.67
558.502	40675.46
558.865	40900.31
559.228	41122.22
559.59	41288.55
559.953	41419.17
560.316	41789.55
560.679	41897.12
561.041	42143.67
561.404	42408.52
561.767	42583.43
562.129	42558.34
562.492	43016.64
562.854	43069.74
563.217	43035.39
563.579	43311.09
563.941	43645.1
564.304	43735.26
564.666	43879.89
565.028	44008.7
565.39	44274.68
565.753	44435.36
566.115	44704.95
566.477	44878.96
566.839	45003.03
567.201	45220.42
567.563	45365.95
567.925	45603.46
568.287	45693.63
568.648	45795.77
569.01	46126.39
569.372	46301.52
569.734	46243.67
570.095	46680.72
570.457	46823.99
570.819	46986.02
571.18	46980.37
571.542	47373.58
571.903	47310.54
572.265	47549.85
572.626	47668.72
572.987	47843.18
573.349	47827.36
573.71	48110.97
574.071	48041.14
574.432	48226.22
574.794	48581.01
575.155	48621.46
575.516	48494.91
575.877	48762.02
576.238	48810.16
576.599	48911.85
576.96	48957.5
577.32	49062.81
577.681	49138.74
578.042	49321.56
578.403	49363.36
578.763	49435.9
579.124	49551.38
579.485	49617.82
579.845	49786.85
580.206	49888.55
580.566	49836.57
580.927	49779.4
581.287	50061.2
581.648	49840.41
582.008	50041.31
582.368	50019.84
582.728	50019.62
583.089	50153.4
583.449	50080.86
583.809	50117.92
584.169	50202.89
584.529	50134.64
584.889	50447.85
585.249	50236.56
585.609	50161.53
585.969	50410.34
586.329	50276.79
586.688	50293.73
587.048	50285.15
587.408	50125.83
587.768	50170.8
588.127	50167.41
588.487	50123.12
588.846	50450.57
589.206	50205.37
589.565	50318.59
589.925	50494.41
590.284	50383.68
590.643	50444.24
591.003	50567.4
591.362	50602.65
591.721	50573.95
592.08	50498.47
592.44	50580.05
592.799	50673.16
593.158	50639.94
593.517	50570.79
593.876	50684.01
594.235	50601.3
594.593	50709.99
594.952	50807.84
595.311	50657.34
595.67	50693.95
596.029	50855.08
596.387	50983.66
596.746	51112.47
597.104	50880.16
597.463	50887.62
597.822	51032.92
598.18	50845.58
598.538	50892.36
598.897	51165.58
599.255	50899.37
599.613	51324.89
599.972	51131.68
600.33	51184.33
600.688	51043.09
601.046	51285.57
601.404	51292.58
601.762	51195.18
602.12	51399.24
602.478	51460.94
602.836	51353.82
603.194	51199.7
603.552	51404.67
603.91	51193.6
604.268	51494.38
604.625	51366.47
604.983	51514.04
605.341	51359.47
605.698	51619.57
606.056	51600.37
606.413	51637.43
606.771	51754.49
607.128	51803.98
607.485	51574.83
607.843	51669.29
608.2	51873.35
608.557	51935.72
608.914	51856.63
609.272	51919.45
609.629	51994.93
609.986	52137.3
610.343	51928.04
610.7	52146.11
611.057	52064.99
611.414	52066.79
611.771	52072.22
612.127	52236.96
612.484	52187.92
612.841	52222.04
613.198	52196.06
613.554	52287.58
613.911	52496.84
614.267	52446.22
614.624	52571.64
614.98	52598.76
615.337	52647.12
615.693	52560.34
616.05	52424.75
616.406	52663.84
616.762	52584.75
617.118	52586.78
617.475	52626.1
617.831	52631.98
618.187	52627.91
618.543	52675.14
618.899	52879.2
619.255	52751.3
619.611	52767.79
619.967	52807.57
620.323	52834.01
620.678	52843.72
621.034	52653.9
621.39	52731.18
621.746	52766.21
622.101	53003.27
622.457	52763.27
622.812	52868.58
623.168	52910.16
623.523	52816.83
623.879	52898.64
624.234	52879.65
624.589	52909.03
624.945	52844.18
625.3	52938.18
625.655	52879.88
626.01	52890.05
626.365	52839.66
626.72	52791.52
627.075	52725.99
627.43	52727.34
627.785	52704.07
628.14	52815.02
628.495	52868.81
628.85	52758.08
629.205	52613.22
629.559	52850.5
629.914	52712.43
630.269	52786.1
630.623	52665.2
630.978	52613
631.332	52817.06
631.687	52911.07
632.041	52715.82
632.396	52759.43
632.75	52636.27
633.104	52652.54
633.459	52657.06
633.813	52554.92
634.167	52522.6
634.521	52544.07
634.875	52539.78
635.229	52423.4
635.583	52302.72
635.937	52285.77
636.291	52285.32
636.645	52212.78
636.999	52194.25
637.352	52315.83
637.706	52084.65
638.06	52234.47
638.413	52116.74
638.767	52080.58
639.121	52173.46
639.474	51809.4
639.828	51839
640.181	51931.66
640.534	51839.68
640.888	51724.88
641.241	51687.6
641.594	51743.41
641.947	51798.33
642.301	51600.14
642.654	51539.8
643.007	51571.89
643.36	51574.83
643.713	51499.35
644.066	51686.69
644.419	51375.97
644.771	51195.41
645.124	50785.92
645.477	50819.37
645.83	50682.65
646.182	50537.34
646.535	50413.28
646.888	50552.03
647.24	50241.08
647.593	50441.53
647.945	50406.5
648.298	50105.94
648.65	50028.43
649.002	49988.43
649.355	50107.75
649.707	50121.08
650.059	50252.61
650.411	50669.77
650.763	50690.33
651.115	50959.25
651.467	50724.46
651.819	50789.31
652.171	50678.58
652.523	50714.06
652.875	50617.12
653.227	50492.6
653.578	50853.27
653.93	50500.51
654.282	50267.52
654.633	50266.84
654.985	50451.02
655.337	50379.61
655.688	50320.17
656.039	50397.01
656.391	50204.47
656.742	50194.98
657.094	50160.18
657.445	50336.44
657.796	50259.84
658.147	50193.4
658.498	50138.26
658.849	50166.73
659.2	50121.31
659.551	49923.35
659.902	50025.49
660.253	50091.48
660.604	50114.08
660.955	49968.32
661.306	50076.11
661.656	49992.95
662.007	49972.16
662.358	49925.83
662.708	49813.29
663.059	49885.84
663.409	49641.32
663.76	49910.02
664.11	49918.15
664.461	49945.04
664.811	49924.25
665.161	49851.49
665.511	49831.37
665.862	49837.25
666.212	49937.13
666.562	49834.76
666.912	49853.07
667.262	49760.87
667.612	49805.16
667.962	49669.34
668.312	49714.99
668.662	49958.38
669.011	49731.71
669.361	49714.99
669.711	49600.87
670.06	49483.81
670.41	49430.93
670.76	49411.27
671.109	49509.12
671.459	49511.61
671.808	49413.31
672.157	49451.95
672.507	49251.05
672.856	49223.48
673.205	49261.44
673.554	49425.51
673.904	49152.52
674.253	49414.21
674.602	49172.63
674.951	48603.16
675.3	48383.73
675.649	49048.12
675.998	48915.24
676.346	48909.59
676.695	49024.84
677.044	48635.7
677.393	48809.71
677.741	48790.95
678.09	48687.45
678.438	48705.98
678.787	48696.71
679.135	48699.65
679.484	48550.05
679.832	48590.28
680.181	48375.59
680.529	48486.1
680.877	48234.58
681.225	48383.95
681.573	48559.32
681.922	48168.82
682.27	48127.92
682.618	48224.64
682.966	48132.66
683.314	48089.05
683.661	48074.58
684.009	47821.03
684.357	47751.88
684.705	47821.03
685.053	47666.23
685.4	47707.59
685.748	47462.62
686.095	47500.14
686.443	47348.27
686.79	47330.87
687.138	47390.53
687.485	47370.87
687.832	47184.44
688.18	47243.42
688.527	47018.11
688.874	46984.89
689.221	46859.93
689.568	46864.22
689.915	46621.51
690.262	46563.66
690.609	46513.72
690.956	46467.17
691.303	46461.29
691.65	46248.64
691.997	46183.33
692.344	45874.19
692.69	46000.51
693.037	45976.33
693.383	45585.84
693.73	45735.21
694.077	45457.93
694.423	45366.86
694.769	45385.39
695.116	45382.9
695.462	45328.67
695.808	45140.88
696.155	45149.91
696.501	44694.33
696.847	44745.41
697.193	44478.75
697.539	44686.42
697.885	44287.11
698.231	44215.25
698.577	44121.24
698.923	44115.37
699.269	43945.43
699.614	43867.91
699.96	43789.72
700.306	43662.27
700.651	43516.29
700.997	43343.18
701.342	43222.51
701.688	43109.52
702.033	43194.26
702.379	43042.63
702.724	42889.41
703.069	42901.84
703.415	42551.79
703.76	42624.78
704.105	42569.64
704.45	42403.55
704.795	42231.8
705.14	42119.03
705.485	42084.01
705.83	41881.98
706.175	41974.4
706.52	41765.82
706.865	41574.64
707.209	41571.7
707.554	41483.57
707.899	41460.97
708.243	41283.12
708.588	41241.99
708.932	41091.94
709.277	40914.32
709.621	41121.09
709.966	40697.38
710.31	40904.83
710.654	40451.51
710.998	40602.92
711.342	40723.82
711.687	40503.93
712.031	40323.6
712.375	40291.74
712.719	40278.4
713.063	40234.56
713.407	40376.48
713.75	40090.39
714.094	40109.82
714.438	39942.59
714.782	39948.47
715.125	39654.92
715.469	39777.85
715.812	39560.01
716.156	39396.39
716.499	39326.79
716.843	39437.75
717.186	39188.49
717.53	39249.73
717.873	39226.23
718.216	39047.02
718.559	38919.8
718.902	38534.95
719.246	38807.26
719.589	38562.29
719.932	38365.69
720.275	38354.84
720.617	38280.26
720.96	38065.81
721.303	38191.68
721.646	38151.45
721.989	37977.9
722.331	38069.2
722.674	37897.68
723.016	37917.56
723.359	37720.51
723.701	37846.38
724.044	37494.3
724.386	37306.05
724.729	37454.52
725.071	37431.25
725.413	37489.78
725.755	37417.46
726.097	37238.94
726.439	37080.97
726.782	37038.49
727.124	37278.26
727.465	36988.77
727.807	37006.63
728.149	36851.15
728.491	36924.59
728.833	36830.36
729.175	36776.58
729.516	36620.87
729.858	36496.36
730.199	36643.47
730.541	36459.52
730.882	36497.03
731.224	36441.89
731.565	36262.46
731.906	36167.33
732.248	36339.98
732.589	36024.73
732.93	35884.62
733.271	36053.88
733.612	35906.77
733.953	35894.11
734.294	35721.91
734.635	35629.94
734.976	35707.68
735.317	35487.34
735.658	35502.94
735.999	35542.71
736.339	35408.48
736.68	35620.45
737.021	35413
737.361	35132.32
737.702	35266.78
738.042	35223.17
738.383	34995.61
738.723	35064.98
739.063	34857.98
739.404	35062.5
739.744	34980.24
740.084	34707.93
740.424	34744.76
740.764	34657.76
741.104	34712
741.444	34500.93
741.784	34436.52
742.124	34498.44
742.464	34381.84
742.804	34321.5
743.143	34180.03
743.483	34208.51
743.823	34091.67
744.162	34082.41
744.502	33974.39
744.841	33847.84
745.181	34081.28
745.52	33765.58
745.86	33991.34
746.199	33753.6
746.538	33748.86
746.877	33712.25
747.216	33737.79
747.556	33670.22
747.895	33582.08
748.234	33358.13
748.573	33266.61
748.911	33384.8
749.25	33346.84
749.589	33176.9
749.928	33338.25
750.267	33259.61
750.605	33162.89
750.944	33034.07
751.283	32909.33
751.621	32923.57
751.96	32714.31
752.298	32702.33
752.636	32683.35
