Data from aluminium_surface_pro_back_FLMS001491_00100.txt Node
Date: Wed Feb 08 15:34:48 GMT 2017
User: dcchb
Spectrometer: FLMS00149
Trigger mode: 0
Integration Time (sec): 2.000000E-2
Scans to average: 10
Electric dark correction enabled: true
Nonlinearity correction enabled: false
Boxcar width: 0
XAxis mode: Wavelengths
Number of Pixels in Spectrum: 2048
>>>>>Begin Spectral Data<<<<<
341.393	-7.23
341.776	-7.23
342.16	-7.23
342.543	-64.41
342.927	-46.33
343.31	-80.45
343.693	-79.32
344.077	-60.34
344.46	-49.04
344.843	-59.43
345.226	-34.35
345.61	-49.04
345.993	-1.58
346.376	-6.78
346.759	14.01
347.142	26.44
347.525	55.59
347.908	52.65
348.291	72.54
348.674	98.98
349.057	100.11
349.44	132.2
349.823	149.15
350.206	173.78
350.588	212.88
350.971	232.08
351.354	230.5
351.737	247.45
352.119	264.85
352.502	279.31
352.884	310.73
353.267	311.4
353.65	321.57
354.032	345.3
354.414	338.52
354.797	345.3
355.179	355.92
355.562	357.5
355.944	370.61
356.326	375.81
356.709	376.94
357.091	388.24
357.473	381.01
357.855	382.36
358.238	340.78
358.62	376.49
359.002	371.29
359.384	361.35
359.766	375.81
360.148	367.22
360.53	364.96
360.912	362.02
361.294	388.69
361.676	371.52
362.057	370.84
362.439	369.48
362.821	361.57
363.203	365.87
363.584	376.71
363.966	370.61
364.348	381.91
364.729	378.75
365.111	373.78
365.493	374.23
365.874	366.32
366.256	367
366.637	353.44
367.019	367.9
367.4	345.53
367.781	366.32
368.163	380.78
368.544	362.93
368.925	363.83
369.306	380.78
369.688	397.05
370.069	382.59
370.45	362.25
370.831	340.1
371.212	385.53
371.593	369.26
371.974	391.4
372.355	371.97
372.736	407.9
373.117	376.26
373.498	398.18
373.879	376.49
374.26	375.81
374.641	381.46
375.021	394.57
375.402	407.45
375.783	397.5
376.163	422.81
376.544	421.91
376.925	432.31
377.305	411.51
377.686	404.96
378.066	423.72
378.447	426.88
378.827	415.81
379.208	410.38
379.588	432.31
379.968	431.85
380.349	426.88
380.729	405.41
381.109	439.08
381.489	445.41
381.87	453.77
382.25	467.56
382.63	466.43
383.01	460.55
383.39	456.03
383.77	465.98
384.15	472.53
384.53	475.24
384.91	473.66
385.29	471.4
385.67	494
386.049	489.25
386.429	495.81
386.809	503.49
387.189	527.44
387.568	509.59
387.948	475.02
388.328	503.26
388.707	540.32
389.087	508.24
389.466	551.4
389.846	541
390.225	559.53
390.605	537.39
390.984	546.65
391.363	569.93
391.743	565.18
392.122	575.8
392.501	579.19
392.881	599.08
393.26	577.61
393.639	595.92
394.018	611.28
394.397	628.01
394.776	619.19
395.155	620.1
395.534	633.88
395.913	637.05
396.292	640.44
396.671	652.41
397.05	646.31
397.429	673.2
397.808	646.54
398.186	681.79
398.565	693.99
398.944	664.39
399.323	697.61
399.701	718.17
400.08	692.64
400.458	702.13
400.837	718.4
401.215	721.79
401.594	744.84
401.972	727.66
402.351	738.06
402.729	770.83
403.107	785.29
403.486	773.99
403.864	792.75
404.242	804.27
404.62	807.66
404.999	807.21
405.377	822.35
405.755	810.15
406.133	846.98
406.511	843.14
406.889	872.75
407.267	871.62
407.645	873.2
408.023	903.71
408.401	897.83
408.779	916.59
409.156	919.07
409.534	933.08
409.912	954.78
410.29	979.64
410.667	978.96
411.045	999.07
411.422	999.07
411.8	1023.02
412.178	1016.7
412.555	1032.74
412.933	1054.21
413.31	1082.46
413.687	1099.63
414.065	1116.58
414.442	1123.13
414.819	1140.31
415.197	1127.43
415.574	1178.95
415.951	1178.95
416.328	1193.41
416.705	1190.93
417.082	1187.31
417.46	1213.98
417.837	1233.41
418.214	1221.44
418.591	1247.42
418.967	1227.31
419.344	1270.48
419.721	1292.17
420.098	1330.81
420.475	1332.85
420.852	1291.04
421.228	1315.22
421.605	1339.4
421.982	1336.01
422.358	1355.44
422.735	1380.75
423.111	1374.43
423.488	1428.21
423.864	1424.82
424.241	1414.43
424.617	1463.92
424.994	1485.84
425.37	1458.72
425.746	1493.52
426.123	1523.58
426.499	1519.28
426.875	1565.16
427.251	1566.74
427.627	1625.49
428.003	1627.08
428.379	1645.61
428.756	1640.18
429.132	1680.63
429.507	1697.81
429.883	1706.85
430.259	1762.44
430.635	1733.74
431.011	1800.86
431.387	1813.29
431.763	1834.08
432.138	1879.05
432.514	1937.35
432.89	1894.19
433.265	1950.23
433.641	1977.8
434.016	1983
434.392	2006.95
434.767	2058.7
435.143	2065.26
435.518	2071.58
435.894	2107.97
436.269	2124.24
436.644	2161.98
437.02	2171.02
437.395	2217.12
437.77	2214.86
438.145	2242.43
438.52	2270.67
438.895	2301.63
439.271	2299.6
439.646	2354.06
440.021	2392.25
440.395	2390.9
440.77	2375.76
441.145	2407.17
441.52	2445.36
441.895	2481.06
442.27	2498.69
442.645	2484.23
443.019	2555.87
443.394	2532.36
443.769	2508.41
444.143	2549.99
444.518	2592.25
444.892	2591.12
445.267	2615.75
445.641	2643.32
446.016	2632.25
446.39	2670.21
446.764	2693.04
447.139	2707.73
447.513	2679.48
447.887	2747.72
448.262	2760.38
448.636	2750.66
449.01	2786.82
449.384	2806.25
449.758	2887.38
450.132	2878.12
450.506	2917.21
450.88	2937.32
451.254	2944.78
451.628	3027.04
452.002	2996.31
452.376	3079.69
452.75	3106.13
453.123	3120.82
453.497	3146.36
453.871	3208.5
454.244	3235.62
454.618	3243.08
454.992	3296.64
455.365	3279.91
455.739	3389.52
456.112	3415.05
456.486	3453.69
456.859	3484.88
457.232	3550.42
457.606	3592
457.979	3575.73
458.352	3679.45
458.725	3699.11
459.099	3753.8
459.472	3855.49
459.845	3887.81
460.218	3878.09
460.591	3969.39
460.964	3981.36
461.337	4067.01
461.71	4096.39
462.083	4142.49
462.456	4186.56
462.829	4222.26
463.201	4268.36
463.574	4306.33
463.947	4372.31
464.32	4481.24
464.692	4496.38
465.065	4481.69
465.438	4603.04
465.81	4667.45
466.183	4683.27
466.555	4805.98
466.928	4813.88
467.3	4839.19
467.672	4907.22
468.045	5012.07
468.417	5113.99
468.789	5104.5
469.161	5174.55
469.534	5228.34
469.906	5378.39
470.278	5424.26
470.65	5467.2
471.022	5620.87
471.394	5706.74
471.766	5685.27
472.138	5810.47
472.51	5918.04
472.882	6043.91
473.253	6162.1
473.625	6198.03
473.997	6311.47
474.369	6323.9
474.74	6398.93
475.112	6500.62
475.484	6626.27
475.855	6769.09
476.227	6824
476.598	6978.35
476.97	7004.34
477.341	7283.2
477.713	7365.23
478.084	7376.98
478.455	7641.61
478.827	7705.33
479.198	7868.04
479.569	7902.17
479.94	8133.8
480.311	8246.34
480.682	8431.64
481.053	8606.55
481.424	8763.61
481.795	8852.87
482.166	8919.54
482.537	9068.24
482.908	9312.07
483.279	9316.14
483.65	9552.29
484.021	9718.61
484.391	9831.38
484.762	9860.08
485.133	9959.74
485.503	10157.93
485.874	10368.54
486.244	10445.15
486.615	10670.91
486.985	10802.65
487.356	11020.95
487.726	11045.36
488.097	11308.63
488.467	11432.92
488.837	11702.97
489.207	11785.45
489.578	11937.09
489.948	12056.18
490.318	12245.78
490.688	12270.41
491.058	12521.7
491.428	12703.17
491.798	12851.64
492.168	13081.46
492.538	13201.46
492.908	13324.85
493.278	13443.49
493.648	13467.44
494.017	13737.49
494.387	13883.93
494.757	13902.01
495.126	14163.47
495.496	14205.28
495.866	14344.26
496.235	14486.62
496.605	14554.87
496.974	14775.2
497.344	14780.18
497.713	14890.68
498.082	15077.8
498.452	15189.88
498.821	15264.46
499.19	15410.67
499.559	15537.67
499.928	15733.37
500.298	15756.2
500.667	15968.17
501.036	15936.3
501.405	16151.44
501.774	16153.93
502.143	16288.39
502.512	16321.15
502.88	16556.17
503.249	16537.19
503.618	16811.31
503.987	16793.91
504.356	16948.25
504.724	17009.5
505.093	17157.74
505.462	17242.71
505.83	17375.36
506.199	17538.3
506.567	17718.63
506.936	17783.04
507.304	18030.49
507.672	18131.27
508.041	18116.81
508.409	18331.5
508.777	18441.77
509.145	18638.15
509.514	18599.96
509.882	18915.21
510.25	18874.08
510.618	19066.84
510.986	19097.8
511.354	19401.75
511.722	19513.39
512.09	19684.91
512.458	19633.61
512.826	19930.55
513.193	19941.17
513.561	20043.09
513.929	20320.14
514.297	20332.12
514.664	20574.37
515.032	20637.65
515.4	20865.89
515.767	21078.77
516.135	21144.98
516.502	21113.57
516.869	21564.18
517.237	21563.5
517.604	21603.5
517.972	21911.51
518.339	22011.17
518.706	22164.39
519.073	22391.28
519.44	22450.71
519.808	22729.35
520.175	22728.89
520.542	23105.38
520.909	23260.86
521.276	23202.55
521.643	23540.17
522.009	23605.26
522.376	23795.98
522.743	24000.5
523.11	24207.5
523.477	24510.54
523.843	24681.38
524.21	24958.21
524.577	25085.44
524.943	25190.75
525.31	25259
525.676	25667.12
526.043	25807.01
526.409	26114.79
526.776	26240.21
527.142	26436.59
527.508	26500.32
527.874	26749.13
528.241	26889.24
528.607	27061.66
528.973	27480.86
529.339	27277.93
529.705	27591.14
530.071	27720.85
530.437	27912.94
530.803	28182.54
531.169	28381.4
531.535	28255.53
531.901	28367.84
532.267	28446.26
532.632	28750.43
532.998	28762.63
533.364	29014.6
533.73	29054.15
534.095	29372.56
534.461	29390.19
534.826	29578.43
535.192	29718.99
535.557	29938.65
535.923	29970.74
536.288	30086.67
536.653	30220.67
537.019	30160.56
537.384	30440.78
537.749	30569.82
538.114	30610.72
538.479	30740.43
538.845	30967.55
539.21	31044.83
539.575	31215.9
539.94	31244.38
540.305	31471.94
540.67	31422
541.034	31659.05
541.399	31631.48
541.764	31868.54
542.129	31936.11
542.494	31966.62
542.858	32127.06
543.223	32133.17
543.587	32447.73
543.952	32509.88
544.316	32572.48
544.681	32541.07
545.045	32786.93
545.41	33027.61
545.774	32989.64
546.138	33025.12
546.503	33121.84
546.867	33168.85
547.231	33414.94
547.595	33520.47
547.959	33662.62
548.324	33684.99
548.688	33787.59
549.052	33884.98
549.416	34014.47
549.779	34125.2
550.143	34222.38
550.507	34403.84
550.871	34548.24
551.235	34577.17
551.599	34768.13
551.962	34771.97
552.326	35050.83
552.689	35289.69
553.053	35153.88
553.417	35396.13
553.78	35782.79
554.143	35550.7
554.507	35799.51
554.87	35780.53
555.234	36078.37
555.597	36088.99
555.96	36214.42
556.323	36500.96
556.686	36547.29
557.05	36793.61
557.413	36942.76
557.776	37040.38
558.139	37286.93
558.502	37259.81
558.865	37524.89
559.228	37655.51
559.59	37870.64
559.953	38017.98
560.316	38328.94
560.679	38359.22
561.041	38689.6
561.404	38909.26
561.767	39140.21
562.129	39021.35
562.492	39405.74
562.854	39314.67
563.217	39522.35
563.579	39711.27
563.941	39999.85
564.304	40036.01
564.666	40403.01
565.028	40451.59
565.39	40603
565.753	40854.07
566.115	41026.94
566.477	41127.73
566.839	41261.29
567.201	41555.74
567.563	41594.16
567.925	41927.49
568.287	41979.01
568.648	42111.44
569.01	42355.5
569.372	42679.1
569.734	42535.38
570.095	42849.49
570.457	43002.03
570.819	43262.14
571.18	43289.48
571.542	43442.93
571.903	43446.99
572.265	43772.18
572.626	43735.57
572.987	43850.82
573.349	44141.89
573.71	44156.13
574.071	44372.17
574.432	44545.27
574.794	44850.35
575.155	44920.4
575.516	44796.11
575.877	45070.45
576.238	45202.65
576.599	45441.74
576.96	45368.3
577.32	45373.27
577.681	45616.43
578.042	45677.44
578.403	45802.86
578.763	45869.08
579.124	45894.61
579.485	46003.08
579.845	46175.96
580.206	46019.58
580.566	46192.46
580.927	46093.03
581.287	46390.64
581.648	46263.42
582.008	46473.13
582.368	46419.8
582.728	46479.68
583.089	46452.11
583.449	46641.03
583.809	46618.44
584.169	46708.15
584.529	46593.8
584.889	47107.91
585.249	46781.37
585.609	46805.32
585.969	46877.41
586.329	46811.2
586.688	46866.56
587.048	46815.27
587.408	46761.26
587.768	46661.82
588.127	46743.4
588.487	46664.99
588.846	47012.78
589.206	46659.56
589.565	46670.86
589.925	46914.47
590.284	46781.37
590.643	46915.15
591.003	47034.47
591.362	47077.41
591.721	46985.43
592.08	46910.63
592.44	47039.89
592.799	47064.98
593.158	46980.46
593.517	47130.06
593.876	47000.35
594.235	46974.58
594.593	47037.18
594.952	47191.3
595.311	47083.73
595.67	47284.63
596.029	47454.57
596.387	47351.98
596.746	47400.56
597.104	47286.21
597.463	47282.82
597.822	47488.69
598.18	47378.42
598.538	47346.33
598.897	47494.57
599.255	47243.05
599.613	47847.1
599.972	47477.17
600.33	47581.12
600.688	47426.1
601.046	47594.45
601.404	47750.38
601.762	47572.08
602.12	47856.82
602.478	47889.59
602.836	47871.06
603.194	47818.63
603.552	47912.64
603.91	47888.68
604.268	48083.03
604.625	47865.63
604.983	48124.16
605.341	47968.91
605.698	48184.04
606.056	48287.09
606.413	48228.56
606.771	48308.33
607.128	48401.21
607.485	48248.22
607.843	48358.73
608.2	48397.82
608.557	48595.56
608.914	48412.96
609.272	48610.02
609.629	48625.61
609.986	48711.71
610.343	48593.98
610.7	48819.28
611.057	48817.93
611.414	48742.22
611.771	48809.11
612.127	48886.4
612.484	48826.29
612.841	49054.53
613.198	48908.32
613.554	48913.74
613.911	49135.66
614.267	49169.1
614.624	49029.22
614.98	49076.45
615.337	49337.69
615.693	49282.55
616.05	49297.01
616.406	49577.23
616.762	49358.25
617.118	49335.88
617.475	49423.56
617.831	49401.19
618.187	49559.6
618.543	49496.78
618.899	49624.91
619.255	49650.22
619.611	49649.99
619.967	49707.39
620.323	49777.22
620.678	49600.5
621.034	49578.13
621.39	49609.32
621.746	49532.03
622.101	50008.63
622.457	49635.08
622.812	49878.46
623.168	49878.46
623.523	49800.95
623.879	49965.69
624.234	49688.19
624.589	49868.75
624.945	49904.68
625.3	49920.04
625.655	49862.64
626.01	49921.85
626.365	49955.75
626.72	49894.73
627.075	49846.6
627.43	49956.65
627.785	49699.71
628.14	49848.18
628.495	49868.75
628.85	49802.53
629.205	49807.73
629.559	49941.96
629.914	49724.57
630.269	49777.22
630.623	49735.42
630.978	49593.72
631.332	49902.87
631.687	49861.74
632.041	49562.09
632.396	49670.11
632.75	49567.51
633.104	49507.85
633.459	49471.02
633.813	49345.14
634.167	49412.94
634.521	49174.3
634.875	49362.09
635.229	49301.3
635.583	49071.48
635.937	49045.72
636.291	49061.99
636.645	49004.14
636.999	48964.81
637.352	48976.34
637.706	48671.94
638.06	48840.07
638.413	48767.98
638.767	48624.94
639.121	48667.65
639.474	48491.61
639.828	48503.13
640.181	48428.56
640.534	48464.71
640.888	48285.74
641.241	48114.22
641.594	48306.07
641.947	48460.19
642.301	48198.28
642.654	48216.81
643.007	48269.92
643.36	48140.43
643.713	48096.81
644.066	48155.8
644.419	48025.86
644.771	47664.28
645.124	47304.29
645.477	47333.9
645.83	47113.34
646.182	46845.77
646.535	46824.08
646.888	46896.17
647.24	46624.08
647.593	46935.04
647.945	46709.73
648.298	46474.03
648.65	46510.42
649.002	46293.25
649.355	46346.35
649.707	46307.03
650.059	46596.29
650.411	47002.83
650.763	46914.92
651.115	47331.64
651.467	47234.69
651.819	47026.79
652.171	46979.33
652.523	46765.32
652.875	46897.75
653.227	46812.78
653.578	47073.11
653.93	46792.22
654.282	46733.69
654.633	46705.44
654.985	46696.85
655.337	46762.39
655.688	46639
656.039	46750.41
656.391	46413.92
656.742	46503.86
657.094	46540.02
657.445	46794.7
657.796	46559.91
658.147	46673.35
658.498	46557.87
658.849	46446.24
659.2	46467.93
659.551	46393.13
659.902	46522.84
660.253	46374.15
660.604	46394.03
660.955	46255.28
661.306	46510.87
661.656	46321.72
662.007	46313.81
662.358	46345.67
662.708	46291.66
663.059	46356.52
663.409	46061.61
663.76	46306.81
664.11	46238.78
664.461	46139.35
664.811	46138.67
665.161	46168.05
665.511	45991.56
665.862	45963.54
666.212	46100.03
666.562	46132.35
666.912	46020.26
667.262	45953.37
667.612	45881.05
667.962	45873.37
668.312	45790.89
668.662	45937.78
669.011	45753.15
669.361	45710.89
669.711	45641.96
670.06	45443.1
670.41	45340.95
670.76	45370.33
671.109	45486.04
671.459	45351.35
671.808	45335.53
672.157	45447.84
672.507	45166.27
672.856	45245.14
673.205	45143.67
673.554	45432.25
673.904	45045.37
674.253	45372.59
674.602	45020.51
674.951	44504.82
675.3	44270.47
675.649	44877.92
675.998	44870.01
676.346	44936.45
676.695	45131.92
677.044	44712.5
677.393	44756.56
677.741	44886.96
678.09	44744.36
678.438	44696.68
678.787	44837.24
679.135	44814.64
679.484	44538.49
679.832	44558.6
680.181	44435.67
680.529	44574.65
680.877	44388.44
681.225	44346.18
681.573	44612.16
681.922	44158.16
682.27	44058.05
682.618	44158.84
682.966	44102.12
683.314	44168.1
683.661	43926.53
684.009	43807.44
684.357	43766.98
684.705	43708.91
685.053	43802.69
685.4	43869.13
685.748	43535.35
686.095	43401.57
686.443	43263.04
686.79	43236.15
687.138	43297.84
687.485	43234.8
687.832	43094.23
688.18	43059.66
688.527	42823.96
688.874	42818.31
689.221	42683.62
689.568	42705.54
689.915	42548.71
690.262	42539.9
690.609	42391.2
690.956	42257.65
691.303	42167.03
691.65	41982.17
691.997	41968.39
692.344	41676.42
692.69	41698.56
693.037	41819.47
693.383	41367.05
693.73	41613.6
694.077	41371.57
694.423	41254.51
694.769	41205.47
695.116	41092.93
695.462	41092.7
695.808	40832.82
696.155	40997.79
696.501	40574.53
696.847	40631.25
697.193	40317.13
697.539	40465.6
697.885	40281.88
698.231	40046.18
698.577	40107.42
698.923	40012.51
699.269	39882.34
699.614	39625.17
699.96	39584.27
700.306	39500.2
700.651	39238.52
700.997	39200.1
701.342	39076.49
701.688	39024.51
702.033	38974.34
702.379	39001.91
702.724	38763.5
703.069	38820.67
703.415	38417.75
703.76	38457.07
704.105	38387.47
704.45	38405.77
704.795	38037.42
705.14	37987.25
705.485	37961.94
705.83	37954.48
706.175	37831.1
706.52	37705.68
706.865	37620.93
707.209	37525.34
707.554	37352.46
707.899	37457.77
708.243	37175.75
708.588	37241.96
708.932	36962.87
709.277	36829.09
709.621	36995.86
709.966	36766.04
710.31	36825.02
710.654	36498.02
710.998	36459.83
711.342	36457.35
711.687	36447.18
712.031	36259.16
712.375	36317.46
712.719	36298.93
713.063	36048.32
713.407	36125.83
713.75	36008.77
714.094	36007.64
714.438	35824.59
714.782	35794.54
715.125	35592.51
715.469	35750.47
715.812	35413.53
716.156	35388.67
716.499	35258.28
716.843	35421.44
717.186	35240.88
717.53	35280.65
717.873	35246.98
718.216	35161.34
718.559	34993.66
718.902	34785.75
719.246	34958.85
719.589	34787.79
719.932	34488.81
720.275	34540.56
720.617	34554.35
720.96	34413.56
721.303	34419.43
721.646	34350.28
721.989	34099.22
722.331	34220.57
722.674	34211.76
723.016	34139.67
723.359	33969.73
723.701	34062.38
724.044	33831.43
724.386	33789.62
724.729	33866.23
725.071	33670.3
725.413	33671.88
725.755	33562.51
726.097	33416.97
726.439	33266.24
726.782	33186.02
727.124	33256.75
727.465	33140.37
727.807	33114.84
728.149	33001.39
728.491	32945.8
728.833	32946.93
729.175	32834.16
729.516	32779.03
729.858	32776.54
730.199	32757.33
730.541	32637.56
730.882	32605.7
731.224	32554.4
731.565	32386.49
731.906	32469.43
732.248	32382.43
732.589	32387.17
732.93	32130.91
733.271	32252.71
733.612	32300.85
733.953	32250.68
734.294	32032.15
734.635	32057.69
734.976	32106.5
735.317	31861.54
735.658	31992.83
735.999	31906.73
736.339	31838.94
736.68	31832.84
737.021	31776.34
737.361	31563.92
737.702	31857.69
738.042	31750.13
738.383	31558.94
738.723	31636.68
739.063	31563.24
739.404	31570.92
739.744	31564.14
740.084	31359.85
740.424	31345.16
740.764	31293.64
741.104	31346.97
741.444	31103.36
741.784	31017.04
742.124	31098.84
742.464	31032.86
742.804	30839.19
743.143	30774.11
743.483	30768.91
743.823	30686.2
744.162	30506.77
744.502	30659.76
744.841	30464.96
745.181	30609.82
745.52	30290.73
745.86	30367.56
746.199	30310.16
746.538	30221.8
746.877	30253.44
747.216	30104.75
747.556	30075.59
747.895	30069.49
748.234	29846.22
748.573	29839.89
748.911	29796.28
749.25	29835.15
749.589	29601.93
749.928	29637.64
750.267	29533.46
750.605	29561.03
750.944	29486.68
751.283	29246.91
751.621	29383.41
751.96	29227.93
752.298	29172.79
752.636	29157.2
752.975	28985.23
