Data from aluminium_surface_pro_back_FLMS001491_00049.txt Node
Date: Wed Feb 08 15:34:07 GMT 2017
User: dcchb
Spectrometer: FLMS00149
Trigger mode: 0
Integration Time (sec): 2.000000E-2
Scans to average: 10
Electric dark correction enabled: true
Nonlinearity correction enabled: false
Boxcar width: 0
XAxis mode: Wavelengths
Number of Pixels in Spectrum: 2048
>>>>>Begin Spectral Data<<<<<
341.393	-8.49
341.776	-8.49
342.16	-8.49
342.543	-74.93
342.927	-71.09
343.31	-50.97
343.693	-64.31
344.077	-67.92
344.46	-44.65
344.843	-41.71
345.226	-54.36
345.61	-47.36
345.993	-15.72
346.376	-13.46
346.759	8.46
347.142	18.63
347.525	38.97
347.908	78.06
348.291	61.57
348.674	99.53
349.057	95.24
349.44	112.41
349.823	167.55
350.206	176.82
350.588	228.34
350.971	215.01
351.354	227.21
351.737	243.71
352.119	284.84
352.502	285.97
352.884	295.46
353.267	317.15
353.65	332.07
354.032	334.33
354.414	332.75
354.797	326.42
355.179	370.26
355.562	352.41
355.944	347.89
356.326	358.73
356.709	360.99
357.091	358.28
357.473	364.16
357.855	345.85
358.238	365.74
358.62	396.02
359.002	375.68
359.384	344.27
359.766	366.64
360.148	383.14
360.53	387.89
360.912	369.58
361.294	385.17
361.676	362.58
362.057	360.09
362.439	363.25
362.821	367.55
363.203	371.16
363.584	361.22
363.966	371.16
364.348	364.38
364.729	362.58
365.111	343.82
365.493	369.13
365.874	355.12
366.256	356.25
366.637	377.94
367.019	350.37
367.4	364.16
367.781	353.54
368.163	370.94
368.544	369.81
368.925	359.86
369.306	372.97
369.688	354.44
370.069	365.06
370.45	363.25
370.831	398.28
371.212	352.86
371.593	352.63
371.974	369.81
372.355	376.36
372.736	391.73
373.117	368.22
373.498	378.85
373.879	372.97
374.26	368
374.641	391.5
375.021	368.45
375.402	385.63
375.783	395.12
376.163	407.55
376.544	401.9
376.925	396.02
377.305	413.87
377.686	411.84
378.066	416.13
378.447	426.3
378.827	425.4
379.208	425.62
379.588	432.4
379.968	424.04
380.349	439.18
380.729	422.91
381.109	428.11
381.489	441.22
381.87	431.73
382.25	440.77
382.63	427.66
383.01	449.13
383.39	452.29
383.77	442.8
384.15	467.66
384.53	481.89
384.91	470.82
385.29	494.32
385.67	495.68
386.049	491.61
386.429	497.71
386.809	505.85
387.189	485.74
387.568	513.76
387.948	515.79
388.328	512.85
388.707	518.73
389.087	511.05
389.466	539.97
389.846	549.69
390.225	546.98
390.605	563.47
390.984	558.05
391.363	531.16
391.743	559.63
392.122	561.89
392.501	586.52
392.881	579.52
393.26	597.82
393.639	602.79
394.018	612.06
394.397	602.34
394.776	611.16
395.155	635.11
395.534	640.31
395.913	617.48
396.292	635.34
396.671	629.91
397.05	654.77
397.429	656.35
397.808	670.14
398.186	660.42
398.565	674.88
398.944	701.32
399.323	689.35
399.701	694.09
400.08	696.13
400.458	720.08
400.837	696.13
401.215	741.55
401.594	730.02
401.972	739.29
402.351	716.24
402.729	739.74
403.107	764.37
403.486	758.27
403.864	760.98
404.242	800.3
404.62	800.98
404.999	820.64
405.377	832.17
405.755	839.85
406.133	836.46
406.511	830.81
406.889	876.69
407.267	872.62
407.645	879.4
408.023	885.05
408.401	898.15
408.779	909.23
409.156	930.24
409.534	916.68
409.912	938.61
410.29	951.49
410.667	985.16
411.045	1013.86
411.422	1004.37
411.8	1005.95
412.178	1015.89
412.555	1019.28
412.933	1052.27
413.31	1078.71
413.687	1087.53
414.065	1079.17
414.442	1113.52
414.819	1118.94
415.197	1124.59
415.574	1141.09
415.951	1131.82
416.328	1147.19
416.705	1157.58
417.082	1199.84
417.46	1174.98
417.837	1215.66
418.214	1234.19
418.591	1233.74
418.967	1245.72
419.344	1269.22
419.721	1275.77
420.098	1277.58
420.475	1292.72
420.852	1300.63
421.228	1295.43
421.605	1350.8
421.982	1334.98
422.358	1334.3
422.735	1385.6
423.111	1376.79
423.488	1388.08
423.864	1411.36
424.241	1449.1
424.617	1470.57
424.994	1444.58
425.37	1481.19
425.746	1482.55
426.123	1509.21
426.499	1517.12
426.875	1534.3
427.251	1556.67
427.627	1589.66
428.003	1602.99
428.379	1609.1
428.756	1638.25
429.132	1649.55
429.507	1679.15
429.883	1704.91
430.259	1734.97
430.635	1739.94
431.011	1720.96
431.387	1811.58
431.763	1818.58
432.138	1854.74
432.514	1872.37
432.89	1882.99
433.265	1929.09
433.641	1970.44
434.016	1965.24
434.392	1995.3
434.767	2042.98
435.143	2052.02
435.518	2084.79
435.894	2078.69
436.269	2118.24
436.644	2148.06
437.02	2165.01
437.395	2169.76
437.77	2172.47
438.145	2246.82
438.52	2270.1
438.895	2264.9
439.271	2299.7
439.646	2325.46
440.021	2370.43
440.395	2348.29
440.77	2377.89
441.145	2394.61
441.52	2423.54
441.895	2434.16
442.27	2482.52
442.645	2457.44
443.019	2494.04
443.394	2525.91
443.769	2553.93
444.143	2527.26
444.518	2602.97
444.892	2598.67
445.267	2602.74
445.641	2631.67
446.016	2701.72
446.39	2656.53
446.764	2724.32
447.139	2664.44
447.513	2706.69
447.887	2737.65
448.262	2751.21
448.636	2791.44
449.01	2836.86
449.384	2822.62
449.758	2878.67
450.132	2918.44
450.506	2897.2
450.88	2933.58
451.254	2917.54
451.628	2956.63
452.002	2994.82
452.376	3036.4
452.75	3044.54
453.123	3086.35
453.497	3176.29
453.871	3190.07
454.244	3231.88
454.618	3307.36
454.992	3325.89
455.365	3313.91
455.739	3363.4
456.112	3378.54
456.486	3446.11
456.859	3457.64
457.232	3562.49
457.606	3539.67
457.979	3609.72
458.352	3688.14
458.725	3737.63
459.099	3717.06
459.472	3822.6
459.845	3834.57
460.218	3863.05
460.591	3932.42
460.964	3938.53
461.337	4044.74
461.71	4080.9
462.083	4185.07
462.456	4188.69
462.829	4172.87
463.201	4273.88
463.574	4322.7
463.947	4350.94
464.32	4406.31
464.692	4506.65
465.065	4517.04
465.438	4574.22
465.81	4642.46
466.183	4671.61
466.555	4786.19
466.928	4852.17
467.3	4845.17
467.672	4923.36
468.045	5057.59
468.417	5065.05
468.789	5140.53
469.161	5148.66
469.534	5269.79
469.906	5409.22
470.278	5466.62
470.65	5533.06
471.022	5608.99
471.394	5702.1
471.766	5741.42
472.138	5799.49
472.51	5976.66
472.882	6009.66
473.253	6117
473.625	6216.43
473.997	6294.17
474.369	6429.99
474.74	6448.97
475.112	6594.95
475.484	6703.88
475.855	6797.66
476.227	6848.28
476.598	7025.45
476.97	7124.88
477.341	7310.19
477.713	7385.89
478.084	7433.12
478.455	7688.48
478.827	7716.05
479.198	7904.75
479.569	7975.71
479.94	8168.25
480.311	8212.31
480.682	8392.65
481.053	8662.92
481.424	8759.64
481.795	8845.97
482.166	9036.25
482.537	9141.1
482.908	9346.29
483.279	9406.86
483.65	9560.3
484.021	9824.02
484.391	9839.84
484.762	9979.95
485.133	10088.65
485.503	10231.47
485.874	10428.3
486.244	10568.18
486.615	10768.86
486.985	10810.66
487.356	11133.82
487.726	11206.13
488.097	11423.08
488.467	11456.07
488.837	11674.37
489.207	11879.56
489.578	12001.82
489.948	12102.15
490.318	12231.87
490.688	12343.5
491.058	12644.51
491.428	12745.3
491.798	12879.76
492.168	13186.87
492.538	13203.14
492.908	13338.51
493.278	13507.99
493.648	13616.01
494.017	13764.48
494.387	13852.16
494.757	14065.04
495.126	14253.06
495.496	14230.23
495.866	14365.82
496.235	14524.69
496.605	14649.43
496.974	14739.82
497.344	14825.7
497.713	14983.21
498.082	15142.75
498.452	15342.97
498.821	15379.81
499.19	15402.41
499.559	15481.5
499.928	15680.14
500.298	15765.33
500.667	15905.9
501.036	15928.04
501.405	16087.36
501.774	16152.44
502.143	16296.17
502.512	16381.14
502.88	16617.52
503.249	16569.83
503.618	16782.48
503.987	16861.12
504.356	16903.84
504.724	17076.26
505.093	17159.42
505.462	17313.32
505.83	17427.44
506.199	17513.76
506.567	17810.25
506.936	17792.63
507.304	17983.81
507.672	18061.09
508.041	18175.44
508.409	18254.31
508.777	18408.88
509.145	18566.39
509.514	18657.69
509.882	18845.71
510.25	18931.58
510.618	19045.7
510.986	19218.8
511.354	19473.03
511.722	19563.2
512.09	19768.39
512.458	19737.66
512.826	19887.71
513.193	20054.94
513.561	20149.85
513.929	20264.65
514.297	20464.87
514.664	20639.56
515.032	20650.63
515.4	20964.29
515.767	21117.96
516.135	21222.82
516.502	21084.74
516.869	21524.5
517.237	21670.72
517.604	21644.28
517.972	21873.87
518.339	22131.27
518.706	22175.79
519.073	22283.35
519.44	22463.46
519.808	22760.86
520.175	22758.14
520.542	23087.85
520.909	23244.01
521.276	23335.3
521.643	23688.29
522.009	23657.1
522.376	23926.93
522.743	24080.82
523.11	24333.24
523.477	24592.22
523.843	24628.6
524.21	25002.15
524.577	25222.49
524.943	25421.35
525.31	25536.38
525.676	25790.83
526.043	25873.09
526.409	26005.52
526.776	26254.1
527.142	26461.1
527.508	26567.31
527.874	26669.23
528.241	26919.17
528.607	27054.3
528.973	27353.73
529.339	27423.33
529.705	27629.2
530.071	27890.21
530.437	27967.95
530.803	28138.12
531.169	28354.83
531.535	28491.33
531.901	28638.22
532.267	28628.72
532.632	28987.81
532.998	29094.25
533.364	29365.43
533.73	29360.68
534.095	29646.33
534.461	29814.68
534.826	29919.09
535.192	30151.85
535.557	30371.5
535.923	30138.06
536.288	30424.16
536.653	30552.52
537.019	30515
537.384	30799.29
537.749	31011.94
538.114	30907.99
538.479	31043.12
538.845	31113.18
539.21	31155.21
539.575	31314.76
539.94	31417.13
540.305	31582.77
540.67	31532.83
541.034	31790.68
541.399	31829.54
541.764	31941.18
542.129	32123.1
542.494	32122.87
542.858	32112.7
543.223	32323.77
543.587	32515.63
543.952	32438.57
544.316	32638.34
544.681	32629.75
545.045	32810.31
545.41	33016.41
545.774	33071.77
546.138	33163.52
546.503	33216.85
546.867	33287.59
547.231	33616.62
547.595	33748.14
547.959	33776.84
548.324	33767.57
548.688	33995.59
549.052	34054.34
549.416	34098.41
549.779	34234.23
550.143	34324.62
550.507	34687.32
550.871	34811.84
551.235	34807.55
551.599	35068.33
551.962	35021.32
552.326	35247.31
552.689	35549.9
553.053	35418.83
553.417	35397.59
553.78	35978.14
554.143	35826.95
554.507	36111.24
554.87	36077.79
555.234	36543.32
555.597	36476.43
555.96	36534.73
556.323	36633.03
556.686	36798.23
557.05	37067.37
557.413	37108.05
557.776	37242.28
558.139	37382.39
558.502	37515.72
558.865	37624.65
559.228	38023.96
559.59	38112.32
559.953	38202.94
560.316	38748.68
560.679	38642.7
561.041	38897.61
561.404	38952.3
561.767	39225.28
562.129	39164.94
562.492	39721.77
562.854	39531.26
563.217	39547.31
563.579	39857.81
563.941	40021.42
564.304	40212.83
564.666	40658.69
565.028	40606.04
565.39	40671.35
565.753	41079.24
566.115	41221.84
566.477	41391.78
566.839	41560.36
567.201	41702.96
567.563	41806.23
567.925	42107.01
568.287	42203.73
568.648	42297.29
569.01	42575.93
569.372	42911.51
569.734	42686.66
570.095	43160.09
570.457	43251.39
570.819	43375.91
571.18	43449.13
571.542	43558.05
571.903	43736.8
572.265	43981.32
572.626	44003.24
572.987	44150.35
573.349	44206.39
573.71	44483.9
574.071	44625.37
574.432	44545.14
574.794	44925.02
575.155	44992.36
575.516	44980.39
575.877	45184
576.238	45372.24
576.599	45499.02
576.96	45471.9
577.32	45590.09
577.681	45726.81
578.042	45885.9
578.403	45897.88
578.763	45907.82
579.124	46115.04
579.485	46296.73
579.845	46416.51
580.206	46422.38
580.566	46535.6
580.927	46467.8
581.287	46714.58
581.648	46619.44
582.008	46783.73
582.368	46669.15
582.728	46734.46
583.089	46845.65
583.449	46899.43
583.809	46841.58
584.169	46933.1
584.529	46847.68
584.889	47215.81
585.249	46866.44
585.609	46884.52
585.969	47147.56
586.329	47010.61
586.688	47158.18
587.048	47074.34
587.408	47122.48
587.768	47000.44
588.127	47064.4
588.487	47100.78
588.846	47322.24
589.206	47200.67
589.565	47124.28
589.925	47350.04
590.284	47305.52
590.643	47256.71
591.003	47424.61
591.362	47418.97
591.721	47245.18
592.08	47272.53
592.44	47410.83
592.799	47366.31
593.158	47363.37
593.517	47372.41
593.876	47507.78
594.235	47370.38
594.593	47414.9
594.952	47593.65
595.311	47409.47
595.67	47519.98
596.029	47795.68
596.387	47752.74
596.746	47831.38
597.104	47651.28
597.463	47684.49
597.822	47930.14
598.18	47596.36
598.538	47728.34
598.897	47993.64
599.255	47767.66
599.613	48281.32
599.972	48007.42
600.33	48073.19
600.688	47910.48
601.046	48088.55
601.404	48134.2
601.762	48022.56
602.12	48300.75
602.478	48304.59
602.836	48425.27
603.194	48169.68
603.552	48168.32
603.91	48231.37
604.268	48335.55
604.625	48159.51
604.983	48420.97
605.341	48283.8
605.698	48441.76
606.056	48567.86
606.413	48572.16
606.771	48587.3
607.128	48491.25
607.485	48580.97
607.843	48547.07
608.2	48689.21
608.557	48702.1
608.914	48591.36
609.272	48879.94
609.629	49076.1
609.986	49028.41
610.343	48832.94
610.7	49043.1
611.057	48974.86
611.414	48900.06
611.771	48997.45
612.127	49212.14
612.484	49271.12
612.841	49188.41
613.198	49032.93
613.554	49187.05
613.911	49485.13
614.267	49349.08
614.624	49381.17
614.98	49356.99
615.337	49642.64
615.693	49470.66
616.05	49471.57
616.406	49698
616.762	49608.96
617.118	49566.03
617.475	49620.49
617.831	49668.17
618.187	49807.38
618.543	49724.67
618.899	49840.14
619.255	49878.56
619.611	49878.79
619.967	49892.8
620.323	50080.36
620.678	49800.37
621.034	49823.87
621.39	49921.72
621.746	49879.01
622.101	50227.03
622.457	49852.8
622.812	50059.8
623.168	49867.71
623.523	50005.79
623.879	50147.93
624.234	49906.13
624.589	49988.16
624.945	49959.24
625.3	50132.11
625.655	50034.72
626.01	50067.26
626.365	50093.7
626.72	49922.4
627.075	49855.96
627.43	49952.91
627.785	49865
628.14	50069.29
628.495	49990.65
628.85	49967.6
629.205	49797.89
629.559	50010.31
629.914	49850.77
630.269	49887.6
630.623	49726.02
630.978	49839.92
631.332	49879.01
631.687	49914.04
632.041	49825
632.396	49875.62
632.75	49673.37
633.104	49660.94
633.459	49567.38
633.813	49563.77
634.167	49468.4
634.521	49502.53
634.875	49592.47
635.229	49446.03
635.583	49207.62
635.937	49409.65
636.291	49262.53
636.645	49208.52
636.999	49222.76
637.352	49143.67
637.706	49004.46
638.06	49159.03
638.413	49075.19
638.767	48861.86
639.121	48942.31
639.474	48688.76
639.828	48855.09
640.181	48878.81
640.534	48844.92
640.888	48793.17
641.241	48633.17
641.594	48681.3
641.947	48723.11
642.301	48593.17
642.654	48655.09
643.007	48608.09
643.36	48635.2
643.713	48330.58
644.066	48593.4
644.419	48313.18
644.771	48123.58
645.124	47755.91
645.477	47637.26
645.83	47406.08
646.182	47257.61
646.535	47119.31
646.888	47116.6
647.24	47005.19
647.593	47285.41
647.945	46989.15
648.298	46798.87
648.65	46746.21
649.002	46580.57
649.355	46759.32
649.707	46605.2
650.059	47011.29
650.411	47356.37
650.763	47414.45
651.115	47618.06
651.467	47486.53
651.819	47511.62
652.171	47334.9
652.523	47333.32
652.875	47259.65
653.227	47138.75
653.578	47318.63
653.93	47125.19
654.282	46995.25
654.633	46931.29
654.985	46865.31
655.337	46966.55
655.688	46981.24
656.039	47058.3
656.391	46723.62
656.742	46687.91
657.094	46727.91
657.445	46889.04
657.796	46677.97
658.147	46725.42
658.498	46620.79
658.849	46760.9
659.2	46578.54
659.551	46519.78
659.902	46731.07
660.253	46642.71
660.604	46477.07
660.955	46455.6
661.306	46425.09
661.656	46462.15
662.007	46324.3
662.358	46350.74
662.708	46424.87
663.059	46401.59
663.409	46045.44
663.76	46385.09
664.11	46391.65
664.461	46239.11
664.811	46313.68
665.161	46246.79
665.511	46097.64
665.862	46164.31
666.212	46123.18
666.562	46284.53
666.912	46167.25
667.262	46032.33
667.612	46062.84
667.962	46058.32
668.312	45895.84
668.662	46104.65
669.011	46035.95
669.361	45947.59
669.711	45986.69
670.06	45898.1
670.41	45809.06
670.76	45657.88
671.109	45813.13
671.459	45901.49
671.808	45752.34
672.157	45868.27
672.507	45628.5
672.856	45580.82
673.205	45560.26
673.554	45683.42
673.904	45552.35
674.253	45748.95
674.602	45543.31
674.951	44987.62
675.3	44774.97
675.649	45468.51
675.998	45434.16
676.346	45323.2
676.695	45458.79
677.044	45151.91
677.393	45270.09
677.741	45355.06
678.09	45136.09
678.438	45126.14
678.787	45153.04
679.135	45344.9
679.484	44959.59
679.832	45088.86
680.181	44866.94
680.529	45008.63
680.877	44818.81
681.225	44706.27
681.573	44915.75
681.922	44586.05
682.27	44432.6
682.618	44503.34
682.966	44389.21
683.314	44537.23
683.661	44351.25
684.009	44318.71
684.357	44231.7
684.705	44098.37
685.053	44003.46
685.4	44109.67
685.748	43851.83
686.095	43861.54
686.443	43727.54
686.79	43654.32
687.138	43663.58
687.485	43652.06
687.832	43447.54
688.18	43503.14
688.527	43356.25
688.874	43148.79
689.221	43164.61
689.568	43131.39
689.915	42938.63
690.262	42839.2
690.609	42626.32
690.956	42552.65
691.303	42617.28
691.65	42403.28
691.997	42401.92
692.344	42161.25
692.69	42160.35
693.037	42153.34
693.383	41694.37
693.73	42020.46
694.077	41761.71
694.423	41615.5
694.769	41397.2
695.116	41563.98
695.462	41254.61
695.808	41263.42
696.155	41248.73
696.501	40923.54
696.847	40945.24
697.193	40712.7
697.539	40961.96
697.885	40594.96
698.231	40582.08
698.577	40500.95
698.923	40348.19
699.269	40216.44
699.614	40078.59
699.96	40052.61
700.306	39878.37
700.651	39733.97
700.997	39569
701.342	39549.79
701.688	39458.95
702.033	39239.75
702.379	39207.88
702.724	39114.55
703.069	39159.75
703.415	38930.37
703.76	38915.69
704.105	38934.22
704.45	38896.48
704.795	38518.63
705.14	38505.98
705.485	38507.79
705.83	38214.46
706.175	38323.38
706.52	38223.95
706.865	37993.45
707.209	37932.21
707.554	37722.27
707.899	37705.1
708.243	37700.8
708.588	37661.26
708.932	37311.89
709.277	37206.8
709.621	37361.83
709.966	36974.49
710.31	37174.04
710.654	36802.97
710.998	36898.79
711.342	36825.57
711.687	36732.47
712.031	36546.71
712.375	36487.73
712.719	36614.73
713.063	36450.44
713.407	36703.99
713.75	36365.47
714.094	36251.12
714.438	36029.21
714.782	36188.98
715.125	36070.34
715.469	36045.93
715.812	35793.73
716.156	35660.86
716.499	35628.77
716.843	35644.13
717.186	35406.63
717.53	35579.73
717.873	35527.75
718.216	35302.67
718.559	35247.99
718.902	34944.49
719.246	35056.58
719.589	34953.53
719.932	34861.1
720.275	34806.42
720.617	34798.96
720.96	34685.74
721.303	34647.78
721.646	34689.13
721.989	34394.45
722.331	34412.75
722.674	34396.26
723.016	34294.11
723.359	34138.86
723.701	34301.8
724.044	34047.34
724.386	33825.42
724.729	34033.1
725.071	33917.85
725.413	34054.34
725.755	33909.49
726.097	33676.73
726.439	33590.63
726.782	33638.54
727.124	33680.57
727.465	33537.3
727.807	33510.18
728.149	33522.61
728.491	33412.33
728.833	33478.77
729.175	33307.92
729.516	33234.03
729.858	33249.62
730.199	33111.32
730.541	33146.12
730.882	33076.07
731.224	33165.55
731.565	32803.53
731.906	32867.94
732.248	32874.26
732.589	32603.99
732.93	32599.47
733.271	32500.94
733.612	32561.95
733.953	32590.65
734.294	32233.83
734.635	32311.11
734.976	32408.06
735.317	32243.09
735.658	32196.31
735.999	32154.28
736.339	32081.52
736.68	32190.66
737.021	31920.62
737.361	31824.57
737.702	31970.11
738.042	31720.85
738.383	31722.88
738.723	31689.44
739.063	31472.94
739.404	31757.46
739.744	31610.57
740.084	31330.8
740.424	31543.9
740.764	31353.62
741.104	31494.19
741.444	31253.97
741.784	31117.25
742.124	31293.06
742.464	31041.32
742.804	31132.39
743.143	31049
743.483	30998.15
743.823	30879.29
744.162	30745.51
744.502	30807.65
744.841	30628.45
745.181	30786.41
745.52	30540.09
745.86	30632.74
746.199	30487.21
746.538	30471.61
746.877	30513.19
747.216	30360.88
747.556	30278.17
747.895	30256.03
748.234	30250.15
748.573	30172.86
748.911	30042.25
749.25	30117.5
749.589	30028.01
749.928	30014.22
750.267	30062.13
750.605	29862.59
750.944	29832.53
751.283	29842.25
751.621	29836.6
751.96	29546.44
752.298	29554.8
752.636	29549.15
752.975	29436.84
