Data from aluminium_surface_pro_back_FLMS001491_00065.txt Node
Date: Wed Feb 08 15:34:23 GMT 2017
User: dcchb
Spectrometer: FLMS00149
Trigger mode: 0
Integration Time (sec): 2.000000E-2
Scans to average: 10
Electric dark correction enabled: true
Nonlinearity correction enabled: false
Boxcar width: 0
XAxis mode: Wavelengths
Number of Pixels in Spectrum: 2048
>>>>>Begin Spectral Data<<<<<
341.393	-13.23
341.776	-13.23
342.16	-13.23
342.543	-57.75
342.927	-65.89
343.31	-72.44
343.693	-84.19
344.077	-56.17
344.46	-46.45
344.843	-45.1
345.226	-34.93
345.61	-49.17
345.993	-10.97
346.376	1.45
346.759	-4.19
347.142	28.57
347.525	58.63
347.908	61.79
348.291	69.7
348.674	85.75
349.057	97.72
349.44	119.19
349.823	136.37
350.206	182.01
350.588	233.31
350.971	242.58
351.354	257.49
351.737	270.37
352.119	304.05
352.502	278.74
352.884	313.99
353.267	315.8
353.65	326.87
354.032	329.58
354.414	327.1
354.797	336.59
355.179	351.95
355.562	355.57
355.944	360.99
356.326	353.08
356.709	365.29
357.091	362.12
357.473	366.87
357.855	364.16
358.238	369.81
358.62	386.3
359.002	380.43
359.384	382.91
359.766	393.76
360.148	372.97
360.53	411.84
360.912	388.79
361.294	386.3
361.676	382.46
362.057	386.76
362.439	368.22
362.821	371.16
363.203	369.13
363.584	383.59
363.966	351.73
364.348	372.97
364.729	367.32
365.111	359.64
365.493	361.9
365.874	356.02
366.256	369.13
366.637	351.73
367.019	372.97
367.4	358.96
367.781	394.21
368.163	374.1
368.544	377.72
368.925	364.84
369.306	383.37
369.688	360.99
370.069	359.41
370.45	372.74
370.831	395.57
371.212	396.02
371.593	381.56
371.974	381.11
372.355	380.2
372.736	399.41
373.117	368
373.498	401.22
373.879	391.73
374.26	393.76
374.641	395.12
375.021	389.92
375.402	405.74
375.783	425.62
376.163	415
376.544	430.14
376.925	418.39
377.305	425.4
377.686	435.12
378.066	446.19
378.447	433.08
378.827	443.7
379.208	431.95
379.588	439.86
379.968	431.95
380.349	424.95
380.729	423.14
381.109	448.22
381.489	455.23
381.87	459.07
382.25	456.13
382.63	469.69
383.01	470.82
383.39	468.34
383.77	457.26
384.15	475.79
384.53	488
384.91	482.35
385.29	500.42
385.67	500.42
386.049	528.9
386.429	522.8
386.809	523.93
387.189	513.08
387.568	497.03
387.948	532.97
388.328	524.38
388.707	527.32
389.087	544.72
389.466	561.44
389.846	570.48
390.225	555.34
390.605	572.97
390.984	558.73
391.363	577.71
391.743	587.2
392.122	597.82
392.501	606.18
392.881	623.13
393.26	597.37
393.639	624.04
394.018	612.29
394.397	614.32
394.776	636.69
395.155	625.17
395.534	654.54
395.913	651.83
396.292	647.77
396.671	658.61
397.05	681.21
397.429	706.52
397.808	698.84
398.186	720.76
398.565	690.93
398.944	719.85
399.323	709.23
399.701	727.99
400.08	719.85
400.458	719.85
400.837	739.97
401.215	740.19
401.594	750.36
401.972	761.89
402.351	787.42
402.729	807.08
403.107	822.22
403.486	809.8
403.864	843.47
404.242	817.03
404.62	850.25
404.999	846.63
405.377	869.23
405.755	862.45
406.133	878.27
406.511	879.4
406.889	887.53
407.267	895.22
407.645	901.09
408.023	942.45
408.401	960.53
408.779	967.98
409.156	972.5
409.534	960.53
409.912	989.23
410.29	1011.82
410.667	1047.98
411.045	1038.04
411.422	1044.82
411.8	1078.71
412.178	1087.75
412.555	1101.76
412.933	1085.04
413.31	1139.05
413.687	1136.57
414.065	1139.96
414.442	1136.79
414.819	1184.47
415.197	1181.76
415.574	1205.72
415.951	1227.64
416.328	1239.16
416.705	1253.17
417.082	1258.37
417.46	1277.13
417.837	1271.48
418.214	1314.87
418.591	1281.42
418.967	1334.53
419.344	1328.88
419.721	1350.57
420.098	1385.37
420.475	1356.9
420.852	1393.96
421.228	1438.25
421.605	1423.11
421.982	1424.69
422.358	1421.3
422.735	1487.97
423.111	1473.05
423.488	1521.64
423.864	1514.86
424.241	1519.38
424.617	1572.03
424.994	1562.54
425.37	1573.84
425.746	1573.84
426.123	1607.06
426.499	1599.15
426.875	1661.75
427.251	1671.24
427.627	1738.81
428.003	1724.35
428.379	1729.09
428.756	1723.9
429.132	1802.54
429.507	1812.93
429.883	1844.8
430.259	1887.51
430.635	1901.74
431.011	1919.82
431.387	1946.71
431.763	1977.45
432.138	2018.35
432.514	2038.69
432.89	2062.19
433.265	2067.62
433.641	2076.2
434.016	2115.75
434.392	2166.14
434.767	2199.36
435.143	2160.72
435.518	2226.93
435.894	2253.6
436.269	2249.31
436.644	2282.52
437.02	2329.53
437.395	2322.75
437.77	2329.76
438.145	2404.78
438.52	2430.32
438.895	2415.18
439.271	2421.73
439.646	2478.23
440.021	2548.51
440.395	2540.6
440.77	2539.47
441.145	2578.34
441.52	2630.09
441.895	2642.74
442.27	2648.39
442.645	2647.26
443.019	2710.31
443.394	2703.53
443.769	2750.54
444.143	2687.94
444.518	2774.26
444.892	2768.39
445.267	2797.77
445.641	2832.79
446.016	2867.14
446.39	2904.66
446.764	2861.04
447.139	2850.65
447.513	2930.42
447.887	2972.22
448.262	2954.6
448.636	2977.2
449.01	3005.9
449.384	3059.91
449.758	3032.79
450.132	3112.56
450.506	3156.63
450.88	3140.81
451.254	3144.65
451.628	3209.96
452.002	3247.7
452.376	3262.61
452.75	3288.83
453.123	3314.14
453.497	3390.29
453.871	3422.16
454.244	3498.99
454.618	3507.58
454.992	3535.15
455.365	3559.55
455.739	3656.95
456.112	3661.47
456.486	3711.19
456.859	3743.05
457.232	3822.15
457.606	3815.59
457.979	3872.54
458.352	3981.01
458.725	4025.76
459.099	4044.74
459.472	4116.15
459.845	4156.37
460.218	4209.03
460.591	4211.06
460.964	4249.25
461.337	4349.36
461.71	4433.65
462.083	4503.48
462.456	4529.7
462.829	4533.54
463.201	4617.83
463.574	4605.63
463.947	4702.12
464.32	4823.25
464.692	4822.34
465.065	4952.51
465.438	4960.65
465.81	5042.23
466.183	5093.98
466.555	5189.79
466.928	5210.36
467.3	5263.24
467.672	5347.75
468.045	5419.62
468.417	5463.68
468.789	5509.11
469.161	5591.14
469.534	5695.54
469.906	5800.85
470.278	5815.77
470.65	5919.49
471.022	5998.59
471.394	6101.18
471.766	6198.81
472.138	6254.85
472.51	6376.2
472.882	6493.71
473.253	6617.78
473.625	6643.09
473.997	6850.31
474.369	6818.9
474.74	6903.42
475.112	7089.18
475.484	7169.85
475.855	7286.91
476.227	7393.35
476.598	7603.74
476.97	7688.03
477.341	7853.68
477.713	7944.3
478.084	8004.63
478.455	8243.95
478.827	8332.31
479.198	8574.56
479.569	8564.17
479.94	8811.62
480.311	8927.77
480.682	9134.55
481.053	9347.42
481.424	9499.51
481.795	9511.49
482.166	9683.01
482.537	9883.68
482.908	10072.6
483.279	10112.15
483.65	10344.01
484.021	10517.11
484.391	10624
484.762	10772.25
485.133	10891.79
485.503	10998.91
485.874	11267.83
486.244	11387.14
486.615	11622.62
486.985	11722.05
487.356	12008.37
487.726	12056.96
488.097	12354.8
488.467	12370.62
488.837	12703.49
489.207	12818.52
489.578	12962.92
489.948	13197.04
490.318	13329.69
490.688	13447.88
491.058	13628.89
491.428	13799.74
491.798	13998.6
492.168	14270.68
492.538	14235.88
492.908	14508.87
493.278	14637
493.648	14733.04
494.017	14883.55
494.387	15098.46
494.757	15228.17
495.126	15346.14
495.496	15406.93
495.866	15502.06
496.235	15617.32
496.605	15821.83
496.974	15933.47
497.344	16066.12
497.713	16182.05
498.082	16357.63
498.452	16491.87
498.821	16685.31
499.19	16674.24
499.559	16876.94
499.928	16998.75
500.298	17055.92
500.667	17250.27
501.036	17173.43
501.405	17545.63
501.774	17451.84
502.143	17688.67
502.512	17736.13
502.88	18054.54
503.249	17955.11
503.618	18165.72
503.987	18302.44
504.356	18395.55
504.724	18540.63
505.093	18626.73
505.462	18713.28
505.83	18821.3
506.199	19005.02
506.567	19212.7
506.936	19291.12
507.304	19384.67
507.672	19606.81
508.041	19682.97
508.409	19875.06
508.777	19943.53
509.145	20228.49
509.514	20307.59
509.882	20498.54
510.25	20519.79
510.618	20791.19
510.986	20824.64
511.354	21048.81
511.722	21223.72
512.09	21468.23
512.458	21392.3
512.826	21635.91
513.193	21759.3
513.561	21789.81
513.929	22124.26
514.297	22402.22
514.664	22488.55
515.032	22525.38
515.4	22754.75
515.767	22822.55
516.135	23177.34
516.502	22933.73
516.869	23357.22
517.237	23552.93
517.604	23505.47
517.972	23750.89
518.339	23955.4
518.706	24062.74
519.073	24180.03
519.44	24334.15
519.808	24654.37
520.175	24730.75
520.542	25133.45
520.909	25301.58
521.276	25238.76
521.643	25514.68
522.009	25763.26
522.376	26019.98
522.743	26082.12
523.11	26367.54
523.477	26700.87
523.843	26911.03
524.21	27131.81
524.577	27294.3
524.943	27378.36
525.31	27595.76
525.676	27952.36
526.043	28161.17
526.409	28217.44
526.776	28509.63
527.142	28616.97
527.508	28768.61
527.874	29075.94
528.241	29246.56
528.607	29338.76
528.973	29561.36
529.339	29534.69
529.705	30003.6
530.071	30325.86
530.437	30332.18
530.803	30503.48
531.169	30616.24
531.535	30875.9
531.901	30914.54
532.267	31074.08
532.632	31402.21
532.998	31474.53
533.364	31622.54
533.73	31715.42
534.095	31983.89
534.461	32012.14
534.826	32218.01
535.192	32502.52
535.557	32748.39
535.923	32698
536.288	32795.62
536.653	33103.18
537.019	32999.01
537.384	33264.99
537.749	33351.09
538.114	33445.77
538.479	33437.64
538.845	33823.39
539.21	33707.46
539.575	33837.85
539.94	34058.19
540.305	34127.56
540.67	34185.19
541.034	34333.66
541.399	34554.44
541.764	34601.67
542.129	34650.49
542.494	34868.79
542.858	35131.38
543.223	35072.85
543.587	35248.89
543.952	35274.65
544.316	35409.11
544.681	35369.11
545.045	35688.65
545.41	35752.61
545.774	35984.01
546.138	35920.74
546.503	36113.05
546.867	36146.04
547.231	36432.14
547.595	36506.03
547.959	36666.93
548.324	36728.85
548.688	36701.28
549.052	36995.51
549.416	37082.74
549.779	37098.56
550.143	37266.46
550.507	37409.51
550.871	37683.18
551.235	37740.35
551.599	37894.24
551.962	38082.26
552.326	38068.25
552.689	38488.13
553.053	38143.28
553.417	38391.86
553.78	38872.98
554.143	38758.63
554.507	38967.44
554.87	39006.76
555.234	39411.72
555.597	39306.41
555.96	39530.13
556.323	39673.41
556.686	39775.78
557.05	40218.25
557.413	40178.03
557.776	40348.42
558.139	40556.55
558.502	40631.35
558.865	40938.91
559.228	41146.81
559.59	41332.57
559.953	41451.21
560.316	41844.2
560.679	41858.89
561.041	42122.83
561.404	42302.72
561.767	42566.44
562.129	42575.93
562.492	43036.48
562.854	43011.85
563.217	43080.55
563.579	43277.61
563.941	43591.72
564.304	43700.64
564.666	43951.71
565.028	44011.82
565.39	44301.98
565.753	44538.59
566.115	44654.97
566.477	44789.88
566.839	45051.8
567.201	45391
567.563	45303.54
567.925	45632.57
568.287	45619.24
568.648	45737.43
569.01	46094.71
569.372	46353
569.734	46271.2
570.095	46562.72
570.457	46775.59
570.819	46996.6
571.18	46922.03
571.542	47294
571.903	47350.72
572.265	47630.94
572.626	47707.55
572.987	47743.7
573.349	47811.95
573.71	48144.6
574.071	48221.2
574.432	48230.47
574.794	48574.87
575.155	48658.03
575.516	48608.31
575.877	48757.23
576.238	48921.3
576.599	48990
576.96	49110.45
577.32	49137.11
577.681	49311.8
578.042	49357.67
578.403	49455.97
578.763	49505.69
579.124	49562.64
579.485	49683.76
579.845	49865.23
580.206	49683.09
580.566	49812.57
580.927	49800.6
581.287	49982.74
581.648	49982.97
582.008	50172.56
582.368	50094.6
582.728	50065.22
583.089	50092.57
583.449	50093.25
583.809	50165.79
584.169	50299.12
584.529	50148.16
584.889	50360.58
585.249	50233.58
585.609	50197.2
585.969	50277.65
586.329	50215.05
586.688	50250.53
587.048	50254.82
587.408	50092.79
587.768	50235.84
588.127	50104.77
588.487	50118.56
588.846	50551.09
589.206	50191.32
589.565	50291.21
589.925	50422.73
590.284	50414.37
590.643	50473.8
591.003	50483.29
591.362	50569.16
591.721	50588.83
592.08	50577.3
592.44	50602.38
592.799	50613.01
593.158	50757.63
593.517	50651.65
593.876	50772.32
594.235	50707.01
594.593	50717.41
594.952	50829.27
595.311	50717.18
595.67	50864.07
596.029	50924.86
596.387	51036.5
596.746	50976.61
597.104	50925.54
597.463	50957.4
597.822	51078.53
598.18	50891.19
598.538	50865.65
598.897	51163.5
599.255	50853.23
599.613	51426.77
599.972	51221.8
600.33	51233.78
600.688	51112.2
601.046	51315.36
601.404	51303.61
601.762	51230.62
602.12	51429.71
602.478	51410.5
602.836	51438.75
603.194	51313.78
603.552	51428.13
603.91	51289.37
604.268	51498.63
604.625	51411.63
604.983	51695.24
605.341	51414.34
605.698	51596.71
606.056	51695.01
606.413	51735.69
606.771	51765.07
607.128	51699.98
607.485	51503.15
607.843	51655.24
608.2	51803.03
608.557	51949.02
608.914	51792.18
609.272	51989.92
609.629	51983.82
609.986	52172.29
610.343	51935.68
610.7	52203.25
611.057	52119.18
611.414	52075.11
611.771	52087.99
612.127	52157.37
612.484	52250.7
612.841	52323.69
613.198	52230.36
613.554	52251.15
613.911	52564.37
614.267	52482.33
614.624	52489.79
614.98	52573.18
615.337	52673.29
615.693	52596.23
616.05	52572.28
616.406	52690.01
616.762	52588.55
617.118	52553.52
617.475	52565.04
617.831	52648.66
618.187	52640.52
618.543	52735.66
618.899	52991.47
619.255	52823.79
619.611	52777.02
619.967	52932.72
620.323	52983.79
620.678	52775.43
621.034	52649.34
621.39	52702.44
621.746	52680.07
622.101	53029.44
622.457	52785.15
622.812	52913.74
623.168	52891.59
623.523	52850.46
623.879	52958.25
624.234	52747.19
624.589	52925.71
624.945	52926.39
625.3	52930.46
625.655	52833.06
626.01	52837.81
626.365	52868.99
626.72	52863.12
627.075	52912.83
627.43	52798.03
627.785	52688.43
628.14	52791.48
628.495	52809.78
628.85	52784.7
629.205	52703.57
629.559	52896.34
629.914	52772.04
630.269	52758.03
630.623	52732.27
630.978	52696.11
631.332	52906.5
631.687	52862.21
632.041	52718.94
632.396	52807.52
632.75	52652.95
633.104	52738.37
633.459	52640.97
633.813	52523.46
634.167	52533.41
634.521	52391.72
634.875	52463.8
635.229	52425.39
635.583	52357.37
635.937	52200.53
636.291	52270.81
636.645	52320.53
636.999	52194.66
637.352	52342.45
637.706	52074.21
638.06	52187.43
638.413	52144.26
638.767	51960.77
639.121	52113.3
639.474	51849.36
639.828	51862.01
640.181	51952.63
640.534	51925.51
640.888	51815.23
641.241	51697.95
641.594	51641.45
641.947	51682.58
642.301	51692.07
642.654	51656.14
643.007	51681.45
643.36	51581.12
643.713	51480.1
644.066	51603.71
644.419	51240.56
644.771	51263.84
645.124	50907.01
645.477	50864.75
645.83	50688.48
646.182	50529.17
646.535	50471.99
646.888	50541.59
647.24	50346.12
647.593	50384.99
647.945	50488.94
648.298	50152.23
648.65	50073.58
649.002	49997.65
649.355	50239
649.707	50168.95
650.059	50312.9
650.411	50616.4
650.763	50660.69
651.115	50930.51
651.467	50777.75
651.819	50853
652.171	50782.27
652.523	50593.8
652.875	50677.86
653.227	50476.74
653.578	50765.32
653.93	50615.72
654.282	50454.37
654.633	50359
654.985	50394.25
655.337	50346.57
655.688	50358.32
656.039	50478.77
656.391	50133.92
656.742	50247.82
657.094	50247.82
657.445	50406.91
657.796	50291.88
658.147	50193.13
658.498	50211.21
658.849	50251.66
659.2	50188.61
659.551	50081.27
659.902	50119.46
660.253	50053.47
660.604	50132.79
660.955	49926.02
661.306	50038.78
661.656	49944.32
662.007	49985.9
662.358	49982.51
662.708	49943.64
663.059	49918.56
663.409	49739.13
663.76	49987.49
664.11	49890.99
664.461	49961.05
664.811	50028.61
665.161	49855.06
665.511	49759.92
665.862	49809.86
666.212	49863.65
666.562	49930.54
666.912	49865
667.262	49780.71
667.612	49771.22
667.962	49709.07
668.312	49701.39
668.662	49860.03
669.011	49714.27
669.361	49694.16
669.711	49623.43
670.06	49599.47
670.41	49536.65
670.76	49406.26
671.109	49587.27
671.459	49437.44
671.808	49429.76
672.157	49521.51
672.507	49235.87
672.856	49091.46
673.205	49273.83
673.554	49482.19
673.904	49198.81
674.253	49339.59
674.602	49228.18
674.951	48621.42
675.3	48420.75
675.649	49148.19
675.998	48930.11
676.346	48994.74
676.695	49121.29
677.044	48764.01
677.393	48835.65
677.741	48774.86
678.09	48687.86
678.438	48736.22
678.787	48721.98
679.135	48686.95
679.484	48445.38
679.832	48636.33
680.181	48408.32
680.529	48568.99
680.877	48450.35
681.225	48309.34
681.573	48511.14
681.922	48258.04
682.27	48215.33
682.618	48158.15
682.966	48162.9
683.314	48248.32
683.661	47959.97
684.009	47785.06
684.357	47908.22
684.705	47720.65
685.053	47849.69
685.4	47874.32
685.748	47611.28
686.095	47567.66
686.443	47448.79
686.79	47305.07
687.138	47408.8
687.485	47361.34
687.832	47363.6
688.18	47195.92
688.527	47041.35
688.874	47067.34
689.221	47042.03
689.568	46849.26
689.915	46712.09
690.262	46633.45
690.609	46649.95
690.956	46368.15
691.303	46422.61
691.65	46187.36
691.997	46287.47
692.344	45978.32
692.69	46063.97
693.037	45983.52
693.383	45600.71
693.73	45791.44
694.077	45568.39
694.423	45529.52
694.769	45294.95
695.116	45269.19
695.462	45284.11
695.808	45101.29
696.155	45121.17
696.501	44858.35
696.847	44870.11
697.193	44562.09
697.539	44653.84
697.885	44355.09
698.231	44199.16
698.577	44302.66
698.923	44195.77
699.269	43994.2
699.614	43777.7
699.96	43852.51
700.306	43760.3
700.651	43523.25
700.997	43426.08
701.342	43326.42
701.688	43265.18
702.033	43191.05
702.379	43071.28
702.724	42979.76
703.069	43081
703.415	42621.13
703.76	42617.06
704.105	42505.2
704.45	42542.48
704.795	42290.06
705.14	42080.57
705.485	42154.7
705.83	41969.62
706.175	42100.69
706.52	41880.35
706.865	41719.91
707.209	41671.09
707.554	41381.84
707.899	41652.56
708.243	41283.99
708.588	41250.31
708.932	40970.77
709.277	41183.2
709.621	41043.09
709.966	40744.11
710.31	41003.54
710.654	40513.61
710.998	40621.4
711.342	40701.18
711.687	40552.25
712.031	40381.41
712.375	40233.39
712.719	40413.73
713.063	40304.12
713.407	40427.96
713.75	40067.97
714.094	40274.75
714.438	39973.51
714.782	39994.75
715.125	39715.21
715.469	39762.22
715.812	39527.87
716.156	39375.33
716.499	39356.13
716.843	39409.23
717.186	39219.63
717.53	39365.62
717.873	39262.12
718.216	39040.2
718.559	38897.83
718.902	38648.57
719.246	38745.07
719.589	38645.41
719.932	38343.5
720.275	38398.41
720.617	38263.95
720.96	38231.64
721.303	38256.72
721.646	38242.71
721.989	37895.37
722.331	38215.59
722.674	37937.18
723.016	37816.73
723.359	37793.91
723.701	37836.84
724.044	37682.5
724.386	37503.52
724.729	37575.83
725.071	37441.83
725.413	37495.38
725.755	37458.55
726.097	37243.41
726.439	37126.58
726.782	37059.46
727.124	37415.39
727.465	37023.76
727.807	37066.69
728.149	36875.06
728.491	36897.89
728.833	36986.47
729.175	36770.21
729.516	36683.43
729.858	36673.48
730.199	36599.81
730.541	36541.06
730.882	36264
731.224	36622.41
731.565	36264.91
731.906	36351.91
732.248	36280.5
732.589	35988.53
732.93	35925.03
733.271	36060.39
733.612	35866.27
733.953	36026.27
734.294	35690.91
734.635	35733.17
734.976	35668.54
735.317	35407.98
735.658	35391.94
735.999	35514.87
736.339	35488.21
736.68	35469
737.021	35287.53
737.361	35218.83
737.702	35382.22
738.042	35142.68
738.383	34982.23
738.723	35065.39
739.063	34980.87
739.404	35076.92
739.744	34826.08
740.084	34786.3
740.424	34824.27
740.764	34521.68
741.104	34782.24
741.444	34572.75
741.784	34451.4
742.124	34509.25
742.464	34327.11
742.804	34292.08
743.143	34295.69
743.483	34241.01
743.823	34158.97
744.162	33991.75
744.502	33983.84
744.841	33943.61
745.181	34147.9
745.52	33819.55
745.86	33895.03
746.199	33770.51
746.538	33700.46
746.877	33789.72
747.216	33821.81
747.556	33663.17
747.895	33732.09
748.234	33457.52
748.573	33417.53
748.911	33368.49
749.25	33279.9
749.589	33278.77
749.928	33129.4
750.267	33271.31
750.605	33205.78
750.944	33086.91
751.283	32788.62
751.621	32913.36
751.96	32754.94
752.298	32756.98
752.636	32705.45
752.975	32606.02
