Data from aluminium_surface_pro_back_FLMS001491_00050.txt Node
Date: Wed Feb 08 15:34:08 GMT 2017
User: dcchb
Spectrometer: FLMS00149
Trigger mode: 0
Integration Time (sec): 2.000000E-2
Scans to average: 10
Electric dark correction enabled: true
Nonlinearity correction enabled: false
Boxcar width: 0
XAxis mode: Wavelengths
Number of Pixels in Spectrum: 2048
>>>>>Begin Spectral Data<<<<<
341.393	0.11
341.776	0.11
342.16	0.11
342.543	-80.56
342.927	-58.87
343.31	-71.3
343.693	-76.04
344.077	-36.5
344.46	-68.13
344.843	-36.72
345.226	-57.06
345.61	-34.69
345.993	-22.49
346.376	-2.6
346.759	3.73
347.142	41.24
347.525	41.24
347.908	43.73
348.291	77.17
348.674	77.63
349.057	120.79
349.44	130.51
349.823	134.57
350.206	181.58
350.588	202.37
350.971	254.57
351.354	243.04
351.737	273.78
352.119	263.83
352.502	270.39
352.884	295.92
353.267	286.89
353.65	317.84
354.032	310.84
354.414	324.17
354.797	331.4
355.179	337.05
355.562	367.79
355.944	362.82
356.326	358.07
356.709	389.26
357.091	367.56
357.473	358.07
357.855	363.27
358.238	358.3
358.62	377.05
359.002	353.78
359.384	382.02
359.766	381.35
360.148	373.66
360.53	400.55
360.912	374.79
361.294	350.61
361.676	370.5
362.057	363.72
362.439	361.46
362.821	353.55
363.203	366.43
363.584	370.5
363.966	377.05
364.348	359.43
364.729	368.92
365.111	354.45
365.493	359.43
365.874	368.69
366.256	359.43
366.637	360.33
367.019	354.68
367.4	346.09
367.781	379.76
368.163	351.74
368.544	358.3
368.925	356.49
369.306	350.84
369.688	367.79
370.069	369.82
370.45	388.35
370.831	348.8
371.212	353.55
371.593	355.58
371.974	366.88
372.355	368.24
372.736	363.04
373.117	368.46
373.498	394
373.879	391.29
374.26	368.01
374.641	371.4
375.021	365.08
375.402	365.08
375.783	403.27
376.163	394.45
376.544	396.03
376.925	394.9
377.305	390.61
377.686	393.1
378.066	422.93
378.447	412.76
378.827	423.38
379.208	409.82
379.588	401.23
379.968	406.43
380.349	421.57
380.729	438.52
381.109	424.51
381.489	419.99
381.87	431.97
382.25	419.54
382.63	443.72
383.01	439.2
383.39	442.36
383.77	449.82
384.15	456.15
384.53	468.12
384.91	461.57
385.29	460.21
385.67	462.93
386.049	468.35
386.429	481.68
386.809	490.27
387.189	495.69
387.568	515.58
387.948	511.29
388.328	493.66
388.707	523.72
389.087	535.69
389.466	516.48
389.846	516.71
390.225	553.77
390.605	543.6
390.984	541.57
391.363	538.63
391.743	538.4
392.122	594.9
392.501	576.82
392.881	583.83
393.26	596.03
393.639	607.78
394.018	581.79
394.397	598.29
394.776	612.98
395.155	625.63
395.534	613.88
395.913	612.3
396.292	629.7
396.671	633.32
397.05	641.23
397.429	648.91
397.808	640.55
398.186	667.21
398.565	670.15
398.944	671.06
399.323	704.05
399.701	692.07
400.08	690.26
400.458	699.53
400.837	716.93
401.215	714.67
401.594	730.49
401.972	707.44
402.351	747.21
402.729	745.63
403.107	772.52
403.486	764.16
403.864	771.17
404.242	784.27
404.62	781.79
404.999	799.87
405.377	825.63
405.755	810.94
406.133	829.7
406.511	839.86
406.889	866.3
407.267	874.21
407.645	863.37
408.023	883.25
408.401	909.47
408.779	895.68
409.156	902.46
409.534	903.82
409.912	944.72
410.29	968.45
410.667	986.53
411.045	981.78
411.422	997.83
411.8	1003.48
412.178	1023.36
412.555	1047.54
412.933	1037.6
413.31	1070.82
413.687	1044.15
414.065	1058.16
414.442	1073.76
414.819	1101.55
415.197	1122.34
415.574	1144.49
415.951	1159.63
416.328	1173.87
416.705	1174.09
417.082	1190.59
417.46	1211.38
417.837	1216.8
418.214	1232.17
418.591	1240.08
418.967	1271.27
419.344	1265.39
419.721	1276.69
420.098	1269.23
420.475	1289.34
420.852	1292.51
421.228	1318.5
421.605	1314.65
421.982	1331.15
422.358	1336.58
422.735	1376.35
423.111	1368.89
423.488	1415.89
423.864	1402.11
424.241	1405.73
424.617	1452.5
424.994	1468.55
425.37	1459.96
425.746	1497.7
426.123	1483.46
426.499	1513.97
426.875	1525.95
427.251	1545.84
427.627	1604.14
428.003	1602.56
428.379	1620.86
428.756	1611.14
429.132	1670.8
429.507	1707.86
429.883	1715.55
430.259	1743.34
430.635	1738.15
431.011	1776.34
431.387	1802.55
431.763	1815.66
432.138	1851.59
432.514	1843.23
432.89	1836.67
433.265	1920.29
433.641	1937.46
434.016	1979.04
434.392	2002.09
434.767	2024.47
435.143	2047.97
435.518	2058.59
435.894	2086.84
436.269	2093.17
436.644	2156.21
437.02	2189.43
437.395	2186.95
437.77	2207.06
438.145	2240.73
438.52	2243.22
438.895	2275.08
439.271	2278.02
439.646	2339.71
440.021	2336.32
440.395	2358.47
440.77	2344.23
441.145	2391.91
441.52	2424.68
441.895	2435.76
442.27	2457.22
442.645	2431.46
443.019	2505.81
443.394	2496.77
443.769	2511.46
444.143	2487.05
444.518	2565.24
444.892	2556.2
445.267	2563.44
445.641	2605.24
446.016	2646.37
446.39	2682.98
446.764	2677.1
447.139	2671.23
447.513	2752.58
447.887	2744.9
448.262	2739.48
448.636	2733.83
449.01	2800.27
449.384	2832.35
449.758	2838.91
450.132	2883.2
450.506	2886.36
450.88	2941.28
451.254	2935.86
451.628	2998
452.002	3014.5
452.376	3022.41
452.75	3044.1
453.123	3094.49
453.497	3134.72
453.871	3146.7
454.244	3243.87
454.618	3268.73
454.992	3330.87
455.365	3312.34
455.739	3403.64
456.112	3389.63
456.486	3475.5
456.859	3504.2
457.232	3567.48
457.606	3573.8
457.979	3635.72
458.352	3678.66
458.725	3734.25
459.099	3735.16
459.472	3815.15
459.845	3851.09
460.218	3899.45
460.591	3903.74
460.964	3938.77
461.337	4039.1
461.71	4116.61
462.083	4176.5
462.456	4153.68
462.829	4202.49
463.201	4318.64
463.574	4327.23
463.947	4372.88
464.32	4445.87
464.692	4506.44
465.065	4515.7
465.438	4558.64
465.81	4621.46
466.183	4660.1
466.555	4786.2
466.928	4838.63
467.3	4862.13
467.672	4938.51
468.045	5057.16
468.417	5102.35
468.789	5075.46
469.161	5197.49
469.534	5279.3
469.906	5360.2
470.278	5437.48
470.65	5489.23
471.022	5582.57
471.394	5688.55
471.766	5733.52
472.138	5850.13
472.51	5943.01
472.882	6051.48
473.253	6101.42
473.625	6206.96
473.997	6280.63
474.369	6396.33
474.74	6464.12
475.112	6611.92
475.484	6687.17
475.855	6839.93
476.227	6827.96
476.598	7034.5
476.97	7112.47
477.341	7288.96
477.713	7396.08
478.084	7391.33
478.455	7630.42
478.827	7706.13
479.198	7930.98
479.569	7889.17
479.94	8173.46
480.311	8191.31
480.682	8446.22
481.053	8512.88
481.424	8723.27
481.795	8810.95
482.166	9000.78
482.537	9093.21
482.908	9247.55
483.279	9325.29
483.65	9616.13
484.021	9781.55
484.391	9867.65
484.762	9955.11
485.133	10029.91
485.503	10183.12
485.874	10381.08
486.244	10517.58
486.615	10788.98
486.985	10866.95
487.356	11089.76
487.726	11190.33
488.097	11421.06
488.467	11473.03
488.837	11668.05
489.207	11900.59
489.578	12002.74
489.948	12132.45
490.318	12321.14
490.688	12421.03
491.058	12593.91
491.428	12804.97
491.798	12889.49
492.168	13192.08
492.538	13213.55
492.908	13280.89
493.278	13548.23
493.648	13582.81
494.017	13784.16
494.387	13858.51
494.757	13964.49
495.126	14194.77
495.496	14244.48
495.866	14352.96
496.235	14541.88
496.605	14648.99
496.974	14770.12
497.344	14901.19
497.713	15058.02
498.082	15039.72
498.452	15238.58
498.821	15277.45
499.19	15392.48
499.559	15568.07
499.928	15733.48
500.298	15831.56
500.667	15983.65
501.036	15959.24
501.405	16119.24
501.774	16083.98
502.143	16344.09
502.512	16484.65
502.88	16574.59
503.249	16634.7
503.618	16720.35
503.987	16876.51
504.356	16946.79
504.724	17052.55
505.093	17114.47
505.462	17291.64
505.83	17407.79
506.199	17487.56
506.567	17786.31
506.936	17827.89
507.304	17992.41
507.672	18092.52
508.041	17985.4
508.409	18300.2
508.777	18341.78
509.145	18619.28
509.514	18569.57
509.882	18824.25
510.25	18916.68
510.618	19146.28
510.986	19131.36
511.354	19297.46
511.722	19502.43
512.09	19701.52
512.458	19714.85
512.826	19863.32
513.193	19984.67
513.561	20069.87
513.929	20269.64
514.297	20516.18
514.664	20565.45
515.032	20752.11
515.4	20974.7
515.767	21015.15
516.135	21231.65
516.502	21113.46
516.869	21529.04
517.237	21574.69
517.604	21620.56
517.972	21980.55
518.339	22093.77
518.706	22157.95
519.073	22390.48
519.44	22581.67
519.808	22796.12
520.175	22797.71
520.542	23084.7
520.909	23287.18
521.276	23218.94
521.643	23537.57
522.009	23725.36
522.376	23815.31
522.743	24147.73
523.11	24287.84
523.477	24544.55
523.843	24693.93
524.21	24918.55
524.577	25205.55
524.943	25369.16
525.31	25486.22
525.676	25717.63
526.043	25856.83
526.409	25973.67
526.776	26291.17
527.142	26530.26
527.508	26507.89
527.874	26872.4
528.241	26973.64
528.607	27031.04
528.973	27318.72
529.339	27360.98
529.705	27726.62
530.071	27913.5
530.437	28048.64
530.803	28293.38
531.169	28420.61
531.535	28430.55
531.901	28596.88
532.267	28781.28
532.632	28897.88
532.998	29082.06
533.364	29143.08
533.73	29430.07
534.095	29510.07
534.461	29688.82
534.826	30011.3
535.192	30063.73
535.557	30359.31
535.923	30187.12
536.288	30404.96
536.653	30598.18
537.019	30541.23
537.384	30715.01
537.749	30920.2
538.114	30904.84
538.479	31103.48
538.845	31138.5
539.21	31114.55
539.575	31351.83
539.94	31472.28
540.305	31623.01
540.67	31478.83
541.034	31741.2
541.399	31856.9
541.764	31916.56
542.129	32140.06
542.494	32122.66
542.858	32304.57
543.223	32313.16
543.587	32611.68
543.952	32462.76
544.316	32761.51
544.681	32672.25
545.045	32918.12
545.41	33028.62
545.774	33013.93
546.138	33078.57
546.503	33149.98
546.867	33299.8
547.231	33589.96
547.595	33740.24
547.959	33780.92
548.324	33801.48
548.688	33975.49
549.052	34079.44
549.416	34148.82
549.779	34345.88
550.143	34364.86
550.507	34570.73
550.871	34915.35
551.235	34787.22
551.599	35070.6
551.962	35043.03
552.326	35385.62
552.689	35456.13
553.053	35492.06
553.417	35556.92
553.78	36070.35
554.143	35802.79
554.507	36031.71
554.87	36019.05
555.234	36476.89
555.597	36220.86
555.96	36575.42
556.323	36734.74
556.686	36786.49
557.05	37172.02
557.413	37196.42
557.776	37333.82
558.139	37513.25
558.502	37603.64
558.865	37596.19
559.228	38120.24
559.59	38178.77
559.953	38122.5
560.316	38640.68
560.679	38698.08
561.041	38842.03
561.404	39096.26
561.767	39197.5
562.129	39135.36
562.492	39596.81
562.854	39341
563.217	39684.95
563.579	39709.35
563.941	40096.46
564.304	40242.22
564.666	40365.61
565.028	40714.3
565.39	40671.13
565.753	41096.21
566.115	41168.52
566.477	41358.8
566.839	41450.32
567.201	41808.51
567.563	41901.84
567.925	42098.44
568.287	42148.16
568.648	42217.99
569.01	42579.56
569.372	42766.67
569.734	42773.9
570.095	43048.7
570.457	43289.82
570.819	43236.49
571.18	43385.41
571.542	43786.76
571.903	43692.07
572.265	43989.69
572.626	44185.39
572.987	44165.51
573.349	44409.57
573.71	44449.57
574.071	44640.97
574.432	44591.03
574.794	44925.94
575.155	44890.46
575.516	44855.43
575.877	45195.53
576.238	45141.98
576.599	45509.88
576.96	45506.71
577.32	45446.15
577.681	45774.5
578.042	45835.07
578.403	45965.91
578.763	45933.37
579.124	46089.97
579.485	46269.18
579.845	46374.71
580.206	46368.39
580.566	46344.88
580.927	46486.12
581.287	46658.1
581.648	46562.05
582.008	46734.48
582.368	46582.39
582.728	46889.5
583.089	46756.62
583.449	46792.33
583.809	46807.02
584.169	46917.3
584.529	46837.98
584.889	47191.64
585.249	46844.31
585.609	46811.54
585.969	47073.23
586.329	47090.63
586.688	47097.63
587.048	47040.01
587.408	46941.03
587.768	47056.5
588.127	46961.82
588.487	47092.21
588.846	47343.5
589.206	47107.8
589.565	47240.9
589.925	47358.42
590.284	47329.04
590.643	47255.82
591.003	47320.68
591.362	47484.51
591.721	47348.02
592.08	47404.52
592.44	47542.59
592.799	47321.58
593.158	47334.01
593.517	47384.18
593.876	47446.78
594.235	47330.17
594.593	47440
594.952	47546.43
595.311	47502.37
595.67	47599.09
596.029	47697.16
596.387	47721.8
596.746	47811.51
597.104	47679.09
597.463	47725.19
597.822	47816.93
598.18	47738.52
598.538	47695.81
598.897	48000.21
599.255	47747.33
599.613	48260.76
599.972	47961.34
600.33	48139.86
600.688	47914.79
601.046	48089.47
601.404	48189.13
601.762	48037.49
602.12	48208.11
602.478	48218.96
602.836	48279.07
603.194	48127.44
603.552	48229.58
603.91	48084.27
604.268	48401.55
604.625	48206.98
604.983	48363.81
605.341	48208.56
605.698	48533.3
606.056	48456.69
606.413	48429.35
606.771	48559.74
607.128	48611.72
607.485	48461.44
607.843	48437.94
608.2	48699.4
608.557	48845.38
608.914	48678.61
609.272	48801.32
609.629	48930.35
609.986	49005.83
610.343	48826.63
610.7	49031.14
611.057	48925.38
611.414	48875.21
611.771	49067.07
612.127	49092.61
612.484	49204.92
612.841	49248.08
613.198	48976.68
613.554	49123.57
613.911	49398.59
614.267	49304.58
614.624	49346.16
614.98	49338.7
615.337	49547.06
615.693	49500.28
616.05	49448.53
616.406	49776.88
616.762	49462.77
617.118	49546.38
617.475	49549.77
617.831	49678.58
618.187	49684
618.543	49795.64
618.899	49882.87
619.255	49798.58
619.611	49752.48
619.967	49886.94
620.323	49938.23
620.678	49795.41
621.034	49779.14
621.39	49907.73
621.746	49703.44
622.101	50186.82
622.457	49966.26
622.812	50020.04
623.168	50059.36
623.523	49984.56
623.879	50197.44
624.234	49875.86
624.589	49990.89
624.945	50151.56
625.3	50090.1
625.655	50089.64
626.01	50024.11
626.365	50065.46
626.72	49945.69
627.075	50020.04
627.43	49966.26
627.785	49872.93
628.14	49911.34
628.495	49971
628.85	50006.03
629.205	49885.35
629.559	50030.44
629.914	49768.07
630.269	49863.21
630.623	49754.74
630.978	49722.42
631.332	49921.96
631.687	50001.96
632.041	49756.77
632.396	49841.29
632.75	49604.68
633.104	49612.59
633.459	49463.22
633.813	49506.83
634.167	49489.43
634.521	49469.09
634.875	49611.69
635.229	49297.35
635.583	49277.24
635.937	49138.71
636.291	49180.74
636.645	49167.18
636.999	49164.47
637.352	49159.5
637.706	48949.79
638.06	49111.36
638.413	49037.69
638.767	48881.31
639.121	48912.95
639.474	48665.27
639.828	48658.04
640.181	48934.42
640.534	48826.63
640.888	48786.4
641.241	48520.42
641.594	48679.96
641.947	48640.19
642.301	48722.67
642.654	48691.04
643.007	48708.21
643.36	48491.04
643.713	48418.27
644.066	48506.63
644.419	48336.02
644.771	48068.68
645.124	47819.65
645.477	47658.29
645.83	47411.75
646.182	47268.47
646.535	46912.33
646.888	47113.22
647.24	46982.15
647.593	47251.98
647.945	46990.97
648.298	46766.57
648.65	46857.86
649.002	46559.57
649.355	46771.31
649.707	46697.64
650.059	46855.83
650.411	47343.05
650.763	47328.59
651.115	47709.59
651.467	47480.9
651.819	47535.81
652.171	47420.11
652.523	47229.61
652.875	47377.17
653.227	47142.38
653.578	47371.97
653.93	47209.27
654.282	46970.18
654.633	46929.05
654.985	46935.83
655.337	46884.76
655.688	46870.29
656.039	47000.23
656.391	46696.51
656.742	46638.89
657.094	46934.02
657.445	46767.24
657.796	46886.11
658.147	46723.18
658.498	46608.83
658.849	46682.5
659.2	46534.26
659.551	46481.15
659.902	46639.79
660.253	46535.16
660.604	46699.68
660.955	46343.75
661.306	46516.18
661.656	46432.34
662.007	46317.77
662.358	46520.7
662.708	46495.39
663.059	46360.7
663.409	46141.95
663.76	46299.91
664.11	46339.23
664.461	46423.53
664.811	46309.86
665.161	46136.3
665.511	46215.17
665.862	46161.61
666.212	46321.15
666.562	46217.2
666.912	46135.17
667.262	46143.98
667.612	46062.63
667.962	46117.54
668.312	45948.74
668.662	46042.07
669.011	45899.7
669.361	46025.57
669.711	45881.39
670.06	45844.11
670.41	45852.01
670.76	45831.45
671.109	45912.35
671.459	45864.22
671.808	45808.63
672.157	45794.84
672.507	45639.36
672.856	45605.47
673.205	45699.93
673.554	45787.61
673.904	45510.1
674.253	45854.27
674.602	45640.49
674.951	44969.1
675.3	44825.83
675.649	45505.13
675.998	45221.75
676.346	45400.05
676.695	45473.04
677.044	45188.76
677.393	45229.21
677.741	45444.57
678.09	45097.91
678.438	45098.59
678.787	45123.22
679.135	45302.65
679.484	45022.66
679.832	45077.57
680.181	44804.81
680.529	45006.84
680.877	44841.65
681.225	44795.55
681.573	44890.01
681.922	44600.97
682.27	44521.88
682.618	44596.68
682.966	44377.7
683.314	44528.66
683.661	44267.2
684.009	44307.65
684.357	44058.39
684.705	44137.03
685.053	44170.93
685.4	44057.94
685.748	43864.5
686.095	43858.17
686.443	43769.13
686.79	43693.65
687.138	43764.16
687.485	43631.73
687.832	43377.05
688.18	43488.91
688.527	43275.13
688.874	43326.43
689.221	43208.92
689.568	43193.1
689.915	42943.16
690.262	42878.31
690.609	42857.07
690.956	42537.07
691.303	42734.13
691.65	42417.75
691.997	42463.18
692.344	42060.7
692.69	42054.15
693.037	42229.74
693.383	41867.71
693.73	42104.54
694.077	41626.36
694.423	41687.38
694.769	41446.03
695.116	41361.51
695.462	41444.9
695.808	41271.12
696.155	41237.67
696.501	40878.81
696.847	40923.78
697.193	40773.73
697.539	40877
697.885	40595.2
698.231	40597.01
698.577	40565.83
698.923	40382.55
699.269	40092.84
699.614	39934.88
699.96	39955.9
700.306	40005.84
700.651	39748.67
700.997	39693.31
701.342	39564.27
701.688	39357.5
702.033	39240.44
702.379	39233.21
702.724	39152.3
703.069	39134.9
703.415	38748.7
703.76	38858.07
704.105	38888.13
704.45	38790.96
704.795	38485.43
705.14	38356.39
705.485	38446.79
705.83	38152.56
706.175	38239.56
706.52	38216.06
706.865	38057.42
707.209	37925.67
707.554	37826.69
707.899	37835.05
708.243	37467.38
708.588	37440.26
708.932	37357.1
709.277	37361.39
709.621	37372.92
709.966	37082.08
710.31	37181.73
710.654	36883.66
710.998	36905.58
711.342	36905.58
711.687	36724.8
712.031	36656.32
712.375	36534.75
712.719	36651.8
713.063	36402.32
713.407	36497.23
713.75	36330.46
714.094	36231.93
714.438	36195.77
714.782	36213.85
715.125	35980.64
715.469	35938.83
715.812	35838.49
716.156	35584.49
716.499	35548.56
716.843	35637.14
717.186	35386.98
717.53	35525.51
717.873	35393.08
718.216	35376.81
718.559	35309.47
718.902	35014.11
719.246	34971.4
719.589	34919.87
719.932	34828.12
720.275	34812.76
720.617	34747.45
720.96	34752.87
721.303	34560.79
721.646	34609.15
721.989	34422.48
722.331	34521.47
722.674	34351.53
723.016	34399.21
723.359	34239.21
723.701	34189.04
724.044	34029.05
724.386	33893.01
724.729	33976.85
725.071	33963.74
725.413	33768.04
725.755	33884.42
726.097	33744.08
726.439	33439.23
726.782	33657.31
727.124	33812.33
727.465	33432.45
727.807	33589.06
728.149	33481.72
728.491	33280.14
728.833	33501.15
729.175	33184.55
729.516	33325.11
729.858	33256.87
730.199	33084.67
730.541	33076.76
730.882	32994.05
731.224	32998.57
731.565	32840.61
731.906	32789.08
732.248	32874.73
732.589	32692.59
732.93	32438.58
733.271	32603.1
733.612	32587.96
733.953	32561.06
734.294	32433.61
734.635	32240.4
734.976	32404.01
735.317	32143.67
735.658	32140.28
735.999	32068.2
736.339	32068.42
736.68	32090.57
737.021	31948.2
737.361	31879.95
737.702	31940.74
738.042	31729
738.383	31777.36
738.723	31781.88
739.063	31649.45
739.404	31689.22
739.744	31463.47
740.084	31399.06
740.424	31366.07
740.764	31308.44
741.104	31479.96
741.444	31340.53
741.784	31122.68
742.124	31257.82
742.464	31103.02
742.804	31067.77
743.143	31006.76
743.483	30960.88
743.823	30923.59
744.162	30923.37
744.502	30792.07
744.841	30636.37
745.181	30835.91
745.52	30497.62
745.86	30714.11
746.199	30569.25
746.538	30474.57
746.877	30455.58
747.216	30509.59
747.556	30244.06
747.895	30301.01
748.234	30136.04
748.573	30039.32
748.911	30128.13
749.25	30018.08
749.589	29941.47
749.928	29938.76
750.267	29972.21
750.605	29923.39
750.944	29824.41
751.283	29718.88
751.621	29661.71
751.96	29653.12
752.298	29556.4
752.636	29612.89
752.975	29369.74
753.313	29317.53
