Data from aluminium_surface_pro_back_FLMS001491_00054.txt Node
Date: Wed Feb 08 15:34:15 GMT 2017
User: dcchb
Spectrometer: FLMS00149
Trigger mode: 0
Integration Time (sec): 2.000000E-2
Scans to average: 10
Electric dark correction enabled: true
Nonlinearity correction enabled: false
Boxcar width: 0
XAxis mode: Wavelengths
Number of Pixels in Spectrum: 2048
>>>>>Begin Spectral Data<<<<<
341.393	-15.28
341.776	-15.28
342.16	-15.28
342.543	-75.62
342.927	-56.64
343.31	-78.56
343.693	-67.71
344.077	-60.25
344.46	-77.65
344.843	-33.36
345.226	-43.08
345.61	-15.06
345.993	-30.42
346.376	-21.38
346.759	7.99
347.142	17.26
347.525	48.22
347.908	65.85
348.291	61.1
348.674	101.78
349.057	125.28
349.44	129.35
349.823	153.98
350.206	173.19
350.588	241.43
350.971	239.4
351.354	242.11
351.737	270.81
352.119	262.45
352.502	274.43
352.884	297.93
353.267	292.05
353.65	333.18
354.032	317.59
354.414	338.38
354.797	337.7
355.179	352.17
355.562	359.17
355.944	366.18
356.326	347.19
356.709	354.43
357.091	386.74
357.473	377.7
357.855	372.05
358.238	378.15
358.62	372.5
359.002	395.55
359.384	399.17
359.766	359.62
360.148	375.67
360.53	370.24
360.912	369.57
361.294	362.56
361.676	386.29
362.057	374.76
362.439	365.05
362.821	380.87
363.203	351.71
363.584	388.1
363.966	356.69
364.348	368.44
364.729	367.08
365.111	373.63
365.493	350.58
365.874	375.89
366.256	363.01
366.637	379.28
367.019	348.32
367.4	368.89
367.781	378.61
368.163	385.39
368.544	364.37
368.925	349
369.306	362.56
369.688	364.82
370.069	387.65
370.45	366.85
370.831	387.65
371.212	358.49
371.593	396.46
371.974	379.28
372.355	382.67
372.736	372.5
373.117	391.26
373.498	386.74
373.879	394.42
374.26	382.67
374.641	380.41
375.021	365.95
375.402	401.43
375.783	394.2
376.163	421.54
376.544	432.62
376.925	418.6
377.305	421.09
377.686	423.8
378.066	420.41
378.447	403.92
378.827	445.95
379.208	426.51
379.588	433.29
379.968	434.65
380.349	468.1
380.729	440.98
381.109	446.63
381.489	465.84
381.87	461.99
382.25	454.08
382.63	469.68
383.01	456.57
383.39	481.43
383.77	466.29
384.15	470.35
384.53	485.04
384.91	501.31
385.29	488.66
385.67	484.14
386.049	506.06
386.429	494.08
386.809	492.28
387.189	493.18
387.568	502.9
387.948	508.55
388.328	527.08
388.707	522.1
389.087	547.41
389.466	522.33
389.846	549.67
390.225	567.98
390.605	546.74
390.984	568.43
391.363	560.52
391.743	557.58
392.122	565.27
392.501	586.96
392.881	589.9
393.26	605.04
393.639	579.28
394.018	620.18
394.397	596
394.776	629.67
395.155	645.49
395.534	650.24
395.913	652.5
396.292	653.63
396.671	654.53
397.05	656.11
397.429	666.28
397.808	677.81
398.186	691.14
398.565	699.95
398.944	692.04
399.323	694.53
399.701	714.87
400.08	713.74
400.458	729.11
400.837	732.95
401.215	725.72
401.594	742.21
401.972	717.35
402.351	770.23
402.729	768.88
403.107	798.48
403.486	794.19
403.864	781.99
404.242	812.94
404.62	838.03
404.999	832.83
405.377	823.57
405.755	889.1
406.133	872.15
406.511	863.11
406.889	896.11
407.267	900.17
407.645	913.28
408.023	930.68
408.401	939.72
408.779	936.33
409.156	955.99
409.534	972.04
409.912	984.01
410.29	973.39
410.667	986.95
411.045	1023.79
411.422	1044.8
411.8	1039.15
412.178	1057.68
412.555	1055.88
412.933	1074.86
413.31	1084.58
413.687	1112.15
414.065	1144.46
414.442	1143.56
414.819	1128.42
415.197	1155.08
415.574	1207.28
415.951	1214.06
416.328	1217
416.705	1205.7
417.082	1210.45
417.46	1242.99
417.837	1248.19
418.214	1260.84
418.591	1279.37
418.967	1304.01
419.344	1300.84
419.721	1318.02
420.098	1325.47
420.475	1356.89
420.852	1367.96
421.228	1408.41
421.605	1382.87
421.982	1382.42
422.358	1410.67
422.735	1447.96
423.111	1447.73
423.488	1471.01
423.864	1478.92
424.241	1488.18
424.617	1494.28
424.994	1491.34
425.37	1538.12
425.746	1555.52
426.123	1569.31
426.499	1561.4
426.875	1601.62
427.251	1621.06
427.627	1654.5
428.003	1647.73
428.379	1714.16
428.756	1707.16
429.132	1736.31
429.507	1766.14
429.883	1767.5
430.259	1821.96
430.635	1827.38
431.011	1815.63
431.387	1875.06
431.763	1912.12
432.138	1941.95
432.514	1978.11
432.89	1974.95
433.265	1997.55
433.641	2031.9
434.016	2055.4
434.392	2085.68
434.767	2117.32
435.143	2121.16
435.518	2157.99
435.894	2179.46
436.269	2229.18
436.644	2237.77
437.02	2245.68
437.395	2248.16
437.77	2319.12
438.145	2332.45
438.52	2401.6
438.895	2387.14
439.271	2402.06
439.646	2412.9
440.021	2457.65
440.395	2493.8
440.77	2467.82
441.145	2499
441.52	2597.98
441.895	2541.03
442.27	2571.77
442.645	2600.69
443.019	2659.9
443.394	2655.16
443.769	2644.53
444.143	2646.57
444.518	2713.23
444.892	2674.14
445.267	2717.53
445.641	2757.53
446.016	2781.48
446.39	2778.32
446.764	2793.91
447.139	2841.37
447.513	2837.07
447.887	2883.17
448.262	2893.57
448.636	2935.15
449.01	2965.2
449.384	2971.53
449.758	2976.5
450.132	3040
450.506	3059.89
450.88	3084.75
451.254	3073.9
451.628	3133.79
452.002	3157.97
452.376	3217.85
452.75	3270.28
453.123	3250.85
453.497	3313.44
453.871	3350.05
454.244	3400
454.618	3432.08
454.992	3443.84
455.365	3499.88
455.739	3584.17
456.112	3646.32
456.486	3651.29
456.859	3628.46
457.232	3730.83
457.606	3718.18
457.979	3776.48
458.352	3868.68
458.725	3944.61
459.099	3943.26
459.472	4045.18
459.845	4076.14
460.218	4065.06
460.591	4128.56
460.964	4140.09
461.337	4292.18
461.71	4318.39
462.083	4427.31
462.456	4393.64
462.829	4431.38
463.201	4532.62
463.574	4558.16
463.947	4598.16
464.32	4694.65
464.692	4766.06
465.065	4813.07
465.438	4855.55
465.81	4956.34
466.183	4975.1
466.555	5079.73
466.928	5116.79
467.3	5048.54
467.672	5251.7
468.045	5355.88
468.417	5362.43
468.789	5419.83
469.161	5466.38
469.534	5571.69
469.906	5666.38
470.278	5705.47
470.65	5712.7
471.022	5914.05
471.394	5979.59
471.766	6034.73
472.138	6161.73
472.51	6269.52
472.882	6380.93
473.253	6373.48
473.625	6484.43
473.997	6667.93
474.369	6687.59
474.74	6773.24
475.112	6908.38
475.484	7076.28
475.855	7104.76
476.227	7234.7
476.598	7427.46
476.97	7509.49
477.341	7692.31
477.713	7753.55
478.084	7812.53
478.455	8086.65
478.827	8064.05
479.198	8361.9
479.569	8354.44
479.94	8656.81
480.311	8701.32
480.682	8932.05
481.053	9146.51
481.424	9213.18
481.795	9355.54
482.166	9479.16
482.537	9624.24
482.908	9851.58
483.279	9848.87
483.65	10083.44
484.021	10313.26
484.391	10468.96
484.762	10506.02
485.133	10640.93
485.503	10799.57
485.874	11059.91
486.244	11120.47
486.615	11365.44
486.985	11483.62
487.356	11649.27
487.726	11799.77
488.097	12023.95
488.467	12091.07
488.837	12287.22
489.207	12474.56
489.578	12607.44
489.948	12816.47
490.318	12962.46
490.688	13098.72
491.058	13259.17
491.428	13360.19
491.798	13666.17
492.168	13869.32
492.538	13864.13
492.908	14146.61
493.278	14245.59
493.648	14323.1
494.017	14493.94
494.387	14674.95
494.757	14804.22
495.126	14945.91
495.496	15031.55
495.866	15167.14
496.235	15332.34
496.605	15475.61
496.974	15688.94
497.344	15709.05
497.713	15843.96
498.082	15949.95
498.452	16191.52
498.821	16218.42
499.19	16398.98
499.559	16449.82
499.928	16654.34
500.298	16708.35
500.667	16828.12
501.036	16876.48
501.405	17104.04
501.774	17186.75
502.143	17365.73
502.512	17432.39
502.88	17550.58
503.249	17605.5
503.618	17764.59
503.987	17862.67
504.356	17956.67
504.724	18075.32
505.093	18288.64
505.462	18246.61
505.83	18528.41
506.199	18576.09
506.567	18776.31
506.936	18838.23
507.304	19089.53
507.672	19197.09
508.041	19186.25
508.409	19369.74
508.777	19564.32
509.145	19742.16
509.514	19689.28
509.882	19914.36
510.25	20033.68
510.618	20191.87
510.986	20375.14
511.354	20560.22
511.722	20809.03
512.09	21022.58
512.458	20852.87
512.826	21235.46
513.193	21271.62
513.561	21337.6
513.929	21541.44
514.297	21761.77
514.664	21936.68
515.032	22056.68
515.4	22227.3
515.767	22313.62
516.135	22553.16
516.502	22374.19
516.869	22852.59
517.237	22968.52
517.604	23009.65
517.972	23279.7
518.339	23441.73
518.706	23473.37
519.073	23664.32
519.44	23770.31
519.808	24084.65
520.175	24115.83
520.542	24448.93
520.909	24591.3
521.276	24695.93
521.643	25015.25
522.009	25098.18
522.376	25374.11
522.743	25462.24
523.11	25707.43
523.477	26015.22
523.843	26095.67
524.21	26342.67
524.577	26694.52
524.943	26794.63
525.31	27019.49
525.676	27362.53
526.043	27608.4
526.409	27617.89
526.776	27967.71
527.142	27929.29
527.508	28189.63
527.874	28395.04
528.241	28523.18
528.607	28691.08
528.973	28992.77
529.339	28996.16
529.705	29262.14
530.071	29418.75
530.437	29703.03
530.803	29891.73
531.169	29989.35
531.535	30044.72
531.901	30151.38
532.267	30239.97
532.632	30488.32
532.998	30526.06
533.364	30818.03
533.73	30772.61
534.095	31237.46
534.461	31217.79
534.826	31428.41
535.192	31569.42
535.557	31779.14
535.923	31794.73
536.288	31962.18
536.653	32099.35
537.019	32117.88
537.384	32258.9
537.749	32406.69
538.114	32594.71
538.479	32610.75
538.845	32873.8
539.21	32837.87
539.575	33009.39
539.94	33177.29
540.305	33321.92
540.67	33248.7
541.034	33442.82
541.399	33607.34
541.764	33697.73
542.129	33796.26
542.494	33866.09
542.858	33972.98
543.223	34080.32
543.587	34376.13
543.952	34285.96
544.316	34477.37
544.681	34468.56
545.045	34667.65
545.41	34826.97
545.774	34984.93
546.138	34856.12
546.503	35078.71
546.867	35153.74
547.231	35463.11
547.595	35454.52
547.959	35640.96
548.324	35644.35
548.688	35634.63
549.052	35847.5
549.416	35944.68
549.779	36044.56
550.143	36233.26
550.507	36477.09
550.871	36477.77
551.235	36546.24
551.599	36758.21
551.962	36929.51
552.326	37081.37
552.689	37141.03
553.053	37238.2
553.417	37377.41
553.78	37772.42
554.143	37597.74
554.507	37872.08
554.87	38008.35
555.234	38387.32
555.597	38241.57
555.96	38478.17
556.323	38633.19
556.686	38699.86
557.05	38959.06
557.413	39163.12
557.776	39297.58
558.139	39627.29
558.502	39542.55
558.865	39694.18
559.228	40076.09
559.59	40091.69
559.953	40078.35
560.316	40596.98
560.679	40581.16
561.041	40879.91
561.404	41236.97
561.767	41303.86
562.129	41244.42
562.492	41720.8
562.854	41641.48
563.217	41693
563.579	41787.23
563.941	42148.81
564.304	42411.17
564.666	42749.7
565.028	42562.13
565.39	42996.69
565.753	43241.66
566.115	43305.84
566.477	43619.5
566.839	43626.73
567.201	44009.32
567.563	44012.94
567.925	44289.99
568.287	44305.13
568.648	44475.3
569.01	44693.37
569.372	44908.73
569.734	44932.24
570.095	45194.15
570.457	45422.85
570.819	45584.87
571.18	45487.93
571.542	45966.33
571.903	45854.02
572.265	46250.17
572.626	46243.61
572.987	46368.36
573.349	46568.13
573.71	46668.91
574.071	46775.58
574.432	47025.74
574.794	47189.35
575.155	47083.82
575.516	47138.51
575.877	47313.87
576.238	47430.48
576.599	47545.5
576.96	47506.41
577.32	47775.78
577.681	47900.75
578.042	48098.71
578.403	47970.12
578.763	48076.11
579.124	48209.44
579.485	48290.57
579.845	48621.41
580.206	48548.64
580.566	48552.25
580.927	48547.51
581.287	48844.68
581.648	48695.3
582.008	48759.93
582.368	48864.56
582.728	48836.99
583.089	48861.62
583.449	48862.75
583.809	48843.32
584.169	48999.47
584.529	48861.85
584.889	49232.24
585.249	48966.93
585.609	48942.98
585.969	49119.02
586.329	49069.53
586.688	49227.72
587.048	49082.64
587.408	49125.57
587.768	49064.33
588.127	48972.58
588.487	48880.16
588.846	49354.95
589.206	49128.28
589.565	49152.92
589.925	49327.6
590.284	49177.1
590.643	49211.67
591.003	49316.75
591.362	49420.71
591.721	49287.83
592.08	49345.23
592.44	49369.18
592.799	49566.01
593.158	49546.35
593.517	49455.28
593.876	49573.24
594.235	49390.88
594.593	49465
594.952	49537.99
595.311	49557.65
595.67	49542.06
596.029	49754.48
596.387	49886.23
596.746	49797.19
597.104	49630.64
597.463	49691.66
597.822	49720.13
598.18	49689.17
598.538	49604.66
598.897	49912.9
599.255	49551.78
599.613	50041.03
599.972	49818.89
600.33	49907.47
600.688	49667.25
601.046	49856.85
601.404	49940.24
601.762	49938.66
602.12	50115.83
602.478	50096.62
602.836	50155.15
603.194	49914.25
603.552	50049.16
603.91	50012.33
604.268	50129.39
604.625	50047.36
604.983	50262.72
605.341	50091.65
605.698	50276.5
606.056	50422.49
606.413	50345.2
606.771	50484.41
607.128	50449.38
607.485	50374.13
607.843	50385.65
608.2	50633.33
608.557	50640.11
608.914	50575.03
609.272	50701.35
609.629	50704.06
609.986	50824.06
610.343	50608.92
610.7	50847.56
611.057	50833.1
611.414	50738.19
611.771	50864.28
612.127	51043.26
612.484	50940.21
612.841	51067.67
613.198	50885.75
613.554	50947.9
613.911	51231.96
614.267	51204.61
614.624	51275.12
614.98	51218.4
615.337	51370.49
615.693	51366.19
616.05	51241.22
616.406	51521.22
616.762	51378.62
617.118	51322.35
617.475	51430.82
617.831	51467.21
618.187	51473.31
618.543	51611.61
618.899	51695.9
619.255	51600.99
619.611	51616.35
619.967	51693.64
620.323	51725.73
620.678	51520.54
621.034	51585.4
621.39	51495.68
621.746	51580.88
622.101	51916.69
622.457	51626.75
622.812	51753.75
623.168	51883.92
623.523	51785.62
623.879	51942.45
624.234	51696.58
624.589	51800.53
624.945	51833.07
625.3	51871.72
625.655	51798.5
626.01	51812.51
626.365	51859.06
626.72	51735.22
627.075	51845.28
627.43	51783.36
627.785	51762.79
628.14	51786.29
628.495	51848.66
628.85	51716.01
629.205	51638.95
629.559	51743.13
629.914	51606.41
630.269	51651.61
630.623	51522.57
630.978	51484.61
631.332	51624.26
631.687	51570.48
632.041	51323.26
632.396	51421.56
632.75	51258.4
633.104	51363.93
633.459	51099.98
633.813	51255.01
634.167	51256.59
634.521	51064.5
634.875	51197.16
635.229	51144.28
635.583	50936.6
635.937	50942.7
636.291	50926.43
636.645	50949.48
636.999	50865.64
637.352	50874.91
637.706	50728.92
638.06	50754.91
638.413	50654.57
638.767	50655.25
639.121	50706.32
639.474	50554.69
639.828	50572.77
640.181	50572.54
640.534	50565.76
640.888	50385.65
641.241	50262.04
641.594	50367.35
641.947	50413.45
642.301	50311.3
642.654	50357.18
643.007	50280.12
643.36	50260.91
643.713	50060.24
644.066	50183.17
644.419	49999.9
644.771	49718.78
645.124	49330.77
645.477	49330.77
645.83	49197.89
646.182	48940.94
646.535	48862.53
646.888	48947.27
647.24	48622.54
647.593	48905.69
647.945	48848.52
648.298	48747.96
648.65	48594.06
649.002	48512.71
649.355	48551.58
649.707	48544.57
650.059	48660.5
650.411	48975.29
650.763	49161.73
651.115	49479.69
651.467	49267.94
651.819	49357.66
652.171	49218.45
652.523	49081.05
652.875	49097.1
653.227	48907.5
653.578	49150.66
653.93	49042.19
654.282	48730.55
654.633	48642.65
654.985	48859.14
655.337	48736.66
655.688	48766.49
656.039	48800.38
656.391	48379.6
656.742	48495.08
657.094	48444.23
657.445	48664.34
657.796	48448.08
658.147	48399.94
658.498	48449.66
658.849	48446.95
659.2	48462.31
659.551	48277.91
659.902	48538.02
660.253	48386.84
660.604	48402.65
660.955	48177.8
661.306	48543.44
661.656	48198.82
662.007	48327.63
662.358	48340.96
662.708	48296.67
663.059	48186.61
663.409	48126.73
663.76	48293.5
664.11	48294.41
664.461	48310
664.811	48309.77
665.161	48203.56
665.511	48034.08
665.862	48169.21
666.212	48183.68
666.562	48232.71
666.912	48010.57
667.262	48058.48
667.612	47959.28
667.962	48055.77
668.312	48036.34
668.662	48166.95
669.011	48153.17
669.361	48088.31
669.711	48079.95
670.06	48007.86
670.41	47897.81
670.76	47783.24
671.109	48003.34
671.459	47938.71
671.808	47931.25
672.157	47971.93
672.507	47596.57
672.856	47703.24
673.205	47720.19
673.554	47803.57
673.904	47695.1
674.253	47927.19
674.602	47760.18
674.951	46975.12
675.3	46864.39
675.649	47459.63
675.998	47475.45
676.346	47546.63
676.695	47528.55
677.044	47182.57
677.393	47322.46
677.741	47231.16
678.09	47335.11
678.438	47154.78
678.787	47334.43
679.135	47250.59
679.484	46988.91
679.832	47189.58
680.181	46829.59
680.529	47073.88
680.877	46840.44
681.225	46911.85
681.573	47014.89
681.922	46728.35
682.27	46672.3
682.618	46655.13
682.966	46592.08
683.314	46596.37
683.661	46381.24
684.009	46179.44
684.357	46142.37
684.705	46105.54
685.053	46254.69
685.4	46041.36
685.748	45931.31
686.095	45787.81
686.443	45664.19
686.79	45616.06
687.138	45615.61
687.485	45735.61
687.832	45449.06
688.18	45476.86
688.527	45277.76
688.874	45297.88
689.221	45185.11
689.568	45038.9
689.915	44936.3
690.262	44754.16
690.609	44750.32
690.956	44727.5
691.303	44723.88
691.65	44395.3
691.997	44370.22
692.344	44252.48
692.69	44120.73
693.037	44074.63
693.383	43761.42
693.73	44094.29
694.077	43652.5
694.423	43702.21
694.769	43545.15
695.116	43525.27
695.462	43522.78
695.808	43348.1
696.155	43320.53
696.501	42847.55
696.847	42979.97
697.193	42613.43
697.539	42817.94
697.885	42561.45
698.231	42390.16
698.577	42486.2
698.923	42308.58
699.269	42087.79
699.614	41950.39
699.96	41833.11
700.306	41810.74
700.651	41684.86
700.997	41529.61
701.342	41393.12
701.688	41435.83
702.033	41331.88
702.379	41292.56
702.724	41065.45
703.069	41204.88
703.415	40712.69
703.76	40809.86
704.105	40796.3
704.45	40670.88
704.795	40344.56
705.14	40294.39
705.485	40253.04
705.83	40044.23
706.175	40034.29
706.52	40020.95
706.865	39646.95
707.209	39695.09
707.554	39622.09
707.899	39684.01
708.243	39388.65
708.588	39294.64
708.932	39146.17
709.277	38975.78
709.621	38877.48
709.966	38705.73
710.31	38850.81
710.654	38542.35
710.998	38655.34
711.342	38580.99
711.687	38494.89
712.031	38280.89
712.375	38284.95
712.719	38284.95
713.063	38222.13
713.407	38209.02
713.75	37993.44
714.094	38058.07
714.438	37896.04
714.782	37814.01
715.125	37564.07
715.469	37750.05
715.812	37559.78
716.156	37295.15
716.499	37406.56
716.843	37463.28
717.186	37250.18
717.53	37393.68
717.873	37312.78
718.216	37178.09
718.559	37064.65
718.902	36913.92
719.246	36870.53
719.589	36788.5
719.932	36547.82
720.275	36542.63
720.617	36408.62
720.96	36497.66
721.303	36341.28
721.646	36236.42
721.989	36068.51
722.331	36279.81
722.674	36149.64
723.016	35984.68
723.359	35948.29
723.701	35893.38
724.044	35752.37
724.386	35539.72
724.729	35740.39
725.071	35583.1
725.413	35498.36
725.755	35640.05
726.097	35292.26
726.439	35146.96
726.782	35206.16
727.124	35242.55
727.465	35170.69
727.807	35046.62
728.149	34919.17
728.491	34823.12
728.833	35066.96
729.175	34860.19
729.516	34701.77
729.858	34753.07
730.199	34781.54
730.541	34645.28
730.882	34531.38
731.224	34708.78
731.565	34356.24
731.906	34446.64
732.248	34466.3
732.589	34177.04
732.93	34027.44
733.271	34204.38
733.612	34233.08
733.953	34128.23
734.294	33997.38
734.635	33785.41
734.976	33979.08
735.317	33818.86
735.658	33740.44
735.999	33677.84
736.339	33653.89
736.68	33702.93
737.021	33548.36
737.361	33454.8
737.702	33544.06
738.042	33329.38
738.383	33271.3
738.723	33367.79
739.063	33155.15
739.404	33338.19
739.744	33141.13
740.084	32913.34
740.424	33091.42
740.764	33029.05
741.104	33026.56
741.444	32839
741.784	32802.84
742.124	32962.61
742.464	32651.43
742.804	32594.93
743.143	32481.72
743.483	32547.25
743.823	32302.51
744.162	32126.7
744.502	32220.48
744.841	32142.29
745.181	32162.63
745.52	32030.2
745.86	31979.81
746.199	32022.29
746.538	31952.01
746.877	32028.17
747.216	31906.36
747.556	31714.51
747.895	31855.52
748.234	31573.04
748.573	31566.03
748.911	31542.53
749.25	31604
749.589	31360.39
749.928	31406.72
750.267	31474.51
750.605	31352.03
750.944	31207.63
751.283	31070
751.621	31100.51
751.96	31008.08
752.298	30969.44
752.636	30936.9
752.975	30839.05
