Data from aluminium_surface_pro_back_FLMS001491_00014.txt Node
Date: Wed Feb 08 15:33:41 GMT 2017
User: dcchb
Spectrometer: FLMS00149
Trigger mode: 0
Integration Time (sec): 2.000000E-2
Scans to average: 10
Electric dark correction enabled: true
Nonlinearity correction enabled: false
Boxcar width: 0
XAxis mode: Wavelengths
Number of Pixels in Spectrum: 2048
>>>>>Begin Spectral Data<<<<<
341.393	-4.86
341.776	-4.86
342.16	-4.86
342.543	-80.11
342.927	-92.09
343.31	-47.8
343.693	-74.01
344.077	-77.4
344.46	-67.46
344.843	-46.44
345.226	-42.15
345.61	-32.43
345.993	-9.15
346.376	-6.89
346.759	1.47
347.142	14.58
347.525	27.91
347.908	58.42
348.291	90.51
348.674	98.87
349.057	111.97
349.44	115.14
349.823	143.84
350.206	171.41
350.588	211.86
350.971	239.43
351.354	247.56
351.737	280.78
352.119	268.81
352.502	279.2
352.884	290.95
353.267	312.42
353.65	313.33
354.032	323.49
354.414	330.27
354.797	344.96
355.179	339.09
355.562	352.42
355.944	354.45
356.326	358.97
356.709	354.45
357.091	383.83
357.473	376.83
357.855	376.83
358.238	383.15
358.62	367.79
359.002	365.3
359.384	383.61
359.766	363.72
360.148	375.92
360.53	379.31
360.912	357.62
361.294	361.46
361.676	370.05
362.057	384.06
362.439	369.37
362.821	355.58
363.203	380.67
363.584	370.5
363.966	375.7
364.348	366.66
364.729	358.52
365.111	375.92
365.493	358.07
365.874	386.77
366.256	362.36
366.637	350.61
367.019	381.12
367.4	357.84
367.781	354.91
368.163	376.15
368.544	358.75
368.925	379.99
369.306	379.54
369.688	358.52
370.069	368.24
370.45	364.62
370.831	369.14
371.212	364.85
371.593	391.74
371.974	365.08
372.355	363.27
372.736	372.08
373.117	403.04
373.498	393.1
373.879	374.79
374.26	365.53
374.641	389.26
375.021	354.68
375.402	407.56
375.783	389.71
376.163	422.93
376.544	420.44
376.925	406.43
377.305	405.3
377.686	414.34
378.066	417.96
378.447	422.7
378.827	446.2
379.208	426.54
379.588	442.36
379.968	431.74
380.349	427.67
380.729	423.83
381.109	434.23
381.489	460.67
381.87	460.21
382.25	462.93
382.63	467.45
383.01	463.15
383.39	463.6
383.77	461.12
384.15	462.02
384.53	467.9
384.91	474.9
385.29	488.24
385.67	495.47
386.049	505.18
386.429	506.09
386.809	497.95
387.189	488.91
387.568	517.16
387.948	502.47
388.328	531.62
388.707	538.63
389.087	532.53
389.466	537.27
389.846	555.58
390.225	554.9
390.605	565.3
390.984	541.57
391.363	571.62
391.743	578.85
392.122	570.49
392.501	580.21
392.881	578.85
393.26	601.45
393.639	602.13
394.018	619.76
394.397	606.2
394.776	636.71
395.155	629.47
395.534	631.06
395.913	643.94
396.292	641
396.671	643.94
397.05	683.26
397.429	669.7
397.808	663.37
398.186	696.82
398.565	685.52
398.944	680.32
399.323	689.36
399.701	706.54
400.08	709.25
400.458	720.55
400.837	730.49
401.215	719.64
401.594	722.58
401.972	771.39
402.351	786.31
402.729	770.04
403.107	799.87
403.486	800.77
403.864	789.7
404.242	798.28
404.62	816.14
404.999	805.29
405.377	831.73
405.755	855.91
406.133	863.82
406.511	876.47
406.889	864.27
407.267	884.84
407.645	897.94
408.023	926.87
408.401	939.75
408.779	933.87
409.156	930.26
409.534	956.47
409.912	981.1
410.29	1005.51
410.667	980.2
411.045	1045.06
411.422	1046.87
411.8	1043.25
412.178	1052.97
412.555	1058.84
412.933	1093.42
413.31	1120.76
413.687	1118.28
414.065	1122.34
414.442	1125.73
414.819	1156.69
415.197	1151.95
415.574	1160.08
415.951	1189.46
416.328	1209.35
416.705	1202.57
417.082	1220.65
417.46	1228.78
417.837	1229.46
418.214	1265.84
418.591	1277.14
418.967	1287.08
419.344	1283.47
419.721	1329.12
420.098	1305.62
420.475	1332.73
420.852	1356.69
421.228	1353.3
421.605	1372.73
421.982	1395.56
422.358	1413.41
422.735	1398.49
423.111	1415.67
423.488	1444.82
423.864	1464.03
424.241	1487.76
424.617	1500.64
424.994	1510.13
425.37	1505.16
425.746	1525.5
426.123	1536.12
426.499	1574.76
426.875	1593.29
427.251	1621.09
427.627	1666.51
428.003	1656.57
428.379	1690.46
428.756	1694.98
429.132	1731.59
429.507	1734.08
429.883	1773.4
430.259	1802.55
430.635	1828.31
431.011	1832.83
431.387	1866.5
431.763	1916.22
432.138	1917.8
432.514	1925.71
432.89	1923
433.265	1980.17
433.641	2020.17
434.016	1994.18
434.392	2045.48
434.767	2111.7
435.143	2113.05
435.518	2171.36
435.894	2145.14
436.269	2176.78
436.644	2236.21
437.02	2217.46
437.395	2259.49
437.77	2294.97
438.145	2308.98
438.52	2316.44
438.895	2374.97
439.271	2360.95
439.646	2420.61
440.021	2412.03
440.395	2439.82
440.77	2444.34
441.145	2456.55
441.52	2531.57
441.895	2528.86
442.27	2534.96
442.645	2567.05
443.019	2600.5
443.394	2613.83
443.769	2641.17
444.143	2616.54
444.518	2695.64
444.892	2683.21
445.267	2700.61
445.641	2751.23
446.016	2731.79
446.39	2783.99
446.764	2782.86
447.139	2753.49
447.513	2860.6
447.887	2854.5
448.262	2841.62
448.636	2869.87
449.01	2922.3
449.384	2967.04
449.758	2952.35
450.132	2969.07
450.506	2984.67
450.88	3003.2
451.254	3038.45
451.628	3096.3
452.002	3150.31
452.376	3123.87
452.75	3164.32
453.123	3244.77
453.497	3244.32
453.871	3290.87
454.244	3318.67
454.618	3348.05
454.992	3399.35
455.365	3380.82
455.739	3496.74
456.112	3566.8
456.486	3605.89
456.859	3657.64
457.232	3716.17
457.606	3677.98
457.979	3783.74
458.352	3868.71
458.725	3901.03
459.099	3896.28
459.472	3993
459.845	4010.4
460.218	4030.06
460.591	4125.2
460.964	4139.44
461.337	4193.9
461.71	4241.13
462.083	4367.91
462.456	4352.77
462.829	4339.66
463.201	4468.24
463.574	4459.43
463.947	4551.41
464.32	4666.43
464.692	4679.31
465.065	4747.56
465.438	4788.91
465.81	4845.41
466.183	4908.46
466.555	5024.84
466.928	5037.95
467.3	5039.98
467.672	5163.82
468.045	5281.33
468.417	5282.69
468.789	5370.14
469.161	5429.8
469.534	5468.67
469.906	5597.48
470.278	5648.55
470.65	5740.75
471.022	5797.93
471.394	5947.53
471.766	5994.08
472.138	6101.42
472.51	6187.75
472.882	6285.37
473.253	6350.68
473.625	6429.77
473.997	6539.83
474.369	6614.63
474.74	6709.09
475.112	6840.61
475.484	6986.6
475.855	7087.61
476.227	7157.21
476.598	7330.54
476.97	7411.22
477.341	7555.85
477.713	7672.45
478.084	7811.43
478.455	7922.16
478.827	8059.56
479.198	8248.26
479.569	8283.06
479.94	8490.51
480.311	8560.11
480.682	8857.06
481.053	8977.73
481.424	9126.88
481.795	9210.49
482.166	9374.33
482.537	9501.78
482.908	9697.94
483.279	9755.11
483.65	9912.62
484.021	10190.35
484.391	10249.56
484.762	10435.09
485.133	10469.89
485.503	10651.58
485.874	10941.97
486.244	10961.41
486.615	11178.35
486.985	11347.84
487.356	11502.86
487.726	11701.27
488.097	11881.16
488.467	11902.62
488.837	12167.48
489.207	12353.69
489.578	12500.12
489.948	12659.22
490.318	12871.41
490.688	12852.43
491.058	13072.09
491.428	13268.69
491.798	13381.46
492.168	13639.3
492.538	13732.63
492.908	13998.39
493.278	14169.91
493.648	14213.3
494.017	14362
494.387	14467.76
494.757	14605.15
495.126	14817.8
495.496	14792.04
495.866	14997.23
496.235	15109.32
496.605	15284
496.974	15382.08
497.344	15525.35
497.713	15656.2
498.082	15805.35
498.452	15935.29
498.821	16033.36
499.19	16118.79
499.559	16263.19
499.928	16507.02
500.298	16542.95
500.667	16630.41
501.036	16708.37
501.405	16824.08
501.774	16935.94
502.143	17155.59
502.512	17194.24
502.88	17440.56
503.249	17381.12
503.618	17558.75
503.987	17622.93
504.356	17758.74
504.724	17911.73
505.093	17970.04
505.462	18028.79
505.83	18229.46
506.199	18318.5
506.567	18541.55
506.936	18634.43
507.304	18816.12
507.672	18885.72
508.041	19026.96
508.409	19033.51
508.777	19251.81
509.145	19475.99
509.514	19525.93
509.882	19684.12
510.25	19816.77
510.618	19840.95
510.986	20030.09
511.354	20162.75
511.722	20424.21
512.09	20545.79
512.458	20571.1
512.826	20885.89
513.193	20983.06
513.561	21049.73
513.929	21148.94
514.297	21485.65
514.664	21584.86
515.032	21723.38
515.4	21948.91
515.767	22041.34
516.135	22167.89
516.502	22037.5
516.869	22466.87
517.237	22691.27
517.604	22688.1
517.972	22958.38
518.339	23110.92
518.706	23184.59
519.073	23280.18
519.44	23504.35
519.808	23700.05
520.175	23745.93
520.542	24011.01
520.909	24256.42
521.276	24396.08
521.643	24615.96
522.009	24766.47
522.376	24964.88
522.743	25151.54
523.11	25347.7
523.477	25702.94
523.843	25776.61
524.21	26090.95
524.577	26247.56
524.943	26517.16
525.31	26568.45
525.676	26760.31
526.043	27135.44
526.409	27229.91
526.776	27553.06
527.142	27617.92
527.508	27882.54
527.874	28144.23
528.241	28304.23
528.607	28308.07
528.973	28745.12
529.339	28649.08
529.705	29078.44
530.071	29312.11
530.437	29374.93
530.803	29565.44
531.169	29657.64
531.535	29681.14
531.901	29953.22
532.267	30002.71
532.632	30290.39
532.998	30220.11
533.364	30599.31
533.73	30671.17
534.095	30885.63
534.461	31044.95
534.826	31277.03
535.192	31397.03
535.557	31602.45
535.923	31646.29
536.288	31727.87
536.653	31922.21
537.019	31881.53
537.384	32094.18
537.749	32207.4
538.114	32314.97
538.479	32427.28
538.845	32572.59
539.21	32575.3
539.575	32712.25
539.94	32753.15
540.305	33074.72
540.67	32952.01
541.034	33161.05
541.399	33339.8
541.764	33222.06
542.129	33580.02
542.494	33537.76
542.858	33825.44
543.223	33865.21
543.587	34059.1
543.952	34002.83
544.316	34071.53
544.681	34078.54
545.045	34394.91
545.41	34535.02
545.774	34641.91
546.138	34641.01
546.503	34749.03
546.867	34847.56
547.231	35109.25
547.595	35308.79
547.959	35418.16
548.324	35454.55
548.688	35468.33
549.052	35598.5
549.416	35717.37
549.779	35823.13
550.143	36139.73
550.507	36161.42
550.871	36403.22
551.235	36278.03
551.599	36660.62
551.962	36694.06
552.326	36868.52
552.689	36939.71
553.053	36869.43
553.417	36993.26
553.78	37566.36
554.143	37448.85
554.507	37662.17
554.87	37624.43
555.234	38141.03
555.597	37910.3
555.96	38180.13
556.323	38366.56
556.686	38400.01
557.05	38612.88
557.413	38751.86
557.776	38834.8
558.139	39086.77
558.502	39131.97
558.865	39343.49
559.228	39680.88
559.59	39701.89
559.953	39817.6
560.316	40276.79
560.679	40223.91
561.041	40513.85
561.404	40636.33
561.767	40910.45
562.129	40907.51
562.492	41514.95
562.854	41435.63
563.217	41432.47
563.579	41627.04
563.941	41878.11
564.304	42021.61
564.666	42286.23
565.028	42387.93
565.39	42527.58
565.753	42673.34
566.115	42830.85
566.477	42894.35
566.839	43149.03
567.201	43312.19
567.563	43456.15
567.925	43927.55
568.287	43707.21
568.648	43870.6
569.01	44373.41
569.372	44573.63
569.734	44483.92
570.095	44666.51
570.457	44939.04
570.819	45131.58
571.18	45168.87
571.542	45303.33
571.903	45360.73
572.265	45567.95
572.626	45761.85
572.987	45839.81
573.349	45917.78
573.71	46148.73
574.071	46265.11
574.432	46558.66
574.794	46824.87
575.155	46710.75
575.516	46719.34
575.877	46830.75
576.238	46933.57
576.599	47125.2
576.96	47169.27
577.32	47211.98
577.681	47375.59
578.042	47471.63
578.403	47591.86
578.763	47677.5
579.124	47695.36
579.485	47824.84
579.845	47989.81
580.206	48006.53
580.566	47981
580.927	48087.89
581.287	48230.26
581.648	48142.58
582.008	48363.59
582.368	48289.92
582.728	48330.14
583.089	48317.49
583.449	48386.41
583.809	48449.91
584.169	48491.49
584.529	48438.16
584.889	48677.7
585.249	48478.84
585.609	48517.71
585.969	48717.02
586.329	48504.37
586.688	48699.85
587.048	48543.47
587.408	48426.18
587.768	48464.83
588.127	48450.59
588.487	48481.78
588.846	48916.79
589.206	48489.69
589.565	48666.18
589.925	48629.34
590.284	48596.8
590.643	48684.93
591.003	48801.09
591.362	48770.13
591.721	48841.77
592.08	48844.93
592.44	48821.65
592.799	48877.02
593.158	48779.4
593.517	48735.1
593.876	48839.51
594.235	48790.92
594.593	48872.95
594.952	48920.86
595.311	48802.45
595.67	48790.24
596.029	48997.92
596.387	49029.78
596.746	49172.15
597.104	49020.07
597.463	48943.01
597.822	49113.4
598.18	48957.47
598.538	48974.42
598.897	49298.25
599.255	49002.89
599.613	49477.23
599.972	49334.41
600.33	49314.07
600.688	49190.23
601.046	49311.36
601.404	49520.39
601.762	49452.82
602.12	49620.73
602.478	49613.27
602.836	49579.37
603.194	49497.34
603.552	49634.97
603.91	49593.61
604.268	49831.12
604.625	49634.97
604.983	49834.73
605.341	49627.73
605.698	49941.85
606.056	49916.31
606.413	49882.42
606.771	50083.77
607.128	50108.4
607.485	49895.98
607.843	50006.48
608.2	50184.33
608.557	50214.84
608.914	50240.6
609.272	50353.37
609.629	50365.79
609.986	50518.33
610.343	50358.34
610.7	50569.18
611.057	50376.64
611.414	50401.95
611.771	50446.92
612.127	50607.82
612.484	50466.58
612.841	50736.18
613.198	50464.32
613.554	50562.4
613.911	50804.43
614.267	50775.5
614.624	50680.81
614.98	50883.75
615.337	50903.18
615.693	50936.63
616.05	50952.45
616.406	51082.39
616.762	50969.17
617.118	50931.66
617.475	50860.24
617.831	50982.95
618.187	51053.69
618.543	51114.7
618.899	51254.58
619.255	51155.15
619.611	51215.72
619.967	51357.18
620.323	51328.03
620.678	51241.25
621.034	51195.83
621.39	51195.15
621.746	51140.92
622.101	51404.19
622.457	51333.45
622.812	51253.23
623.168	51402.83
623.523	51378.65
623.879	51515.14
624.234	51307.01
624.589	51368.25
624.945	51362.83
625.3	51515.82
625.655	51358.08
626.01	51474.92
626.365	51496.61
626.72	51376.39
627.075	51342.72
627.43	51456.16
627.785	51368.25
628.14	51439.89
628.495	51316.05
628.85	51284.19
629.205	51244.87
629.559	51332.55
629.914	51216.85
630.269	51220.01
630.623	51209.84
630.978	51121.03
631.332	51252.1
631.687	51230.18
632.041	51060.92
632.396	51208.71
632.75	51067.24
633.104	51213.68
633.459	50943.18
633.813	50983.18
634.167	50986.57
634.521	50944.54
634.875	51007.36
635.229	50907.93
635.583	50685.79
635.937	50725.56
636.291	50679.01
636.645	50886.91
636.999	50639.01
637.352	50677.88
637.706	50481.95
638.06	50631.1
638.413	50533.7
638.767	50324.21
639.121	50498.67
639.474	50293.03
639.828	50247.83
640.181	50240.15
640.534	50249.41
640.888	50147.49
641.241	50018.91
641.594	50197.21
641.947	50135.97
642.301	50033.15
642.654	50134.16
643.007	50090.55
643.36	50016.2
643.713	49968.29
644.066	49998.57
644.419	49889.42
644.771	49649.2
645.124	49115.43
645.477	49246.28
645.83	48874.53
646.182	48721.09
646.535	48695.78
646.888	48550.7
647.24	48556.8
647.593	48618.5
647.945	48643.81
648.298	48399.52
648.65	48271.39
649.002	48206.53
649.355	48360.2
649.707	48177.6
650.059	48286.08
650.411	48755.22
650.763	48869.56
651.115	49205.37
651.467	49036.56
651.819	49045.83
652.171	48834.31
652.523	48921.31
652.875	48823.69
653.227	48716.57
653.578	49009.45
653.93	48962.22
654.282	48717.93
654.633	48605.16
654.985	48690.58
655.337	48651.49
655.688	48570.59
656.039	48586.41
656.391	48308.9
656.742	48375.56
657.094	48380.76
657.445	48496.24
657.796	48367.65
658.147	48334.66
658.498	48352.29
658.849	48397.03
659.2	48316.36
659.551	48183.25
659.902	48425.05
660.253	48219.86
660.604	48263.02
660.955	48134.21
661.306	48255.12
661.656	48161.78
662.007	48133.54
662.358	48075.91
662.708	48065.74
663.059	48017.83
663.409	47780.33
663.76	48222.35
664.11	48064.39
664.461	48190.26
664.811	48013.77
665.161	48011.28
665.511	47823.26
665.862	48010.6
666.212	47951.17
666.562	47893.09
666.912	47800.66
667.262	47779.65
667.612	47833.43
667.962	47764.96
668.312	47712.08
668.662	47859.42
669.011	47679.31
669.361	47510.28
669.711	47554.79
670.06	47537.62
670.41	47302.6
670.76	47252.2
671.109	47442.03
671.459	47449.94
671.808	47235.03
672.157	47377.85
672.507	47097.86
672.856	47265.99
673.205	47262.6
673.554	47428.47
673.904	47298.76
674.253	47263.73
674.602	47141.7
674.951	46463.75
675.3	46440.47
675.649	47157.74
675.998	47013.34
676.346	47096.5
676.695	47076.62
677.044	46853.8
677.393	46954.81
677.741	47019.67
678.09	46884.08
678.438	46842.95
678.787	46994.81
679.135	46866.68
679.484	46592.79
679.832	46791.65
680.181	46592.79
680.529	46725.89
680.877	46456.74
681.225	46551.88
681.573	46604.31
681.922	46287.03
682.27	46169.52
682.618	46265.79
682.966	46137.43
683.314	46090.43
683.661	46018.79
684.009	45888.4
684.357	45726.14
684.705	45663.55
685.053	45704.45
685.4	45668.97
685.748	45538.8
686.095	45522.76
686.443	45335.87
686.79	45445.47
687.138	45559.82
687.485	45401.18
687.832	45112.6
688.18	45226.72
688.527	44857.24
688.874	44902.21
689.221	44798.03
689.568	44597.13
689.915	44634.42
690.262	44590.13
690.609	44440.98
690.956	44326.63
691.303	44233.3
691.65	44110.14
691.997	43963.7
692.344	43641.9
692.69	43735.91
693.037	43757.38
693.383	43428.12
693.73	43411.85
694.077	43250.95
694.423	43290.95
694.769	43109.94
695.116	43103.39
695.462	42772.55
695.808	42782.72
696.155	42902.71
696.501	42577.3
696.847	42678.09
697.193	42293.92
697.539	42459.79
697.885	42183.86
698.231	42076.52
698.577	41930.31
698.923	42023.19
699.269	41681.73
699.614	41632.46
699.96	41709.52
700.306	41548.85
700.651	41346.14
700.997	41184.11
701.342	41158.35
701.688	41118.81
702.033	40960.62
702.379	40919.72
702.724	40746.84
703.069	41018.7
703.415	40304.59
703.76	40522.44
704.105	40519.27
704.45	40294.42
704.795	40126.06
705.14	40060.98
705.485	40175.55
705.83	39751.38
706.175	39863.7
706.52	39804.04
706.865	39677.04
707.209	39620.31
707.554	39234.34
707.899	39379.87
708.243	39334.45
708.588	39141
708.932	39027.34
709.277	39002.93
709.621	38871.63
709.966	38705.08
710.31	38889.03
710.654	38397.97
710.998	38442.94
711.342	38465.32
711.687	38377.41
712.031	38138.55
712.375	38086.8
712.719	38230.97
713.063	38147.81
713.407	38136.06
713.75	38002.05
714.094	37943.97
714.438	37806.35
714.782	37816.29
715.125	37745.79
715.469	37642.29
715.812	37554.15
716.156	37353.48
716.499	37267.38
716.843	37343.99
717.186	37083.43
717.53	37210.89
717.873	37251.56
718.216	37055.86
718.559	36935.19
718.902	36661.52
719.246	36726.6
719.589	36401.64
719.932	36558.93
720.275	36413.17
720.617	36369.55
720.96	36269.89
721.303	36376.33
721.646	36315.54
721.989	36073.51
722.331	36188.09
722.674	36002.1
723.016	35956.68
723.359	35808.44
723.701	35992.39
724.044	35708.78
724.386	35549.91
724.729	35679.85
725.071	35522.79
725.413	35386.08
725.755	35350.14
726.097	35319.86
726.439	35102.69
726.782	35090.94
727.124	35185.85
727.465	35004.39
727.807	34947.67
728.149	34809.14
728.491	34714.45
728.833	34828.35
729.175	34608.24
729.516	34586.1
729.858	34580.67
730.199	34592.42
730.541	34281.92
730.882	34344.07
731.224	34355.59
731.565	34165.32
731.906	34161.93
732.248	34292.77
732.589	33962.84
732.93	33983.63
733.271	33966.45
733.612	34017.3
733.953	34005.09
734.294	33875.61
734.635	33698.89
734.976	33837.19
735.317	33676.97
735.658	33601.72
735.999	33574.6
736.339	33617.31
736.68	33644.2
737.021	33527.37
737.361	33371.89
737.702	33530.53
738.042	33460.02
738.383	33238.79
738.723	33381.38
739.063	33117.43
739.404	33022.07
739.744	33093.03
740.084	33005.35
740.424	32995.18
740.764	32863.88
741.104	32844.22
741.444	32654.4
741.784	32591.35
742.124	32814.39
742.464	32672.02
742.804	32538.69
743.143	32429.09
743.483	32361.3
743.823	32340.96
744.162	32176.44
744.502	32324.46
744.841	32134.41
745.181	32269.32
745.52	32158.82
745.86	32051.02
746.199	32032.72
746.538	32121.3
746.877	31992.72
747.216	31924.25
747.556	31833.85
747.895	31825.49
748.234	31623.24
748.573	31491.04
748.911	31659.39
749.25	31598.38
749.589	31331.72
749.928	31378.72
750.267	31474.77
750.605	31324.71
750.944	31280.42
751.283	31069.35
751.621	31252.62
751.96	30971.73
752.298	31063.7
752.636	31125.4
752.975	30851.96
