Data from aluminium_surface_pro_back_FLMS001491_00025.txt Node
Date: Wed Feb 08 15:33:50 GMT 2017
User: dcchb
Spectrometer: FLMS00149
Trigger mode: 0
Integration Time (sec): 2.000000E-2
Scans to average: 10
Electric dark correction enabled: true
Nonlinearity correction enabled: false
Boxcar width: 0
XAxis mode: Wavelengths
Number of Pixels in Spectrum: 2048
>>>>>Begin Spectral Data<<<<<
341.393	-2.36
341.776	-2.36
342.16	-2.36
342.543	-45.97
342.927	-70.15
343.31	-66.31
343.693	-79.19
344.077	-70.38
344.46	-73.77
344.843	-59.98
345.226	-53.66
345.61	-27.22
345.993	-16.6
346.376	5.1
346.759	16.17
347.142	22.73
347.525	22.27
347.908	62.95
348.291	89.16
348.674	114.7
349.057	114.02
349.44	163.74
349.823	122.38
350.206	172.1
350.588	238.09
350.971	236.96
351.354	240.12
351.737	263.85
352.119	285.77
352.502	275.83
352.884	316.5
353.267	317.86
353.65	309.05
354.032	339.78
354.414	359.21
354.797	360.57
355.179	359.21
355.562	378.2
355.944	340.23
356.326	343.17
356.709	369.61
357.091	358.99
357.473	365.54
357.855	398.53
358.238	384.98
358.62	379.33
359.002	379.33
359.384	381.59
359.766	389.27
360.148	389.04
360.53	378.65
360.912	367.35
361.294	367.12
361.676	377.74
362.057	385.65
362.439	368.03
362.821	366.67
363.203	362.83
363.584	377.74
363.966	360.12
364.348	389.04
364.729	375.71
365.111	383.62
365.493	372.55
365.874	358.99
366.256	370.06
366.637	360.8
367.019	377.07
367.4	378.42
367.781	374.35
368.163	357.41
368.544	376.16
368.925	375.71
369.306	395.14
369.688	370.74
370.069	375.48
370.45	369.83
370.831	372.32
371.212	368.48
371.593	390.63
371.974	379.78
372.355	398.31
372.736	399.89
373.117	410.06
373.498	417.07
373.879	385.65
374.26	369.61
374.641	384.98
375.021	382.26
375.402	412.09
375.783	415.03
376.163	429.27
376.544	433.11
376.925	413.45
377.305	413.9
377.686	401.02
378.066	422.04
378.447	424.97
378.827	414.81
379.208	444.41
379.588	461.13
379.968	459.55
380.349	453
380.729	449.61
381.109	459.78
381.489	478.98
381.87	460.23
382.25	454.8
382.63	458.42
383.01	457.74
383.39	451.64
383.77	484.86
384.15	468.36
384.53	486.67
384.91	495.03
385.29	490.51
385.67	493.45
386.049	484.41
386.429	500.23
386.809	515.37
387.189	515.82
387.568	529.38
387.948	521.47
388.328	533.67
388.707	531.86
389.087	542.49
389.466	528.47
389.846	527.57
390.225	574.12
390.605	548.59
390.984	558.3
391.363	558.3
391.743	598.76
392.122	605.76
392.501	591.3
392.881	594.91
393.26	595.82
393.639	618.64
394.018	603.73
394.397	634.69
394.776	621.13
395.155	653.22
395.534	622.48
395.913	645.08
396.292	646.89
396.671	668.58
397.05	641.92
397.429	683.5
397.808	674.91
398.186	678.53
398.565	698.19
398.944	683.5
399.323	710.39
399.701	717.62
400.08	704.97
400.458	736.6
400.837	746.1
401.215	769.82
401.594	756.94
401.972	774.34
402.351	784.29
402.729	751.97
403.107	791.07
403.486	804.63
403.864	831.97
404.242	814.79
404.62	834.68
404.999	829.26
405.377	846.88
405.755	837.39
406.133	850.05
406.511	898.41
406.889	872.87
407.267	906.09
407.645	881.91
408.023	933.66
408.401	937.5
408.779	954
409.156	955.81
409.534	982.7
409.912	988.8
410.29	1026.09
410.667	1020.44
411.045	1047.56
411.422	1026.77
411.8	1052.53
412.178	1086.43
412.555	1092.98
412.933	1104.73
413.31	1126.2
413.687	1128.01
414.065	1126.2
414.442	1143.83
414.819	1165.52
415.197	1186.99
415.574	1214.33
415.951	1232.64
416.328	1235.8
416.705	1224.95
417.082	1251.17
417.46	1267.66
417.837	1272.64
418.214	1249.59
418.591	1297.27
418.967	1285.52
419.344	1304.27
419.721	1325.74
420.098	1370.26
420.475	1385.18
420.852	1389.92
421.228	1373.65
421.605	1386.98
421.982	1385.85
422.358	1413.88
422.735	1459.3
423.111	1456.59
423.488	1492.52
423.864	1474.66
424.241	1517.83
424.617	1557.37
424.994	1534.1
425.37	1536.13
425.746	1593.76
426.123	1583.36
426.499	1595.11
426.875	1613.19
427.251	1669.24
427.627	1692.51
428.003	1726.41
428.379	1715.34
428.756	1774.77
429.132	1775.22
429.507	1797.59
429.883	1797.82
430.259	1833.53
430.635	1840.76
431.011	1869.68
431.387	1939.06
431.763	1934.31
432.138	1963.24
432.514	1993.3
432.89	1998.27
433.265	2056.12
433.641	2080.52
434.016	2099.96
434.392	2105.61
434.767	2169.56
435.143	2158.04
435.518	2191.93
435.894	2211.59
436.269	2212.95
436.644	2284.13
437.02	2311.7
437.395	2288.2
437.77	2320.74
438.145	2388.54
438.52	2387.18
438.895	2422.21
439.271	2428.31
439.646	2470.12
440.021	2515.99
440.395	2527.74
440.77	2495.2
441.145	2541.53
441.52	2575.43
441.895	2577.91
442.27	2607.74
442.645	2593.51
443.019	2643.45
443.394	2651.81
443.769	2678.7
444.143	2690.9
444.518	2748.08
444.892	2721.64
445.267	2747.63
445.641	2809.09
446.016	2816.1
446.39	2831.92
446.764	2846.38
447.139	2845.7
447.513	2876.21
447.887	2866.49
448.262	2916.66
448.636	2929.54
449.01	2958.69
449.384	3007.96
449.758	3027.84
450.132	3088.18
450.506	3115.07
450.88	3094.51
451.254	3086.37
451.628	3164.34
452.002	3216.31
452.376	3224.22
452.75	3244.56
453.123	3272.13
453.497	3331.56
453.871	3377.44
454.244	3460.6
454.618	3436.42
454.992	3487.04
455.365	3521.39
455.739	3598
456.112	3636.19
456.486	3662.18
456.859	3712.35
457.232	3727.71
457.606	3805.9
457.979	3823.3
458.352	3920.48
458.725	3911.66
459.099	3998.67
459.472	4050.87
459.845	4146.23
460.218	4104.43
460.591	4164.76
460.964	4248.6
461.337	4299.22
461.71	4381.93
462.083	4426
462.456	4371.76
462.829	4452.21
463.201	4536.05
463.574	4559.56
463.947	4638.2
464.32	4698.53
464.692	4778.76
465.065	4830.51
465.438	4893.56
465.81	4911.86
466.183	5015.59
466.555	5105.53
466.928	5117.96
467.3	5169.93
467.672	5260.1
468.045	5346.2
468.417	5429.81
468.789	5472.3
469.161	5557.04
469.534	5582.58
469.906	5705.29
470.278	5772.63
470.65	5837.71
471.022	5877.03
471.394	6019.4
471.766	6132.85
472.138	6216.91
472.51	6305.5
472.882	6394.31
473.253	6446.96
473.625	6575.77
473.997	6702.78
474.369	6756.56
474.74	6773.96
475.112	6987.29
475.484	7101.86
475.855	7207.4
476.227	7215.98
476.598	7435.64
476.97	7526.26
477.341	7718.79
477.713	7793.14
478.084	7852.12
478.455	8056.64
478.827	8159.91
479.198	8457.08
479.569	8434.48
479.94	8697.53
480.311	8741.82
480.682	8970.06
481.053	9143.84
481.424	9275.14
481.795	9324.4
482.166	9553.77
482.537	9628.57
482.908	9866.53
483.279	9981.79
483.65	10205.73
484.021	10350.36
484.391	10437.14
484.762	10604.14
485.133	10674.2
485.503	10748.32
485.874	11040.51
486.244	11108.76
486.615	11342.2
486.985	11508.07
487.356	11732.25
487.726	11806.6
488.097	12116.87
488.467	12042.07
488.837	12335.4
489.207	12542.62
489.578	12688.38
489.948	12793.24
490.318	13090.18
490.688	13097.41
491.058	13277.52
491.428	13414.69
491.798	13617.17
492.168	13821.23
492.538	13995.24
492.908	14173.31
493.278	14309.36
493.648	14444.49
494.017	14611.27
494.387	14743.24
494.757	14771.49
495.126	15103.01
495.496	15183.91
495.866	15299.61
496.235	15499.15
496.605	15557.68
496.974	15614.86
497.344	15785.25
497.713	15949.76
498.082	16027.95
498.452	16251
498.821	16281.51
499.19	16375.29
499.559	16584.32
499.928	16778.67
500.298	16707.71
500.667	16899.12
501.036	16944.77
501.405	17173.69
501.774	17197.64
502.143	17295.27
502.512	17349.05
502.88	17547.69
503.249	17656.84
503.618	17759.43
503.987	17882.14
504.356	18069.26
504.724	18148.58
505.093	18156.03
505.462	18386.31
505.83	18452.07
506.199	18579.3
506.567	18778.84
506.936	18969.8
507.304	19114.65
507.672	19154.88
508.041	19320.52
508.409	19555.77
508.777	19581.53
509.145	19775.43
509.514	19833.5
509.882	19915.08
510.25	20074.18
510.618	20272.81
510.986	20339.93
511.354	20570.21
511.722	20687.72
512.09	20990.08
512.458	21001.16
512.826	21046.13
513.193	21266.69
513.561	21327.93
513.929	21488.83
514.297	21714.81
514.664	21829.16
515.032	22008.14
515.4	22255.36
515.767	22331.52
516.135	22477.5
516.502	22407
516.869	22890.15
517.237	22993.87
517.604	22957.72
517.972	23232.28
518.339	23403.13
518.706	23491.26
519.073	23587.53
519.44	23753.63
519.808	24065.26
520.175	24072.71
520.542	24484.46
520.909	24564.68
521.276	24641.51
521.643	24997.66
522.009	25175.06
522.376	25282.63
522.743	25497.08
523.11	25817.08
523.477	26029.5
523.843	26207.8
524.21	26560.78
524.577	26784.51
524.943	26821.34
525.31	27030.38
525.676	27222.91
526.043	27488.44
526.409	27601.66
526.776	27824.03
527.142	27965.27
527.508	28094.3
527.874	28325.03
528.241	28501.52
528.607	28616.1
528.973	28907.62
529.339	28836.88
529.705	29238.68
530.071	29485.45
530.437	29453.36
530.803	29788.5
531.169	29897.19
531.535	29893.58
531.901	30182.84
532.267	30295.38
532.632	30365.88
532.998	30727.91
533.364	30785.53
533.73	30974
534.095	31278.63
534.461	31332.86
534.826	31402.47
535.192	31575.12
535.557	31736.92
535.923	31745.28
536.288	32028.21
536.653	32089.68
537.019	32004.03
537.384	32219.62
537.749	32311.14
538.114	32385.26
538.479	32475.43
538.845	32639.72
539.21	32737.57
539.575	32767.4
539.94	32868.42
540.305	33109.09
540.67	33178.69
541.034	33509.08
541.399	33564.44
541.764	33631.79
542.129	33613.71
542.494	33821.38
542.858	33909.97
543.223	34034.26
543.587	34139.12
543.952	34190.87
544.316	34213.92
544.681	34357.19
545.045	34577.75
545.41	34795.6
545.774	34892.99
546.138	34843.5
546.503	35005.99
546.867	35140.22
547.231	35537.72
547.595	35414.11
547.959	35664.95
548.324	35635.57
548.688	35623.82
549.052	35836.47
549.416	35859.52
549.779	35971.61
550.143	35985.17
550.507	36414.99
550.871	36650.46
551.235	36512.61
551.599	36688.2
551.962	36746.28
552.326	36857.92
552.689	37039.61
553.053	37028.98
553.417	37201.63
553.78	37691.79
554.143	37618.35
554.507	37708.97
554.87	37814.05
555.234	38237.54
555.597	38182.85
555.96	38416.52
556.323	38572.67
556.686	38506.46
557.05	38842.95
557.413	38950.97
557.776	39056.28
558.139	39449.26
558.502	39443.84
558.865	39510.27
559.228	39970.38
559.59	39924.5
559.953	40128.11
560.316	40549.34
560.679	40549.57
561.041	40936.45
561.404	40904.36
561.767	41222.77
562.129	41025.26
562.492	41535.31
562.854	41426.38
563.217	41545.93
563.579	41776.2
563.941	41973.94
564.304	42337.09
564.666	42645.56
565.028	42704.54
565.39	42876.97
565.753	42991.54
566.115	43275.83
566.477	43384.3
566.839	43551.52
567.201	43855.02
567.563	43964.17
567.925	44259.08
568.287	44222.02
568.648	44344.95
569.01	44657.48
569.372	44950.81
569.734	44907.87
570.095	45127.98
570.457	45465.37
570.819	45380.63
571.18	45577.01
571.542	45888.41
571.903	45845.7
572.265	46011.12
572.626	46128.18
572.987	46360.04
573.349	46346.03
573.71	46656.08
574.071	46746.24
574.432	46807.48
574.794	47039.12
575.155	47151.43
575.516	47141.71
575.877	47187.13
576.238	47397.52
576.599	47527.92
576.96	47473.23
577.32	47636.84
577.681	47949.15
578.042	47964.29
578.403	47970.39
578.763	48068.24
579.124	48113.66
579.485	48368.8
579.845	48428.01
580.206	48280.44
580.566	48308.91
580.927	48465.97
581.287	48463.26
581.648	48445.63
582.008	48655.12
582.368	48380.1
582.728	48648.34
583.089	48593.2
583.449	48604.5
583.809	48703.93
584.169	48844.94
584.529	48740.54
584.889	49034.54
585.249	48802.01
585.609	48757.94
585.969	49054.2
586.329	48943.7
586.688	48989.57
587.048	48993.19
587.408	48803.36
587.768	48883.14
588.127	48993.87
588.487	48732.86
588.846	49182.79
589.206	48829.58
589.565	48956.58
589.925	49179.85
590.284	48999.74
590.643	49055.11
591.003	49178.72
591.362	49245.84
591.721	49237.93
592.08	49179.62
592.44	49163.81
592.799	49304.14
593.158	49260.07
593.517	49305.95
593.876	49390.92
594.235	49233.63
594.593	49394.53
594.952	49412.84
595.311	49242.67
595.67	49455.55
596.029	49582.1
596.387	49591.82
596.746	49789.33
597.104	49519.28
597.463	49507.3
597.822	49754.75
598.18	49651.25
598.538	49445.38
598.897	49751.14
599.255	49427.08
599.613	49991.58
599.972	49791.13
600.33	49857.35
600.688	49727.63
601.046	49858.03
601.404	50017.34
601.762	49919.49
602.12	50146.15
602.478	50018.47
602.836	49976.21
603.194	49886.5
603.552	49959.27
603.91	49890.79
604.268	50077.45
604.625	49922.88
604.983	50167.62
605.341	49994.52
605.698	50154.74
606.056	50222.76
606.413	50160.84
606.771	50423.89
607.128	50436.99
607.485	50226.15
607.843	50344.11
608.2	50481.74
608.557	50641.73
608.914	50615.07
609.272	50687.83
609.629	50862.52
609.986	50787.49
610.343	50711.56
610.7	50939.35
611.057	50915.4
611.414	50849.64
611.771	50877.21
612.127	50983.19
612.484	50948.39
612.841	51050.99
613.198	50980.03
613.554	51060.25
613.911	51203.07
614.267	51164.66
614.624	51177.54
614.98	51229.74
615.337	51353.35
615.693	51323.52
616.05	51317.87
616.406	51502.05
616.762	51397.65
617.118	51353.58
617.475	51255.73
617.831	51441.49
618.187	51556.29
618.543	51498.21
618.899	51670.86
619.255	51552.67
619.611	51539.11
619.967	51666.34
620.323	51662.05
620.678	51518.77
621.034	51552.44
621.39	51521.48
621.746	51435.61
622.101	51661.59
622.457	51388.15
622.812	51538.43
623.168	51584.31
623.523	51633.35
623.879	51631.09
624.234	51519
624.589	51453.46
624.945	51650.97
625.3	51650.52
625.655	51635.61
626.01	51632.22
626.365	51629.96
626.72	51593.8
627.075	51578.66
627.43	51541.37
627.785	51590.86
628.14	51610.75
628.495	51571.88
628.85	51545.21
629.205	51426.8
629.559	51679.45
629.914	51450.53
630.269	51486.46
630.623	51339.34
630.978	51343.18
631.332	51514.25
631.687	51512.22
632.041	51328.95
632.396	51378.89
632.75	51282.62
633.104	51373.92
633.459	51195.39
633.813	51055.06
634.167	51204.66
634.521	51081.27
634.875	51323.98
635.229	51176.41
635.583	51048.73
635.937	51037.66
636.291	50909.52
636.645	50959.92
636.999	50727.15
637.352	50851.9
637.706	50647.83
638.06	50820.26
638.413	50747.27
638.767	50625.69
639.121	50622.52
639.474	50377.56
639.828	50500.04
640.181	50447.16
640.534	50493.49
640.888	50321.06
641.241	50261.18
641.594	50232.03
641.947	50507.73
642.301	50266.83
642.654	50297.34
643.007	50288.07
643.36	50188.86
643.713	49980.73
644.066	50161.07
644.419	49891.7
644.771	49565.15
645.124	49311.37
645.477	49230.92
645.83	48991.16
646.182	48845.85
646.535	48786.87
646.888	48894.21
647.24	48644.5
647.593	48783.7
647.945	48690.6
648.298	48560.66
648.65	48420.77
649.002	48319.31
649.355	48568.34
649.707	48470.49
650.059	48556.14
650.411	49029.35
650.763	48898.05
651.115	49390.01
651.467	49288.32
651.819	49125.84
652.171	49138.72
652.523	49089.91
652.875	49049.91
653.227	48966.75
653.578	49103.24
653.93	48903.47
654.282	48820.09
654.633	48717.04
654.985	48692.18
655.337	48835.68
655.688	48699.41
656.039	48882.91
656.391	48588.45
656.742	48684.04
657.094	48746.19
657.445	48709.58
657.796	48707.77
658.147	48600.66
658.498	48518.85
658.849	48682.01
659.2	48419.42
659.551	48353.88
659.902	48549.13
660.253	48511.17
660.604	48410.38
660.955	48199.99
661.306	48382.58
661.656	48268.01
662.007	48168.35
662.358	48134
662.708	48162.48
663.059	48294
663.409	47922.71
663.76	48324.96
664.11	48178.52
664.461	48208.8
664.811	48286.32
665.161	48089.48
665.511	48027.34
665.862	48037.96
666.212	48080.9
666.562	48073.67
666.912	47982.37
667.262	48043.84
667.612	47966.1
667.962	47967
668.312	47942.14
668.662	48123.16
669.011	47975.81
669.361	47895.59
669.711	47823.28
670.06	47741.47
670.41	47790.51
670.76	47657.86
671.109	47756.16
671.459	47713.22
671.808	47633.22
672.157	47525.43
672.507	47448.82
672.856	47486.56
673.205	47576.28
673.554	47611.08
673.904	47482.95
674.253	47655.37
674.602	47544.87
674.951	47024.2
675.3	46776.52
675.649	47361.37
675.998	47229.85
676.346	47164.99
676.695	47298.77
677.044	46915.73
677.393	47009.96
677.741	46997.76
678.09	46930.42
678.438	46996.63
678.787	46919.57
679.135	46976.75
679.484	46673.7
679.832	46812.91
680.181	46590.31
680.529	46713.02
680.877	46602.74
681.225	46494.05
681.573	46678
681.922	46399.59
682.27	46217.22
682.618	46319.59
682.966	46127.73
683.314	46186.26
683.661	46000.95
684.009	45807.74
684.357	45800.96
684.705	45751.92
685.053	45788.53
685.4	45816.1
685.748	45471.02
686.095	45462.89
686.443	45390.8
686.79	45268.54
687.138	45339.95
687.485	45392.15
687.832	45186.06
688.18	45272.84
688.527	44885.05
688.874	44774.77
689.221	44881.21
689.568	44678.27
689.915	44735.22
690.262	44547.43
690.609	44382.24
690.956	44392.18
691.303	44494.55
691.65	44301.11
691.997	44220.43
692.344	44052.53
692.69	43971.4
693.037	44058.63
693.383	43720.11
693.73	43857.05
694.077	43586.55
694.423	43525.99
694.769	43430.17
695.116	43207.35
695.462	43180.46
695.808	43263.17
696.155	43168.94
696.501	42870.19
696.847	42864.08
697.193	42539.57
697.539	42823.41
697.885	42350.2
698.231	42396.98
698.577	42253.25
698.923	42030.43
699.269	41995.41
699.614	41762.87
699.96	41767.84
700.306	41597.23
700.651	41504.8
700.997	41377.57
701.342	41401.3
701.688	41292.6
702.033	41189.55
702.379	41086.5
702.724	40952.95
703.069	40992.5
703.415	40657.14
703.76	40639.74
704.105	40642.67
704.45	40545.73
704.795	40380.08
705.14	40229.58
705.485	40203.14
705.83	40008.11
706.175	39940.32
706.52	39821
706.865	39728.8
707.209	39643.15
707.554	39422.14
707.899	39658.97
708.243	39293.33
708.588	39317.06
708.932	39082.04
709.277	38997.07
709.621	39042.04
709.966	38818.54
710.31	38965.88
710.654	38405.22
710.998	38661.94
711.342	38496.97
711.687	38549.85
712.031	38333.13
712.375	38316.86
712.719	38370.87
713.063	38275.05
713.407	38366.8
713.75	38172.91
714.094	38038
714.438	37972.24
714.782	37882.07
715.125	37739.25
715.469	37736.54
715.812	37573.6
716.156	37430.1
716.499	37483.89
716.843	37548.97
717.186	37278.24
717.53	37437.11
717.873	37309.65
718.216	37245.02
718.559	37015.2
718.902	36763.91
719.246	37039.83
719.589	36794.64
719.932	36644.14
720.275	36704.02
720.617	36610.24
720.96	36516.68
721.303	36493.4
721.646	36484.14
721.989	36421.54
722.331	36319.62
722.674	36217.25
723.016	36231.04
723.359	36177.25
723.701	36295.9
724.044	35988.56
724.386	35755.57
724.729	35921.67
725.071	35668.79
725.413	35784.04
725.755	35631.73
726.097	35491.62
726.439	35417.05
726.782	35465.18
727.124	35562.81
727.465	35247.34
727.807	35249.6
728.149	35175.93
728.491	35042.6
728.833	35077.4
729.175	35009.6
729.516	35105.19
729.858	34880.11
730.199	34989.04
730.541	34920.34
730.882	34797.18
731.224	34925.54
731.565	34674.47
731.906	34670.63
732.248	34739.78
732.589	34492.78
732.93	34498.88
733.271	34587.69
733.612	34426.57
733.953	34515.6
734.294	34185.89
734.635	34078.78
734.976	34247.36
735.317	33868.39
735.658	33922.62
735.999	33915.85
736.339	33795.62
736.68	33857.54
737.021	33728.96
737.361	33519.25
737.702	33746.13
738.042	33635.17
738.383	33642.18
738.723	33629.53
739.063	33380.72
739.404	33559.24
739.744	33454.84
740.084	33300.27
740.424	33312.92
740.764	33328.52
741.104	33466.37
741.444	33104.57
741.784	33029.54
742.124	33185.7
742.464	33061.4
742.804	33085.81
743.143	32853.95
743.483	32880.17
743.823	32704.58
744.162	32704.13
744.502	32746.84
744.841	32478.37
745.181	32722.43
745.52	32572.83
745.86	32734.86
746.199	32434.75
746.538	32464.13
746.877	32408.31
747.216	32347.3
747.556	32194.31
747.895	32263.46
748.234	32064.37
748.573	31949.57
748.911	31957.48
749.25	31856.46
749.589	31703.47
749.928	31772.4
750.267	31761.55
750.605	31786.64
750.944	31611.27
751.283	31514.78
751.621	31498.51
751.96	31321.56
752.298	31266.65
752.636	31466.87
752.975	31225.29
753.313	31018.07
