Data from aluminium_surface_pro_back_FLMS001491_00012.txt Node
Date: Wed Feb 08 15:33:40 GMT 2017
User: dcchb
Spectrometer: FLMS00149
Trigger mode: 0
Integration Time (sec): 2.000000E-2
Scans to average: 10
Electric dark correction enabled: true
Nonlinearity correction enabled: false
Boxcar width: 0
XAxis mode: Wavelengths
Number of Pixels in Spectrum: 2048
>>>>>Begin Spectral Data<<<<<
341.393	-17.95
341.776	-17.95
342.16	-17.95
342.543	-74
342.927	-68.57
343.31	-65.41
343.693	-74.9
344.077	-75.13
344.46	-60.44
344.843	-53.2
345.226	-34.22
345.61	-13.43
345.993	-10.72
346.376	-10.72
346.759	22.5
347.142	29.73
347.525	45.78
347.908	57.07
348.291	67.92
348.674	87.58
349.057	87.58
349.44	139.78
349.823	157.86
350.206	163.74
350.588	215.71
350.971	246.45
351.354	261.14
351.737	258.43
352.119	269.5
352.502	294.58
352.884	301.59
353.267	309.72
353.65	338.88
354.032	325.09
354.414	322.83
354.797	343.17
355.179	351.08
355.562	363.73
355.944	335.49
356.326	364.64
356.709	367.35
357.091	368.7
357.473	373.22
357.855	369.83
358.238	374.13
358.62	368.7
359.002	373.45
359.384	377.07
359.766	373.22
360.148	377.29
360.53	391.98
360.912	375.71
361.294	398.08
361.676	370.74
362.057	379.33
362.439	382.04
362.821	369.83
363.203	354.24
363.584	382.26
363.966	394.92
364.348	343.62
364.729	378.87
365.111	376.61
365.493	361.47
365.874	365.32
366.256	376.39
366.637	385.65
367.019	368.03
367.4	375.71
367.781	358.76
368.163	373.9
368.544	361.47
368.925	383.85
369.306	394.92
369.688	373
370.069	368.48
370.45	385.65
370.831	376.39
371.212	389.27
371.593	377.74
371.974	372.77
372.355	365.54
372.736	378.2
373.117	389.95
373.498	396.27
373.879	386.78
374.26	392.43
374.641	374.58
375.021	396.27
375.402	405.99
375.783	407.12
376.163	426.56
376.544	410.06
376.925	413.45
377.305	414.81
377.686	422.04
378.066	414.81
378.447	431.75
378.827	426.56
379.208	422.04
379.588	430.4
379.968	435.14
380.349	448.93
380.729	453.67
381.109	463.39
381.489	454.35
381.87	439.89
382.25	451.19
382.63	466.78
383.01	442.15
383.39	465.2
383.77	467.91
384.15	459.32
384.53	476.05
384.91	473.34
385.29	495.93
385.67	496.39
386.049	495.26
386.429	483.73
386.809	511.98
387.189	501.36
387.568	502.71
387.948	520.79
388.328	525.31
388.707	534.12
389.087	510.17
389.466	537.29
389.846	556.04
390.225	548.14
390.605	556.04
390.984	572.09
391.363	570.51
391.743	555.59
392.122	564.86
392.501	569.15
392.881	578.19
393.26	603.5
393.639	617.96
394.018	613.44
394.397	620.45
394.776	620.68
395.155	611.41
395.534	643.5
395.913	663.16
396.292	650.28
396.671	654.57
397.05	680.56
397.429	679.21
397.808	684.63
398.186	693.67
398.565	692.09
398.944	681.01
399.323	718.98
399.701	715.81
400.08	721.92
400.458	718.3
400.837	726.89
401.215	745.42
401.594	775.93
401.972	758.53
402.351	757.62
402.729	766.43
403.107	800.56
403.486	822.48
403.864	795.59
404.242	829.03
404.62	810.05
404.999	837.85
405.377	821.12
405.755	829.03
406.133	834.68
406.511	852.08
406.889	867.67
407.267	877.84
407.645	899.99
408.023	908.35
408.401	925.07
408.779	933.21
409.156	952.64
409.534	981.8
409.912	957.62
410.29	1012.53
410.667	1006.2
411.045	1011.17
411.422	1038.29
411.8	1043.04
412.178	1044.85
412.555	1085.3
412.933	1079.19
413.31	1087.78
413.687	1099.99
414.065	1120.55
414.442	1104.73
414.819	1159.64
415.197	1164.62
415.574	1185.41
415.951	1193.77
416.328	1160.77
416.705	1217.04
417.082	1223.37
417.46	1250.26
417.837	1250.04
418.214	1257.04
418.591	1268.12
418.967	1255.24
419.344	1246.87
419.721	1327.55
420.098	1310.6
420.475	1338.17
420.852	1336.59
421.228	1345.63
421.605	1364.16
421.982	1400.99
422.358	1384.72
422.735	1403.71
423.111	1437.83
423.488	1462.46
423.864	1463.37
424.241	1485.06
424.617	1511.73
424.994	1507.88
425.37	1525.28
425.746	1514.66
426.123	1580.2
426.499	1551.5
426.875	1566.41
427.251	1636.92
427.627	1664.94
428.003	1667.2
428.379	1697.03
428.756	1720.31
429.132	1711.27
429.507	1748.56
429.883	1785.16
430.259	1822.68
430.635	1811.83
431.011	1824.03
431.387	1880.08
431.763	1903.35
432.138	1911.94
432.514	1923.92
432.89	1958.04
433.265	1989.91
433.641	2043.46
434.016	2080.75
434.392	2071.94
434.767	2098.15
435.143	2097.47
435.518	2152.16
435.894	2170.47
436.269	2181.31
436.644	2248.66
437.02	2237.58
437.395	2232.61
437.77	2297.47
438.145	2316.68
438.52	2316.22
438.895	2360.74
439.271	2381.08
439.646	2419.95
440.021	2436.45
440.395	2478.03
440.77	2447.97
441.145	2477.8
441.52	2548.53
441.895	2511.02
442.27	2567.97
442.645	2551.25
443.019	2592.6
443.394	2577.23
443.769	2617.69
444.143	2621.53
444.518	2653.84
444.892	2659.27
445.267	2665.14
445.641	2705.37
446.016	2749.89
446.39	2745.37
446.764	2777.46
447.139	2775.65
447.513	2840.5
447.887	2840.05
448.262	2868.53
448.636	2850.45
449.01	2905.81
449.384	2953.5
449.758	2971.35
450.132	2991.91
450.506	3024
450.88	3008.86
451.254	3037.11
451.628	3106.71
452.002	3158.01
452.376	3099.71
452.75	3199.82
453.123	3182.87
453.497	3245.92
453.871	3252.47
454.244	3370.21
454.618	3374.73
454.992	3411.34
455.365	3451.34
455.739	3537.44
456.112	3564.55
456.486	3582.18
456.859	3659.69
457.232	3669.86
457.606	3679.58
457.979	3701.5
458.352	3851.1
458.725	3831.44
459.099	3873.02
459.472	3993.24
459.845	4007.25
460.218	4045.22
460.591	4102.84
460.964	4113.92
461.337	4210.19
461.71	4284.53
462.083	4336.96
462.456	4333.8
462.829	4384.64
463.201	4456.28
463.574	4504.64
463.947	4550.97
464.32	4638.2
464.692	4668.7
465.065	4725.2
465.438	4754.35
465.81	4846.78
466.183	4930.84
466.555	5042.25
466.928	5039.09
467.3	5066.89
467.672	5139.2
468.045	5303.49
468.417	5288.12
468.789	5339.87
469.161	5397.05
469.534	5505.97
469.906	5577.38
470.278	5600.21
470.65	5680.66
471.022	5822.12
471.394	5920.88
471.766	5943.47
472.138	6031.61
472.51	6188.21
472.882	6284.71
473.253	6363.12
473.625	6427.53
473.997	6593.4
474.369	6615.55
474.74	6685.6
475.112	6805.15
475.484	6920.17
475.855	7036.1
476.227	7136.21
476.598	7347.96
476.97	7427.73
477.341	7594.5
477.713	7651.45
478.084	7755.18
478.455	7941.39
478.827	8012.8
479.198	8297.99
479.569	8262.73
479.94	8589.05
480.311	8536.63
480.682	8787.47
481.053	8954.47
481.424	9156.27
481.795	9249.38
482.166	9366.21
482.537	9507.45
482.908	9729.59
483.279	9796.25
483.65	9999.86
484.021	10212.97
484.391	10328.67
484.762	10405.5
485.133	10488.66
485.503	10670.13
485.874	10860.18
486.244	10925.26
486.615	11152.6
486.985	11350.56
487.356	11618.35
487.726	11621.52
488.097	11879.14
488.467	11946.93
488.837	12239.81
489.207	12329.97
489.578	12509.18
489.948	12667.82
490.318	12872.11
490.688	12937.64
491.058	13189.16
491.428	13238.42
491.798	13511.41
492.168	13736.94
492.538	13820.78
492.908	13946.2
493.278	14133.99
493.648	14146.42
494.017	14416.92
494.387	14542.12
494.757	14639.52
495.126	14837.25
495.496	14764.26
495.866	14990.24
496.235	15093.29
496.605	15267.07
496.974	15371.47
497.344	15500.96
497.713	15601.07
498.082	15722.2
498.452	15895.08
498.821	16083.32
499.19	16151.79
499.559	16355.63
499.928	16426.59
500.298	16495.06
500.667	16772.34
501.036	16745
501.405	16900.25
501.774	16928.72
502.143	17145.21
502.512	17292.78
502.88	17338.88
503.249	17339.78
503.618	17514.47
503.987	17705.88
504.356	17765.31
504.724	17923.5
505.093	18012.99
505.462	18060.22
505.83	18235.58
506.199	18414.11
506.567	18624.27
506.936	18676.7
507.304	18918.73
507.672	18900.42
508.041	19071.94
508.409	19164.14
508.777	19304.48
509.145	19506.73
509.514	19495.89
509.882	19685.03
510.25	19786.95
510.618	19975.87
510.986	19989.43
511.354	20288.63
511.722	20433.26
512.09	20532.02
512.458	20576.54
512.826	20867.38
513.193	20918.22
513.561	21097.2
513.929	21224.65
514.297	21475.49
514.664	21609.05
515.032	21576.51
515.4	21887.24
515.767	22016.72
516.135	22170.62
516.502	22111.18
516.869	22531.96
517.237	22584.39
517.604	22632.75
517.972	22908.45
518.339	23165.17
518.706	23233.41
519.073	23364.71
519.44	23457.14
519.808	23815.55
520.175	23799.5
520.542	24133.73
520.909	24286.27
521.276	24300.73
521.643	24645.81
522.009	24762.64
522.376	24906.59
522.743	25256.64
523.11	25410.76
523.477	25640.58
523.843	25870.18
524.21	26055.26
524.577	26276.27
524.943	26483.5
525.31	26596.72
525.676	26855.92
526.043	27028.57
526.409	27304.72
526.776	27594.43
527.142	27560.76
527.508	27840.75
527.874	28070.8
528.241	28327.07
528.607	28381.3
528.973	28757.56
529.339	28654.74
529.705	28961.17
530.071	29211.11
530.437	29416.98
530.803	29626.69
531.169	29762.96
531.535	29634.15
531.901	29935.39
532.267	29946.91
532.632	30352.55
532.998	30308.93
533.364	30518.65
533.73	30589.83
534.095	31003.15
534.461	31136.71
534.826	31352.07
535.192	31386.19
535.557	31564.04
535.923	31577.6
536.288	31702.12
536.653	31927.88
537.019	31888.78
537.384	32084.26
537.749	32318.83
538.114	32372.38
538.479	32488.99
538.845	32639.49
539.21	32618.48
539.575	32710
539.94	32851.69
540.305	33022.08
540.67	32973.5
541.034	33078.35
541.399	33305.01
541.764	33316.77
542.129	33467.72
542.494	33624.78
542.858	33830.42
543.223	33905.9
543.587	34080.36
543.952	34048.05
544.316	34143.86
544.681	34235.16
545.045	34332.11
545.41	34525.55
545.774	34550.63
546.138	34597.18
546.503	34743.39
546.867	34844.18
547.231	35104.51
547.595	35191.52
547.959	35377.05
548.324	35414.34
548.688	35464.51
549.052	35626.53
549.416	35714.89
549.779	35812.29
550.143	36007.54
550.507	36224.03
550.871	36407.53
551.235	36407.08
551.599	36590.8
551.962	36668.32
552.326	36880.29
552.689	37058.36
553.053	36928.65
553.417	37055.2
553.78	37530.44
554.143	37315.98
554.507	37686.37
554.87	37748.97
555.234	38080.26
555.597	38026.47
555.96	38130.65
556.323	38316.63
556.686	38411.32
557.05	38688.83
557.413	38670.3
557.776	38787.13
558.139	39101.02
558.502	39303.27
558.865	39293.56
559.228	39594.11
559.59	39875.91
559.953	39999.08
560.316	40122.01
560.679	40282.23
561.041	40604.26
561.404	40761.09
561.767	41042.89
562.129	40923.8
562.492	41438.36
562.854	41372.82
563.217	41467.51
563.579	41644
563.941	41815.3
564.304	42041.96
564.666	42299.35
565.028	42365.11
565.39	42561.95
565.753	42697.54
566.115	42746.12
566.477	42999
566.839	43074.47
567.201	43467.01
567.563	43537.97
567.925	43801.46
568.287	43903.15
568.648	44046.88
569.01	44237.16
569.372	44516.02
569.734	44441.9
570.095	44799.85
570.457	45059.06
570.819	45122.1
571.18	45052.95
571.542	45412.27
571.903	45367.97
572.265	45663.56
572.626	45760.73
572.987	45981.06
573.349	46000.5
573.71	46313.49
574.071	46313.94
574.432	46541.73
574.794	46760.03
575.155	46755.96
575.516	46725.45
575.877	46866.92
576.238	46987.82
576.599	47137.42
576.96	47217.87
577.32	47262.61
577.681	47364.76
578.042	47582.15
578.403	47476.17
578.763	47659.44
579.124	47738.98
579.485	47920
579.845	48078.86
580.206	47931.07
580.566	48073.89
580.927	48139.2
581.287	48202.93
581.648	48112.76
582.008	48351.62
582.368	48170.84
582.728	48272.3
583.089	48284.06
583.449	48385.52
583.809	48393.66
584.169	48540.32
584.529	48441.11
584.889	48684.72
585.249	48398.4
585.609	48405.18
585.969	48647.89
586.329	48472.75
586.688	48698.06
587.048	48642.01
587.408	48419.64
587.768	48551.17
588.127	48566.99
588.487	48499.87
588.846	48777.38
589.206	48592.52
589.565	48723.37
589.925	48774.89
590.284	48663.71
590.643	48690.82
591.003	48766.53
591.362	48901.44
591.721	48768.34
592.08	48757.72
592.44	48833.19
592.799	48869.8
593.158	48738.28
593.517	48785.06
593.876	48925.17
594.235	48646.76
594.593	48716.13
594.952	48902.8
595.311	48741.22
595.67	48878.39
596.029	49128.78
596.387	49047.2
596.746	49090.59
597.104	48935.56
597.463	48920.65
597.822	49091.04
598.18	48915.23
598.538	49017.6
598.897	49261.43
599.255	49009.01
599.613	49473.85
599.972	49242.45
600.33	49385.04
600.688	49249.68
601.046	49340.75
601.404	49539.39
601.762	49480.18
602.12	49703.45
602.478	49636.11
602.836	49605.83
603.194	49531.03
603.552	49630.46
603.91	49479.05
604.268	49807.63
604.625	49617.13
604.983	49844.01
605.341	49675.66
605.698	49893.5
606.056	50112.71
606.413	49951.13
606.771	50134.4
607.128	50128.3
607.485	50001.3
607.843	49973.5
608.2	50229.77
608.557	50282.19
608.914	50193.38
609.272	50419.37
609.629	50415.98
609.986	50381.85
610.343	50311.12
610.7	50627.95
611.057	50523.32
611.414	50391.34
611.771	50556.31
612.127	50578.68
612.484	50587.5
612.841	50766.48
613.198	50622.98
613.554	50625.91
613.911	50793.59
614.267	50740.26
614.624	50681.73
614.98	50766.02
615.337	50958.79
615.693	50854.38
616.05	50978.45
616.406	51128.05
616.762	50869.98
617.118	50960.37
617.475	50876.08
617.831	50988.62
618.187	51030.42
618.543	51006.24
618.899	51241.72
619.255	51123.08
619.611	51189.97
619.967	51353.13
620.323	51461.82
620.678	51275.62
621.034	51294.6
621.39	51202.4
621.746	51207.82
622.101	51594.02
622.457	51200.81
622.812	51310.42
623.168	51450.3
623.523	51372.79
623.879	51507.47
624.234	51209.4
624.589	51380.25
624.945	51366.46
625.3	51483.29
625.655	51362.62
626.01	51473.58
626.365	51395.84
626.72	51425.67
627.075	51440.13
627.43	51422.73
627.785	51293.92
628.14	51400.13
628.495	51379.79
628.85	51317.87
629.205	51254.82
629.559	51365.56
629.914	51166.47
630.269	51223.41
630.623	51224.99
630.978	51101.61
631.332	51236.97
631.687	51247.59
632.041	51159.01
632.396	51253.24
632.75	51152.23
633.104	51188.84
633.459	51087.6
633.813	51029.75
634.167	50955.4
634.521	50957.21
634.875	51073.59
635.229	50755.63
635.583	50715.4
635.937	50747.04
636.291	50692.58
636.645	50777.55
636.999	50682.41
637.352	50709.53
637.706	50451.23
638.06	50658
638.413	50414.17
638.767	50443.77
639.121	50393.83
639.474	50241.97
639.828	50249.2
640.181	50238.35
640.534	50313.38
640.888	50141.18
641.241	50075.87
641.594	50118.58
641.947	50159.94
642.301	50047.4
642.654	50044.91
643.007	50075.19
643.36	50062.99
643.713	49862.09
644.066	50115.19
644.419	49797.91
644.771	49572.16
645.124	49237.48
645.477	49133.75
645.83	48983.7
646.182	48799.07
646.535	48677.94
646.888	48773.31
647.24	48458.97
647.593	48776.02
647.945	48578.28
648.298	48337.84
648.65	48297.16
649.002	48192.98
649.355	48262.36
649.707	48242.25
650.059	48388.91
650.411	48845.4
650.763	48855.11
651.115	49246.06
651.467	49097.82
651.819	48901.67
652.171	48960.42
652.523	48897.6
652.875	48947.99
653.227	48736.25
653.578	48992.29
653.93	48858.5
654.282	48707.32
654.633	48621.45
654.985	48667.1
655.337	48750.94
655.688	48538.74
656.039	48797.49
656.391	48256.26
656.742	48409.02
657.094	48308.46
657.445	48554.1
657.796	48445.63
658.147	48345.52
658.498	48282.25
658.849	48352.98
659.2	48290.61
659.551	48090.16
659.902	48448.12
660.253	48261.01
660.604	48364.73
660.955	47936.95
661.306	48178.97
661.656	48146.66
662.007	48122.7
662.358	48131.06
662.708	48030.73
663.059	48025.76
663.409	47814.46
663.76	48055.13
664.11	48088.13
664.461	48114.12
664.811	48092.87
665.161	48020.11
665.511	47916.16
665.862	47955.93
666.212	47840.9
666.562	47897.17
666.912	47913.67
667.262	47789.15
667.612	47721.13
667.962	47818.76
668.312	47651.98
668.662	47746.67
669.011	47708.93
669.361	47577.41
669.711	47577.63
670.06	47371.54
670.41	47384.87
670.76	47365.89
671.109	47444.08
671.459	47475.04
671.808	47263.97
672.157	47357.07
672.507	47078.89
672.856	47142.16
673.205	47217.42
673.554	47266.23
673.904	47185.1
674.253	47264.87
674.602	47235.27
674.951	46621.5
675.3	46522.52
675.649	47122.05
675.998	47032.79
676.346	47010.64
676.695	47076.86
677.044	46780.37
677.393	46914.6
677.741	46939.23
678.09	46811.55
678.438	46793.25
678.787	46929.74
679.135	46851.55
679.484	46628.73
679.832	46706.47
680.181	46532.01
680.529	46716.86
680.877	46523.2
681.225	46499.02
681.573	46593.7
681.922	46401.62
682.27	46197.56
682.618	46291.79
682.966	46178.12
683.314	46257.22
683.661	45941.52
684.009	45728.19
684.357	45765.25
684.705	45694.97
685.053	45783.1
685.4	45744.24
685.748	45491.36
686.095	45572.04
686.443	45258.6
686.79	45345.15
687.138	45525.71
687.485	45339.5
687.832	45203.46
688.18	45146.51
688.527	45024.71
688.874	45009.11
689.221	44881.88
689.568	44605.96
689.915	44571.61
690.262	44582.91
690.609	44421.78
690.956	44276.93
691.303	44251.62
691.65	44038.07
691.997	44109.02
692.344	43800.33
692.69	43686.44
693.037	43720.33
693.383	43359.66
693.73	43471.07
694.077	43251.19
694.423	43248.48
694.769	43062.27
695.116	43014.14
695.462	42948.38
695.808	42833.35
696.155	42951.09
696.501	42617.31
696.847	42565.56
697.193	42330.99
697.539	42408.96
697.885	42086.03
698.231	42149.3
698.577	42029.76
698.923	41900.49
699.269	41790.21
699.614	41487.17
699.96	41521.97
700.306	41520.39
700.651	41304.8
700.997	41206.28
701.342	41132.83
701.688	41256.44
702.033	40953.17
702.379	40853.52
702.724	40844.02
703.069	40886.74
703.415	40521.32
703.76	40386.18
704.105	40606.29
704.45	40331.04
704.795	40080.43
705.14	40113.87
705.485	40051.05
705.83	39787.1
706.175	39791.17
706.52	39893.09
706.865	39708.69
707.209	39498.52
707.554	39491.29
707.899	39492.87
708.243	39230.51
708.588	39153.67
708.932	38956.62
709.277	38909.39
709.621	38832.55
709.966	38632.78
710.31	38736.06
710.654	38426.69
710.998	38594.37
711.342	38524.76
711.687	38374.49
712.031	38149.63
712.375	38082.06
712.719	38315.28
713.063	38180.59
713.407	38217.43
713.75	38042.97
714.094	38081.61
714.438	37748.97
714.782	37826.25
715.125	37641.17
715.469	37592.13
715.812	37524.11
716.156	37349.2
716.499	37392.36
716.843	37401.4
717.186	37069.21
717.53	37326.38
717.873	37217.45
718.216	37146.72
718.559	36903.56
718.902	36671.93
719.246	36864.92
719.589	36612.95
719.932	36435.55
720.275	36408.21
720.617	36401.2
720.96	36186.07
721.303	36302.68
721.646	36260.87
721.989	35966.41
722.331	36117.82
722.674	36146.75
723.016	36047.99
723.359	35925.28
723.701	35822.01
724.044	35723.03
724.386	35572.75
724.729	35721
725.071	35473.09
725.413	35426.54
725.755	35509.02
726.097	35272.19
726.439	35192.87
726.782	35135.7
727.124	35182.03
727.465	34974.12
727.807	34937.29
728.149	34982.94
728.491	34763.96
728.833	34775.94
729.175	34649.39
729.516	34475.6
729.858	34563.29
730.199	34578.88
730.541	34343.4
730.882	34373.46
731.224	34495.72
731.565	34126.24
731.906	34261.83
732.248	34115.61
732.589	34031.32
732.93	33998.1
733.271	33971.66
733.612	33975.96
733.953	33987.48
734.294	33846.47
734.635	33702.07
734.976	33871.33
735.317	33631.79
735.658	33576.42
735.999	33566.7
736.339	33538.68
736.68	33653.48
737.021	33609.64
737.361	33459.36
737.702	33555.4
738.042	33392.02
738.383	33255.75
738.723	33332.58
739.063	33168.29
739.404	33182.08
739.744	33175.75
740.084	32865.7
740.424	32976.21
740.764	32874.97
741.104	32796.78
741.444	32680.17
741.784	32611.7
742.124	32735.54
742.464	32515.43
742.804	32405.15
743.143	32471.59
743.483	32396.56
743.823	32246.51
744.162	32330.8
744.502	32397.92
744.841	32111.15
745.181	32283.57
745.52	32177.13
745.86	32089.9
746.199	32045.39
746.538	31979.85
746.877	32011.04
747.216	31904.82
747.556	31780.76
747.895	31786.18
748.234	31650.59
748.573	31528.11
748.911	31657.15
749.25	31423.26
749.589	31367.21
749.928	31501.45
750.267	31383.26
750.605	31359.75
750.944	31284.73
751.283	31069.59
751.621	31218.06
751.96	31019.88
752.298	30968.13
752.636	31002.48
752.975	30902.59
