Data from aluminium_macbook_case_FLMS001491_035.txt Node
Date: Tue Feb 07 10:43:31 GMT 2017
User: dcchb
Spectrometer: FLMS00149
Trigger mode: 0
Integration Time (sec): 2.000000E-2
Scans to average: 10
Electric dark correction enabled: true
Nonlinearity correction enabled: false
Boxcar width: 0
XAxis mode: Wavelengths
Number of Pixels in Spectrum: 2048
>>>>>Begin Spectral Data<<<<<
341.393	-8.21
341.776	-8.21
342.16	-8.21
342.543	-52.27
342.927	-71.93
343.31	-54.53
343.693	-82.33
344.077	-69.22
344.46	-53.4
344.843	-53.18
345.226	-45.49
345.61	-23.57
345.993	-23.12
346.376	7.16
346.759	-7.75
347.142	27.5
347.525	41.96
347.908	61.62
348.291	89.42
348.674	77.44
349.057	107.5
349.44	121.73
349.823	137.55
350.206	154.73
350.588	238.12
350.971	255.52
351.354	260.49
351.737	298.23
352.119	283.54
352.502	293.26
352.884	334.61
353.267	345.01
353.65	329.64
354.032	346.59
354.414	351.33
354.797	366.7
355.179	366.02
355.562	370.54
355.944	388.62
356.326	383.42
356.709	373.25
357.091	391.11
357.473	387.94
357.855	395.63
358.238	418.45
358.62	401.05
359.002	377.55
359.384	410.31
359.766	405.79
360.148	413.03
360.53	389.52
360.912	417.32
361.294	429.52
361.676	400.37
362.057	415.51
362.439	415.96
362.821	409.86
363.203	411.67
363.584	424.78
363.966	412.8
364.348	409.18
364.729	401.5
365.111	437.88
365.493	406.47
365.874	413.48
366.256	411.9
366.637	418.68
367.019	420.71
367.4	419.81
367.781	427.49
368.163	425.91
368.544	426.36
368.925	426.58
369.306	419.58
369.688	428.17
370.069	426.13
370.45	421.61
370.831	430.65
371.212	431.56
371.593	466.13
371.974	429.07
372.355	446.7
372.736	457.54
373.117	450.31
373.498	448.05
373.879	459.58
374.26	443.08
374.641	451.67
375.021	442.4
375.402	450.54
375.783	484.66
376.163	521.27
376.544	513.59
376.925	493.25
377.305	505.68
377.686	518.79
378.066	506.58
378.447	506.58
378.827	502.74
379.208	526.7
379.588	514.72
379.968	546.58
380.349	538.9
380.729	514.04
381.109	536.41
381.489	525.11
381.87	546.81
382.25	566.02
382.63	571.67
383.01	570.76
383.39	581.61
383.77	575.51
384.15	591.1
384.53	603.08
384.91	594.49
385.29	608.73
385.67	617.09
386.049	638.33
386.429	630.2
386.809	613.25
387.189	639.23
387.568	636.97
387.948	652.57
388.328	667.93
388.707	646.24
389.087	679.91
389.466	687.59
389.846	714.26
390.225	697.54
390.605	713.36
390.984	736.18
391.363	728.05
391.743	717.88
392.122	738.22
392.501	753.81
392.881	765.33
393.26	778.21
393.639	782.73
394.018	763.75
394.397	815.28
394.776	809.17
395.155	806.46
395.534	826.12
395.913	829.74
396.292	848.72
396.671	865.22
397.05	873.8
397.429	886.01
397.808	868.38
398.186	879.68
398.565	895.27
398.944	934.14
399.323	941.15
399.701	927.59
400.08	949.06
400.458	983.63
400.837	971.2
401.215	955.38
401.594	975.5
401.972	1004.65
402.351	994.03
402.729	996.97
403.107	1002.61
403.486	1007.59
403.864	1055.72
404.242	1030.18
404.62	1092.56
404.999	1109.73
405.377	1118.32
405.755	1091.2
406.133	1144.76
406.511	1167.81
406.889	1162.16
407.267	1174.36
407.645	1205.32
408.023	1206.9
408.401	1246
408.779	1245.55
409.156	1290.97
409.534	1278.54
409.912	1285.77
410.29	1322.38
410.667	1359.67
411.045	1377.29
411.422	1396.28
411.8	1409.61
412.178	1422.72
412.555	1458.87
412.933	1477.4
413.31	1506.1
413.687	1510.4
414.065	1523.51
414.442	1542.26
414.819	1613.22
415.197	1578.64
415.574	1566.22
415.951	1621.13
416.328	1642.37
416.705	1674.69
417.082	1680.34
417.46	1711.97
417.837	1712.88
418.214	1725.99
418.591	1761.01
418.967	1774.57
419.344	1787.23
419.721	1823.84
420.098	1835.59
420.475	1868.13
420.852	1844.63
421.228	1901.8
421.605	1922.36
421.982	1961.01
422.358	1941.57
422.735	1961.91
423.111	1984.74
423.488	2035.58
423.864	2036.49
424.241	2022.25
424.617	2099.31
424.994	2097.5
425.37	2115.13
425.746	2125.52
426.123	2137.95
426.499	2197.39
426.875	2216.14
427.251	2261.34
427.627	2306.99
428.003	2342.01
428.379	2332.07
428.756	2408.91
429.132	2399.87
429.507	2472.41
429.883	2516.02
430.259	2577.26
430.635	2581.56
431.011	2590.37
431.387	2698.84
431.763	2697.26
432.138	2721.67
432.514	2777.26
432.89	2777.26
433.265	2827.88
433.641	2873.75
434.016	2923.24
434.392	2987.65
434.767	3014.54
435.143	3048.21
435.518	3064.71
435.894	3126.85
436.269	3131.82
436.644	3229
437.02	3287.3
437.395	3254.99
437.77	3333.85
438.145	3400.07
438.52	3393.96
438.895	3452.72
439.271	3434.64
439.646	3548.76
440.021	3495.88
440.395	3584.69
440.77	3558.93
441.145	3591.7
441.52	3682.09
441.895	3661.08
442.27	3736.33
442.645	3709.89
443.019	3737.91
443.394	3811.13
443.769	3859.04
444.143	3821.07
444.518	3905.82
444.892	3943.1
445.267	3938.36
445.641	3994.17
446.016	4026.49
446.39	4054.29
446.764	4138.8
447.139	4097
447.513	4139.71
447.887	4171.35
448.262	4186.71
448.636	4224.9
449.01	4281.62
449.384	4343.77
449.758	4353.94
450.132	4426.03
450.506	4431
450.88	4469.64
451.254	4458.57
451.628	4566.81
452.002	4643.88
452.376	4634.84
452.75	4689.75
453.123	4751.44
453.497	4858.78
453.871	4894.04
454.244	5012
454.618	5065.78
454.992	5083.19
455.365	5122.05
455.739	5254.03
456.112	5291.54
456.486	5377.64
456.859	5329.28
457.232	5484.08
457.606	5477.53
457.979	5572.44
458.352	5640.69
458.725	5778.76
459.099	5793.22
459.472	5873.67
459.845	6028.47
460.218	5983.73
460.591	6128.13
460.964	6127.68
461.337	6282.25
461.71	6353.43
462.083	6482.47
462.456	6494.9
462.829	6574.67
463.201	6696.48
463.574	6717.72
463.947	6835.68
464.32	6914.1
464.692	7045.85
465.065	7072.51
465.438	7221.89
465.81	7327.65
466.183	7412.62
466.555	7576
466.928	7627.98
467.3	7604.48
467.672	7741.42
468.045	7951.13
468.417	7936.22
468.789	8064.35
469.161	8122.88
469.534	8334.85
469.906	8512.47
470.278	8510.89
470.65	8644.9
471.022	8785.46
471.394	9000.6
471.766	9105.68
472.138	9166.92
472.51	9405.56
472.882	9527.36
473.253	9691.88
473.625	9822.5
473.997	10075.37
474.369	10083.05
474.74	10331.18
475.112	10534.12
475.484	10674.22
475.855	10737.27
476.227	10883.26
476.598	11239.41
476.97	11246.87
477.341	11556.24
477.713	11749.22
478.084	11756.23
478.455	12121.42
478.827	12221.08
479.198	12623.78
479.569	12586.49
479.94	12957.55
480.311	13162.52
480.682	13514.15
481.053	13677.76
481.424	13927.92
481.795	14086.11
482.166	14245.2
482.537	14564.29
482.908	14883.38
483.279	14993.43
483.65	15309.36
484.021	15772.4
484.391	15863.24
484.762	16053.97
485.133	16252.38
485.503	16411.25
485.874	16776.89
486.244	16991.57
486.615	17211
486.985	17505.46
487.356	17722.18
487.726	17856.18
488.097	18300.24
488.467	18297.3
488.837	18712.43
489.207	18810.51
489.578	19152.65
489.948	19332.98
490.318	19530.94
490.688	19685.29
491.058	20009.8
491.428	20379.73
491.798	20570.91
492.168	20981.52
492.538	21186.04
492.908	21346.03
493.278	21650.43
493.648	21786.25
494.017	22144.21
494.387	22302.85
494.757	22529.73
495.126	22730.18
495.496	22879.1
495.866	23150.73
496.235	23413.33
496.605	23439.54
496.974	23717.05
497.344	23918.4
497.713	24140.99
498.082	24215.34
498.452	24452.62
498.821	24536.46
499.19	24691.03
499.559	24920.4
499.928	25098.7
500.298	25111.59
500.667	25489.88
501.036	25370.56
501.405	25719.48
501.774	25736.65
502.143	26006.48
502.512	26143.65
502.88	26516.75
503.249	26502.96
503.618	26825.89
503.987	27009.39
504.356	27190.85
504.724	27360.57
505.093	27536.83
505.462	27663.61
505.83	27977.05
506.199	28226.76
506.567	28426.75
506.936	28546.52
507.304	28927.76
507.672	29082.55
508.041	29135.89
508.409	29388.31
508.777	29651.13
509.145	29871.91
509.514	29851.35
509.882	30121.62
510.25	30169.98
510.618	30388.06
510.986	30502.63
511.354	30826.46
511.722	31133.8
512.09	31475.26
512.458	31525.43
512.826	31591.42
513.193	31884.29
513.561	32006.32
513.929	32371.51
514.297	32634.33
514.664	32932.17
515.032	33049
515.4	33422.33
515.767	33663.23
516.135	33809.21
516.502	33769.89
516.869	34481.73
517.237	34467.05
517.604	34560.6
517.972	34996.52
518.339	35319.45
518.706	35396.74
519.073	35518.54
519.44	35677.41
519.808	36182.93
520.175	36156.72
520.542	36641.9
520.909	36775.69
521.276	36883.93
521.643	37280.31
522.009	37622.44
522.376	37690.01
522.743	38015.88
523.11	38330.67
523.477	38541.51
523.843	38954.16
524.21	39149.18
524.577	39541.04
524.943	39636.4
525.31	39948.48
525.676	40336.27
526.043	40704.85
526.409	40840.89
526.776	41254.44
527.142	41418.95
527.508	41703.24
527.874	42124.7
528.241	42223.45
528.607	42556.55
528.973	42931.46
529.339	43080.38
529.705	43351.78
530.071	43737.76
530.437	43943.86
530.803	44137.3
531.169	44396.95
531.535	44403.73
531.901	44544.29
532.267	44643.28
532.632	44991.51
532.998	45104.96
533.364	45346.31
533.73	45388.79
534.095	45804.83
534.461	45892.28
534.826	46222.67
535.192	46257.7
535.557	46438.93
535.923	46600.96
536.288	46713.73
536.653	46955.53
537.019	46789.21
537.384	46959.15
537.749	47226.48
538.114	47361.4
538.479	47352.13
538.845	47698.56
539.21	47653.59
539.575	47872.34
539.94	48148.95
540.305	48449.73
540.67	48257.42
541.034	48702.15
541.399	48775.82
541.764	48908.93
542.129	49088.58
542.494	49305.3
542.858	49285.41
543.223	49425.97
543.587	49701.45
543.952	49626.2
544.316	49826.42
544.681	49736.02
545.045	49964.04
545.41	50046.07
545.774	50172.85
546.138	50123.81
546.503	50318.83
546.867	50381.2
547.231	50648.77
547.595	50675.66
547.959	50742.32
548.324	50792.04
548.688	50893.05
549.052	51148.87
549.416	51150
549.779	51170.34
550.143	51248.75
550.507	51472.25
550.871	51627.05
551.235	51638.12
551.599	51898.45
551.962	52012.12
552.326	52169.41
552.689	52353.58
553.053	52185
553.417	52384.09
553.78	52869.73
554.143	52688.49
554.507	52963.28
554.87	53116.72
555.234	53356.04
555.597	53189.27
555.96	53391.52
556.323	53556.04
556.686	53621.57
557.05	53830.15
557.413	53885.97
557.776	54008.68
558.139	54137.26
558.502	54133.65
558.865	54294.77
559.228	54546.07
559.59	54497.48
559.953	54628.55
560.316	54802.78
560.679	54897.92
561.041	55001.65
561.404	55123.45
561.767	55258.14
562.129	55218.36
562.492	55536.77
562.854	55494.74
563.217	55572.71
563.579	55707.39
563.941	55827.16
564.304	55897.44
564.666	56169.98
565.028	56112.58
565.39	56308.05
565.753	56427.15
566.115	56546.01
566.477	56641.6
566.839	56743.75
567.201	56950.07
567.563	56936.29
567.925	57092.44
568.287	57129.27
568.648	57247.69
569.01	57457.18
569.372	57601.8
569.734	57478.64
570.095	57684.51
570.457	57854.45
570.819	57874.79
571.18	57934.68
571.542	58005.86
571.903	58074.11
572.265	58123.82
572.626	58201.11
572.987	58215.12
573.349	58300.54
573.71	58355.01
574.071	58384.38
574.432	58412.86
574.794	58651.27
575.155	58526.3
575.516	58575.56
575.877	58686.52
576.238	58655.79
576.599	58738.27
576.96	58764.03
577.32	58792.73
577.681	58870.7
578.042	58931.71
578.403	58926.74
578.763	58974.42
579.124	58969.45
579.485	59099.39
579.845	59167.19
580.206	59107.75
580.566	59158.6
580.927	59209.67
581.287	59378.71
581.648	59240.63
582.008	59349.1
582.368	59368.09
582.728	59411.47
583.089	59432.04
583.449	59465.94
583.809	59496.22
584.169	59531.7
584.529	59429.33
584.889	59624.35
585.249	59497.57
585.609	59479.95
585.969	59554.97
586.329	59555.2
586.688	59595.88
587.048	59580.51
587.408	59464.58
587.768	59528.08
588.127	59498.03
588.487	59394.07
588.846	59589.32
589.206	59435.88
589.565	59425.49
589.925	59456.67
590.284	59353.62
590.643	59460.06
591.003	59499.61
591.362	59504.13
591.721	59443.11
592.08	59406.05
592.44	59533.28
592.799	59461.19
593.158	59449.89
593.517	59453.73
593.876	59499.61
594.235	59465.71
594.593	59561.08
594.952	59639.72
595.311	59521.75
595.67	59558.14
596.029	59688.98
596.387	59686.5
596.746	59721.07
597.104	59604.46
597.463	59642.88
597.822	59778.02
598.18	59749.77
598.538	59747.74
598.897	59837.9
599.255	59705.03
599.613	60014.4
599.972	59904.34
600.33	60008.97
600.688	59893.04
601.046	59991.12
601.404	60095.07
601.762	60009.2
602.12	60159.7
602.478	60131
602.836	60072.47
603.194	59990.67
603.552	60067.28
603.91	59990.67
604.268	60076.77
604.625	59997.67
604.983	60087.84
605.341	59944.79
605.698	60048.52
606.056	60098.46
606.413	60058.92
606.771	60155.86
607.128	60087.84
607.485	59993.38
607.843	60006.94
608.2	60215.07
608.557	60214.62
608.914	60056.66
609.272	60245.8
609.629	60302.07
609.986	60341.39
610.343	60246.25
610.7	60429.53
611.057	60358.57
611.414	60366.25
611.771	60451.22
612.127	60506.59
612.484	60492.35
612.841	60613.48
613.198	60468.85
613.554	60566.25
613.911	60657.54
614.267	60649.41
614.624	60673.81
614.98	60719.91
615.337	60919.46
615.693	60825.67
616.05	60786.35
616.406	60961.26
616.762	60870.65
617.118	60871.55
617.475	60884.88
617.831	61003.98
618.187	60994.48
618.543	60975.05
618.899	61118.32
619.255	61037.19
619.611	61037.42
619.967	61123.52
620.323	61064.99
620.678	60985.44
621.034	60920.59
621.39	60979.34
621.746	60865.9
622.101	61149.73
622.457	60859.35
622.812	60977.31
623.168	60969.4
623.523	60966.91
623.879	60964.65
624.234	60774.6
624.589	60869.52
624.945	60847.82
625.3	60919.46
625.655	60870.19
626.01	60830.42
626.365	60838.78
626.72	60802.85
627.075	60766.47
627.43	60804.66
627.785	60685.11
628.14	60762.4
628.495	60821.38
628.85	60746.81
629.205	60704.1
629.559	60859.12
629.914	60717.43
630.269	60734.83
630.623	60685.11
630.978	60660.03
631.332	60775.28
631.687	60807.82
632.041	60781.61
632.396	60799.46
632.75	60749.29
633.104	60771.44
633.459	60637.21
633.813	60642.18
634.167	60664.32
634.521	60636.98
634.875	60690.54
635.229	60577.09
635.583	60464.1
635.937	60481.5
636.291	60449.41
636.645	60477.66
636.999	60437.21
637.352	60488.96
637.706	60274.05
638.06	60416.42
638.413	60303.88
638.767	60229.76
639.121	60248.06
639.474	60070.89
639.828	60050.78
640.181	60115.18
640.534	60022.98
640.888	59928.98
641.241	59777.34
641.594	59829.77
641.947	59867.73
642.301	59785.25
642.654	59749.77
643.007	59672.94
643.36	59693.05
643.713	59601.75
644.066	59632.49
644.419	59443.34
644.771	59280.63
645.124	59078.83
645.477	59039.96
645.83	58849.46
646.182	58798.61
646.535	58659.18
646.888	58716.35
647.24	58599.29
647.593	58643.81
647.945	58662.79
648.298	58551.61
648.65	58552.29
649.002	58448.34
649.355	58616.02
649.707	58571.72
650.059	58720.87
650.411	59023.46
650.763	58993.18
651.115	59241.76
651.467	59152.95
651.819	59196.79
652.171	59091.93
652.523	59185.04
652.875	59206.51
653.227	59096.91
653.578	59227.75
653.93	59100.75
654.282	59002.45
654.633	58883.58
654.985	58995.89
655.337	58882.45
655.688	58944.59
656.039	59048.09
656.391	58842
656.742	58862.34
657.094	58834.77
657.445	58948.44
657.796	58832.73
658.147	58767.42
658.498	58674.77
658.849	58734.88
659.2	58638.16
659.551	58678.84
659.902	58676.13
660.253	58516.81
660.604	58555
660.955	58356.36
661.306	58432.97
661.656	58296.7
662.007	58300.77
662.358	58282.46
662.708	58286.31
663.059	58283.37
663.409	58044.05
663.76	58230.49
664.11	58157.27
664.461	58174.67
664.811	58176.03
665.161	58075.46
665.511	58007.22
665.862	58033.66
666.212	58154.11
666.562	58108.91
666.912	58083.83
667.262	58084.28
667.612	58110.04
667.962	58130.15
668.312	58096.03
668.662	58197.5
669.011	58128.8
669.361	58145.07
669.711	58098.29
670.06	58127.67
670.41	58082.02
670.76	58101.68
671.109	58128.34
671.459	58146.42
671.808	58071.17
672.157	58138.97
672.507	57950.72
672.856	57991.62
673.205	57991.4
673.554	58042.7
673.904	58003.38
674.253	58044.05
674.602	58013.32
674.951	57664.18
675.3	57470.28
675.649	57960.21
675.998	57835.7
676.346	57829.14
676.695	57913.43
677.044	57677.73
677.393	57784.85
677.741	57751.86
678.09	57703.95
678.438	57604.52
678.787	57637.96
679.135	57586.89
679.484	57376.73
679.832	57378.53
680.181	57295.6
680.529	57319.1
680.877	57248.82
681.225	57242.49
681.573	57357.52
681.922	57042.27
682.27	56962.05
682.618	56895.83
682.966	56883.18
683.314	56930.18
683.661	56834.82
684.009	56699
684.357	56581.27
684.705	56621.04
685.053	56641.6
685.4	56566.8
685.748	56386.7
686.095	56338.34
686.443	56293.14
686.79	56246.13
687.138	56318.45
687.485	56275.96
687.832	56228.28
688.18	56247.72
688.527	56035.07
688.874	56033.48
689.221	55969.98
689.568	55917.1
689.915	55877.56
690.262	55946.71
690.609	55879.14
690.956	55856.77
691.303	55677.56
691.65	55617.68
691.997	55664
692.344	55484.12
692.69	55525.7
693.037	55443.44
693.383	55189.21
693.73	55283.9
694.077	55150.8
694.423	55245.03
694.769	55144.69
695.116	55070.57
695.462	55045.49
695.808	54890.92
696.155	55046.17
696.501	54751.03
696.847	54803.69
697.193	54511.49
697.539	54667.42
697.885	54433.07
698.231	54318.95
698.577	54372.29
698.923	54217.94
699.269	53969.36
699.614	53828.34
699.96	53730.95
700.306	53826.54
700.651	53608.92
700.997	53480.33
701.342	53487.79
701.688	53413.44
702.033	53340.22
702.379	53278.53
702.724	53117.85
703.069	53158.08
703.415	52848.03
703.76	52879.89
704.105	52784.76
704.45	52651.2
704.795	52449.62
705.14	52292.79
705.485	52269.29
705.83	51980.94
706.175	52181.16
706.52	51924.44
706.865	51746.59
707.209	51745.69
707.554	51701.39
707.899	51659.14
708.243	51522.42
708.588	51457.79
708.932	51114.74
709.277	51223.67
709.621	51270.45
709.966	51118.13
710.31	51108.64
710.654	50885.37
710.998	50941.64
711.342	50878.37
711.687	50956.78
712.031	50720.18
712.375	50793.62
712.719	50756.33
713.063	50521.54
713.407	50648.99
713.75	50517.02
714.094	50480.86
714.438	50325.61
714.782	50430.92
715.125	50225.28
715.469	50325.61
715.812	50203.36
716.156	49954.32
716.499	50040.42
716.843	50172.17
717.186	49890.37
717.53	50014.21
717.873	49956.81
718.216	49802.01
718.559	49645.4
718.902	49450.15
719.246	49493.77
719.589	49384.39
719.932	49137.85
720.275	49211.97
720.617	49155.02
720.96	48964.97
721.303	48990.96
721.646	48992.54
721.989	48787.12
722.331	48930.85
722.674	48659.67
723.016	48734.47
723.359	48566.11
723.701	48634.36
724.044	48381.48
724.386	48140.13
724.729	48219
725.071	48132.9
725.413	47994.37
725.755	47964.54
726.097	47839.58
726.439	47623.99
726.782	47464.9
727.124	47620.15
727.465	47469.87
727.807	47351.23
728.149	47289.31
728.491	47118.92
728.833	47233.94
729.175	47041.18
729.516	46882.99
729.858	46805.48
730.199	46877.11
730.541	46741.07
730.882	46513.06
731.224	46609.33
731.565	46250.92
731.906	46479.39
732.248	46429.44
732.589	46005.05
732.93	45956.91
733.271	46010.02
733.612	46225.15
733.953	46154.42
734.294	45992.62
734.635	45698.84
734.976	45784.49
735.317	45652.29
735.658	45693.64
735.999	45475.57
736.339	45531.61
736.68	45580.2
737.021	45509.24
737.361	45289.13
737.702	45516.92
738.042	45592.85
738.383	45271.06
738.723	45516.25
739.063	45197.61
739.404	45270.38
739.744	45110.16
740.084	45004.4
740.424	45167.56
740.764	45007.11
741.104	45101.57
741.444	44689.83
741.784	44620
742.124	44671.52
742.464	44627.68
742.804	44534.35
743.143	44434.69
743.483	44470.85
743.823	44259.1
744.162	44228.82
744.502	44286.45
744.841	44139.11
745.181	44217.07
745.52	44024.99
745.86	43966.23
746.199	43863.86
746.538	43793.81
746.877	43872.45
747.216	43837.65
747.556	43484.21
747.895	43580.48
748.234	43386.36
748.573	43272.46
748.911	43182.52
749.25	43122.19
749.589	43032.7
749.928	42908.41
750.267	42870.44
750.605	42805.13
750.944	42663.21
751.283	42559.71
751.621	42654.4
751.96	42393.84
752.298	42373.73
752.636	42309.78
