Data from aluminium_macbook_case_FLMS001491_049.txt Node
Date: Tue Feb 07 10:43:41 GMT 2017
User: dcchb
Spectrometer: FLMS00149
Trigger mode: 0
Integration Time (sec): 2.000000E-2
Scans to average: 10
Electric dark correction enabled: true
Nonlinearity correction enabled: false
Boxcar width: 0
XAxis mode: Wavelengths
Number of Pixels in Spectrum: 2048
>>>>>Begin Spectral Data<<<<<
341.393	-7.01
341.776	-7.01
342.16	-7.01
342.543	-68.02
342.927	-51.52
343.31	-52.65
343.693	-65.99
344.077	-72.54
344.46	-57.63
344.843	-51.07
345.226	-32.77
345.61	-17.4
345.993	-27.34
346.376	-5.88
346.759	23.28
347.142	28.47
347.525	32.32
347.908	40.9
348.291	58.76
348.674	96.95
349.057	102.6
349.44	123.84
349.823	136.27
350.206	180.79
350.588	228.02
350.971	257.62
351.354	294.91
351.737	279.99
352.119	302.59
352.502	315.25
352.884	320.44
353.267	366.09
353.65	341.69
354.032	342.14
354.414	390.72
354.797	357.73
355.179	376.49
355.562	399.31
355.944	390.72
356.326	385.07
356.709	404.06
357.091	409.93
357.473	412.42
357.855	393.21
358.238	403.15
358.62	414.9
359.002	406.99
359.384	388.92
359.766	413.32
360.148	404.96
360.53	435.47
360.912	423.94
361.294	419.2
361.676	409.25
362.057	423.27
362.439	398.63
362.821	413.77
363.203	410.61
363.584	419.42
363.966	397.73
364.348	422.14
364.729	412.19
365.111	424.62
365.493	425.07
365.874	432.76
366.256	436.6
366.637	426.66
367.019	400.22
367.4	430.5
367.781	415.58
368.163	411.51
368.544	432.31
368.925	427.56
369.306	435.47
369.688	447.67
370.069	437.5
370.45	442.7
370.831	450.84
371.212	450.16
371.593	466.88
371.974	461.91
372.355	469.37
372.736	474.34
373.117	476.37
373.498	447.22
373.879	457.16
374.26	472.08
374.641	442.7
375.021	468.01
375.402	478.18
375.783	486.54
376.163	501
376.544	474.11
376.925	497.16
377.305	515.92
377.686	500.33
378.066	499.87
378.447	525.18
378.827	535.13
379.208	547.33
379.588	545.07
379.968	518.18
380.349	535.81
380.729	541.23
381.109	560.66
381.489	554.11
381.87	550.49
382.25	578.06
382.63	578.74
383.01	571.28
383.39	578.97
383.77	583.26
384.15	611.96
384.53	598.4
384.91	600.66
385.29	628.01
385.67	624.16
386.049	643.15
386.429	639.98
386.809	667.78
387.189	663.94
387.568	660.32
387.948	701.45
388.328	676.82
388.707	662.36
389.087	674.11
389.466	706.42
389.846	719.76
390.225	712.52
390.605	718.4
390.984	738.29
391.363	756.59
391.743	784.16
392.122	756.59
392.501	751.62
392.881	782.35
393.26	790.71
393.639	816.48
394.018	816.25
394.397	823.48
394.776	824.16
395.155	806.08
395.534	849.7
395.913	834.78
396.292	861.22
396.671	880.65
397.05	891.95
397.429	882.46
397.808	886.08
398.186	884.5
398.565	905.29
398.944	943.48
399.323	962.69
399.701	929.02
400.08	957.94
400.458	961.56
400.837	973.53
401.215	957.71
401.594	995.91
401.972	1007.66
402.351	1013.31
402.729	1023.48
403.107	1045.4
403.486	1055.57
403.864	1067.99
404.242	1068.67
404.62	1105.51
404.999	1099.41
405.377	1122.91
405.755	1110.03
406.133	1151.16
406.511	1153.19
406.889	1151.83
407.267	1218.95
407.645	1218.05
408.023	1234.54
408.401	1254.66
408.779	1278.84
409.156	1293.75
409.534	1322.68
409.912	1311.15
410.29	1339.4
410.667	1351.83
411.045	1409.68
411.422	1379.62
411.8	1411.71
412.178	1448.78
412.555	1469.57
412.933	1497.14
413.31	1484.03
413.687	1529.45
414.065	1545.72
414.442	1575.33
414.819	1569.68
415.197	1621.43
415.574	1629.79
415.951	1679.28
416.328	1632.05
416.705	1666.85
417.082	1693.29
417.46	1712.5
417.837	1731.71
418.214	1740.29
418.591	1768.99
418.967	1773.74
419.344	1810.57
419.721	1832.72
420.098	1831.59
420.475	1851.02
420.852	1872.95
421.228	1880.18
421.605	1905.49
421.982	1954.52
422.358	1964.92
422.735	2007.18
423.111	1996.78
423.488	2062.09
423.864	2083.34
424.241	2099.61
424.617	2111.81
424.994	2122.43
425.37	2165.82
425.746	2189.77
426.123	2196.78
426.499	2195.65
426.875	2262.54
427.251	2329.43
427.627	2316.55
428.003	2349.32
428.379	2414.85
428.756	2438.58
429.132	2455.08
429.507	2462.99
429.883	2505.92
430.259	2569.65
430.635	2591.34
431.011	2608.29
431.387	2722.87
431.763	2766.93
432.138	2732.81
432.514	2836.31
432.89	2805.8
433.265	2886.03
433.641	2891.45
434.016	2956.98
434.392	2992.69
434.767	3063.42
435.143	3083.76
435.518	3116.98
435.894	3122.4
436.269	3172.8
436.644	3260.48
437.02	3238.33
437.395	3254.6
437.77	3360.14
438.145	3374.37
438.52	3388.16
438.895	3472
439.271	3530.98
439.646	3564.2
440.021	3570.3
440.395	3568.95
440.77	3570.08
441.145	3635.16
441.52	3712.44
441.895	3695.72
442.27	3760.58
442.645	3731.88
443.019	3805.32
443.394	3813.91
443.769	3832.22
444.143	3829.73
444.518	3945.66
444.892	3905.66
445.267	3966.22
445.641	3983.62
446.016	4044.41
446.39	4095.26
446.764	4143.39
447.139	4105.43
447.513	4175.94
447.887	4222.94
448.262	4227.46
448.636	4247.57
449.01	4332.09
449.384	4364.86
449.758	4394.69
450.132	4490.73
450.506	4480.11
450.88	4568.02
451.254	4550.16
451.628	4577.51
452.002	4653.44
452.376	4718.52
452.75	4749.48
453.123	4844.39
453.497	4879.42
453.871	4920.55
454.244	5014.56
454.618	5055.01
454.992	5112.86
455.365	5187.21
455.739	5280.09
456.112	5340.42
456.486	5388.78
456.859	5426.98
457.232	5566.63
457.606	5509.01
457.979	5652.05
458.352	5768.89
458.725	5767.53
459.099	5839.62
459.472	5979.73
459.845	6015.44
460.218	6122.78
460.591	6164.13
460.964	6249.1
461.337	6339.95
461.71	6478.02
462.083	6534.74
462.456	6515.76
462.829	6577.68
463.201	6718.69
463.574	6684.12
463.947	6875.75
464.32	7014.73
464.692	7047.05
465.065	7119.81
465.438	7185.57
465.81	7341.28
466.183	7438.9
466.555	7549.86
466.928	7666.69
467.3	7673.02
467.672	7774.48
468.045	8009.05
468.417	8114.81
468.789	8037.3
469.161	8178.77
469.534	8344.87
469.906	8499.44
470.278	8609.04
470.65	8782.59
471.022	8838.86
471.394	9003.61
471.766	9136.26
472.138	9226.65
472.51	9445.63
472.882	9526.08
473.253	9729.91
473.625	9797.26
473.997	10039.06
474.369	10137.59
474.74	10198.15
475.112	10415.55
475.484	10664.58
475.855	10778.47
476.227	10863.67
476.598	11183.66
476.97	11321.51
477.341	11598.57
477.713	11723.99
478.084	11844.89
478.455	12277.64
478.827	12298.21
479.198	12674.47
479.569	12680.34
479.94	13042.14
480.311	13157.62
480.682	13431.06
481.053	13741.33
481.424	13960.54
481.795	14170.02
482.166	14392.39
482.537	14679.84
482.908	14886.84
483.279	15011.58
483.65	15304.46
484.021	15572.02
484.391	15859.7
484.762	15932.91
485.133	16127.26
485.503	16356.63
485.874	16752.78
486.244	16932.89
486.615	17253.56
486.985	17470.05
487.356	17848.8
487.726	17909.59
488.097	18300.54
488.467	18282.46
488.837	18815.32
489.207	18939.61
489.578	19244.92
489.948	19493.27
490.318	19707.73
490.688	19815.3
491.058	20149.07
491.428	20431.1
491.798	20606.01
492.168	20943.18
492.538	21025.21
492.908	21327.57
493.278	21590.62
493.648	21672.88
494.017	21940.67
494.387	22248.23
494.757	22407.32
495.126	22565.28
495.496	22674.88
495.866	22799.17
496.235	23172.5
496.605	23351.48
496.974	23571.36
497.344	23726.38
497.713	23961.18
498.082	24154.85
498.452	24451.11
498.821	24447.72
499.19	24793.92
499.559	24866.46
499.928	25040.47
500.298	25225.55
500.667	25562.04
501.036	25514.13
501.405	25908.25
501.774	25822.15
502.143	26150.95
502.512	26212.19
502.88	26417.84
503.249	26583.26
503.618	26725.62
503.987	26856.24
504.356	27056.69
504.724	27159.51
505.093	27320.19
505.462	27489.22
505.83	27717.69
506.199	28024.12
506.567	28303.21
506.936	28302.76
507.304	28660.49
507.672	28815.51
508.041	28978.45
508.409	29272.9
508.777	29501.6
509.145	29682.84
509.514	29706.11
509.882	30088.93
510.25	30221.13
510.618	30345.64
510.986	30655.47
511.354	30879.87
511.722	31190.59
512.09	31377.71
512.458	31330.48
512.826	31711.71
513.193	31882.33
513.561	32006.39
513.929	32328.64
514.297	32606.83
514.664	32711
515.032	32927.72
515.4	33231.67
515.767	33346.69
516.135	33509.18
516.502	33499.68
516.869	34215.15
517.237	34247.91
517.604	34146.22
517.972	34721.57
518.339	34873.66
518.706	34936.48
519.073	35264.38
519.44	35454.21
519.808	35885.38
520.175	35977.36
520.542	36371.92
520.909	36804.91
521.276	36835.87
521.643	37120.15
522.009	37566.47
522.376	37767.14
522.743	37980.47
523.11	38266.79
523.477	38803.27
523.843	38835.36
524.21	39272.41
524.577	39601.67
524.943	39824.72
525.31	39849.12
525.676	40228.77
526.043	40608.88
526.409	40762.09
526.776	41133.16
527.142	41291.57
527.508	41467.61
527.874	41595.06
528.241	42014.04
528.607	42088.61
528.973	42516.62
529.339	42441.6
529.705	42931.98
530.071	43272.53
530.437	43490.16
530.803	43731.96
531.169	43980.54
531.535	43918.62
531.901	44266.63
532.267	44475.67
532.632	44760.18
532.998	45055.09
533.364	45169.43
533.73	45228.42
534.095	45731.23
534.461	45775.07
534.826	45989.75
535.192	46256.18
535.557	46443.52
535.923	46521.71
536.288	46610.07
536.653	46824.53
537.019	46809.16
537.384	47067.69
537.749	47215.48
538.114	47178.19
538.479	47256.16
538.845	47567.11
539.21	47496.83
539.575	47672.42
539.94	47803.49
540.305	48002.58
540.67	48089.58
541.034	48335.68
541.399	48574.09
541.764	48482.79
542.129	48758.94
542.494	48793.75
542.858	48884.36
543.223	49050.69
543.587	49186.96
543.952	49248.42
544.316	49449.1
544.681	49447.29
545.045	49627.17
545.41	49905.81
545.774	49923.21
546.138	50067.61
546.503	50146.93
546.867	50264.89
547.231	50534.72
547.595	50682.06
547.959	50761.6
548.324	50851.54
548.688	50837.08
549.052	51061.93
549.416	51048.38
549.779	51252.44
550.143	51334.92
550.507	51654.69
550.871	51768.81
551.235	51622.82
551.599	51938.97
551.962	52089.25
552.326	52108.69
552.689	52215.12
553.053	52021.23
553.417	52193.2
553.78	52660.76
554.143	52525.85
554.507	52666.86
554.87	52678.84
555.234	53071.37
555.597	52954.54
555.96	53097.36
556.323	53218.49
556.686	53301.2
557.05	53576.22
557.413	53628.65
557.776	53672.71
558.139	53903.22
558.502	53944.12
558.865	54033.61
559.228	54228.63
559.59	54396.76
559.953	54471.34
560.316	54738.45
560.679	54785.45
561.041	54980.02
561.404	55098.21
561.767	55377.98
562.129	55185.67
562.492	55572.32
562.854	55491.42
563.217	55608.03
563.579	55711.76
563.941	55855.25
564.304	56051.63
564.666	56183.83
565.028	56132.54
565.39	56289.37
565.753	56394
566.115	56506.76
566.477	56595.57
566.839	56632.86
567.201	56843.25
567.563	56862.01
567.925	57069.01
568.287	56956.69
568.648	57084.15
569.01	57205.95
569.372	57350.81
569.734	57214.77
570.095	57461.09
570.457	57574.98
570.819	57580.41
571.18	57576.57
571.542	57812.04
571.903	57819.04
572.265	57926.39
572.626	58024.91
572.987	58116.66
573.349	58268.75
573.71	58286.38
574.071	58336.55
574.432	58367.05
574.794	58559.59
575.155	58559.59
575.516	58539.25
575.877	58590.1
576.238	58674.16
576.599	58766.14
576.96	58812.92
577.32	58860.83
577.681	58942.63
578.042	59045.45
578.403	59004.1
578.763	59000.48
579.124	59084.77
579.485	59190.08
579.845	59203.87
580.206	59140.14
580.566	59193.47
580.927	59214.49
581.287	59267.37
581.648	59148.5
582.008	59320.25
582.368	59235.28
582.728	59217.2
583.089	59272.79
583.449	59165
583.809	59257.88
584.169	59267.37
584.529	59220.14
584.889	59390.53
585.249	59181.72
585.609	59155.73
585.969	59305.33
586.329	59224.66
586.688	59353.92
587.048	59299.23
587.408	59224.43
587.768	59276.18
588.127	59313.92
588.487	59264.66
588.846	59482.5
589.206	59205
589.565	59308.5
589.925	59399.57
590.284	59298.33
590.643	59387.82
591.003	59461.04
591.362	59487.93
591.721	59464.65
592.08	59484.09
592.44	59579
592.799	59579.22
593.158	59510.98
593.517	59522.73
593.876	59581.94
594.235	59546.46
594.593	59495.61
594.952	59630.75
595.311	59462.17
595.67	59597.53
596.029	59752.78
596.387	59646.79
596.746	59700.35
597.104	59573.12
597.463	59522.5
597.822	59656.06
598.18	59562.5
598.538	59551.2
598.897	59718.66
599.255	59465.78
599.613	59877.3
599.972	59696.51
600.33	59668.26
600.688	59638.43
601.046	59708.94
601.404	59868.03
601.762	59798.2
602.12	59802.95
602.478	59823.51
602.836	59861.93
603.194	59718.43
603.552	59778.54
603.91	59704.64
604.268	59883.85
604.625	59818.77
604.983	59946.67
605.341	59896.28
605.698	59995.71
606.056	60021.25
606.413	60017.63
606.771	60056.95
607.128	60162.94
607.485	60012.21
607.843	60091.08
608.2	60149.38
608.557	60276.61
608.914	60179.89
609.272	60379.43
609.629	60310.5
609.986	60415.59
610.343	60233.67
610.7	60402.48
611.057	60397.96
611.414	60372.88
611.771	60453.1
612.127	60463.04
612.484	60458.98
612.841	60552.31
613.198	60448.35
613.554	60469.14
613.911	60635.69
614.267	60535.58
614.624	60555.92
614.98	60559.09
615.337	60698.07
615.693	60602.02
616.05	60636.6
616.406	60745.97
616.762	60550.95
617.118	60651.96
617.475	60623.04
617.831	60711.4
618.187	60665.75
618.543	60659.42
618.899	60799.76
619.255	60792.53
619.611	60713.88
619.967	60830.49
620.323	60908.45
620.678	60854.67
621.034	60819.42
621.39	60758.4
621.746	60733.09
622.101	60993.2
622.457	60806.54
622.812	60884.05
623.168	60912.97
623.523	60956.59
623.879	60972.18
624.234	60830.49
624.589	60933.09
624.945	60941.22
625.3	60922.69
625.655	60936.25
626.01	60965.4
626.365	60979.87
626.72	60991.16
627.075	60915.69
627.43	60906.65
627.785	60849.93
628.14	60798.18
628.495	60858.29
628.85	60843.82
629.205	60792.53
629.559	60962.01
629.914	60754.79
630.269	60788.23
630.623	60703.94
630.978	60644.96
631.332	60774
631.687	60691.29
632.041	60609.71
632.396	60665.52
632.75	60517.05
633.104	60525.87
633.459	60476.15
633.813	60411.29
634.167	60444.74
634.521	60401.35
634.875	60505.08
635.229	60355.48
635.583	60262.6
635.937	60225.31
636.291	60218.53
636.645	60236.38
636.999	60105.31
637.352	60154.58
637.706	60018.76
638.06	60100.79
638.413	60096.95
638.767	59988.03
639.121	60013.56
639.474	59857.86
639.828	59909.39
640.181	59908.48
640.534	59940.34
640.888	59821.48
641.241	59763.85
641.594	59824.42
641.947	59873.45
642.301	59803.85
642.654	59761.82
643.007	59808.37
643.36	59710.97
643.713	59655.38
644.066	59737.64
644.419	59660.8
644.771	59416.06
645.124	59233.02
645.477	59182.85
645.83	59028.05
646.182	58841.62
646.535	58792.58
646.888	58893.82
647.24	58741.05
647.593	58833.71
647.945	58779.7
648.298	58621.96
648.65	58496.32
649.002	58522.76
649.355	58566.82
649.707	58524.56
650.059	58655.41
650.411	58939.69
650.763	58907.38
651.115	59132.68
651.467	59037.32
651.819	58965
652.171	58797.55
652.523	58833.03
652.875	58860.15
653.227	58697.44
653.578	58936.08
653.93	58878
654.282	58758
654.633	58650.21
654.985	58616.99
655.337	58687.27
655.688	58619.7
656.039	58694.73
656.391	58496.77
656.742	58585.8
657.094	58502.42
657.445	58632.36
657.796	58590.78
658.147	58553.49
658.498	58478.46
658.849	58563.88
659.2	58489.31
659.551	58379.26
659.902	58542.42
660.253	58475.75
660.604	58438.69
660.955	58320.5
661.306	58425.13
661.656	58276.66
662.007	58365.92
662.358	58357.11
662.708	58355.3
663.059	58348.07
663.409	58212.03
663.76	58307.62
664.11	58307.85
664.461	58225.36
664.811	58327.28
665.161	58261.97
665.511	58148.53
665.862	58220.84
666.212	58319.14
666.562	58304.23
666.912	58205.93
667.262	58173.61
667.612	58103.56
667.962	58126.38
668.312	58153.73
668.662	58183.78
669.011	58121.41
669.361	57986.5
669.711	58016.33
670.06	57902.43
670.41	57900.85
670.76	57915.54
671.109	57982.66
671.459	57912.38
671.808	57809.55
672.157	57843.68
672.507	57688.2
672.856	57685.94
673.205	57704.7
673.554	57734.3
673.904	57659.73
674.253	57751.93
674.602	57693.4
674.951	57342.67
675.3	57207.54
675.649	57591.25
675.998	57513.52
676.346	57530.46
676.695	57651.37
677.044	57399.62
677.393	57485.27
677.741	57523.23
678.09	57436.46
678.438	57377.93
678.787	57384.93
679.135	57392.16
679.484	57269.68
679.832	57319.85
680.181	57207.54
680.529	57239.85
680.877	57131.83
681.225	57100.42
681.573	57233.3
681.922	57059.97
682.27	57018.84
682.618	57064.04
682.966	56958.28
683.314	57006.86
683.661	56915.11
684.009	56702.01
684.357	56605.52
684.705	56649.81
685.053	56697.72
685.4	56623.37
685.748	56472.87
686.095	56476.48
686.443	56402.13
686.79	56350.16
687.138	56368.91
687.485	56369.14
687.832	56277.16
688.18	56227.67
688.527	56086.21
688.874	56002.14
689.221	55952.65
689.568	55852.99
689.915	55792.21
690.262	55831.98
690.609	55630.63
690.956	55682.83
691.303	55638.99
691.65	55510.4
691.997	55481.03
692.344	55247.36
692.69	55295.5
693.037	55262.5
693.383	55023.86
693.73	55170.75
694.077	54860.7
694.423	54923.53
694.769	54837.88
695.116	54780.03
695.462	54658.22
695.808	54597.21
696.155	54594.72
696.501	54425.01
696.847	54370.32
697.193	54180.72
697.539	54268.18
697.885	54074.96
698.231	53938.02
698.577	53942.54
698.923	53868.41
699.269	53767.17
699.614	53654.41
699.96	53553.62
700.306	53578.03
700.651	53427.07
700.997	53291.03
701.342	53190.47
701.688	53185.49
702.033	53080.19
702.379	53044.25
702.724	53019.4
703.069	53077.02
703.415	52635.68
703.76	52654.43
704.105	52664.83
704.45	52433.88
704.795	52385.52
705.14	52277.95
705.485	52180.1
705.83	52095.81
706.175	52117.73
706.52	51984.62
706.865	51968.35
707.209	51912.53
707.554	51707.79
707.899	51832.08
708.243	51609.94
708.588	51590.06
708.932	51357.97
709.277	51305.54
709.621	51320.01
709.966	51102.16
710.31	51166.34
710.654	50794.6
710.998	50955.04
711.342	50963.86
711.687	50774.26
712.031	50561.61
712.375	50456.07
712.719	50602.96
713.063	50539.91
713.407	50599.8
713.75	50423.31
714.094	50311.67
714.438	50171.34
714.782	50080.04
715.125	49826.26
715.469	49988.06
715.812	49823.55
716.156	49607.06
716.499	49601.86
716.843	49565.02
717.186	49290.68
717.53	49599.6
717.873	49496.55
718.216	49562.76
718.559	49353.96
718.902	49097.01
719.246	49231.25
719.589	49065.6
719.932	48727.53
720.275	48798.72
720.617	48855.66
720.96	48692.05
721.303	48639.4
721.646	48517.59
721.989	48363.93
722.331	48561.21
722.674	48396.92
723.016	48411.16
723.359	48321.22
723.701	48315.57
724.044	47992.18
724.386	47909.25
724.729	47942.24
725.071	47849.14
725.413	47832.64
725.755	47746.99
726.097	47543.83
726.439	47405.76
726.782	47491.86
727.124	47478.98
727.465	47198.98
727.807	47277.4
728.149	47079.21
728.491	47100.46
728.833	47029.05
729.175	46846.23
729.516	46800.13
729.858	46747.7
730.199	46723.29
730.541	46634.48
730.882	46453.02
731.224	46626.12
731.565	46311.55
731.906	46341.61
732.248	46290.76
732.589	46047.38
732.93	45912.24
733.271	45998.79
733.612	45948.4
733.953	45968.73
734.294	45880.15
734.635	45796.99
734.976	45917.66
735.317	45612.13
735.658	45653.26
735.999	45503.89
736.339	45478.8
736.68	45648.74
737.021	45245.59
737.361	45247.85
737.702	45456.88
738.042	45144.35
738.383	45205.59
738.723	45082.66
739.063	44903.9
739.404	44894.86
739.744	44904.58
740.084	44868.65
740.424	44763.12
740.764	44712.5
741.104	44896.45
741.444	44536.23
741.784	44374.2
742.124	44636.11
742.464	44466.63
742.804	44367.65
743.143	44160.65
743.483	44208.33
743.823	43898.96
744.162	43943.25
744.502	43953.87
744.841	43733.99
745.181	43851.73
745.52	43641.34
745.86	43761.79
746.199	43639.08
746.538	43508.46
746.877	43364.96
747.216	43381.01
747.556	43244.06
747.895	43391.63
748.234	43033.44
748.573	43049.94
748.911	42918.65
749.25	42904.41
749.589	42770.85
749.928	42712.1
750.267	42679.78
750.605	42636.62
750.944	42317.76
751.283	42222.62
751.621	42257.87
751.96	42056.75
