Data from aluminium_surface_pro_back_FLMS001491_00055.txt Node
Date: Wed Feb 08 15:34:15 GMT 2017
User: dcchb
Spectrometer: FLMS00149
Trigger mode: 0
Integration Time (sec): 2.000000E-2
Scans to average: 10
Electric dark correction enabled: true
Nonlinearity correction enabled: false
Boxcar width: 0
XAxis mode: Wavelengths
Number of Pixels in Spectrum: 2048
>>>>>Begin Spectral Data<<<<<
341.393	4.05
341.776	4.05
342.16	4.05
342.543	-75.04
342.927	-76.62
343.31	-55.38
343.693	-64.65
344.077	-61.48
344.46	-67.58
344.843	-61.93
345.226	-37.53
345.61	-23.52
345.993	-20.8
346.376	-19.9
346.759	6.99
347.142	32.75
347.525	40.66
347.908	68.91
348.291	57.61
348.674	98.29
349.057	107.55
349.44	145.97
349.823	143.03
350.206	186.65
350.588	234.1
350.971	211.51
351.354	253.31
351.737	255.8
352.119	268
352.502	296.25
352.884	300.99
353.267	307.32
353.65	319.98
354.032	316.59
354.414	327.21
354.797	358.39
355.179	371.73
355.562	355
355.944	347.55
356.326	375.57
356.709	356.59
357.091	373.08
357.473	386.64
357.855	365.4
358.238	381.44
358.62	349.81
359.002	376.02
359.384	392.97
359.766	369.47
360.148	374.21
360.53	389.13
360.912	364.27
361.294	369.69
361.676	368.79
362.057	364.95
362.439	386.19
362.821	396.36
363.203	361.56
363.584	368.79
363.966	391.16
364.348	357.94
364.729	351.39
365.111	372.18
365.493	372.63
365.874	366.3
366.256	375.8
366.637	367.21
367.019	372.63
367.4	355.91
367.781	392.52
368.163	385.29
368.544	390.03
368.925	374.44
369.306	382.12
369.688	385.96
370.069	381.44
370.45	353.2
370.831	373.08
371.212	403.59
371.593	367.21
371.974	373.54
372.355	363.59
372.736	381.9
373.117	391.61
373.498	393.65
373.879	390.26
374.26	396.81
374.641	382.35
375.021	359.75
375.402	389.13
375.783	415.79
376.163	432.06
376.544	420.77
376.925	409.24
377.305	414.89
377.686	409.47
378.066	429.81
378.447	425.51
378.827	418.05
379.208	439.52
379.588	436.58
379.968	430.71
380.349	418.51
380.729	434.1
381.109	453.99
381.489	454.21
381.87	444.95
382.25	450.82
382.63	448.56
383.01	453.31
383.39	481.1
383.77	477.26
384.15	498.05
384.53	465.96
384.91	469.13
385.29	495.57
385.67	499.86
386.049	499.41
386.429	494.21
386.809	507.32
387.189	488.11
387.568	512.29
387.948	538.05
388.328	525.62
388.707	553.87
389.087	531.27
389.466	552.06
389.846	563.13
390.225	543.25
390.605	572.17
390.984	577.82
391.363	560.2
391.743	567.65
392.122	589.57
392.501	595.22
392.881	617.6
393.26	615.56
393.639	597.71
394.018	625.96
394.397	636.81
394.776	646.3
395.155	633.42
395.534	654.88
395.913	670.7
396.292	663.47
396.671	686.52
397.05	670.25
397.429	653.08
397.808	697.14
398.186	675.45
398.565	690.36
398.944	675.9
399.323	702.57
399.701	738.72
400.08	725.39
400.458	732.17
400.837	735.56
401.215	734.2
401.594	762.68
401.972	733.3
402.351	786.18
402.729	788.21
403.107	800.64
403.486	810.59
403.864	812.17
404.242	808.1
404.62	819.17
404.999	834.77
405.377	861.88
405.755	846.07
406.133	881.54
406.511	880.64
406.889	898.27
407.267	905.27
407.645	908.89
408.023	929.68
408.401	938.94
408.779	942.11
409.156	975.78
409.534	976.91
409.912	994.99
410.29	978.94
410.667	1015.1
411.045	1018.04
411.422	1031.82
411.8	1025.5
412.178	1072.5
412.555	1089.45
412.933	1124.48
413.31	1117.7
413.687	1119.96
414.065	1107.98
414.442	1142.78
414.819	1157.24
415.197	1168.99
415.574	1204.25
415.951	1200.63
416.328	1196.56
416.705	1202.44
417.082	1227.75
417.46	1236.56
417.837	1248.77
418.214	1244.25
418.591	1287.18
418.967	1287.41
419.344	1308.88
419.721	1336
420.098	1315.66
420.475	1351.59
420.852	1346.17
421.228	1388.88
421.605	1366.28
421.982	1407.18
422.358	1406.73
422.735	1437.01
423.111	1451.02
423.488	1455.77
423.864	1475.65
424.241	1503.68
424.617	1511.81
424.994	1529.44
425.37	1538.93
425.746	1568.53
426.123	1563.11
426.499	1558.59
426.875	1614.41
427.251	1645.37
427.627	1654.63
428.003	1709.32
428.379	1700.05
428.756	1719.49
429.132	1772.37
429.507	1767.17
429.883	1788.19
430.259	1816.44
430.635	1838.36
431.011	1834.74
431.387	1937.11
431.763	1931.46
432.138	1949.54
432.514	1984.34
432.89	1978.24
433.265	2013.49
433.641	2029.76
434.016	2100.95
434.392	2089.2
434.767	2106.37
435.143	2145.24
435.518	2179.82
435.894	2175.07
436.269	2242.64
436.644	2230.44
437.02	2239.7
437.395	2278.57
437.77	2349.53
438.145	2338.91
438.52	2396.08
438.895	2375.29
439.271	2405.8
439.646	2488.06
440.021	2457.77
440.395	2464.55
440.77	2464.78
441.145	2483.31
441.52	2575.96
441.895	2580.03
442.27	2566.47
442.645	2568.73
443.019	2606.7
443.394	2643.53
443.769	2680.37
444.143	2660.71
444.518	2704.77
444.892	2683.76
445.267	2749.74
445.641	2686.69
446.016	2777.09
446.39	2820.48
446.764	2799.46
447.139	2847.82
447.513	2861.38
447.887	2876.97
448.262	2895.05
448.636	2911.1
449.01	2965.11
449.384	2953.81
449.758	3043.75
450.132	3035.84
450.506	3088.72
450.88	3086.91
451.254	3100.02
451.628	3157.64
452.002	3170.52
452.376	3207.81
452.75	3248.49
453.123	3247.13
453.497	3322.84
453.871	3358.54
454.244	3417.07
454.618	3451.42
454.992	3484.41
455.365	3517.41
455.739	3621.36
456.112	3597.86
456.486	3616.39
456.859	3697.97
457.232	3747.23
457.606	3755.82
457.979	3766.44
458.352	3939.09
458.725	3925.53
459.099	3954.46
459.472	4010.73
459.845	4059.31
460.218	4129.14
460.591	4162.81
460.964	4187.9
461.337	4261.34
461.71	4347.67
462.083	4385.63
462.456	4412.07
462.829	4414.11
463.201	4522.13
463.574	4534.56
463.947	4626.76
464.32	4729.35
464.692	4736.58
465.065	4766.19
465.438	4868.78
465.81	4951.04
466.183	4939.29
466.555	5130.02
466.928	5119.17
467.3	5115.33
467.672	5182.9
468.045	5358.94
468.417	5400.3
468.789	5363.69
469.161	5518.71
469.534	5541.76
469.906	5675.77
470.278	5708.54
470.65	5787.18
471.022	5939.72
471.394	5995.31
471.766	6051.8
472.138	6088.64
472.51	6295.64
472.882	6356.88
473.253	6470.55
473.625	6520.27
473.997	6656.31
474.369	6691.34
474.74	6818.79
475.112	6946.7
475.484	7000.71
475.855	7202.51
476.227	7294.94
476.598	7407.02
476.97	7510.3
477.341	7612.67
477.713	7832.1
478.084	7831.87
478.455	8066.21
478.827	8155.25
479.198	8345.98
479.569	8366.55
479.94	8618.29
480.311	8729.47
480.682	8850.6
481.053	9111.16
481.424	9213.75
481.795	9358.84
482.166	9477.48
482.537	9589.56
482.908	9839.95
483.279	9964.7
483.65	10145.93
484.021	10323.78
484.391	10380.05
484.762	10535.75
485.133	10684
485.503	10752.25
485.874	11035.85
486.244	11141.61
486.615	11404.21
486.985	11456.86
487.356	11641.94
487.726	11763.97
488.097	12082.15
488.467	12043.74
488.837	12329.15
489.207	12521.46
489.578	12705.41
489.948	12817.05
490.318	12941.34
490.688	13027.67
491.058	13211.16
491.428	13448.22
491.798	13551.72
492.168	13857.47
492.538	13920.98
492.908	14057.24
493.278	14336.33
493.648	14360.96
494.017	14489.32
494.387	14724.8
494.757	14904.23
495.126	15038.91
495.496	15001.17
495.866	15218.12
496.235	15295.18
496.605	15501.5
496.974	15592.12
497.344	15809.74
497.713	15849.96
498.082	16073.01
498.452	16243.63
498.821	16375.6
499.19	16379.22
499.559	16508.25
499.928	16599.1
500.298	16704.63
500.667	16985.3
501.036	16944.4
501.405	17148.24
501.774	17155.92
502.143	17333.32
502.512	17533.31
502.88	17579.64
503.249	17707.54
503.618	17778.28
503.987	17848.33
504.356	18014.88
504.724	18157.25
505.093	18181.43
505.462	18323.35
505.83	18537.8
506.199	18681.53
506.567	18926.95
506.936	18778.25
507.304	19123.32
507.672	19185.7
508.041	19176.66
508.409	19419.14
508.777	19582.52
509.145	19691.67
509.514	19769.64
509.882	19972.12
510.25	19968.05
510.618	20162.62
510.986	20267.7
511.354	20577.52
511.722	20703.62
512.09	20897.74
512.458	20880.34
512.826	21180.67
513.193	21232.42
513.561	21443.72
513.929	21588.12
514.297	21618.17
514.664	21906.53
515.032	21960.99
515.4	22324.14
515.767	22379.74
516.135	22485.04
516.502	22461.99
516.869	22907.86
517.237	22965.48
517.604	22962.32
517.972	23309.66
518.339	23404.34
518.706	23536.32
519.073	23682.98
519.44	23824.67
519.808	24126.81
520.175	24106.02
520.542	24493.81
520.909	24624.2
521.276	24605.67
521.643	24855.15
522.009	25026.9
522.376	25294.01
522.743	25368.81
523.11	25663.94
523.477	26030.04
523.843	26197.26
524.21	26526.07
524.577	26647.42
524.943	26799.51
525.31	26942.1
525.676	27254.41
526.043	27491.69
526.409	27690.56
526.776	27987.95
527.142	28038.12
527.508	28226.59
527.874	28372.8
528.241	28499.12
528.607	28785.9
528.973	29007.36
529.339	28906.12
529.705	29347.24
530.071	29526.44
530.437	29661.13
530.803	29879.2
531.169	29976.37
531.535	30029.7
531.901	30180.44
532.267	30303.14
532.632	30590.37
532.998	30562.12
533.364	30870.81
533.73	30911.26
534.095	31259.05
534.461	31316.68
534.826	31458.14
535.192	31558.03
535.557	31762.31
535.923	31742.65
536.288	31875.31
536.653	32280.04
537.019	32128.41
537.384	32306.71
537.749	32474.16
538.114	32558.45
538.479	32566.14
538.845	32744.44
539.21	32847.26
539.575	33009.97
539.94	33163.63
540.305	33302.16
540.67	33227.36
541.034	33344.42
541.399	33566.56
541.764	33714.35
542.129	33822.83
542.494	34021.01
542.858	33970.17
543.223	34098.3
543.587	34422.58
543.952	34341
544.316	34565.86
544.681	34516.82
545.045	34620.32
545.41	34854.89
545.774	34968.33
546.138	35061.44
546.503	35105.5
546.867	35277.7
547.231	35400.64
547.595	35652.38
547.959	35584.36
548.324	35767.41
548.688	35757.24
549.052	35960.62
549.416	35899.15
549.779	36034.97
550.143	36143.44
550.507	36449.42
550.871	36573.49
551.235	36523.09
551.599	36853.93
551.962	36920.37
552.326	37047.37
552.689	37179.8
553.053	37015.51
553.417	37436.97
553.78	37771.2
554.143	37664.53
554.507	38062.49
554.87	38027.23
555.234	38520.33
555.597	38221.35
555.96	38354.46
556.323	38683.49
556.686	38754.22
557.05	38911.28
557.413	39156.7
557.776	39372.74
558.139	39500.19
558.502	39451.83
558.865	39508.78
559.228	39975.43
559.59	40119.61
559.953	40286.16
560.316	40614.06
560.679	40600.95
561.041	40844.79
561.404	41033.94
561.767	41337.43
562.129	41258.11
562.492	41673.47
562.854	41759.57
563.217	41760.02
563.579	41915.95
563.941	42187.35
564.304	42345.54
564.666	42665.98
565.028	42714.34
565.39	42981.91
565.753	43260.09
566.115	43252.18
566.477	43526.98
566.839	43569.01
567.201	44064.14
567.563	44248.09
567.925	44325.6
568.287	44346.84
568.648	44369.44
569.01	44764.01
569.372	45053.72
569.734	44928.75
570.095	45360.83
570.457	45418.45
570.819	45563.99
571.18	45644.21
571.542	45893.24
571.903	45923.98
572.265	46171.2
572.626	46275.15
572.987	46370.29
573.349	46456.17
573.71	46691.41
574.071	46970.5
574.432	47025.19
574.794	47270.83
575.155	47249.59
575.516	47207.11
575.877	47337.05
576.238	47450.72
576.599	47575.46
576.96	47742.46
577.32	47693.2
577.681	48018.84
578.042	48066.74
578.403	48109.46
578.763	48261.09
579.124	48312.84
579.485	48331.6
579.845	48621.31
580.206	48451.14
580.566	48552.38
580.927	48755.09
581.287	48740.17
581.648	48760.74
582.008	48941.98
582.368	48765.26
582.728	48957.34
583.089	48747.4
583.449	48831.02
583.809	48789.44
584.169	48902.65
584.529	48857.91
584.889	49194.62
585.249	48979.71
585.609	48967.29
585.969	49228.75
586.329	49146.72
586.688	49209.09
587.048	49064.68
587.408	49075.53
587.768	49126.38
588.127	49091.58
588.487	49046.15
588.846	49376.77
589.206	49088.19
589.565	49175.64
589.925	49290.67
590.284	49120.73
590.643	49201.86
591.003	49387.84
591.362	49350.78
591.721	49289.76
592.08	49341.29
592.44	49475.07
592.799	49346.71
593.158	49405.92
593.517	49528.63
593.876	49435.3
594.235	49408.63
594.593	49506.03
594.952	49589.64
595.311	49392.81
595.67	49571.56
596.029	49789.19
596.387	49799.35
596.746	49748.28
597.104	49687.94
597.463	49672.58
597.822	49823.08
598.18	49691.79
598.538	49695.85
598.897	49854.95
599.255	49562.07
599.613	50109.63
599.972	49822.86
600.33	49926.81
600.688	49779.92
601.046	49904.66
601.404	49995.28
601.762	49887.04
602.12	50179.91
602.478	50207.03
602.836	50131.78
603.194	50052
603.552	50047.03
603.91	49975.39
604.268	50156.63
604.625	50096.3
604.983	50308.72
605.341	50032.79
605.698	50374.03
606.056	50433.69
606.413	50388.04
606.771	50514.14
607.128	50540.13
607.485	50351.43
607.843	50404.54
608.2	50611.54
608.557	50574.25
608.914	50488.6
609.272	50759.56
609.629	50738.99
609.986	50831.19
610.343	50641.14
610.7	50862.15
611.057	50800.46
611.414	50802.72
611.771	50794.58
612.127	50936.73
612.484	50943.73
612.841	51000
613.198	50926.1
613.554	51036.16
613.911	51124.74
614.267	51117.74
614.624	51204.52
614.98	51240.45
615.337	51389.37
615.693	51259.88
616.05	51343.27
616.406	51565.64
616.762	51331.97
617.118	51338.97
617.475	51437.05
617.831	51515.47
618.187	51473.89
618.543	51479.08
618.899	51675.92
619.255	51529.7
619.611	51614.22
619.967	51689.7
620.323	51785.74
620.678	51701.45
621.034	51635.46
621.39	51631.4
621.746	51607.22
622.101	51950.71
622.457	51713.65
622.812	51771.73
623.168	51804.27
623.523	51791.39
623.879	51957.26
624.234	51644.28
624.589	51813.99
624.945	51786.42
625.3	51879.98
625.655	51856.25
626.01	51881.79
626.365	51829.13
626.72	51807.89
627.075	51784.61
627.43	51760.43
627.785	51710.49
628.14	51860.09
628.495	51844.05
628.85	51769.47
629.205	51615.13
629.559	51750.72
629.914	51637.72
630.269	51628.46
630.623	51511.4
630.978	51500.55
631.332	51609.48
631.687	51608.8
632.041	51374.45
632.396	51389.37
632.75	51331.52
633.104	51333.1
633.459	51194.35
633.813	51298.98
634.167	51158.64
634.521	51145.76
634.875	51085.2
635.229	51162.03
635.583	50873.45
635.937	51085.2
636.291	50944.18
636.645	50931.75
636.999	50793.68
637.352	50892.43
637.706	50865.77
638.06	50901.47
638.413	50680.01
638.767	50571.09
639.121	50795.03
639.474	50560.24
639.828	50588.94
640.181	50633.68
640.534	50552.55
640.888	50524.99
641.241	50322.05
641.594	50373.8
641.947	50372.45
642.301	50303.52
642.654	50358.44
643.007	50308.95
643.36	50286.8
643.713	50244.54
644.066	50239.12
644.419	49932.68
644.771	49779.47
645.124	49404.11
645.477	49308.07
645.83	49234.62
646.182	49019.26
646.535	48929.32
646.888	48957.57
647.24	48624.7
647.593	48933.16
647.945	48795.54
648.298	48730.46
648.65	48625.83
649.002	48425.61
649.355	48571.59
649.707	48566.62
650.059	48656.33
650.411	49103.78
650.763	49207.51
651.115	49553.94
651.467	49371.8
651.819	49349.87
652.171	49257.22
652.523	49205.02
652.875	49257.22
653.227	48927.51
653.578	49185.81
653.93	49035.31
654.282	48739.04
654.633	48703.79
654.985	48795.99
655.337	48622.21
655.688	48763.22
656.039	48726.84
656.391	48421.31
656.742	48569.78
657.094	48551.7
657.445	48753.51
657.796	48450.01
658.147	48452.27
658.498	48363.91
658.849	48504.02
659.2	48397.81
659.551	48268.55
659.902	48450.01
660.253	48383.35
660.604	48545.15
660.955	48244.82
661.306	48472.61
661.656	48322.78
662.007	48310.13
662.358	48323.01
662.708	48356.91
663.059	48242.56
663.409	48045.05
663.76	48419.05
664.11	48202.33
664.461	48282.56
664.811	48229.45
665.161	48172.73
665.511	48051.15
665.862	48180.41
666.212	48118.04
666.562	48172.05
666.912	48135.44
667.262	48046.63
667.612	48030.59
667.962	48090.47
668.312	48069.23
668.662	48201.66
669.011	48117.36
669.361	48080.53
669.711	48035.56
670.06	47944.49
670.41	47913.53
670.76	47852.51
671.109	47978.84
671.459	48012.96
671.808	47889.8
672.157	47932.51
672.507	47760.31
672.856	47695.68
673.205	47765.51
673.554	47904.49
673.904	47657.94
674.253	47874.66
674.602	47717.38
674.951	47064.51
675.3	46860.22
675.649	47552.86
675.998	47469.47
676.346	47567.32
676.695	47512.63
677.044	47172.53
677.393	47288.46
677.741	47319.65
678.09	47223.83
678.438	47233.09
678.787	47206.43
679.135	47243.49
679.484	46927.79
679.832	47068.8
680.181	46855.25
680.529	46921.92
680.877	46840.11
681.225	46900.45
681.573	47097.73
681.922	46769.15
682.27	46613.45
682.618	46674.46
682.966	46558.54
683.314	46598.08
683.661	46335.94
684.009	46198.77
684.357	46211.65
684.705	46143.86
685.053	46145.67
685.4	46003.75
685.748	45981.83
686.095	45902.28
686.443	45655.06
686.79	45688.5
687.138	45611.22
687.485	45544.33
687.832	45416.64
688.18	45514.72
688.527	45164
688.874	45246.71
689.221	45194.28
689.568	45028.86
689.915	44924.45
690.262	44952.25
690.609	44859.82
690.956	44758.13
691.303	44710.67
691.65	44496.89
691.997	44472.49
692.344	44144.81
692.69	44186.62
693.037	44238.82
693.383	43886.97
693.73	43930.36
694.077	43651.04
694.423	43690.59
694.769	43583.02
695.116	43465.06
695.462	43465.28
695.808	43218.06
696.155	43326.98
696.501	42866.2
696.847	42944.39
697.193	42575.14
697.539	42989.59
697.885	42508.02
698.231	42494.24
698.577	42308.48
698.923	42314.13
699.269	42106.45
699.614	41896.74
699.96	41788.27
700.306	41917.75
700.651	41744.42
700.997	41399.35
701.342	41545.56
701.688	41393.02
702.033	41370.42
702.379	41194.61
702.724	41076.19
703.069	41187.38
703.415	40679.82
703.76	40794.17
704.105	40810.89
704.45	40659.93
704.795	40494.97
705.14	40221.3
705.485	40254.97
705.83	40114.64
706.175	40113.73
706.52	39986.73
706.865	39860.63
707.209	39767.98
707.554	39588.32
707.899	39694.99
708.243	39415.9
708.588	39356.47
708.932	39158.96
709.277	39092.97
709.621	39074.21
709.966	38774.33
710.31	38910.6
710.654	38467.67
710.998	38715.35
711.342	38521.91
711.687	38504.74
712.031	38326.66
712.375	38134.58
712.719	38187.23
713.063	38304.52
713.407	38309.71
713.75	38163.5
714.094	38013.22
714.438	37950.17
714.782	37814.58
715.125	37622.27
715.469	37820.23
715.812	37529.39
716.156	37260.02
716.499	37495.05
716.843	37441.49
717.186	37170.31
717.53	37356.74
717.873	37306.8
718.216	37152
718.559	37129.63
718.902	36807.61
719.246	36898.9
719.589	36820.71
719.932	36487.16
720.275	36452.13
720.617	36446.03
720.96	36523.09
721.303	36376.66
721.646	36396.09
721.989	36098.25
722.331	36272.03
722.674	36041.98
723.016	36063.44
723.359	35956.55
723.701	35921.08
724.044	35709.56
724.386	35653.51
724.729	35674.3
725.071	35597.24
725.413	35618.03
725.755	35412.61
726.097	35383.69
726.439	35064.15
726.782	35188.21
727.124	35246.29
727.465	35136.24
727.807	35136.01
728.149	35001.55
728.491	34891.5
728.833	34899.41
729.175	34761.33
729.516	34769.24
729.858	34721.56
730.199	34724.27
730.541	34646.31
730.882	34589.36
731.224	34699.86
731.565	34352.08
731.906	34451.28
732.248	34515.24
732.589	34350.5
732.93	34176.04
733.271	34082.25
733.612	34217.17
733.953	34185.53
734.294	33865.54
734.635	33911.41
734.976	34062.14
735.317	33811.75
735.658	33766.1
735.999	33721.81
736.339	33800.45
736.68	33795.03
737.021	33646.33
737.361	33452.44
737.702	33527.69
738.042	33414.25
738.383	33411.76
738.723	33302.16
739.063	33130.87
739.404	33239.11
739.744	33162.73
740.084	33052
740.424	33070.75
740.764	32871.44
741.104	33140.36
741.444	32770.2
741.784	32820.59
742.124	32713.02
742.464	32719.58
742.804	32485.01
743.143	32548.51
743.483	32614.27
743.823	32335.41
744.162	32241.4
744.502	32147.39
744.841	32213.83
745.181	32315.75
745.52	32082.53
745.86	32159.59
746.199	31986.49
746.538	31944
746.877	31892.48
747.216	31880.96
747.556	31814.52
747.895	31869.66
748.234	31694.75
748.573	31622.43
748.911	31608.65
749.25	31548.31
749.589	31468.76
749.928	31450.01
750.267	31419.05
750.605	31429.67
750.944	31285.94
751.283	30989.91
751.621	31145.16
751.96	30965.95
752.298	31012.5
752.636	31026.74
752.975	30893.86
