Data from aluminium_macbook_case_FLMS001491_001.txt Node
Date: Tue Feb 07 10:43:06 GMT 2017
User: dcchb
Spectrometer: FLMS00149
Trigger mode: 0
Integration Time (sec): 2.000000E-2
Scans to average: 10
Electric dark correction enabled: true
Nonlinearity correction enabled: false
Boxcar width: 0
XAxis mode: Wavelengths
Number of Pixels in Spectrum: 2048
>>>>>Begin Spectral Data<<<<<
341.393	-37.05
341.776	-37.05
342.16	-37.05
342.543	-78.18
342.927	-63.26
343.31	-49.25
343.693	-72.98
344.077	-44.73
344.46	-57.16
344.843	-38.18
345.226	-28.69
345.61	-51.06
345.993	-22.13
346.376	-13.77
346.759	17.41
347.142	-7.9
347.525	26
347.908	47.47
348.291	59
348.674	118.2
349.057	117.75
349.44	119.56
349.823	124.98
350.206	156.17
350.588	251.31
350.971	261.48
351.354	284.98
351.737	293.11
352.119	293.79
352.502	308.93
352.884	336.73
353.267	350.51
353.65	326.79
354.032	360.68
354.414	362.04
354.797	360.91
355.179	378.31
355.562	405.43
355.944	381.7
356.326	369.72
356.709	402.94
357.091	407.01
357.473	414.01
357.855	419.21
358.238	394.81
358.62	402.94
359.002	423.51
359.384	394.81
359.766	427.8
360.148	409.95
360.53	441.58
360.912	421.92
361.294	437.97
361.676	410.85
362.057	417.63
362.439	416.5
362.821	423.05
363.203	406.78
363.584	423.28
363.966	405.2
364.348	417.4
364.729	426.44
365.111	418.08
365.493	402.04
365.874	422.38
366.256	422.38
366.637	430.51
367.019	431.64
367.4	429.83
367.781	426.9
368.163	437.74
368.544	410.17
368.925	426.67
369.306	442.26
369.688	430.06
370.069	451.75
370.45	437.97
370.831	467.35
371.212	466.22
371.593	448.14
371.974	456.73
372.355	429.38
372.736	477.74
373.117	480.23
373.498	483.17
373.879	463.05
374.26	465.76
374.641	451.08
375.021	444.07
375.402	484.97
375.783	499.89
376.163	530.85
376.544	514.8
376.925	516.61
377.305	508.93
377.686	517.74
378.066	528.14
378.447	524.29
378.827	526.55
379.208	549.15
379.588	554.8
379.968	562.71
380.349	555.03
380.729	545.54
381.109	542.82
381.489	566.55
381.87	565.2
382.25	592.54
382.63	594.12
383.01	584.63
383.39	620.79
383.77	606.1
384.15	580.11
384.53	611.75
384.91	637.06
385.29	634.8
385.67	661.69
386.049	638.64
386.429	655.36
386.809	672.31
387.189	666.66
387.568	696.04
387.948	688.36
388.328	695.82
388.707	713.89
389.087	717.28
389.466	725.19
389.846	749.37
390.225	740.33
390.605	754.12
390.984	760.45
391.363	779.88
391.743	756.15
392.122	789.15
392.501	807
392.881	808.81
393.26	839.31
393.639	810.16
394.018	831.18
394.397	851.07
394.776	846.09
395.155	862.82
395.534	845.87
395.913	881.12
396.292	907.11
396.671	931.97
397.05	903.95
397.429	915.02
397.808	919.09
398.186	927.45
398.565	939.42
398.944	935.36
399.323	955.92
399.701	988.91
400.08	990.27
400.458	969.48
400.837	996.37
401.215	1039.99
401.594	1030.72
401.972	1070.49
402.351	1074.34
402.729	1086.31
403.107	1087.44
403.486	1125.63
403.864	1113.21
404.242	1102.36
404.62	1141
404.999	1163.83
405.377	1178.74
405.755	1193.66
406.133	1202.24
406.511	1198.4
406.889	1218.74
407.267	1246.31
407.645	1281.56
408.023	1288.12
408.401	1308.91
408.779	1320.43
409.156	1347.78
409.534	1350.71
409.912	1380.32
410.29	1415.34
410.667	1425.74
411.045	1444.72
411.422	1477.94
411.8	1464.83
412.178	1514.1
412.555	1527.43
412.933	1551.39
413.31	1559.07
413.687	1590.71
414.065	1632.06
414.442	1627.32
414.819	1646.52
415.197	1685.39
415.574	1728.33
415.951	1733.08
416.328	1748.22
416.705	1745.05
417.082	1773.75
417.46	1794.54
417.837	1802.45
418.214	1832.28
418.591	1863.02
418.967	1898.95
419.344	1880.64
419.721	1921.32
420.098	1932.62
420.475	1954.31
420.852	1971.94
421.228	2027.53
421.605	2060.52
421.982	2081.54
422.358	2102.56
422.735	2100.07
423.111	2089.9
423.488	2185.49
423.864	2183.91
424.241	2180.3
424.617	2212.16
424.994	2239.73
425.37	2290.8
425.746	2299.61
426.123	2349.1
426.499	2354.3
426.875	2403.57
427.251	2452.38
427.627	2472.04
428.003	2478.82
428.379	2554.98
428.756	2566.5
429.132	2588.19
429.507	2667.74
429.883	2684.46
430.259	2758.81
430.635	2750.45
431.011	2766.5
431.387	2869.54
431.763	2854.63
432.138	2945.93
432.514	2964.68
432.89	2994.51
433.265	3071.57
433.641	3098.69
434.016	3117.22
434.392	3159.03
434.767	3260.04
435.143	3235.86
435.518	3272.24
435.894	3330.55
436.269	3392.92
436.644	3425.23
437.02	3476.76
437.395	3461.84
437.77	3519.92
438.145	3596.08
438.52	3633.36
438.895	3677.88
439.271	3704.78
439.646	3777.77
440.021	3825.9
440.395	3853.25
440.77	3853.47
441.145	3918.1
441.52	3941.38
441.895	3961.49
442.27	3981.38
442.645	4018.89
443.019	4057.08
443.394	4096.18
443.769	4091.66
444.143	4104.09
444.518	4224.08
444.892	4214.14
445.267	4182.05
445.641	4288.71
446.016	4299.11
446.39	4334.59
446.764	4391.31
447.139	4369.16
447.513	4467.24
447.887	4468.6
448.262	4487.58
448.636	4510.63
449.01	4625.88
449.384	4640.12
449.758	4706.56
450.132	4778.42
450.506	4815.48
450.88	4864.97
451.254	4815.25
451.628	4910.85
452.002	4956.95
452.376	5026.1
452.75	5065.87
453.123	5113.33
453.497	5188.13
453.871	5223.61
454.244	5320.33
454.618	5388.35
454.992	5453.66
455.365	5510.6
455.739	5631.5
456.112	5684.16
456.486	5737.04
456.859	5764.16
457.232	5912.4
457.606	5926.64
457.979	5995.34
458.352	6171.6
458.725	6255.44
459.099	6248.44
459.472	6448.21
459.845	6496.34
460.218	6529.11
460.591	6573.85
460.964	6616.56
461.337	6784.24
461.71	6926.39
462.083	6987.18
462.456	7028.3
462.829	7056.33
463.201	7181.07
463.574	7147.62
463.947	7292.25
464.32	7527.27
464.692	7501.06
465.065	7619.7
465.438	7769.98
465.81	7879.58
466.183	7956.42
466.555	8196.86
466.928	8178.78
467.3	8226.46
467.672	8409.51
468.045	8568.15
468.417	8663.06
468.789	8650.86
469.161	8837.07
469.534	8981.02
469.906	9175.14
470.278	9250.62
470.65	9338.3
471.022	9575.36
471.394	9727.44
471.766	9775.8
472.138	9921.34
472.51	10124.72
472.882	10234.55
473.253	10369.01
473.625	10542.34
473.997	10729.68
474.369	10796.79
474.74	10968.77
475.112	11198.59
475.484	11427.96
475.855	11614.17
476.227	11664.79
476.598	12066.36
476.97	12151.33
477.341	12499.35
477.713	12758.55
478.084	12762.39
478.455	13173.68
478.827	13295.48
479.198	13634.91
479.569	13757.62
479.94	14156.7
480.311	14220.21
480.682	14665.62
481.053	14935.44
481.424	15128.66
481.795	15309.22
482.166	15511.02
482.537	15675.99
482.908	16032.13
483.279	16158.69
483.65	16543.76
484.021	16830.98
484.391	17016.52
484.762	17094.25
485.133	17217.64
485.503	17573.79
485.874	18021.69
486.244	18132.64
486.615	18473.88
486.985	18865.28
487.356	19184.59
487.726	19415.77
488.097	19849.44
488.467	19895.31
488.837	20322.87
489.207	20633.37
489.578	20844.44
489.948	21088.5
490.318	21416.4
490.688	21515.15
491.058	21802.38
491.428	22121.69
491.798	22297.51
492.168	22771.39
492.538	22829.92
492.908	23050.93
493.278	23399.17
493.648	23389.91
494.017	23685.95
494.387	23956.45
494.757	24184.69
495.126	24396.21
495.496	24524.57
495.866	24610.67
496.235	24885.69
496.605	25255.4
496.974	25316.64
497.344	25671.2
497.713	25810.18
498.082	26061.02
498.452	26323.39
498.821	26569.03
499.19	26612.65
499.559	26880.21
499.928	27203.59
500.298	27349.58
500.667	27670.92
501.036	27675.9
501.405	27979.17
501.774	28118.82
502.143	28342.09
502.512	28469.55
502.88	28647.4
503.249	28747.73
503.618	28966.71
503.987	29012.58
504.356	29227.04
504.724	29442.63
505.093	29495.51
505.462	29699.8
505.83	29860.92
506.199	30141.37
506.567	30627.68
506.936	30389.05
507.304	30886.43
507.672	31161.45
508.041	31217.05
508.409	31546.76
508.777	31807.54
509.145	32122.79
509.514	32093.86
509.882	32508.31
510.25	32673.73
510.618	32832.82
510.986	33033.72
511.354	33406.59
511.722	33771.1
512.09	34172.9
512.458	33954.38
512.826	34406.57
513.193	34490.41
513.561	34756.84
513.929	35089.26
514.297	35293.78
514.664	35551.4
515.032	35619.87
515.4	36075
515.767	36167.88
516.135	36397.48
516.502	36144.83
516.869	36870.01
517.237	36878.37
517.604	36843.34
517.972	37499.59
518.339	37576.65
518.706	37644.45
519.073	37903.65
519.44	38316.29
519.808	38659.11
520.175	38676.96
520.542	39334.35
520.909	39475.81
521.276	39555.13
521.643	40136.81
522.009	40453.19
522.376	40783.57
522.743	41059.95
523.11	41422.43
523.477	41952.81
523.843	42031.68
524.21	42410.2
524.577	42715.28
524.943	42971.99
525.31	43201.82
525.676	43524.75
526.043	43839.54
526.409	44070.04
526.776	44382.12
527.142	44502.12
527.508	44901.43
527.874	45138.49
528.241	45255.1
528.607	45525.14
528.973	45811.01
529.339	45707.96
529.705	46191.79
530.071	46423.2
530.437	46512.92
530.803	46701.16
531.169	46897.76
531.535	47043.07
531.901	47289.84
532.267	47415.26
532.632	47702.49
532.998	47652.55
533.364	48106.77
533.73	48316.71
534.095	48748.56
534.461	48666.53
534.826	49029.01
535.192	49138.38
535.557	49644.81
535.923	49505.15
536.288	49852.49
536.653	50026.5
537.019	49923.45
537.384	50148.53
537.749	50312.14
538.114	50428.07
538.479	50542.19
538.845	50666.93
539.21	50699.47
539.575	50936.3
539.94	51029.63
540.305	51133.81
540.67	51188.95
541.034	51199.57
541.399	51402.73
541.764	51496.29
542.129	51466.46
542.494	51630.75
542.858	51729.05
543.223	51712.1
543.587	51920.91
543.952	51943.06
544.316	52011.53
544.681	51984.64
545.045	52268.02
545.41	52448.13
545.774	52458.52
546.138	52559.99
546.503	52752.3
546.867	52811.96
547.231	53067.55
547.595	53073.65
547.959	53269.12
548.324	53302.34
548.688	53423.02
549.052	53601.09
549.416	53691.48
549.779	53858.26
550.143	53842.67
550.507	54116.56
550.871	54246.5
551.235	54266.61
551.599	54522.65
551.962	54614.17
552.326	54682.42
552.689	54836.31
553.053	54769.87
553.417	54751.34
553.78	55103.2
554.143	55051
554.507	55196.98
554.87	55226.81
555.234	55487.59
555.597	55307.26
555.96	55449.86
556.323	55549.74
556.686	55479.01
557.05	55777.08
557.413	55741.6
557.776	55846.91
558.139	56058.65
558.502	56051.42
558.865	56142.94
559.228	56383.39
559.59	56452.77
559.953	56492.54
560.316	56792.87
560.679	56907.67
561.041	57041.68
561.404	57172.75
561.767	57369.35
562.129	57216.36
562.492	57559.86
562.854	57532.51
563.217	57645.73
563.579	57800.3
563.941	57913.07
564.304	58035.1
564.666	58236.9
565.028	58277.58
565.39	58348.31
565.753	58563.22
566.115	58692.48
566.477	58704.01
566.839	58735.87
567.201	58931.35
567.563	59018.35
567.925	59122.53
568.287	59155.29
568.648	59187.61
569.01	59274.61
569.372	59453.82
569.734	59347.15
570.095	59499.47
570.457	59574.04
570.819	59605.9
571.18	59553.93
571.542	59731.55
571.903	59729.74
572.265	59830.76
572.626	59892.45
572.987	59862.39
573.349	59943.52
573.71	60046.12
574.071	60137.42
574.432	60258.09
574.794	60405.43
575.155	60371.31
575.516	60302.16
575.877	60417.86
576.238	60461.25
576.599	60602.71
576.96	60640.23
577.32	60704.86
577.681	60806.78
578.042	60802.48
578.403	60863.27
578.763	60994.12
579.124	60947.11
579.485	61023.95
579.845	61134
580.206	61117.96
580.566	61106.43
580.927	61165.41
581.287	61301
581.648	61154.79
582.008	61308.23
582.368	61275.47
582.728	61317.05
583.089	61282.02
583.449	61253.54
583.809	61246.77
584.169	61285.41
584.529	61214
584.889	61312.98
585.249	61200.89
585.609	61066.88
585.969	61275.47
586.329	61118.41
586.688	61126.09
587.048	61139.88
587.408	61104.85
587.768	61132.42
588.127	60996.6
588.487	61025.75
588.846	61181.68
589.206	61004.29
589.565	61086.09
589.925	61148.01
590.284	61087.22
590.643	61183.72
591.003	61235.69
591.362	61320.89
591.721	61274.34
592.08	61278.85
592.44	61427.55
592.799	61401.79
593.158	61331.96
593.517	61387.78
593.876	61451.73
594.235	61369.25
594.593	61477.49
594.952	61497.83
595.311	61478.4
595.67	61566.98
596.029	61681.33
596.387	61688.11
596.746	61706.64
597.104	61555.68
597.463	61529.7
597.822	61691.05
598.18	61618.73
598.538	61578.28
598.897	61736.92
599.255	61551.16
599.613	61846.98
599.972	61651.27
600.33	61706.19
600.688	61618.96
601.046	61710.03
601.404	61681.78
601.762	61697.83
602.12	61785.96
602.478	61708.22
602.836	61738.28
603.194	61666.64
603.552	61637.49
603.91	61592.29
604.268	61580.54
604.625	61575.12
604.983	61684.95
605.341	61624.16
605.698	61754.77
606.056	61742.12
606.413	61703.7
606.771	61771.5
607.128	61809.91
607.485	61820.76
607.843	61812.63
608.2	61954.32
608.557	62020.98
608.914	61921.78
609.272	62126.97
609.629	62196.34
609.986	62219.62
610.343	62136.69
610.7	62348.66
611.057	62273.4
611.414	62296.23
611.771	62315.44
612.127	62414.64
612.484	62419.39
612.841	62508.43
613.198	62480.18
613.554	62428.66
613.911	62613.51
614.267	62550.01
614.624	62509.33
614.98	62504.36
615.337	62677.01
615.693	62625.03
616.05	62547.07
616.406	62729.44
616.762	62589.1
617.118	62588.42
617.475	62536.45
617.831	62572.61
618.187	62498.26
618.543	62615.54
618.899	62663
619.255	62587.07
619.611	62556.56
619.967	62642.43
620.323	62720.62
620.678	62534.64
621.034	62531.03
621.39	62493.29
621.746	62524.02
622.101	62651.02
622.457	62510.91
622.812	62574.64
623.168	62634.53
623.523	62629.55
623.879	62688.99
624.234	62511.59
624.589	62647.86
624.945	62621.64
625.3	62720.4
625.655	62726.05
626.01	62667.29
626.365	62759.27
626.72	62711.81
627.075	62664.58
627.43	62720.17
627.785	62660.06
628.14	62739.16
628.495	62748.19
628.85	62699.38
629.205	62691.93
629.559	62855.31
629.914	62726.5
630.269	62743.9
630.623	62652.6
630.978	62615.32
631.332	62707.52
631.687	62767.4
632.041	62663.45
632.396	62711.59
632.75	62538.71
633.104	62587.97
633.459	62418.03
633.813	62414.42
634.167	62376.91
634.521	62328.77
634.875	62390.01
635.229	62339.62
635.583	62193.63
635.937	62186.18
636.291	62206.06
636.645	62135.56
636.999	62084.26
637.352	62047.87
637.706	61904.6
638.06	61981.89
638.413	61882.23
638.767	61804.26
639.121	61928.33
639.474	61685.85
639.828	61726.75
640.181	61717.04
640.534	61623.93
640.888	61613.54
641.241	61502.13
641.594	61505.52
641.947	61635.23
642.301	61563.59
642.654	61598.17
643.007	61517.49
643.36	61535.8
643.713	61557.94
644.066	61624.16
644.419	61434.33
644.771	61308.68
645.124	61160.21
645.477	61058.52
645.83	60932.65
646.182	60797.96
646.535	60785.08
646.888	60794.8
647.24	60692.66
647.593	60871.63
647.945	60770.85
648.298	60670.28
648.65	60632.09
649.002	60608.14
649.355	60710.96
649.707	60656.27
650.059	60748.02
650.411	61024.62
650.763	60993.21
651.115	61211.96
651.467	61121.34
651.819	61062.59
652.171	61042.48
652.523	60943.04
652.875	60887.9
653.227	60793.9
653.578	61017.39
653.93	60907.34
654.282	60795.03
654.633	60675.71
654.985	60723.62
655.337	60753.67
655.688	60721.81
656.039	60729.26
656.391	60414.02
656.742	60470.51
657.094	60528.37
657.445	60550.74
657.796	60376.73
658.147	60429.84
658.498	60355.49
658.849	60473
659.2	60360.69
659.551	60287.69
659.902	60338.99
660.253	60260.12
660.604	60315.26
660.955	60192.1
661.306	60217.19
661.656	60233.68
662.007	60180.58
662.358	60206.57
662.708	60252.89
663.059	60263.29
663.409	60123.41
663.76	60271.42
664.11	60253.8
664.461	60265.77
664.811	60232.1
665.161	60285.89
665.511	60212.22
665.862	60286.56
666.212	60313.68
666.562	60317.75
666.912	60296.06
667.262	60268.94
667.612	60250.18
667.962	60301.71
668.312	60188.94
668.662	60367.47
669.011	60191.65
669.361	60252.89
669.711	60210.86
670.06	60211.76
670.41	60071.2
670.76	60080.47
671.109	60166.79
671.459	60134.7
671.808	60024.88
672.157	60084.08
672.507	59856.75
672.856	59880.25
673.205	59937.42
673.554	59941.94
673.904	59889.51
674.253	60015.61
674.602	59878.89
674.951	59471.22
675.3	59389.64
675.649	59681.61
675.998	59650.2
676.346	59650.42
676.695	59702.85
677.044	59473.7
677.393	59550.99
677.741	59541.95
678.09	59467.6
678.438	59391.9
678.787	59421.73
679.135	59366.59
679.484	59216.76
679.832	59230.77
680.181	59113.26
680.529	59181.06
680.877	59043.89
681.225	59049.31
681.573	59164.11
681.922	59090.21
682.27	58984.23
682.618	58938.13
682.966	58936.54
683.314	59016.77
683.661	58867.84
684.009	58853.38
684.357	58793.27
684.705	58828.75
685.053	58799.6
685.4	58755.31
685.748	58651.13
686.095	58595.31
686.443	58543.33
686.79	58514.18
687.138	58564.8
687.485	58549.44
687.832	58475.31
688.18	58500.85
688.527	58369.1
688.874	58416.56
689.221	58297.24
689.568	58284.13
689.915	58161.42
690.262	58206.62
690.609	58043.46
690.956	58033.97
691.303	57983.12
691.65	57877.14
691.997	57904.93
692.344	57783.81
692.69	57647.54
693.037	57618.61
693.383	57454.1
693.73	57513.76
694.077	57405.74
694.423	57398.05
694.769	57286.19
695.116	57138.4
695.462	57057.27
695.808	56946.31
696.155	57023.83
696.501	56811.4
696.847	56781.8
697.193	56608.02
697.539	56673.33
697.885	56427.01
698.231	56351.98
698.577	56351.3
698.923	56187.92
699.269	56053
699.614	55968.26
699.96	55894.82
700.306	55824.76
700.651	55652.34
700.997	55578.67
701.342	55587.48
701.688	55544.99
702.033	55382.74
702.379	55388.84
702.724	55288.5
703.069	55343.87
703.415	55042.86
703.76	55039.02
704.105	55013.93
704.45	54892.36
704.795	54752.7
705.14	54640.39
705.485	54675.86
705.83	54566.26
706.175	54673.38
706.52	54456.21
706.865	54345.25
707.209	54421.63
707.554	54288.3
707.899	54475.19
708.243	54268.19
708.588	54267.51
708.932	54063.45
709.277	53982.78
709.621	54068.65
709.966	53881.08
710.31	53954.3
710.654	53568.55
710.998	53746.85
711.342	53774.19
711.687	53720.86
712.031	53535.1
712.375	53519.96
712.719	53564.71
713.063	53432.51
713.407	53617.14
713.75	53343.47
714.094	53418.5
714.438	53138.73
714.782	53256.24
715.125	53033.65
715.469	53116.36
715.812	52937.38
716.156	52794.78
716.499	52844.05
716.843	52741.68
717.186	52541.23
717.53	52645.41
717.873	52570.61
718.216	52403.61
718.559	52273.67
718.902	51981.02
719.246	52085.65
719.589	52009.04
719.932	51878.42
720.275	51863.06
720.617	51759.78
720.96	51728.15
721.303	51606.79
721.646	51568.6
721.989	51401.15
722.331	51414.48
722.674	51279.12
723.016	51205.9
723.359	51142.17
723.701	51106.01
724.044	50847.04
724.386	50705.35
724.729	50814.72
725.071	50737.21
725.413	50591.68
725.755	50535.18
726.097	50514.39
726.439	50260.84
726.782	50317.79
727.124	50462.87
727.465	50137.68
727.807	50115.76
728.149	50096.32
728.491	50075.53
728.833	50079.38
729.175	49967.74
729.516	49857.69
729.858	49911.92
730.199	49908.76
730.541	49717.8
730.882	49845.48
731.224	49780.63
731.565	49516.23
731.906	49618.6
732.248	49598.26
732.589	49348.55
732.93	49416.12
733.271	49456.79
733.612	49541.99
733.953	49494.53
734.294	49235.56
734.635	49292.96
734.976	49284.59
735.317	49218.83
735.658	49193.52
735.999	49260.19
736.339	49125.05
736.68	49237.14
737.021	49070.14
737.361	48838.5
737.702	49021.1
738.042	48859.29
738.383	48773.19
738.723	48906.3
739.063	48723.48
739.404	48779.52
739.744	48607.55
740.084	48418.85
740.424	48489.36
740.764	48182.02
741.104	48398.52
741.444	48009.15
741.784	48032.65
742.124	47876.95
742.464	47795.82
742.804	47697.07
743.143	47716.95
743.483	47619.33
743.823	47395.38
744.162	47376.85
744.502	47396.28
744.841	47113.13
745.181	47199.45
745.52	47034.71
745.86	46947.03
746.199	46685.11
746.538	46740.93
746.877	46756.07
747.216	46648.51
747.556	46410.32
747.895	46516.53
748.234	46307.5
748.573	46069.54
748.911	46173.26
749.25	46040.39
749.589	45823.67
749.928	45819.15
750.267	45928.75
750.605	45599.95
750.944	45692.37
751.283	45346.17
751.621	45551.36
751.96	45206.96
