Data from aluminium_surface_pro_back_FLMS001491_00052.txt Node
Date: Wed Feb 08 15:34:14 GMT 2017
User: dcchb
Spectrometer: FLMS00149
Trigger mode: 0
Integration Time (sec): 2.000000E-2
Scans to average: 10
Electric dark correction enabled: true
Nonlinearity correction enabled: false
Boxcar width: 0
XAxis mode: Wavelengths
Number of Pixels in Spectrum: 2048
>>>>>Begin Spectral Data<<<<<
341.393	-13.02
341.776	-13.02
342.16	-13.02
342.543	-42.85
342.927	-65.45
343.31	-65.22
343.693	-81.72
344.077	-55.51
344.46	-60.48
344.843	-47.15
345.226	-47.37
345.61	-40.59
345.993	-25.45
346.376	17.26
346.759	5.96
347.142	22.68
347.525	46.86
347.908	71.95
348.291	64.49
348.674	96.13
349.057	98.16
349.44	118.73
349.823	139.97
350.206	175.45
350.588	207.99
350.971	241.43
351.354	251.38
351.737	269
352.119	269.91
352.502	277.14
352.884	285.95
353.267	315.78
353.65	324.14
354.032	313.75
354.414	325.95
354.797	326.86
355.179	341.32
355.562	355.56
355.944	364.59
356.326	342.67
356.709	369.11
357.091	356.23
357.473	387.87
357.855	367.53
358.238	375.67
358.62	354.88
359.002	369.11
359.384	367.76
359.766	358.49
360.148	347.19
360.53	376.57
360.912	353.52
361.294	357.36
361.676	374.54
362.057	366.18
362.439	383.13
362.821	365.95
363.203	382
363.584	360.3
363.966	367.31
364.348	355.1
364.729	372.05
365.111	363.47
365.493	371.83
365.874	373.41
366.256	346.97
366.637	364.37
367.019	336.8
367.4	380.41
367.781	357.36
368.163	366.18
368.544	360.98
368.925	366.4
369.306	372.05
369.688	377.25
370.069	370.47
370.45	360.75
370.831	365.27
371.212	371.6
371.593	360.75
371.974	381.32
372.355	370.24
372.736	362.34
373.117	372.05
373.498	398.94
373.879	397.81
374.26	373.41
374.641	381.77
375.021	374.09
375.402	404.59
375.783	392.84
376.163	427.42
376.544	412.73
376.925	429
377.305	412.28
377.686	419.06
378.066	424.03
378.447	417.25
378.827	403.69
379.208	419.28
379.588	440.53
379.968	443.91
380.349	445.5
380.729	441.66
381.109	451.37
381.489	445.5
381.87	439.17
382.25	447.76
382.63	452.95
383.01	455.67
383.39	446.4
383.77	466.97
384.15	484.82
384.53	471.03
384.91	444.37
385.29	497.7
385.67	499.73
386.049	508.09
386.429	508.09
386.809	494.08
387.189	488.66
387.568	505.61
387.948	516.46
388.328	536.57
388.707	507.64
389.087	534.99
389.466	549.45
389.846	551.03
390.225	552.16
390.605	554.65
390.984	556.68
391.363	567.08
391.743	574.08
392.122	576.79
392.501	595.55
392.881	591.93
393.26	612.5
393.639	593.29
394.018	601.88
394.397	612.95
394.776	632.84
395.155	628.54
395.534	603.91
395.913	638.94
396.292	646.62
396.671	649.56
397.05	663.8
397.429	674.87
397.808	675.55
398.186	670.35
398.565	701.54
398.944	685.94
399.323	710.35
399.701	702.89
400.08	718.26
400.458	735.21
400.837	763.91
401.215	747.86
401.594	747.18
401.972	745.38
402.351	757.13
402.729	774.75
403.107	764.58
403.486	771.14
403.864	796
404.242	812.04
404.62	819.05
404.999	824.92
405.377	827.18
405.755	855.43
406.133	851.81
406.511	851.81
406.889	892.72
407.267	889.1
407.645	902.43
408.023	934.3
408.401	924.13
408.779	944.69
409.156	949.21
409.534	969.78
409.912	981.98
410.29	1014.75
410.667	989.66
411.045	1017.46
411.422	1020.85
411.8	1039.15
412.178	1065.37
412.555	1080.73
412.933	1063.56
413.31	1097.46
413.687	1109.43
414.065	1126.16
414.442	1137.46
414.819	1151.01
415.197	1165.03
415.574	1161.86
415.951	1192.37
416.328	1172.48
416.705	1211.58
417.082	1242.76
417.46	1255.64
417.837	1264.68
418.214	1272.59
418.591	1265.14
418.967	1285.02
419.344	1310.56
419.721	1319.15
420.098	1326.38
420.475	1368.18
420.852	1349.88
421.228	1388.97
421.605	1392.59
421.982	1374.29
422.358	1406.83
422.735	1426.71
423.111	1444.11
423.488	1472.14
423.864	1483.44
424.241	1480.05
424.617	1502.64
424.994	1524.11
425.37	1521.63
425.746	1568.41
426.123	1570.89
426.499	1585.58
426.875	1569.31
427.251	1625.35
427.627	1661.06
428.003	1641.4
428.379	1682.98
428.756	1736.76
429.132	1734.28
429.507	1757.1
429.883	1778.57
430.259	1817.44
430.635	1818.57
431.011	1856.53
431.387	1868.74
431.763	1887.27
432.138	1921.16
432.514	1946.93
432.89	1993.48
433.265	2008.17
433.641	2056.53
434.016	2019.24
434.392	2101.5
434.767	2139.01
435.143	2132.46
435.518	2177.43
435.894	2175.85
436.269	2246.13
436.644	2253.81
437.02	2266.92
437.395	2284.54
437.77	2343.53
438.145	2351.89
438.52	2373.36
438.895	2388.27
439.271	2433.24
439.646	2458.1
440.021	2450.64
440.395	2455.16
440.77	2465.1
441.145	2482.73
441.52	2515.5
441.895	2519.11
442.27	2599.79
442.645	2571.99
443.019	2616.74
443.394	2589.17
443.769	2644.99
444.143	2650.64
444.518	2706.68
444.892	2728.6
445.267	2720.69
445.641	2782.38
446.016	2751.42
446.39	2783.29
446.764	2804.3
447.139	2808.15
447.513	2884.08
447.887	2872.1
448.262	2858.77
448.636	2888.37
449.01	2971.08
449.384	2966.33
449.758	3014.47
450.132	3042.04
450.506	3024.64
450.88	3073.45
451.254	3105.09
451.628	3155.03
452.002	3151.41
452.376	3194.58
452.75	3247.91
453.123	3265.99
453.497	3306.66
453.871	3372.88
454.244	3427.57
454.618	3431.63
454.992	3497.17
455.365	3416.27
455.739	3576.94
456.112	3568.35
456.486	3623.49
456.859	3688.35
457.232	3745.97
457.606	3739.65
457.979	3834.56
458.352	3881.11
458.725	3905.52
459.099	3926.99
459.472	4012.86
459.845	4073.42
460.218	4080.66
460.591	4117.04
460.964	4132.63
461.337	4248.33
461.71	4317.71
462.083	4380.76
462.456	4377.6
462.829	4415.56
463.201	4489.91
463.574	4496.69
463.947	4601.77
464.32	4678.15
464.692	4731.03
465.065	4766.74
465.438	4844.25
465.81	4921.54
466.183	5005.83
466.555	5063.91
466.928	5084.24
467.3	5117.01
467.672	5230.46
468.045	5346.61
468.417	5368.53
468.789	5345.71
469.161	5458.47
469.534	5550.22
469.906	5702.08
470.278	5700.73
470.65	5745.92
471.022	5896.2
471.394	6019.14
471.766	6062.52
472.138	6136.87
472.51	6294.38
472.882	6369.41
473.253	6457.77
473.625	6530.76
473.997	6690.76
474.369	6693.69
474.74	6775.05
475.112	6947.25
475.484	7015.49
475.855	7081.25
476.227	7276.05
476.598	7438.31
476.97	7462.94
477.341	7655.25
477.713	7741.35
478.084	7859.54
478.455	8127.33
478.827	8165.29
479.198	8338.17
479.569	8391.5
479.94	8555.57
480.311	8692.51
480.682	8905.16
481.053	9101.77
481.424	9254.98
481.795	9286.17
482.166	9384.7
482.537	9606.16
482.908	9823.33
483.279	9913.72
483.65	10085.7
484.021	10317.33
484.391	10449.75
484.762	10454.73
485.133	10642.74
485.503	10797.09
485.874	11031.43
486.244	11161.15
486.615	11345.55
486.985	11461.93
487.356	11704.64
487.726	11754.58
488.097	12070.95
488.467	12118.18
488.837	12313.21
489.207	12462.81
489.578	12632.29
489.948	12779.86
490.318	12943.93
490.688	13074.54
491.058	13246.52
491.428	13419.62
491.798	13533.74
492.168	13807.18
492.538	13957.68
492.908	14103.44
493.278	14258.69
493.648	14340.72
494.017	14532.13
494.387	14674.95
494.757	14786.81
495.126	14989.3
495.496	15036.3
495.866	15136.86
496.235	15364.88
496.605	15471.77
496.974	15602.39
497.344	15731.2
497.713	15838.99
498.082	16023.84
498.452	16165.31
498.821	16252.54
499.19	16316.72
499.559	16511.97
499.928	16649.14
500.298	16779.08
500.667	16982.46
501.036	16977.49
501.405	17162.57
501.774	17082.8
502.143	17304.26
502.512	17462.22
502.88	17611.37
503.249	17565.5
503.618	17651.82
503.987	17847.07
504.356	17927.3
504.724	18150.79
505.093	18124.35
505.462	18352.82
505.83	18556.66
506.199	18593.72
506.567	18810.21
506.936	18793.26
507.304	19009.3
507.672	19129.07
508.041	19283.87
508.409	19502.4
508.777	19548.95
509.145	19691.09
509.514	19787.81
509.882	20071.87
510.25	20028.94
510.618	20197.07
510.986	20354.13
511.354	20573.1
511.722	20665.98
512.09	20892.42
512.458	21012.64
512.826	21110.94
513.193	21264.84
513.561	21358.85
513.929	21517.71
514.297	21731.26
514.664	21912.28
515.032	21971.71
515.4	22232.04
515.767	22397.01
516.135	22538.93
516.502	22469.1
516.869	22923.32
517.237	22956.77
517.604	22983.66
517.972	23269.98
518.339	23392.69
518.706	23470.88
519.073	23583.42
519.44	23730.53
519.808	24108.15
520.175	24113.8
520.542	24464.3
520.909	24643.73
521.276	24662.04
521.643	24892.09
522.009	25101.8
522.376	25265.41
522.743	25476.25
523.11	25718.5
523.477	25914.88
523.843	26158.27
524.21	26469.9
524.577	26541.53
524.943	26810.45
525.31	26947.85
525.676	27377.22
526.043	27482.3
526.409	27701.28
526.776	27834.38
527.142	27968.39
527.508	28076.41
527.874	28408.83
528.241	28621.48
528.607	28754.36
528.973	28937.63
529.339	28915.03
529.705	29247.45
530.071	29475.69
530.437	29738.51
530.803	29883.82
531.169	30063.7
531.535	30073.42
531.901	30212.62
532.267	30314.09
532.632	30474.54
532.998	30576.46
533.364	30860.52
533.73	30849.44
534.095	31128.53
534.461	31210.11
534.826	31423.67
535.192	31457.11
535.557	31782.3
535.923	31800.38
536.288	31926.93
536.653	32046.25
537.019	32072.01
537.384	32397.65
537.749	32444.88
538.114	32563.97
538.479	32646.91
538.845	32786.57
539.21	32717.87
539.575	32894.59
539.94	33158.31
540.305	33317.17
540.67	33248.25
541.034	33473.1
541.399	33597.85
541.764	33693.44
542.129	33861.57
542.494	33883.71
542.858	34045.07
543.223	34115.8
543.587	34291.16
543.952	34311.72
544.316	34535.9
544.681	34443.92
545.045	34716.91
545.41	34900.18
545.774	34951.48
546.138	34982.89
546.503	35170.01
546.867	35095.21
547.231	35419.49
547.595	35436.44
547.959	35624.68
548.324	35656.55
548.688	35732.7
549.052	35952.36
549.416	35920.04
549.779	36035.3
550.143	36143.99
550.507	36438.22
550.871	36665.34
551.235	36535.4
551.599	36848.61
551.962	36941.03
552.326	36981.49
552.689	37218.99
553.053	37264.87
553.417	37333.34
553.78	37723.39
554.143	37659.43
554.507	37947.11
554.87	38072.3
555.234	38421.22
555.597	38190.04
555.96	38504.61
556.323	38728.78
556.686	38713.87
557.05	39130.81
557.413	39039.06
557.776	39262.56
558.139	39453.51
558.502	39572.15
558.865	39692.6
559.228	40011.69
559.59	39978.69
559.953	40130.55
560.316	40653.03
560.679	40616.64
561.041	40826.36
561.404	41164.43
561.767	41318.32
562.129	41213.01
562.492	41571.87
562.854	41683.06
563.217	41648.03
563.579	41884.86
563.941	42162.37
564.304	42417.73
564.666	42666.53
565.028	42769.36
565.39	42846.64
565.753	43139.29
566.115	43415.89
566.477	43545.38
566.839	43643.91
567.201	44028.76
567.563	44027.18
567.925	44314.85
568.287	44494.73
568.648	44493.15
569.01	44652.7
569.372	44989.86
569.734	44977.21
570.095	45254.71
570.457	45360.47
570.819	45600.24
571.18	45515.95
571.542	45935.83
571.903	45931.76
572.265	46204.52
572.626	46239.55
572.987	46293.56
573.349	46534
573.71	46731.96
574.071	46731.74
574.432	46907.78
574.794	47160.2
575.155	47352.96
575.516	47207.43
575.877	47400.65
576.238	47509.8
576.599	47644.03
576.96	47624.82
577.32	47654.2
577.681	47890.35
578.042	48072.49
578.403	48054.87
578.763	48118.82
579.124	48251.92
579.485	48587.28
579.845	48458.7
580.206	48467.28
580.566	48553.38
580.927	48620.95
581.287	48779.37
581.648	48661.63
582.008	48840.61
582.368	48868.86
582.728	48968.97
583.089	48757.45
583.449	48778.46
583.809	48887.84
584.169	48930.78
584.529	48869.31
584.889	49027.04
585.249	48973.49
585.609	48871.57
585.969	49095.52
586.329	49100.04
586.688	49185.01
587.048	49112.92
587.408	49100.26
587.768	49108.4
588.127	49006.93
588.487	49052.35
588.846	49355.62
589.206	49144.33
589.565	49116.76
589.925	49416.64
590.284	49212.35
590.643	49289.64
591.003	49293.25
591.362	49425.23
591.721	49398.33
592.08	49314.72
592.44	49508.39
592.799	49412.12
593.158	49382.52
593.517	49446.92
593.876	49564.66
594.235	49468.16
594.593	49522.62
594.952	49548.84
595.311	49492.34
595.67	49743.18
596.029	49857.53
596.387	49791.77
596.746	49861.37
597.104	49583.87
597.463	49676.29
597.822	49817.08
598.18	49567.37
598.538	49722.39
598.897	49957.19
599.255	49568.05
599.613	50168.48
599.972	49833.12
600.33	49891.65
600.688	49800.58
601.046	49897.53
601.404	50094.13
601.762	49920.35
602.12	50127.81
602.478	50127.81
602.836	50048.94
603.194	49937.98
603.552	50006.45
603.91	49968.94
604.268	50157.64
604.625	50086.23
604.983	50270.63
605.341	50088.49
605.698	50265.43
606.056	50452.77
606.413	50313.34
606.771	50443.05
607.128	50418.87
607.485	50265.43
607.843	50379.1
608.2	50599.88
608.557	50603.5
608.914	50552.2
609.272	50763.95
609.629	50688.02
609.986	50788.58
610.343	50652.54
610.7	50878.07
611.057	50853.44
611.414	50738.41
611.771	50768.92
612.127	50951.97
612.484	50875.36
612.841	51113.09
613.198	50920.78
613.554	50942.7
613.911	51096.14
614.267	51209.36
614.624	51148.12
614.98	51232.18
615.337	51420.65
615.693	51271.28
616.05	51306.08
616.406	51539.07
616.762	51243.48
617.118	51389.02
617.475	51458.62
617.831	51368.68
618.187	51521.22
618.543	51475.12
618.899	51755.79
619.255	51624.04
619.611	51598.05
619.967	51781.77
620.323	51789.91
620.678	51631.5
621.034	51480.31
621.39	51605.96
621.746	51496.81
622.101	51922.56
622.457	51679.86
622.812	51731.61
623.168	51808.67
623.523	51794.66
623.879	51917.14
624.234	51713.98
624.589	51838.5
624.945	51804.15
625.3	51843.69
625.655	51810.7
626.01	51869.68
626.365	51928.89
626.72	51852.05
627.075	51753.98
627.43	51800.3
627.785	51677.14
628.14	51780.42
628.495	51754.2
628.85	51788.1
629.205	51557.15
629.559	51756.01
629.914	51615.22
630.269	51644.15
630.623	51492.29
630.978	51408
631.332	51446.42
631.687	51580.88
632.041	51337.72
632.396	51468.11
632.75	51200.09
633.104	51376.81
633.459	51163.71
633.813	51125.07
634.167	51071.96
634.521	51083.71
634.875	51201.9
635.229	51198.96
635.583	50939.31
635.937	51019.53
636.291	50908.12
636.645	50972.08
636.999	50818.64
637.352	50949.25
637.706	50698.19
638.06	50823.38
638.413	50717.17
638.767	50665.19
639.121	50766.43
639.474	50516.27
639.828	50499.77
640.181	50581.35
640.534	50587
640.888	50540.9
641.241	50206
641.594	50384.3
641.947	50347.91
642.301	50207.58
642.654	50350.4
643.007	50312.43
643.36	50237.18
643.713	50141.82
644.066	50188.37
644.419	49988.15
644.771	49697.99
645.124	49393.14
645.477	49346.58
645.83	49125.8
646.182	49050.32
646.535	48930.32
646.888	48935.3
647.24	48695.53
647.593	48881.06
647.945	48936.43
648.298	48557.23
648.65	48533.05
649.002	48481.75
649.355	48601.97
649.707	48459.83
650.059	48679.26
650.411	49040.15
650.763	49241.95
651.115	49462.06
651.467	49338.67
651.819	49333.25
652.171	49248.06
652.523	49060.94
652.875	49062.07
653.227	48930.1
653.578	49189.75
653.93	48909.31
654.282	48888.74
654.633	48650.33
654.985	48654.62
655.337	48655.08
655.688	48730.78
656.039	48829.99
656.391	48500.96
656.742	48441.3
657.094	48543.89
657.445	48626.6
657.796	48495.98
658.147	48405.37
658.498	48356.55
658.849	48544.35
659.2	48414.4
659.551	48208.53
659.902	48500.73
660.253	48311.36
660.604	48434.97
660.955	48316.78
661.306	48367.63
661.656	48312.49
662.007	48299.61
662.358	48306.39
662.708	48251.7
663.059	48355.88
663.409	48113.62
663.76	48271.81
664.11	48185.94
664.461	48246.73
664.811	48321.07
665.161	48253.28
665.511	48093.28
665.862	48117.01
666.212	48169.44
666.562	48125.82
666.912	48069.33
667.262	48051.48
667.612	48031.59
667.962	48100.51
668.312	48081.98
668.662	48175.54
669.011	48001.31
669.361	47913.85
669.711	47963.57
670.06	48013.96
670.41	47790.69
670.76	47922.67
671.109	47946.17
671.459	48029.33
671.808	47863.68
672.157	47925.83
672.507	47662.11
672.856	47677.48
673.205	47739.62
673.554	47843.12
673.904	47729.68
674.253	47904.81
674.602	47684.93
674.951	47081.33
675.3	46763.37
675.649	47512.51
675.998	47412.85
676.346	47511.83
676.695	47627.08
677.044	47347.99
677.393	47343.02
677.741	47371.49
678.09	47217.6
678.438	47209.92
678.787	47311.38
679.135	47211.5
679.484	46931.96
679.832	47057.38
680.181	46795.92
680.529	47079.52
680.877	46767.22
681.225	46922.47
681.573	47063.48
681.922	46650.38
682.27	46631.63
682.618	46577.17
682.966	46532.42
683.314	46642.7
683.661	46354.35
684.009	46290.84
684.357	46177.18
684.705	46047.91
685.053	46148.25
685.4	46101.25
685.748	45825.09
686.095	45768.15
686.443	45696.51
686.79	45571.09
687.138	45691.54
687.485	45642.27
687.832	45382.62
688.18	45395.28
688.527	45179.91
688.874	45141.04
689.221	45118.22
689.568	45080.26
689.915	44974.95
690.262	44975.17
690.609	44850.43
690.956	44744.9
691.303	44723.43
691.65	44479.59
691.997	44374.51
692.344	44113.28
692.69	44226.04
693.037	44221.75
693.383	43917.57
693.73	43964.58
694.077	43838.71
694.423	43819.5
694.769	43515.1
695.116	43454.76
695.462	43516.68
695.808	43299.06
696.155	43365.72
696.501	43045.51
696.847	43027.2
697.193	42744.95
697.539	42843.48
697.885	42569.59
698.231	42439.87
698.577	42498.85
698.923	42356.03
699.269	42164.63
699.614	41810.74
699.96	41809.61
700.306	41827.69
700.651	41574.13
700.997	41485.55
701.342	41448.71
701.688	41424.31
702.033	41267.7
702.379	41250.75
702.724	41028.84
703.069	41240.13
703.415	40618.68
703.76	40797.66
704.105	40874.72
704.45	40599.02
704.795	40429.98
705.14	40177.11
705.485	40120.39
705.83	40105.7
706.175	40106.37
706.52	40011.91
706.865	39915.42
707.209	39793.61
707.554	39503.68
707.899	39540.97
708.243	39336.23
708.588	39291.71
708.932	39264.36
709.277	39040.19
709.621	39005.61
709.966	38782.34
710.31	38868.67
710.654	38502.12
710.998	38690.37
711.342	38554.78
711.687	38331.96
712.031	38401.56
712.375	38246.08
712.719	38270.04
713.063	38248.57
713.407	38171.96
713.75	38124.05
714.094	38051.97
714.438	37727.91
714.782	37819.2
715.125	37629.6
715.469	37801.8
715.812	37534.92
716.156	37268.71
716.499	37520.45
716.843	37368.14
717.186	37203.17
717.53	37302.38
717.873	37367.01
718.216	37096.96
718.559	37181.71
718.902	36835.5
719.246	36853.13
719.589	36834.37
719.932	36540.59
720.275	36538.33
720.617	36449.07
720.96	36354.38
721.303	36280.71
721.646	36317.77
721.989	36057.67
722.331	36200.49
722.674	36199.58
723.016	36067.61
723.359	35952.13
723.701	35927.95
724.044	35795.53
724.386	35543.1
724.729	35899.25
725.071	35522.54
725.413	35499.04
725.755	35515.99
726.097	35346.5
726.439	35173.4
726.782	35182.21
727.124	35260.85
727.465	35012.72
727.807	34993.74
728.149	35052.95
728.491	34861.54
728.833	34876.46
729.175	34785.38
729.516	34761.43
729.858	34647.54
730.199	34688.66
730.541	34513.98
730.882	34691.38
731.224	34697.03
731.565	34380.65
731.906	34328.22
732.248	34591.49
732.589	34310.14
732.93	34093.88
733.271	34188.11
733.612	34223.59
733.953	34154.44
734.294	34081.67
734.635	33813.21
734.976	33983.15
735.317	33728.92
735.658	33782.25
735.999	33609.82
736.339	33553.33
736.68	33695.02
737.021	33437.17
737.361	33390.17
737.702	33587.45
738.042	33435.36
738.383	33305.42
738.723	33306.55
739.063	33117.86
739.404	33213
739.744	33143.85
740.084	32942.5
740.424	33134.81
740.764	32886.68
741.104	33101.81
741.444	32864.31
741.784	32826.11
742.124	32814.59
742.464	32684.42
742.804	32605.1
743.143	32570.75
743.483	32574.6
743.823	32373.24
744.162	32286.69
744.502	32376.18
744.841	32196.3
745.181	32250.54
745.52	31969.41
745.86	32130.54
746.199	31923.99
746.538	31906.36
746.877	32064.55
747.216	31974.39
747.556	31662.98
747.895	31876.76
748.234	31646.26
748.573	31646.94
748.911	31583.66
749.25	31583.44
749.589	31482.87
749.928	31318.13
750.267	31494.85
750.605	31227.51
750.944	31303.22
751.283	31081.75
751.621	31128.53
751.96	30906.39
752.298	30971.25
752.636	31073.17
752.975	30913.17
