Data from aluminium_macbook_case_FLMS001491_078.txt Node
Date: Tue Feb 07 10:44:12 GMT 2017
User: dcchb
Spectrometer: FLMS00149
Trigger mode: 0
Integration Time (sec): 2.000000E-2
Scans to average: 10
Electric dark correction enabled: true
Nonlinearity correction enabled: false
Boxcar width: 0
XAxis mode: Wavelengths
Number of Pixels in Spectrum: 2048
>>>>>Begin Spectral Data<<<<<
341.393	-11.62
341.776	-11.62
342.16	-11.62
342.543	-82.81
342.927	-59.31
343.31	-85.07
343.693	-52.3
344.077	-56.37
344.46	-78.74
344.843	-58.18
345.226	-44.17
345.61	-24.28
345.993	-8.91
346.376	-15.92
346.759	19.56
347.142	25.89
347.525	41.26
347.908	48.94
348.291	87.81
348.674	91.88
349.057	108.6
349.44	118.09
349.823	139.78
350.206	172.55
350.588	235.83
350.971	255.04
351.354	280.57
351.737	285.09
352.119	291.19
352.502	319.67
352.884	334.36
353.267	343.85
353.65	334.36
354.032	361.7
354.414	355.15
354.797	372.55
355.179	360.12
355.562	384.98
355.944	391.08
356.326	398.99
356.709	417.07
357.091	384.52
357.473	422.94
357.855	412.09
358.238	414.81
358.62	429.49
359.002	421.81
359.384	426.1
359.766	429.72
360.148	413.45
360.53	442.83
360.912	438.53
361.294	436.05
361.676	405.09
362.057	422.71
362.439	436.27
362.821	423.84
363.203	409.61
363.584	445.31
363.966	428.82
364.348	430.17
364.729	425.2
365.111	441.47
365.493	447.12
365.874	419.33
366.256	435.14
366.637	440.12
367.019	437.18
367.4	445.77
367.781	438.31
368.163	444.86
368.544	469.27
368.925	429.72
369.306	438.99
369.688	441.47
370.069	458.42
370.45	445.09
370.831	454.8
371.212	457.52
371.593	455.48
371.974	465.43
372.355	465.88
372.736	487.35
373.117	469.27
373.498	460.91
373.879	453.45
374.26	469.04
374.641	467.69
375.021	486.44
375.402	489.61
375.783	510.4
376.163	547.68
376.544	552.65
376.925	511.53
377.305	523.73
377.686	517.4
378.066	559.66
378.447	517.63
378.827	534.35
379.208	547.46
379.588	559.43
379.968	553.56
380.349	581.81
380.729	565.54
381.109	577.29
381.489	590.85
381.87	588.36
382.25	600.11
382.63	601.24
383.01	622.71
383.39	605.99
383.77	604.86
384.15	617.96
384.53	642.82
384.91	670.84
385.29	629.72
385.67	652.99
386.049	656.16
386.429	671.75
386.809	684.85
387.189	687.57
387.568	696.83
387.948	707
388.328	711.07
388.707	718.98
389.087	711.52
389.466	744.97
389.846	725.76
390.225	732.76
390.605	768.92
390.984	763.72
391.363	810.28
391.743	779.99
392.122	805.76
392.501	819.99
392.881	823.61
393.26	834.23
393.639	843.72
394.018	852.53
394.397	853.89
394.776	861.35
395.155	866.55
395.534	869.71
395.913	877.84
396.292	895.7
396.671	918.75
397.05	916.94
397.429	910.16
397.808	922.36
398.186	941.8
398.565	957.16
398.944	961.68
399.323	994.68
399.701	985.41
400.08	986.77
400.458	1021.8
400.837	1036.94
401.215	1032.42
401.594	1054.34
401.972	1057.27
402.351	1085.52
402.729	1083.04
403.107	1099.08
403.486	1104.05
403.864	1098.18
404.242	1134.11
404.62	1138.18
404.999	1157.61
405.377	1181.11
405.755	1197.16
406.133	1232.41
406.511	1250.49
406.889	1229.25
407.267	1261.79
407.645	1283.48
408.023	1284.16
408.401	1332.52
408.779	1329.58
409.156	1361.22
409.534	1373.42
409.912	1406.87
410.29	1415.46
410.667	1430.6
411.045	1451.39
411.422	1475.79
411.8	1498.17
412.178	1506.53
412.555	1542.69
412.933	1558.05
413.31	1582.91
413.687	1631.5
414.065	1630.37
414.442	1629.01
414.819	1652.97
415.197	1674.43
415.574	1723.7
415.951	1727.31
416.328	1783.58
416.705	1767.31
417.082	1803.24
417.46	1821.1
417.837	1839.17
418.214	1861.55
418.591	1852.96
418.967	1875.78
419.344	1897.03
419.721	1941.77
420.098	1945.39
420.475	1962.34
420.852	1995.33
421.228	1983.8
421.605	2025.61
421.982	2075.1
422.358	2105.61
422.735	2123.24
423.111	2118.94
423.488	2160.52
423.864	2166.4
424.241	2198.94
424.617	2235.55
424.994	2249.56
425.37	2265.6
425.746	2286.39
426.123	2327.07
426.499	2332.5
426.875	2382.44
427.251	2448.65
427.627	2480.97
428.003	2473.28
428.379	2509.21
428.756	2594.86
429.132	2595.77
429.507	2649.77
429.883	2652.49
430.259	2747.63
430.635	2746.27
431.011	2771.81
431.387	2838.7
431.763	2890.45
432.138	2904.91
432.514	2981.97
432.89	2972.48
433.265	3090.44
433.641	3106.03
434.016	3129.99
434.392	3134.06
434.767	3262.19
435.143	3238.91
435.518	3302.87
435.894	3345.58
436.269	3375.63
436.644	3412.24
437.02	3416.76
437.395	3483.65
437.77	3530.66
438.145	3581.95
438.52	3649.52
438.895	3646.13
439.271	3661.73
439.646	3761.84
440.021	3775.62
440.395	3853.13
440.77	3816.3
441.145	3838.67
441.52	3911.89
441.895	3937.2
442.27	3976.07
442.645	3935.84
443.019	4053.35
443.394	4053.58
443.769	4048.38
444.143	4086.8
444.518	4174.03
444.892	4160.7
445.267	4217.87
445.641	4254.7
446.016	4214.93
446.39	4325.44
446.764	4313.91
447.139	4306.45
447.513	4392.78
447.887	4438.43
448.262	4425.77
448.636	4533.79
449.01	4606.56
449.384	4637.75
449.758	4646.11
450.132	4727.23
450.506	4743.28
450.88	4793.9
451.254	4776.27
451.628	4854.69
452.002	4898.76
452.376	4961.58
452.75	5052.2
453.123	5086.55
453.497	5139.65
453.871	5185.08
454.244	5314.56
454.618	5344.85
454.992	5405.86
455.365	5416.48
455.739	5587.55
456.112	5602.69
456.486	5656.7
456.859	5759.3
457.232	5892.18
457.606	5843.36
457.979	5918.62
458.352	6066.63
458.725	6164.03
459.099	6219.4
459.472	6327.64
459.845	6367.42
460.218	6453.06
460.591	6515.44
460.964	6525.38
461.337	6746.16
461.71	6806.95
462.083	6894.18
462.456	6929.21
462.829	6949.77
463.201	7105.03
463.574	7128.53
463.947	7211.01
464.32	7416.43
464.692	7385.7
465.065	7497.56
465.438	7567.84
465.81	7728.51
466.183	7796.08
466.555	8011.44
466.928	8099.35
467.3	8108.84
467.672	8176.18
468.045	8517.19
468.417	8496.85
468.789	8537.76
469.161	8650.3
469.534	8881.25
469.906	8981.36
470.278	9058.65
470.65	9220.9
471.022	9328.92
471.394	9510.84
471.766	9654.34
472.138	9730.27
472.51	9948.57
472.882	10110.37
473.253	10221.55
473.625	10361.21
473.997	10580.19
474.369	10624.48
474.74	10780.41
475.112	11033.51
475.484	11242.54
475.855	11447.51
476.227	11545.59
476.598	11937.89
476.97	12068.74
477.341	12233.48
477.713	12468.5
478.084	12573.81
478.455	12997.75
478.827	13078.2
479.198	13444.07
479.569	13468.25
479.94	13800.22
480.311	13969.7
480.682	14304.38
481.053	14571.72
481.424	14744.37
481.795	14950.47
482.166	15171.71
482.537	15371.02
482.908	15787.73
483.279	15861.18
483.65	16131.23
484.021	16563.99
484.391	16661.61
484.762	16734.15
485.133	16999
485.503	17250.52
485.874	17630.62
486.244	17843.27
486.615	18216.82
486.985	18447.33
487.356	18818.62
487.726	18949.01
488.097	19387.19
488.467	19341.77
488.837	19913.5
489.207	20029.66
489.578	20445.47
489.948	20682.52
490.318	20849.3
490.688	21017.88
491.058	21205.9
491.428	21614.47
491.798	21809.95
492.168	22294.68
492.538	22245.64
492.908	22618.52
493.278	22888.56
493.648	22923.14
494.017	23229.35
494.387	23398.61
494.757	23556.8
495.126	24010.12
495.496	23887.18
495.866	24229.32
496.235	24451.91
496.605	24676.99
496.974	24896.42
497.344	25039.02
497.713	25287.37
498.082	25452.57
498.452	25844.87
498.821	25902.72
499.19	26117.18
499.559	26396.95
499.928	26503.39
500.298	26748.58
500.667	26976.14
501.036	27017.5
501.405	27242.12
501.774	27349.24
502.143	27622.45
502.512	27765.72
502.88	28044.81
503.249	28145.38
503.618	28308.31
503.987	28334.52
504.356	28595.99
504.724	28732.48
505.093	28785.58
505.462	29078.46
505.83	29216.08
506.199	29529.75
506.567	29962.5
506.936	29847.48
507.304	30294.92
507.672	30471.64
508.041	30658.53
508.409	30909.82
508.777	31095.35
509.145	31388.68
509.514	31453.09
509.882	31657.6
510.25	31746.64
510.618	32112.73
510.986	32349.78
511.354	32670.68
511.722	32994.51
512.09	33122.19
512.458	33272.25
512.826	33515.18
513.193	33757.66
513.561	33768.73
513.929	34148.16
514.297	34414.14
514.664	34656.62
515.032	34760.57
515.4	35064.74
515.767	35255.25
516.135	35467.22
516.502	35278.75
516.869	36066.3
517.237	36112.17
517.604	36067.2
517.972	36490.24
518.339	36855.88
518.706	36880.51
519.073	37093.84
519.44	37358.69
519.808	37670.32
520.175	37840.71
520.542	38476.18
520.909	38589.17
521.276	38629.39
521.643	39159.32
522.009	39437.28
522.376	39630.27
522.743	40018.51
523.11	40361.78
523.477	40864.14
523.843	40986.62
524.21	41341.41
524.577	41621.63
524.943	41903.66
525.31	42199.92
525.676	42519.24
526.043	42696.18
526.409	42876.29
526.776	43219.78
527.142	43464.3
527.508	43679.43
527.874	44004.85
528.241	44255.23
528.607	44402.58
528.973	44757.59
529.339	44793.3
529.705	45173.18
530.071	45475.54
530.437	45607.06
530.803	46089.08
531.169	46224.9
531.535	46135.64
531.901	46412.24
532.267	46590.54
532.632	46921.15
532.998	47016.97
533.364	47169.06
533.73	47387.13
534.095	47705.09
534.461	47889.49
534.826	48112.99
535.192	48226.2
535.557	48625.52
535.923	48595.69
536.288	48738.96
536.653	49039.52
537.019	48891.95
537.384	49182.56
537.749	49325.61
538.114	49391.82
538.479	49436.57
538.845	49631.82
539.21	49736.45
539.575	49827.97
539.94	50065.48
540.305	50250.78
540.67	50187.06
541.034	50353.83
541.399	50459.59
541.764	50496.2
542.129	50701.17
542.494	50799.47
542.858	50974.83
543.223	51025
543.587	51219.57
543.952	51215.73
544.316	51321.72
544.681	51350.87
545.045	51475.38
545.41	51687.36
545.774	51782.04
546.138	51819.1
546.503	52034.69
546.867	52084.63
547.231	52369.82
547.595	52348.81
547.959	52569.59
548.324	52606.43
548.688	52659.08
549.052	52864.95
549.416	52906.98
549.779	53038.51
550.143	53191.04
550.507	53289.35
550.871	53477.82
551.235	53392.17
551.599	53669.68
551.962	53711.03
552.326	53769.56
552.689	53939.05
553.053	53831.93
553.417	54040.51
553.78	54430.11
554.143	54332.71
554.507	54396.44
554.87	54555.53
555.234	54758.01
555.597	54632.59
555.96	54742.87
556.323	54881.85
556.686	54933.37
557.05	55118.68
557.413	55160.48
557.776	55252.01
558.139	55490.65
558.502	55522.96
558.865	55607.48
559.228	55826.23
559.59	55882.05
559.953	55950.07
560.316	56237.97
560.679	56235.26
561.041	56455.14
561.404	56611.52
561.767	56683.83
562.129	56682.25
562.492	57058.97
562.854	57022.36
563.217	57050.6
563.579	57186.42
563.941	57265.97
564.304	57390.03
564.666	57477.03
565.028	57654.2
565.39	57684.03
565.753	57788.21
566.115	57909.79
566.477	58072.5
566.839	58190.69
567.201	58257.13
567.563	58305.03
567.925	58507.29
568.287	58490.11
568.648	58526.95
569.01	58659.38
569.372	58791.8
569.734	58722.65
570.095	58849.65
570.457	58974.17
570.819	59071.34
571.18	59120.15
571.542	59184.79
571.903	59255.29
572.265	59390.88
572.626	59360.15
572.987	59443.76
573.349	59535.28
573.71	59603.98
574.071	59698.44
574.432	59742.74
574.794	59934.37
575.155	59911.32
575.516	59852.56
575.877	59976.4
576.238	59994.93
576.599	60080.58
576.96	60097.08
577.32	60142.73
577.681	60264.08
578.042	60339.56
578.403	60351.08
578.763	60426.11
579.124	60442.83
579.485	60500.91
579.845	60533.9
580.206	60468.82
580.566	60533.45
580.927	60544.3
581.287	60669.72
581.648	60487.58
582.008	60662.94
582.368	60586.78
582.728	60608.93
583.089	60587.23
583.449	60615.71
583.809	60618.87
584.169	60688.47
584.529	60598.76
584.889	60773.44
585.249	60584.52
585.609	60589.95
585.969	60725.31
586.329	60620.68
586.688	60680.11
587.048	60644.41
587.408	60578.42
587.768	60591.53
588.127	60590.62
588.487	60640.11
588.846	60813.22
589.206	60652.54
589.565	60649.83
589.925	60796.27
590.284	60720.34
590.643	60810.28
591.003	60865.87
591.362	60894.12
591.721	60843.95
592.08	60823.61
592.44	60898.41
592.799	60864.29
593.158	60853.44
593.517	60834.69
593.876	60925.08
594.235	60933.44
594.593	60930.95
594.952	60994.91
595.311	60907.9
595.67	60923.95
596.029	61066.32
596.387	61030.39
596.746	61003.72
597.104	60900.9
597.463	60909.71
597.822	61034
598.18	60948.81
598.538	60984.06
598.897	60960.56
599.255	60827.45
599.613	61161.46
599.972	61033.55
600.33	61072.87
600.688	60954.23
601.046	61114.23
601.404	61119.2
601.762	61096.83
602.12	61135.92
602.478	61157.62
602.836	61189.48
603.194	61090.5
603.552	61101.8
603.91	61048.69
604.268	61215.01
604.625	61148.8
604.983	61280.55
605.341	61188.8
605.698	61293.66
606.056	61333.88
606.413	61343.6
606.771	61390.15
607.128	61483.26
607.485	61384.73
607.843	61459.75
608.2	61533.2
608.557	61626.98
608.914	61554.21
609.272	61704.72
609.629	61685.28
609.986	61762.8
610.343	61628.56
610.7	61795.79
611.057	61759.86
611.414	61754.89
611.771	61805.96
612.127	61878.73
612.484	61809.35
612.841	61883.47
613.198	61770.48
613.554	61830.37
613.911	61918.27
614.267	61920.76
614.624	61890.93
614.98	61980.87
615.337	61989.68
615.693	62015.45
616.05	61856.58
616.406	62021.77
616.762	61958.5
617.118	62001.21
617.475	61963.92
617.831	62020.64
618.187	62043.69
618.543	62044.15
618.899	62106.97
619.255	62052.28
619.611	62034.65
619.967	62137.02
620.323	62200.98
620.678	62121.43
621.034	62004.82
621.39	62044.15
621.746	62006.86
622.101	62274.65
622.457	62079.62
622.812	62166.63
623.168	62167.53
623.523	62163.46
623.879	62278.04
624.234	62130.7
624.589	62250.02
624.945	62275.33
625.3	62304.7
625.655	62256.57
626.01	62271.26
626.365	62283.24
626.72	62278.04
627.075	62268.09
627.43	62286.17
627.785	62169.79
628.14	62222.9
628.495	62288.88
628.85	62170.7
629.205	62101.77
629.559	62205.95
629.914	62142.9
630.269	62105.16
630.623	62058.16
630.978	61994.2
631.332	62104.26
631.687	62102.45
632.041	61999.4
632.396	61989.46
632.75	61903.36
633.104	61860.42
633.459	61770.71
633.813	61806.19
634.167	61768.9
634.521	61706.53
634.875	61742.46
635.229	61659.97
635.583	61600.77
635.937	61563.03
636.291	61504.27
636.645	61524.61
636.999	61469.92
637.352	61452.97
637.706	61374.78
638.06	61494.56
638.413	61372.3
638.767	61366.88
639.121	61405.74
639.474	61274.67
639.828	61299.31
640.181	61269.7
640.534	61289.36
640.888	61226.54
641.241	61084.85
641.594	61152.64
641.947	61209.37
642.301	61123.27
642.654	61138.63
643.007	61142.25
643.36	61072.19
643.713	61065.87
644.066	61119.88
644.419	60956.72
644.771	60853.44
645.124	60624.52
645.477	60646.22
645.83	60431.98
646.182	60332.55
646.535	60242.61
646.888	60243.97
647.24	60161.48
647.593	60275.6
647.945	60216.17
648.298	60080.81
648.65	59973.01
649.002	59954.03
649.355	60019.34
649.707	59998.32
650.059	60033.58
650.411	60276.28
650.763	60363.29
651.115	60470.63
651.467	60420.46
651.819	60358.77
652.171	60318.54
652.523	60249.16
652.875	60340.91
653.227	60126.68
653.578	60261.14
653.93	60246
654.282	60081.03
654.633	60003.75
654.985	60067.7
655.337	60065.67
655.688	60083.07
656.039	60120.58
656.391	59856.63
656.742	59930.53
657.094	59884.88
657.445	60061.6
657.796	59941.38
658.147	59871.1
658.498	59862.51
658.849	59882.62
659.2	59895.73
659.551	59864.99
659.902	59913.13
660.253	59810.76
660.604	59909.96
660.955	59805.11
661.306	59886.01
661.656	59784.54
662.007	59805.33
662.358	59888.72
662.708	59797.88
663.059	59818.44
663.409	59714.26
663.76	59859.57
664.11	59789.74
664.461	59800.59
664.811	59849.4
665.161	59856.18
665.511	59694.6
665.862	59726.47
666.212	59751.32
666.562	59786.35
666.912	59687.15
667.262	59629.29
667.612	59641.95
667.962	59629.07
668.312	59591.33
668.662	59698.22
669.011	59556.08
669.361	59547.49
669.711	59434.5
670.06	59462.74
670.41	59349.98
670.76	59350.2
671.109	59398.57
671.459	59261.39
671.808	59261.85
672.157	59357.44
672.507	59069.31
672.856	59159.93
673.205	59196.31
673.554	59236.31
673.904	59069.08
674.253	59270.21
674.602	59137.78
674.951	58712.03
675.3	58582.99
675.649	58979.37
675.998	59036.99
676.346	59013.72
676.695	59099.14
677.044	58848.98
677.393	58848.75
677.741	58943.21
678.09	58907.73
678.438	58827.51
678.787	58880.16
679.135	58815.53
679.484	58701.86
679.832	58743.67
680.181	58636.1
680.529	58808.98
680.877	58724.91
681.225	58616.44
681.573	58785.7
681.922	58589.77
682.27	58531.24
682.618	58550.23
682.966	58438.36
683.314	58574.86
683.661	58476.1
684.009	58419.61
684.357	58288.99
684.705	58305.26
685.053	58343.68
685.4	58265.49
685.748	58114.53
686.095	58086.51
686.443	58021.2
686.79	58016.91
687.138	58007.87
687.485	58020.52
687.832	57874.99
688.18	57910.24
688.527	57762.68
688.874	57760.87
689.221	57630.25
689.568	57574.88
689.915	57502.8
690.262	57546.41
690.609	57369.24
690.956	57281.78
691.303	57245.4
691.65	57084.73
691.997	57020.1
692.344	56817.84
692.69	56798.41
693.037	56821.01
693.383	56639.32
693.73	56709.37
694.077	56530.62
694.423	56478.42
694.769	56309.38
695.116	56332.66
695.462	56250.63
695.808	56099.22
696.155	56192.55
696.501	55967.02
696.847	55975.6
697.193	55741.49
697.539	55776.06
697.885	55640.7
698.231	55581.72
698.577	55566.8
698.923	55539.68
699.269	55334.27
699.614	55231.44
699.96	55219.69
700.306	55290.88
700.651	55070.32
700.997	55082.75
701.342	55047.04
701.688	54998.91
702.033	54850.44
702.379	54808.4
702.724	54826.48
703.069	54880.72
703.415	54574.29
703.76	54571.12
704.105	54632.81
704.45	54551.91
704.795	54351.47
705.14	54291.13
705.485	54294.52
705.83	54111.25
706.175	54155.31
706.52	54010.01
706.865	53973.4
707.209	53817.24
707.554	53781.99
707.899	53885.49
708.243	53741.09
708.588	53720.97
708.932	53451.83
709.277	53442.11
709.621	53474.65
709.966	53192.17
710.31	53280.08
710.654	52946.31
710.998	53089.13
711.342	52957.15
711.687	52915.35
712.031	52758.97
712.375	52534.56
712.719	52736.14
713.063	52577.28
713.407	52613.88
713.75	52376.15
714.094	52258.64
714.438	52217.29
714.782	52225.42
715.125	51919.67
715.469	52012.77
715.812	51867.24
716.156	51742.27
716.499	51645.77
716.843	51660.24
717.186	51395.61
717.53	51595.15
717.873	51535.95
718.216	51391.54
718.559	51213.47
718.902	51128.73
719.246	51115.62
719.589	50995.4
719.932	50906.13
720.275	50826.81
720.617	50719.92
720.96	50745.01
721.303	50691.68
721.646	50713.6
721.989	50462.53
722.331	50566.93
722.674	50442.42
723.016	50514.05
723.359	50401.51
723.701	50447.16
724.044	50231.8
724.386	50099.37
724.729	50249.43
725.071	50097.57
725.413	50042.88
725.755	50045.59
726.097	49982.09
726.439	49829.55
726.782	49723.11
727.124	49898.02
727.465	49675.21
727.807	49816.9
728.149	49643.12
728.491	49630.46
728.833	49577.81
729.175	49461.2
729.516	49397.02
729.858	49315.21
730.199	49409.68
730.541	49260.53
730.882	49147.99
731.224	49232.28
731.565	48857.6
731.906	49036.58
732.248	48977.82
732.589	48804.49
732.93	48643.14
733.271	48737.6
733.612	48727.43
733.953	48652.63
734.294	48484.28
734.635	48465.52
734.976	48524.5
735.317	48187.33
735.658	48240.89
735.999	48103.5
736.339	47925.42
736.68	47982.14
737.021	47879.55
737.361	47775.82
737.702	47935.82
738.042	47711.19
738.383	47439.11
738.723	47541.48
739.063	47291.54
739.404	47419.9
739.744	47268.26
740.084	46910.08
740.424	47183.97
740.764	46910.08
741.104	47034.37
741.444	46713.7
741.784	46767.71
742.124	46749.18
742.464	46714.83
742.804	46428.06
743.143	46409.98
743.483	46426.93
743.823	46215.86
744.162	46049.09
744.502	46114.62
744.841	45886.15
745.181	46031.01
745.52	45905.36
745.86	45965.7
746.199	45837.57
746.538	45789.21
746.877	45798.7
747.216	45643.22
747.556	45577.46
747.895	45541.3
748.234	45287.98
748.573	45423.79
748.911	45275.32
749.25	45290.46
749.589	45125.49
749.928	45217.02
750.267	45094.08
750.605	45138.83
750.944	44911.26
751.283	44901.55
751.621	44924.14
751.96	44558.73
