Data from aluminium_macbook_case_FLMS001491_045.txt Node
Date: Tue Feb 07 10:43:40 GMT 2017
User: dcchb
Spectrometer: FLMS00149
Trigger mode: 0
Integration Time (sec): 2.000000E-2
Scans to average: 10
Electric dark correction enabled: true
Nonlinearity correction enabled: false
Boxcar width: 0
XAxis mode: Wavelengths
Number of Pixels in Spectrum: 2048
>>>>>Begin Spectral Data<<<<<
341.393	-7.66
341.776	-7.66
342.16	-7.66
342.543	-50.37
342.927	-60.31
343.31	-63.25
343.693	-76.13
344.077	-87.88
344.46	-38.16
344.843	-49.91
345.226	-35.23
345.61	-14.66
345.993	-14.66
346.376	-20.54
346.759	-7.66
347.142	14.49
347.525	36.64
347.908	72.34
348.291	78.9
348.674	101.72
349.057	103.98
349.44	122.74
349.823	146.69
350.206	178.1
350.588	251.77
350.971	252.9
351.354	274.6
351.737	268.5
352.119	298.78
352.502	324.99
352.884	316.18
353.267	330.42
353.65	342.39
354.032	365.67
354.414	381.94
354.797	366.8
355.179	353.69
355.562	368.15
355.944	372.67
356.326	399.57
356.709	411.99
357.091	407.7
357.473	422.62
357.855	429.4
358.238	407.93
358.62	423.97
359.002	423.29
359.384	417.64
359.766	402.05
360.148	416.29
360.53	416.97
360.912	388.49
361.294	424.2
361.676	418.1
362.057	407.48
362.439	417.42
362.821	417.19
363.203	419.45
363.584	417.42
363.966	415.61
364.348	411.77
364.729	421.94
365.111	420.36
365.493	415.61
365.874	433.92
366.256	418.77
366.637	423.29
367.019	428.49
367.4	411.54
367.781	431.88
368.163	425.1
368.544	432.33
368.925	455.84
369.306	451.99
369.688	451.32
370.069	444.54
370.45	441.6
370.831	452.9
371.212	442.05
371.593	464.87
371.974	461.49
372.355	459
372.736	465.1
373.117	445.67
373.498	487.47
373.879	459
374.26	454.93
374.641	448.15
375.021	470.98
375.402	448.83
375.783	484.54
376.163	500.81
376.544	505.55
376.925	501.26
377.305	500.81
377.686	507.36
378.066	522.5
378.447	520.69
378.827	531.09
379.208	543.97
379.588	539.9
379.968	529.51
380.349	544.65
380.729	564.76
381.109	557.08
381.489	572.67
381.87	579.45
382.25	581.03
382.63	576.51
383.01	573.12
383.39	586.45
383.77	605.89
384.15	602.72
384.53	616.96
384.91	604.08
385.29	613.35
385.67	618.32
386.049	607.92
386.429	650.86
386.809	650.86
387.189	637.53
387.568	667.81
387.948	687.24
388.328	681.37
388.707	689.05
389.087	682.95
389.466	704.64
389.846	688.37
390.225	703.06
390.605	740.35
390.984	720.24
391.363	705.09
391.743	733.57
392.122	763.85
392.501	760.91
392.881	787.58
393.26	799.56
393.639	819.67
394.018	815.83
394.397	826
394.776	819.44
395.155	817.18
395.534	854.92
395.913	854.47
396.292	860.8
396.671	892.21
397.05	896.28
397.429	893.34
397.808	892.43
398.186	902.83
398.565	930.4
398.944	922.49
399.323	937.18
399.701	919.1
400.08	960.91
400.458	964.75
400.837	985.99
401.215	985.54
401.594	1004.75
401.972	974.01
402.351	1007.69
402.729	1025.76
403.107	1045.65
403.486	1045.88
403.864	1068.93
404.242	1041.58
404.62	1098.98
404.999	1094.91
405.377	1103.05
405.755	1104.63
406.133	1147.79
406.511	1164.52
406.889	1189.15
407.267	1204.29
407.645	1210.39
408.023	1210.84
408.401	1259.2
408.779	1257.85
409.156	1284.06
409.534	1306.43
409.912	1319.99
410.29	1353.44
410.667	1357.73
411.045	1404.51
411.422	1401.35
411.8	1407.67
412.178	1437.05
412.555	1472.53
412.933	1459.65
413.31	1474.11
413.687	1523.6
414.065	1577.61
414.442	1555.69
414.819	1590.49
415.197	1585.07
415.574	1614.45
415.951	1623.26
416.328	1649.7
416.705	1673.88
417.082	1695.35
417.46	1707.1
417.837	1705.97
418.214	1758.85
418.591	1775.57
418.967	1797.72
419.344	1772.19
419.721	1845.86
420.098	1797.27
420.475	1877.94
420.852	1869.13
421.228	1906.42
421.605	1927.21
421.982	1960.65
422.358	1973.76
422.735	1994.33
423.111	1978.28
423.488	2029.58
423.864	2037.94
424.241	2096.02
424.617	2100.31
424.994	2127.66
425.37	2184.6
425.746	2169.46
426.123	2193.87
426.499	2224.83
426.875	2232.96
427.251	2309.12
427.627	2330.59
428.003	2372.62
428.379	2408.55
428.756	2411.72
429.132	2474.31
429.507	2511.37
429.883	2542.79
430.259	2576.91
430.635	2604.25
431.011	2614.87
431.387	2682.44
431.763	2744.14
432.138	2748.2
432.514	2803.8
432.89	2831.37
433.265	2885.15
433.641	2923.79
434.016	2930.57
434.392	3003.11
434.767	3069.33
435.143	3085.37
435.518	3123.56
435.894	3108.65
436.269	3224.8
436.644	3235.2
437.02	3281.98
437.395	3273.61
437.77	3353.39
438.145	3386.15
438.52	3395.19
438.895	3479.48
439.271	3485.81
439.646	3551.8
440.021	3584.79
440.395	3655.53
440.77	3599.71
441.145	3627.05
441.52	3680.38
441.895	3754.28
442.27	3767.39
442.645	3752.7
443.019	3835.41
443.394	3779.59
443.769	3862.75
444.143	3849.87
444.518	3948.17
444.892	3942.98
445.267	3995.63
445.641	4005.8
446.016	4043.54
446.39	4084.67
446.764	4126.47
447.139	4169.86
447.513	4179.13
447.887	4197.66
448.262	4226.36
448.636	4264.1
449.01	4334.38
449.384	4386.58
449.758	4425.22
450.132	4449.18
450.506	4459.8
450.88	4514.71
451.254	4535.28
451.628	4576.18
452.002	4618.44
452.376	4667.02
452.75	4785.44
453.123	4770.75
453.497	4918.99
453.871	4928.94
454.244	4985.43
454.618	5044.42
454.992	5104.53
455.365	5150.4
455.739	5297.52
456.112	5297.74
456.486	5372.09
456.859	5393.78
457.232	5533.22
457.606	5547.68
457.979	5614.57
458.352	5701.12
458.725	5861.12
459.099	5847.11
459.472	5953.54
459.845	6064.73
460.218	6090.04
460.591	6119.87
460.964	6183.37
461.337	6346.53
461.71	6426.3
462.083	6513.98
462.456	6493.42
462.829	6603.02
463.201	6656.8
463.574	6748.78
463.947	6880.3
464.32	6981.77
464.692	7021.54
465.065	7126.62
465.438	7232.38
465.81	7288.65
466.183	7323
466.555	7604.57
466.928	7642.09
467.3	7686.83
467.672	7812.93
468.045	8044.34
468.417	8026.71
468.789	8089.31
469.161	8166.82
469.534	8341.28
469.906	8598.22
470.278	8585.79
470.65	8631.21
471.022	8807.48
471.394	9018.55
471.766	9093.12
472.138	9207.24
472.51	9394.58
472.882	9620.79
473.253	9730.85
473.625	9794.35
473.997	10071.63
474.369	10128.35
474.74	10240.89
475.112	10434.56
475.484	10673.19
475.855	10770.82
476.227	10895.56
476.598	11200.19
476.97	11254.65
477.341	11626.39
477.713	11750.68
478.084	11855.08
478.455	12202.65
478.827	12281.06
479.198	12654.61
479.569	12765.12
479.94	13110.19
480.311	13236.97
480.682	13500.24
481.053	13774.36
481.424	14021.13
481.795	14101.13
482.166	14240.33
482.537	14549.93
482.908	14866.53
483.279	15053.19
483.65	15350.81
484.021	15630.58
484.391	15765.49
484.762	15936.33
485.133	16141.3
485.503	16329.54
485.874	16661.74
486.244	16943.99
486.615	17210.42
486.985	17441.6
487.356	17703.52
487.726	17911.2
488.097	18288.13
488.467	18374.91
488.837	18667.33
489.207	19015.35
489.578	19284.04
489.948	19440.2
490.318	19762.67
490.688	19814.2
491.058	20132.15
491.428	20431.81
491.798	20570.33
492.168	21013.49
492.538	21003.77
492.908	21280.15
493.278	21611.66
493.648	21625.67
494.017	21837.65
494.387	22149.05
494.757	22392.21
495.126	22638.3
495.496	22680.79
495.866	22820.9
496.235	23123.04
496.605	23382.69
496.974	23524.38
497.344	23709.69
497.713	23950.36
498.082	24112.84
498.452	24365.26
498.821	24473.96
499.19	24570.68
499.559	24946.94
499.928	25057.9
500.298	25186.71
500.667	25532.69
501.036	25463.54
501.405	25785.34
501.774	25782.85
502.143	26210.19
502.512	26228.49
502.88	26441.37
503.249	26527.47
503.618	26740.79
503.987	26766.1
504.356	27068.92
504.724	27158.18
505.093	27449.02
505.462	27495.8
505.83	27806.75
506.199	27973.53
506.567	28299.17
506.936	28387.3
507.304	28616.68
507.672	28814.19
508.041	28905.48
508.409	29143.67
508.777	29469.08
509.145	29731
509.514	29744.56
509.882	30099.35
510.25	30166.47
510.618	30384.99
510.986	30497.76
511.354	30823.62
511.722	31110.85
512.09	31543.38
512.458	31379.54
512.826	31665.86
513.193	31808.46
513.561	32106.98
513.929	32250.03
514.297	32610.02
514.664	32763.69
515.032	32985.15
515.4	33247.06
515.767	33361.18
516.135	33590.78
516.502	33383.11
516.869	34092.24
517.237	34127.27
517.604	34179.24
517.972	34545.79
518.339	34848.15
518.706	35015.15
519.073	35151.42
519.44	35410.17
519.808	35863.94
520.175	35871.85
520.542	36432.52
520.909	36680.19
521.276	36689.91
521.643	37232.72
522.009	37381.87
522.376	37750.67
522.743	37956.54
523.11	38243.32
523.477	38586.36
523.843	38742.06
524.21	39289.39
524.577	39570.97
524.943	39831.07
525.31	39889.6
525.676	40337.27
526.043	40453.43
526.409	40743.36
526.776	40972.28
527.142	41266.29
527.508	41362.78
527.874	41766.61
528.241	42032.37
528.607	41998.02
528.973	42479.36
529.339	42647.95
529.705	42945.11
530.071	43330.19
530.437	43415.84
530.803	43519.56
531.169	43866.45
531.535	43933.79
531.901	44140.79
532.267	44408.58
532.632	44738.06
532.998	44883.59
533.364	45181.67
533.73	45282.68
534.095	45755.21
534.461	45792.72
534.826	45903.91
535.192	46203.79
535.557	46481.29
535.923	46454.63
536.288	46684.45
536.653	46921.51
537.019	46844.9
537.384	47098
537.749	47277.2
538.114	47215.74
538.479	47412.11
538.845	47603.75
539.21	47643.3
539.575	47789.51
539.94	47744.99
540.305	48025.66
540.67	48127.8
541.034	48246.22
541.399	48448.25
541.764	48568.69
542.129	48649.37
542.494	48859.76
542.858	49000.55
543.223	49002.81
543.587	49278.05
543.952	49274.44
544.316	49499.07
544.681	49298.17
545.045	49709.68
545.41	49825.16
545.774	49911.03
546.138	50077.58
546.503	50261.76
546.867	50339.27
547.231	50650
547.595	50592.14
547.959	50808.41
548.324	50857
548.688	50991.46
549.052	51021.96
549.416	51092.92
549.779	51242.3
550.143	51344.67
550.507	51575.85
550.871	51691.55
551.235	51619.01
551.599	51957.31
551.962	52033.91
552.326	51946.23
552.689	52190.07
553.053	52120.24
553.417	52185.1
553.78	52581.7
554.143	52504.86
554.507	52731.75
554.87	52827.79
555.234	53094.9
555.597	52950.05
555.96	53134.9
556.323	53242.47
556.686	53272.98
557.05	53483.14
557.413	53543.93
557.776	53700.31
558.139	53872.06
558.502	54047.65
558.865	54119.74
559.228	54277.02
559.59	54330.35
559.953	54374.87
560.316	54716.33
560.679	54854.63
561.041	55032.25
561.404	55051.91
561.767	55317.22
562.129	55265.47
562.492	55481.28
562.854	55508.4
563.217	55566.25
563.579	55682.63
563.941	55851.89
564.304	55981.16
564.666	56137.08
565.028	56243.3
565.39	56304.08
565.753	56338.21
566.115	56474.7
566.477	56544.76
566.839	56627.69
567.201	56814.81
567.563	56851.19
567.925	57041.01
568.287	57048.47
568.648	57019.55
569.01	57201.46
569.372	57313.1
569.734	57261.57
570.095	57469.7
570.457	57507.67
570.819	57568.23
571.18	57641.68
571.542	57798.51
571.903	57800.99
572.265	57933.87
572.626	58011.84
572.987	58050.48
573.349	58209.35
573.71	58288.67
574.071	58314.88
574.432	58370.7
574.794	58504.93
575.155	58495.44
575.516	58504.25
575.877	58598.04
576.238	58629
576.599	58788.76
576.96	58816.11
577.32	58819.5
577.681	58911.25
578.042	58985.37
578.403	58955.99
578.763	58965.48
579.124	58995.77
579.485	59124.12
579.845	59203.9
580.206	59120.51
580.566	59110.34
580.927	59180.39
581.287	59254.74
581.648	59117.34
582.008	59179.49
582.368	59173.16
582.728	59216.78
583.089	59238.47
583.449	59218.58
583.809	59238.7
584.169	59286.83
584.529	59273.72
584.889	59415.19
585.249	59204.12
585.609	59094.52
585.969	59295.42
586.329	59153.28
586.688	59293.84
587.048	59284.8
587.408	59203.9
587.768	59288.19
588.127	59268.98
588.487	59242.99
588.846	59475.98
589.206	59274.85
589.565	59267.85
589.925	59387.85
590.284	59323.44
590.643	59421.74
591.003	59466.71
591.362	59536.77
591.721	59487.5
592.08	59475.07
592.44	59552.36
592.799	59600.95
593.158	59580.38
593.517	59501.51
593.876	59602.08
594.235	59491.57
594.593	59572.25
594.952	59606.82
595.311	59440.27
595.67	59545.81
596.029	59707.38
596.387	59696.76
596.746	59707.16
597.104	59513.04
597.463	59539.25
597.822	59579.93
598.18	59548.97
598.538	59555.3
598.897	59669.65
599.255	59495.87
599.613	59822.86
599.972	59651.12
600.33	59683.2
600.688	59590.33
601.046	59631.45
601.404	59850.43
601.762	59727.5
602.12	59790.77
602.478	59854.05
602.836	59815.63
603.194	59740.15
603.552	59715.75
603.91	59635.75
604.268	59867.61
604.625	59794.16
604.983	59978.11
605.341	59874.84
605.698	59988.73
606.056	60037.09
606.413	59982.86
606.771	60054.27
607.128	60125.68
607.485	60021.95
607.843	60069.86
608.2	60172.23
608.557	60254.04
608.914	60177.2
609.272	60348.27
609.629	60328.61
609.986	60415.84
610.343	60190.08
610.7	60436.86
611.057	60398.44
611.414	60388.04
611.771	60397.54
612.127	60488.38
612.484	60456.97
612.841	60519.79
613.198	60400.25
613.554	60451.09
613.911	60574.03
614.267	60509.17
614.624	60550.3
614.98	60568.83
615.337	60696.96
615.693	60582.62
616.05	60534.03
616.406	60705.55
616.762	60633.69
617.118	60600.24
617.475	60591.43
617.831	60653.35
618.187	60660.58
618.543	60640.47
618.899	60746.23
619.255	60774.02
619.611	60735.61
619.967	60792.1
620.323	60920.23
620.678	60741.71
621.034	60736.06
621.39	60770.41
621.746	60696.74
622.101	60955.71
622.457	60802.72
622.812	60854.7
623.168	60977.63
623.523	60845.66
623.879	60981.93
624.234	60838.2
624.589	60969.27
624.945	60873.68
625.3	60937.41
625.655	60944.19
626.01	60939.22
626.365	61021.02
626.72	60941.02
627.075	60844.98
627.43	60903.06
627.785	60818.54
628.14	60855.15
628.495	60867.81
628.85	60852.67
629.205	60771.99
629.559	60904.42
629.914	60801.14
630.269	60737.64
630.623	60699.22
630.978	60655.83
631.332	60717.98
631.687	60744.42
632.041	60604.31
632.396	60577.64
632.75	60532.45
633.104	60519.34
633.459	60460.13
633.813	60445.9
634.167	60381.27
634.521	60373.58
634.875	60440.7
635.229	60389.4
635.583	60253.36
635.937	60241.83
636.291	60216.75
636.645	60197.99
636.999	60179.24
637.352	60186.02
637.706	60038.22
638.06	60120.48
638.413	60043.2
638.767	60015.4
639.121	60009.07
639.474	59874.16
639.828	59886.36
640.181	59907.83
640.534	59901.73
640.888	59805.01
641.241	59720.49
641.594	59735.63
641.947	59824.67
642.301	59715.75
642.654	59742.41
643.007	59750.77
643.36	59813.6
643.713	59638.69
644.066	59713.71
644.419	59587.84
644.771	59454.96
645.124	59237.79
645.477	59148.53
645.83	58980.17
646.182	58914.19
646.535	58814.08
646.888	58894.07
647.24	58724.36
647.593	58854.3
647.945	58776.34
648.298	58593.29
648.65	58555.32
649.002	58514.87
649.355	58612.5
649.707	58472.39
650.059	58547.42
650.411	58918.25
650.763	58905.37
651.115	59173.39
651.467	59019.27
651.819	58980.17
652.171	58883.23
652.523	58840.74
652.875	58893.39
653.227	58757.35
653.578	58868.76
653.93	58825.6
654.282	58698.6
654.633	58647.3
654.985	58655.21
655.337	58626.28
655.688	58639.16
656.039	58692.27
656.391	58539.28
656.742	58519.85
657.094	58518.94
657.445	58629.67
657.796	58550.81
658.147	58476.46
658.498	58406.18
658.849	58555.78
659.2	58416.8
659.551	58376.12
659.902	58459.06
660.253	58448.21
660.604	58440.07
660.955	58343.13
661.306	58410.7
661.656	58402.11
662.007	58361.88
662.358	58376.8
662.708	58389.91
663.059	58278.27
663.409	58113.3
663.76	58337.48
664.11	58302.45
664.461	58250.7
664.811	58311.49
665.161	58233.98
665.511	58122.57
665.862	58182
666.212	58280.76
666.562	58275.11
666.912	58242.11
667.262	58165.5
667.612	58138.61
667.962	58185.84
668.312	58158.27
668.662	58193.07
669.011	58077.15
669.361	58015.23
669.711	58014.55
670.06	57956.92
670.41	57948.34
670.76	57812.75
671.109	57985.85
671.459	57924.83
671.808	57859.98
672.157	57831.73
672.507	57714.89
672.856	57712.64
673.205	57763.26
673.554	57758.74
673.904	57625.41
674.253	57848.68
674.602	57710.15
674.951	57302.02
675.3	57199.88
675.649	57629.47
675.998	57501.79
676.346	57573.43
676.695	57631.28
677.044	57390.84
677.393	57463.38
677.741	57502.7
678.09	57431.29
678.438	57333.89
678.787	57310.16
679.135	57407.33
679.484	57189.71
679.832	57337.28
680.181	57255.25
680.529	57216.6
680.877	57157.62
681.225	57121.69
681.573	57249.14
681.922	57070.17
682.27	57066.32
682.618	57017.51
682.966	56887.8
683.314	56964.63
683.661	56920.11
684.009	56699.33
684.357	56762.38
684.705	56658.65
685.053	56701.14
685.4	56636.05
685.748	56479.67
686.095	56454.36
686.443	56453.23
686.79	56347.93
687.138	56326.23
687.485	56347.47
687.832	56229.74
688.18	56240.58
688.527	56066.12
688.874	55958.1
689.221	55948.84
689.568	55881.27
689.915	55736.19
690.262	55801.27
690.609	55655.74
690.956	55597.21
691.303	55585.69
691.65	55499.13
691.997	55476.76
692.344	55243.55
692.69	55217.56
693.037	55215.98
693.383	55067.51
693.73	55119.48
694.077	54870.22
694.423	54882.43
694.769	54809.66
695.116	54748.87
695.462	54648.76
695.808	54598.14
696.155	54647.4
696.501	54482.21
696.847	54479.73
697.193	54123.8
697.539	54269.34
697.885	54052.62
698.231	54060.53
698.577	53970.81
698.923	53860.76
699.269	53780.54
699.614	53725.4
699.96	53624.83
700.306	53505.06
700.651	53359.53
700.997	53284.28
701.342	53218.06
701.688	53254.22
702.033	53111.63
702.379	53042.02
702.724	52953.44
703.069	53023.27
703.415	52652.66
703.76	52684.97
704.105	52609.94
704.45	52424.41
704.795	52388.03
705.14	52297.41
705.485	52193.91
705.83	52036.63
706.175	52056.74
706.52	51952.79
706.865	51938.32
707.209	51917.31
707.554	51777.2
707.899	51840.7
708.243	51684.77
708.588	51533.36
708.932	51330.2
709.277	51280.04
709.621	51337.44
709.966	51042.98
710.31	51120.27
710.654	50756.89
710.998	50936.32
711.342	50966.37
711.687	50779.94
712.031	50709.66
712.375	50505.82
712.719	50613.61
713.063	50540.62
713.407	50514.63
713.75	50295.43
714.094	50343.34
714.438	50112.83
714.782	50194.19
715.125	49875.55
715.469	50048.88
715.812	49832.16
716.156	49608.44
716.499	49595.33
716.843	49669
717.186	49348.11
717.53	49645.95
717.873	49560.98
718.216	49432.17
718.559	49303.14
718.902	49148.79
719.246	49078.51
719.589	49009.14
719.932	48870.16
720.275	48805.07
720.617	48747.22
720.96	48843.26
721.303	48699.31
721.646	48538.64
721.989	48345.88
722.331	48588.58
722.674	48406.44
723.016	48414.8
723.359	48308.36
723.701	48262.26
724.044	48018.88
724.386	47778.66
724.729	48010.52
725.071	47830.18
725.413	47886.68
725.755	47803.07
726.097	47518.1
726.439	47276.53
726.782	47399.23
727.124	47533.02
727.465	47263.64
727.807	47174.38
728.149	47159.24
728.491	47008.74
728.833	47076.76
729.175	46904.33
729.516	46707.73
729.858	46746.82
730.199	46827.95
730.541	46620.5
730.882	46606.26
731.224	46519.48
731.565	46260.51
731.906	46206.27
732.248	46308.87
732.589	46058.7
732.93	45900.29
733.271	45888.99
733.612	45967.86
733.953	46022.32
734.294	45733.74
734.635	45605.61
734.976	45799.28
735.317	45729.22
735.658	45620.98
735.999	45535.55
736.339	45427.99
736.68	45543.69
737.021	45301.44
737.361	45245.84
737.702	45286.52
738.042	45032.06
738.383	45050.6
738.723	45094.21
739.063	44817.61
739.404	44846.31
739.744	44837.72
740.084	44646.31
740.424	44697.61
740.764	44729.7
741.104	44806.08
741.444	44553.43
741.784	44421.69
742.124	44535.58
742.464	44321.8
742.804	44266.43
743.143	44199.54
743.483	44135.59
743.823	43827.35
744.162	43943.28
744.502	44051.75
744.841	43683.4
745.181	43787.35
745.52	43677.98
745.86	43645.43
746.199	43660.12
746.538	43385.78
746.877	43454.7
747.216	43440.92
747.556	43176.29
747.895	43444.76
748.234	43080.03
748.573	43000.25
748.911	42953.48
749.25	42954.15
749.589	42703.31
749.928	42687.04
750.267	42685.23
750.605	42568.63
750.944	42459.02
751.283	42314.62
751.621	42289.09
751.96	42154.17
752.298	42051.58
