Data from aluminium_macbook_case_FLMS001491_080.txt Node
Date: Tue Feb 07 10:44:12 GMT 2017
User: dcchb
Spectrometer: FLMS00149
Trigger mode: 0
Integration Time (sec): 2.000000E-2
Scans to average: 10
Electric dark correction enabled: true
Nonlinearity correction enabled: false
Boxcar width: 0
XAxis mode: Wavelengths
Number of Pixels in Spectrum: 2048
>>>>>Begin Spectral Data<<<<<
341.393	-22.19
341.776	-22.19
342.16	-22.19
342.543	-63.32
342.927	-50.89
343.31	-64.22
343.693	-76.2
344.077	-60.61
344.46	-68.74
344.843	-35.97
345.226	-44.33
345.61	-43.43
345.993	-29.65
346.376	-4.56
346.759	11.48
347.142	36.57
347.525	55.32
347.908	52.16
348.291	78.6
348.674	84.93
349.057	108.66
349.44	117.24
349.823	144.13
350.206	194.3
350.588	254.41
350.971	265.49
351.354	279.05
351.737	290.35
352.119	308.2
352.502	310.46
352.884	325.15
353.267	318.37
353.65	346.84
354.032	367.63
354.414	373.96
354.797	367.63
355.179	381.87
355.562	378.25
355.944	409.89
356.326	404.24
356.709	406.05
357.091	413.05
357.473	409.66
357.855	432.49
358.238	444.01
358.62	446.05
359.002	410.79
359.384	430.68
359.766	448.76
360.148	447.4
360.53	423.45
360.912	437.91
361.294	446.73
361.676	443.79
362.057	428.42
362.439	436.33
362.821	432.26
363.203	435.43
363.584	423.45
363.966	429.78
364.348	424.35
364.729	442.88
365.111	439.27
365.493	437.69
365.874	420.51
366.256	426.16
366.637	427.52
367.019	450.12
367.4	432.71
367.781	455.09
368.163	439.49
368.544	457.12
368.925	442.21
369.306	470.68
369.688	458.7
370.069	444.92
370.45	463
370.831	494.18
371.212	479.04
371.593	455.99
371.974	466.39
372.355	479.49
372.736	470.91
373.117	513.62
373.498	453.96
373.879	476.33
374.26	485.37
374.641	463
375.021	463.22
375.402	485.82
375.783	508.42
376.163	541.64
376.544	540.06
376.925	514.07
377.305	545.93
377.686	541.64
378.066	532.82
378.447	527.63
378.827	546.61
379.208	568.08
379.588	546.84
379.968	546.84
380.349	556.78
380.729	564.24
381.109	594.52
381.489	577.57
381.87	587.06
382.25	594.07
382.63	598.81
383.01	614.4
383.39	620.73
383.77	618.92
384.15	612.82
384.53	625.93
384.91	641.07
385.29	624.12
385.67	662.99
386.049	686.95
386.429	661.18
386.809	698.24
387.189	679.49
387.568	655.99
387.948	698.24
388.328	712.26
388.707	697.11
389.087	725.36
389.466	746.6
389.846	748.64
390.225	756.55
390.605	756.77
390.984	780.73
391.363	782.31
391.743	782.99
392.122	809.88
392.501	804
392.881	816.21
393.26	845.81
393.639	840.84
394.018	843.1
394.397	848.3
394.776	896.43
395.155	898.69
395.534	884
395.913	898.01
396.292	888.3
396.671	918.8
397.05	949.76
397.429	912.7
397.808	925.36
398.186	938.01
398.565	942.08
398.944	959.03
399.323	972.36
399.701	977.33
400.08	985.92
400.458	1023.66
400.837	1028.41
401.215	1050.78
401.594	1061.17
401.972	1086.93
402.351	1079.25
402.729	1074.73
403.107	1105.69
403.486	1090.32
403.864	1122.87
404.242	1163.77
404.62	1157.22
404.999	1157.22
405.377	1196.76
405.755	1200.6
406.133	1214.39
406.511	1216.87
406.889	1243.54
407.267	1249.64
407.645	1291.9
408.023	1294.61
408.401	1318.34
408.779	1344.1
409.156	1370.09
409.534	1385.23
409.912	1418
410.29	1427.26
410.667	1447.83
411.045	1505.68
411.422	1463.42
411.8	1495.96
412.178	1538
412.555	1544.78
412.933	1584.32
413.31	1589.29
413.687	1629.07
414.065	1638.56
414.442	1655.96
414.819	1663.64
415.197	1661.16
415.574	1728.5
415.951	1765.56
416.328	1752
416.705	1753.81
417.082	1812.34
417.46	1796.75
417.837	1875.39
418.214	1858.89
418.591	1900.02
418.967	1876.97
419.344	1865.45
419.721	1963.07
420.098	1937.99
420.475	1957.87
420.852	1998.78
421.228	1981.83
421.605	2028.38
421.982	2073.58
422.358	2076.06
422.735	2116.06
423.111	2139.11
423.488	2149.28
423.864	2170.75
424.241	2222.72
424.617	2238.77
424.994	2229.28
425.37	2269.28
425.746	2282.61
426.123	2323.29
426.499	2349.05
426.875	2399.89
427.251	2444.19
427.627	2486.22
428.003	2485.77
428.379	2530.74
428.756	2554.47
429.132	2604.86
429.507	2617.97
429.883	2699.32
430.259	2725.31
430.635	2764.18
431.011	2770.73
431.387	2845.76
431.763	2881.92
432.138	2917.17
432.514	2970.5
432.89	2959.65
433.265	3095.02
433.641	3056.83
434.016	3152.19
434.392	3181.57
434.767	3234.22
435.143	3250.49
435.518	3259.53
435.894	3292.98
436.269	3369.59
436.644	3401.9
437.02	3469.02
437.395	3512.18
437.77	3512.86
438.145	3591.73
438.52	3630.6
438.895	3667.66
439.271	3664.27
439.646	3764.38
440.021	3793.76
440.395	3819.74
440.77	3815.68
441.145	3859.07
441.52	3910.82
441.895	3934.09
442.27	3940.42
442.645	3978.61
443.019	4076.23
443.394	4039.63
443.769	4085.73
444.143	4078.27
444.518	4190.58
444.892	4162.79
445.267	4210.47
445.641	4215.44
446.016	4271.48
446.39	4332.5
446.764	4369.33
447.139	4386.28
447.513	4379.05
447.887	4421.31
448.262	4482.78
448.636	4535.21
449.01	4575.2
449.384	4614.53
449.758	4691.36
450.132	4708.76
450.506	4755.31
450.88	4781.98
451.254	4802.54
451.628	4934.07
452.002	4952.37
452.376	4981.07
452.75	5054.06
453.123	5079.6
453.497	5146.94
453.871	5216.77
454.244	5320.04
454.618	5295.86
454.992	5414.5
455.365	5406.6
455.739	5615.86
456.112	5577.89
456.486	5688.85
456.859	5722.75
457.232	5822.63
457.606	5873.7
457.979	5899.92
458.352	6075.28
458.725	6178.78
459.099	6191.43
459.472	6355.04
459.845	6352.33
460.218	6429.39
460.591	6502.16
460.964	6581.48
461.337	6729.72
461.71	6785.99
462.083	6900.79
462.456	6904.86
462.829	6934.92
463.201	7063.73
463.574	7063.73
463.947	7231.63
464.32	7377.84
464.692	7461
465.065	7549.59
465.438	7663.94
465.81	7738.74
466.183	7898.28
466.555	8001.78
466.928	8120.2
467.3	8117.03
467.672	8248.55
468.045	8483.12
468.417	8443.58
468.789	8543.01
469.161	8673.4
469.534	8910.01
469.906	9084.24
470.278	9107.97
470.65	9223.22
471.022	9386.83
471.394	9586.15
471.766	9666.14
472.138	9797.21
472.51	9992.24
472.882	10073.14
473.253	10251.89
473.625	10373.7
473.997	10641.03
474.369	10633.35
474.74	10843.06
475.112	10976.17
475.484	11254.12
475.855	11372.99
476.227	11528.47
476.598	11902.92
476.97	11943.15
477.341	12336.13
477.713	12496.58
478.084	12552.85
478.455	12883.23
478.827	13042.1
479.198	13457.68
479.569	13433.5
479.94	13869.2
480.311	14011.57
480.682	14337.21
481.053	14569.52
481.424	14801.15
481.795	14956.17
482.166	15260.57
482.537	15451.98
482.908	15691.75
483.279	15854.91
483.65	16168.12
484.021	16465.97
484.391	16699.86
484.762	16781.89
485.133	16928.33
485.503	17315.89
485.874	17771.24
486.244	17910.22
486.615	18219.59
486.985	18479.25
487.356	18737.32
487.726	18969.4
488.097	19417.98
488.467	19429.5
488.837	19852.54
489.207	20185.19
489.578	20409.14
489.948	20638.51
490.318	20942.46
490.688	20980.87
491.058	21337.25
491.428	21665.15
491.798	21811.81
492.168	22356.21
492.538	22298.58
492.908	22509.42
493.278	22877.32
493.648	22864.22
494.017	23250.65
494.387	23490.87
494.757	23707.81
495.126	23887.24
495.496	23962.04
495.866	24197.51
496.235	24479.54
496.605	24656.48
496.974	24760.66
497.344	25108.45
497.713	25263.47
498.082	25548.44
498.452	25777.36
498.821	25985.94
499.19	26085.83
499.559	26373.73
499.928	26510.9
500.298	26784.79
500.667	26914.05
501.036	27021.17
501.405	27290.31
501.774	27267.94
502.143	27720.58
502.512	27777.76
502.88	27970.3
503.249	28123.06
503.618	28293
503.987	28320.12
504.356	28642.37
504.724	28683.05
505.093	28927.33
505.462	29084.39
505.83	29314.67
506.199	29350.37
506.567	29819.96
506.936	29951.71
507.304	30213.63
507.672	30354.87
508.041	30593.5
508.409	30885.47
508.777	31120.04
509.145	31310.09
509.514	31383.09
509.882	31760.7
510.25	31982.85
510.618	32228.71
510.986	32339.67
511.354	32633.68
511.722	32980.56
512.09	33301.45
512.458	33227.78
512.826	33689.24
513.193	33685.85
513.561	33760.2
513.929	34251.71
514.297	34528.09
514.664	34653.06
515.032	34864.58
515.4	35126.49
515.767	35206.72
516.135	35528.74
516.502	35283.1
516.869	36095.96
517.237	36120.59
517.604	36040.82
517.972	36546.79
518.339	36917.86
518.706	36912.21
519.073	37121.47
519.44	37388.58
519.808	37885.97
520.175	37763.71
520.542	38436.01
520.909	38624.7
521.276	38715.78
521.643	38965.49
522.009	39516.66
522.376	39878.23
522.743	40014.72
523.11	40353.92
523.477	40888.15
523.843	41034.58
524.21	41372.43
524.577	41725.87
524.943	41997.5
525.31	42195.91
525.676	42620.76
526.043	42851.71
526.409	42959.05
526.776	43356.78
527.142	43403.11
527.508	43709.54
527.874	44076.09
528.241	44299.58
528.607	44296.65
528.973	44834.48
529.339	44707.93
529.705	45214.59
530.071	45386.79
530.437	45780.67
530.803	45947.22
531.169	46259.08
531.535	46283.03
531.901	46409.58
532.267	46489.58
532.632	46912.17
532.998	47073.97
533.364	47297.92
533.73	47579.05
534.095	47699.27
534.461	47866.27
534.826	48039.37
535.192	48409.76
535.557	48706.02
535.923	48594.39
536.288	48855.17
536.653	48982.85
537.019	48840.03
537.384	49297.19
537.749	49498.09
538.114	49461.93
538.479	49514.14
538.845	49829.83
539.21	49694.7
539.575	49968.81
539.94	50039.55
540.305	50241.57
540.67	50241.57
541.034	50325.64
541.399	50442.47
541.764	50571.74
542.129	50698.29
542.494	50761.11
542.858	50929.69
543.223	51014.89
543.587	51177.14
543.952	51160.87
544.316	51366.74
544.681	51342.34
545.045	51580.52
545.41	51747.52
545.774	51856.9
546.138	51950.91
546.503	52116.78
546.867	52112.71
547.231	52438.58
547.595	52405.59
547.959	52592.7
548.324	52634.28
548.688	52708.18
549.052	52940.71
549.416	52976.64
549.779	53016.42
550.143	53159.69
550.507	53307.26
550.871	53505.22
551.235	53453.02
551.599	53694.37
551.962	53788.37
552.326	53846.23
552.689	53938.43
553.053	53889.61
553.417	53984.53
553.78	54331.18
554.143	54226.78
554.507	54394.23
554.87	54461.58
555.234	54742.25
555.597	54601.23
555.96	54729.14
556.323	54914.45
556.686	54929.59
557.05	55167.55
557.413	55165.06
557.776	55335.68
558.139	55485.05
558.502	55573.19
558.865	55644.6
559.228	55876.68
559.59	55876.45
559.953	55985.38
560.316	56245.03
560.679	56272.15
561.041	56422.2
561.404	56572.71
561.767	56781.97
562.129	56703.33
562.492	57079.13
562.854	57066.93
563.217	57140.6
563.579	57202.3
563.941	57317.55
564.304	57468.5
564.666	57587.14
565.028	57602.74
565.39	57715.05
565.753	57860.58
566.115	57977.19
566.477	57987.36
566.839	58075.72
567.201	58247.92
567.563	58287.92
567.925	58454.24
568.287	58536.95
568.648	58514.58
569.01	58632.09
569.372	58830.28
569.734	58732.65
570.095	58937.84
570.457	59006.77
570.819	59052.87
571.18	59056.03
571.542	59244.95
571.903	59200.21
572.265	59321.79
572.626	59413.08
572.987	59468.9
573.349	59502.57
573.71	59631.16
574.071	59695.11
574.432	59784.15
574.794	59915.9
575.155	59923.13
575.516	59834.99
575.877	59946.4
576.238	60070.69
576.599	60105.5
576.96	60155.21
577.32	60181.65
577.681	60224.36
578.042	60379.39
578.403	60373.96
578.763	60396.11
579.124	60385.26
579.485	60494.86
579.845	60545.94
580.206	60489.44
580.566	60533.73
580.927	60547.52
581.287	60642.2
581.648	60571.47
582.008	60709.32
582.368	60607.4
582.728	60650.34
583.089	60594.97
583.449	60570.12
583.809	60629.78
584.169	60651.47
584.529	60580.51
584.889	60794.07
585.249	60610.79
585.609	60575.77
585.969	60744.8
586.329	60628.87
586.688	60714.07
587.048	60701.86
587.408	60670.45
587.768	60704.8
588.127	60624.8
588.487	60674.75
588.846	60864.8
589.206	60689.66
589.565	60710.68
589.925	60763.78
590.284	60799.49
590.643	60814.18
591.003	60929.2
591.362	60924.91
591.721	60888.75
592.08	60864.12
592.44	60950.45
592.799	60894.63
593.158	60863.22
593.517	60910.9
593.876	60930.56
594.235	60914.29
594.593	60933.72
594.952	61029.54
595.311	60903.89
595.67	60929.88
596.029	61083.55
596.387	61006.26
596.746	61076.09
597.104	60948.41
597.463	60955.64
597.822	61045.13
598.18	60910.67
598.538	60979.82
598.897	61087.39
599.255	60814.63
599.613	61247.39
599.972	61065.24
600.33	61127.84
600.688	61020.05
601.046	61135.75
601.404	61158.58
601.762	61112.48
602.12	61200.83
602.478	61193.83
602.836	61213.94
603.194	61105.92
603.552	61163.55
603.91	61100.27
604.268	61181.17
604.625	61145.92
604.983	61281.28
605.341	61145.69
605.698	61382.3
606.056	61411.22
606.413	61375.52
606.771	61420.26
607.128	61508.4
607.485	61390.66
607.843	61503.2
608.2	61586.36
608.557	61618.9
608.914	61582.75
609.272	61712.46
609.629	61671.1
609.986	61804.21
610.343	61696.64
610.7	61825.68
611.057	61820.03
611.414	61791.1
611.771	61756.07
612.127	61899.8
612.484	61876.97
612.841	61865.9
613.198	61808.95
613.554	61821.83
613.911	61929.63
614.267	61964.43
614.624	61859.8
614.98	61890.99
615.337	62029.51
615.693	61984.32
616.05	61891.66
616.406	62103.86
616.762	61940.7
617.118	61986.35
617.475	62014.6
617.831	62032.9
618.187	62021.15
618.543	62075.39
618.899	62158.55
619.255	62100.25
619.611	62105.22
619.967	62138.44
620.323	62177.08
620.678	62110.64
621.034	62080.36
621.39	62130.08
621.746	62065.44
622.101	62351.99
622.457	62113.35
622.812	62161.49
623.168	62215.95
623.523	62197.64
623.879	62272.67
624.234	62155.61
624.589	62270.41
624.945	62223.41
625.3	62336.4
625.655	62308.15
626.01	62312.22
626.365	62329.17
626.72	62245.78
627.075	62273.8
627.43	62239
627.785	62199
628.14	62216.85
628.495	62277.42
628.85	62258.66
629.205	62116.52
629.559	62257.08
629.914	62093.47
630.269	62107.93
630.623	62010.08
630.978	61975.05
631.332	62096.4
631.687	62126.46
632.041	61963.53
632.396	61999.46
632.75	61894.6
633.104	61894.6
633.459	61761.05
633.813	61732.12
634.167	61793.36
634.521	61776.19
634.875	61690.31
635.229	61709.97
635.583	61607.38
635.937	61616.64
636.291	61540.71
636.645	61569.64
636.999	61461.17
637.352	61536.64
637.706	61404.44
638.06	61486.93
638.413	61366.48
638.767	61332.81
639.121	61352.92
639.474	61251.23
639.828	61264.79
640.181	61275.18
640.534	61296.2
640.888	61222.3
641.241	61051.01
641.594	61123.32
641.947	61197.22
642.301	61108.41
642.654	61143.66
643.007	61084.45
643.36	61140.5
643.713	61081.97
644.066	61135.07
644.419	60999.94
644.771	60897.11
645.124	60677.91
645.477	60625.71
645.83	60484.02
646.182	60384.81
646.535	60306.17
646.888	60323.8
647.24	60186.17
647.593	60284.02
647.945	60185.27
648.298	60032.73
648.65	59987.31
649.002	60007.19
649.355	60039.06
649.707	59970.81
650.059	60060.53
650.411	60328.54
650.763	60293.51
651.115	60557.24
651.467	60440.4
651.819	60406.28
652.171	60309.11
652.523	60311.37
652.875	60280.41
653.227	60210.58
653.578	60253.97
653.93	60208.54
654.282	60032.5
654.633	60020.07
654.985	60107.76
655.337	60059.62
655.688	60026.4
656.039	60066.63
656.391	59872.73
656.742	59921.32
657.094	59898.27
657.445	59942.34
657.796	59909.12
658.147	59846.52
658.498	59890.13
658.849	59894.2
659.2	59901.66
659.551	59888.55
659.902	59909.12
660.253	59870.93
660.604	59887.65
660.955	59744.15
661.306	59925.39
661.656	59825.96
662.007	59778.5
662.358	59840.64
662.708	59801.1
663.059	59837.71
663.409	59674.55
663.76	59866.63
664.11	59793.64
664.461	59782.34
664.811	59749.35
665.161	59764.49
665.511	59712.96
665.862	59726.75
666.212	59784.6
666.562	59782.57
666.912	59723.81
667.262	59609.24
667.612	59641.1
667.962	59613.08
668.312	59547.09
668.662	59711.16
669.011	59613.76
669.361	59496.25
669.711	59508.68
670.06	59495.34
670.41	59413.31
670.76	59325.63
671.109	59347.1
671.459	59324.27
671.808	59308.68
672.157	59295.12
672.507	59103.94
672.856	59142.36
673.205	59190.27
673.554	59212.19
673.904	59122.47
674.253	59256.48
674.602	59101.68
674.951	58798.64
675.3	58658.53
675.649	59032.76
675.998	58939.42
676.346	58997.5
676.695	59096.71
677.044	58839.09
677.393	58856.94
677.741	59018.29
678.09	58908.24
678.438	58822.14
678.787	58927.9
679.135	58859.2
679.484	58743.72
679.832	58766.1
680.181	58642.03
680.529	58796.83
680.877	58669.38
681.225	58663.27
681.573	58776.04
681.922	58579.21
682.27	58563.84
682.618	58572.88
682.966	58447.01
683.314	58521.36
683.661	58468.48
684.009	58367.01
684.357	58338.31
684.705	58251.31
685.053	58212.89
685.4	58226.22
685.748	58180.35
686.095	58141.93
686.443	58018.55
686.79	58043.18
687.138	57979.45
687.485	57990.52
687.832	57881.83
688.18	57885.89
688.527	57746.01
688.874	57713.47
689.221	57637.54
689.568	57565
689.915	57510.99
690.262	57472.8
690.609	57392.35
690.956	57329.3
691.303	57318.9
691.65	57033.71
691.997	57026.03
692.344	56832.81
692.69	56831.68
693.037	56767.05
693.383	56657.68
693.73	56706.49
694.077	56445.03
694.423	56500.17
694.769	56328.42
695.116	56288.42
695.462	56249.1
695.808	56136.56
696.155	56185.82
696.501	56010.69
696.847	56018.82
697.193	55770.69
697.539	55905.61
697.885	55702.45
698.231	55602.79
698.577	55569.8
698.923	55571.38
699.269	55332.74
699.614	55282.35
699.96	55195.79
700.306	55258.39
700.651	55097.04
700.997	55063.82
701.342	55015.69
701.688	54994.67
702.033	54877.16
702.379	54860.44
702.724	54801.23
703.069	54935.01
703.415	54505.64
703.76	54520.78
704.105	54596.49
704.45	54427.91
704.795	54355.14
705.14	54204.63
705.485	54233.33
705.83	54191.53
706.175	54178.65
706.52	54047.12
706.865	54022.49
707.209	53940.91
707.554	53800.8
707.899	53885.09
708.243	53730.75
708.588	53660.24
708.932	53508.83
709.277	53503.64
709.621	53443.3
709.966	53125.79
710.31	53323.08
710.654	52998.11
710.998	53088.96
711.342	52974.84
711.687	52985.01
712.031	52796.08
712.375	52526.94
712.719	52727.38
713.063	52508.86
713.407	52658.69
713.75	52366.49
714.094	52279.94
714.438	52192.26
714.782	52179.15
715.125	51956.33
715.469	51991.58
715.812	51873.17
716.156	51588.43
716.499	51826.39
716.843	51675.44
717.186	51566.29
717.53	51584.14
717.873	51577.36
718.216	51408.55
718.559	51321.09
718.902	51021.44
719.246	51101.21
719.589	51064.6
719.932	50830.03
720.275	50850.37
720.617	50866.42
720.96	50768.79
721.303	50818.51
721.646	50762.46
721.989	50525.86
722.331	50557.72
722.674	50465.3
723.016	50547.1
723.359	50401.12
723.701	50454
724.044	50249.03
724.386	50009.49
724.729	50216.26
725.071	50082.93
725.413	49960.9
725.755	50055.82
726.097	49957.74
726.439	49790.96
726.782	49795.94
727.124	49948.93
727.465	49819.21
727.807	49753
728.149	49733.34
728.491	49609.05
728.833	49653.79
729.175	49527.47
729.516	49449.05
729.858	49357.08
730.199	49366.8
730.541	49199.79
730.882	49159.34
731.224	49226.91
731.565	48965
731.906	49138.55
732.248	49024.88
732.589	48776.08
732.93	48785.57
733.271	48666.02
733.612	48695.4
733.953	48632.13
734.294	48542.18
734.635	48464.22
734.976	48424.9
735.317	48175.19
735.658	48202.31
735.999	48061.29
736.339	48003.22
736.68	48022.2
737.021	47746.27
737.361	47750.11
737.702	47847.74
738.042	47807.06
738.383	47466.28
738.723	47487.52
739.063	47326.17
739.404	47429.44
739.744	47201.2
740.084	47150.58
740.424	47076.46
740.764	46902.45
741.104	47061.77
741.444	46880.98
741.784	46741.1
742.124	46648.67
742.464	46593.53
742.804	46560.32
743.143	46308.34
743.483	46417.27
743.823	46159.65
744.162	46078.29
744.502	46175.24
744.841	45782.48
745.181	46078.07
745.52	45901.58
745.86	45998.52
746.199	45760.79
746.538	45749.94
746.877	45609.61
747.216	45656.16
747.556	45598.76
747.895	45652.32
748.234	45354.47
748.573	45406.67
748.911	45230.41
749.25	45100.92
749.589	45048.49
749.928	45178.66
750.267	45153.8
750.605	45073.35
750.944	44982.5
751.283	44842.62
751.621	44975.27
751.96	44650.54
752.298	44698.44
