Data from aluminium_macbook_case_FLMS001491_023.txt Node
Date: Tue Feb 07 10:43:25 GMT 2017
User: dcchb
Spectrometer: FLMS00149
Trigger mode: 0
Integration Time (sec): 2.000000E-2
Scans to average: 10
Electric dark correction enabled: true
Nonlinearity correction enabled: false
Boxcar width: 0
XAxis mode: Wavelengths
Number of Pixels in Spectrum: 2048
>>>>>Begin Spectral Data<<<<<
341.393	-22.16
341.776	-22.16
342.16	-22.16
342.543	-68.26
342.927	-77.3
343.31	-63.52
343.693	-64.19
344.077	-70.52
344.46	-64.42
344.843	-52.89
345.226	-58.09
345.61	-22.16
345.993	-18.77
346.376	9.03
346.759	9.48
347.142	26.2
347.525	43.6
347.908	57.39
348.291	79.98
348.674	99.87
349.057	89.02
349.44	122.69
349.823	131.51
350.206	180.55
350.588	230.94
350.971	269.58
351.354	259.41
351.737	278.17
352.119	300.32
352.502	298.06
352.884	312.07
353.267	336.93
353.65	337.15
354.032	352.52
354.414	332.18
354.797	346.64
355.179	373.08
355.562	388.22
355.944	373.76
356.326	399.3
356.709	383.93
357.091	397.72
357.473	396.13
357.855	398.17
358.238	402.91
358.62	407.21
359.002	389.13
359.384	404.95
359.766	397.72
360.148	401.33
360.53	417.83
360.912	395
361.294	382.57
361.676	399.3
362.057	403.59
362.439	415.79
362.821	423.48
363.203	413.76
363.584	425.74
363.966	400.65
364.348	372.18
364.729	388
365.111	402.24
365.493	409.69
365.874	418.73
366.256	428
366.637	379.18
367.019	414.44
367.4	409.24
367.781	413.99
368.163	420.54
368.544	416.92
368.925	429.35
369.306	443.14
369.688	443.36
370.069	414.21
370.45	421.9
370.831	429.35
371.212	445.17
371.593	416.25
371.974	430.03
372.355	446.98
372.736	432.29
373.117	461.89
373.498	463.7
373.879	449.47
374.26	463.93
374.641	452.18
375.021	423.93
375.402	470.48
375.783	477.26
376.163	501.89
376.544	517.03
376.925	490.14
377.305	499.18
377.686	491.5
378.066	499.86
378.447	517.03
378.827	505.06
379.208	519.52
379.588	512.97
379.968	524.72
380.349	523.36
380.729	521.78
381.109	538.28
381.489	539.18
381.87	562.46
382.25	547.99
382.63	568.56
383.01	580.76
383.39	591.16
383.77	573.08
384.15	581.21
384.53	600.2
384.91	593.19
385.29	617.37
385.67	616.69
386.049	637.26
386.429	630.03
386.809	651.72
387.189	597.26
387.568	655.79
387.948	654.66
388.328	661.21
388.707	687.88
389.087	687.88
389.466	688.1
389.846	675
390.225	704.83
390.605	707.31
390.984	721.1
391.363	724.94
391.743	746.18
392.122	732.85
392.501	767.2
392.881	770.36
393.26	796.35
393.639	807.42
394.018	769.68
394.397	804.48
394.776	817.37
395.155	817.59
395.534	825.27
395.913	836.8
396.292	856.91
396.671	846.52
397.05	854.88
397.429	875.9
397.808	884.03
398.186	903.01
398.565	915.22
398.944	909.79
399.323	910.92
399.701	929.23
400.08	933.52
400.458	946.18
400.837	971.26
401.215	963.12
401.594	971.71
401.972	1004.48
402.351	992.95
402.729	1018.04
403.107	1016.68
403.486	1023.01
403.864	1041.09
404.242	1057.36
404.62	1085.38
404.999	1086.74
405.377	1102.56
405.755	1112.95
406.133	1120.18
406.511	1115.89
406.889	1164.48
407.267	1161.76
407.645	1194.98
408.023	1209.22
408.401	1215.77
408.779	1248.09
409.156	1257.13
409.534	1285.38
409.912	1278.6
410.29	1331.48
410.667	1332.15
411.045	1346.39
411.422	1374.64
411.8	1378.48
412.178	1445.6
412.555	1441.98
412.933	1463.68
413.31	1479.95
413.687	1506.16
414.065	1532.83
414.442	1509.32
414.819	1553.39
415.197	1548.19
415.574	1614.63
415.951	1592.49
416.328	1625.93
416.705	1631.13
417.082	1655.08
417.46	1690.11
417.837	1689.21
418.214	1720.17
418.591	1770.79
418.967	1763.56
419.344	1797.68
419.721	1812.82
420.098	1796.1
420.475	1832.25
420.852	1838.36
421.228	1868.41
421.605	1912.03
421.982	1902.99
422.358	1958.13
422.735	1924.68
423.111	1971.01
423.488	2015.98
423.864	2043.55
424.241	2055.53
424.617	2107.73
424.994	2078.12
425.37	2116.54
425.746	2143.88
426.123	2161.74
426.499	2220.27
426.875	2222.75
427.251	2297.78
427.627	2331.68
428.003	2365.35
428.379	2370.32
428.756	2391.79
429.132	2437.44
429.507	2448.06
429.883	2508.85
430.259	2536.64
430.635	2588.84
431.011	2590.43
431.387	2659.8
431.763	2717.43
432.138	2716.07
432.514	2801.04
432.89	2766.69
433.265	2826.13
433.641	2881.49
434.016	2913.58
434.392	3005.33
434.767	3057.98
435.143	2996.07
435.518	3062.28
435.894	3082.39
436.269	3142.95
436.644	3200.81
437.02	3245.32
437.395	3228.83
437.77	3316.28
438.145	3366.45
438.52	3371.65
438.895	3415.04
439.271	3434.92
439.646	3502.72
440.021	3556.05
440.395	3551.3
440.77	3545.66
441.145	3570.74
441.52	3636.05
441.895	3642.15
442.27	3691.87
442.645	3712.88
443.019	3785.65
443.394	3760.79
443.769	3817.51
444.143	3843.73
444.518	3955.36
444.892	3914.91
445.267	3953.78
445.641	3960.33
446.016	4004.85
446.39	4085.98
446.764	4077.39
447.139	4085.75
447.513	4184.73
447.887	4130.27
448.262	4162.81
448.636	4213.66
449.01	4287.56
449.384	4335.24
449.758	4351.51
450.132	4440.1
450.506	4420.43
450.88	4452.52
451.254	4491.17
451.628	4561.67
452.002	4592.86
452.376	4654.33
452.75	4702.24
453.123	4704.49
453.497	4850.48
453.871	4884.6
454.244	5007.99
454.618	5012.28
454.992	5118.27
455.365	5100.64
455.739	5266.29
456.112	5293.63
456.486	5390.13
456.859	5390.35
457.232	5501.08
457.606	5470.12
457.979	5633.51
458.352	5703.34
458.725	5758.48
459.099	5771.59
459.472	5878.48
459.845	5938.81
460.218	6050.9
460.591	6064.23
460.964	6168.19
461.337	6291.57
461.71	6344
462.083	6516.88
462.456	6505.13
462.829	6553.71
463.201	6673.03
463.574	6757.55
463.947	6803.2
464.32	7025.11
464.692	7064.66
465.065	7163.64
465.438	7250.64
465.81	7360.47
466.183	7425.55
466.555	7574.48
466.928	7565.21
467.3	7644.98
467.672	7758.88
468.045	7942.6
468.417	7921.36
468.789	7976.5
469.161	8181.92
469.534	8222.59
469.906	8438.41
470.278	8472.08
470.65	8637.95
471.022	8771.51
471.394	8987.77
471.766	9023.93
472.138	9188.67
472.51	9395.67
472.882	9566.29
473.253	9658.04
473.625	9831.37
473.997	10058.93
474.369	10144.8
474.74	10272.71
475.112	10443.33
475.484	10651.46
475.855	10786.82
476.227	10912.47
476.598	11248.96
476.97	11230.43
477.341	11481.27
477.713	11654.37
478.084	11850.3
478.455	12107.92
478.827	12252.09
479.198	12624.51
479.569	12607.79
479.94	12919.65
480.311	13068.34
480.682	13374.55
481.053	13711.49
481.424	13959.39
481.795	14064.93
482.166	14380.85
482.537	14478.48
482.908	14892.7
483.279	15083.88
483.65	15325.91
484.021	15642.96
484.391	15866.01
484.762	15994.37
485.133	16220.12
485.503	16394.13
485.874	16855.36
486.244	16926.55
486.615	17268.23
486.985	17512.75
487.356	17772.85
487.726	17900.31
488.097	18239.28
488.467	18393.4
488.837	18694.18
489.207	18834.07
489.578	19125.81
489.948	19392.02
490.318	19638.57
490.688	19786.13
491.058	20120.59
491.428	20383.63
491.798	20608.48
492.168	20934.35
492.538	21079.21
492.908	21465.86
493.278	21652.07
493.648	21823.59
494.017	22118.5
494.387	22388.32
494.757	22501.77
495.126	22839.61
495.496	22902.89
495.866	23034.41
496.235	23278.47
496.605	23494.28
496.974	23644.11
497.344	23838.23
497.713	23981.73
498.082	24156.86
498.452	24437.99
498.821	24551.43
499.19	24690.18
499.559	24866.22
499.928	25032.1
500.298	25295.14
500.667	25425.98
501.036	25290.85
501.405	25698.52
501.774	25761.79
502.143	26035.23
502.512	26293.76
502.88	26438.16
503.249	26578.72
503.618	26755.89
503.987	26965.6
504.356	27234.75
504.724	27366.05
505.093	27485.59
505.462	27767.39
505.83	27897.11
506.199	28293.93
506.567	28515.62
506.936	28502.29
507.304	28892.11
507.672	29004.87
508.041	29167.13
508.409	29456.39
508.777	29559.89
509.145	29896.6
509.514	29855.47
509.882	30010.27
510.25	30183.82
510.618	30370.49
510.986	30422.24
511.354	30811.83
511.722	31090.24
512.09	31363.91
512.458	31465.37
512.826	31625.59
513.193	31716.67
513.561	31932.25
513.929	32322.07
514.297	32662.18
514.664	32837.09
515.032	33080.02
515.4	33393.46
515.767	33684.07
516.135	33927.46
516.502	33685.88
516.869	34384.84
517.237	34596.82
517.604	34509.13
517.972	35014.66
518.339	35119.97
518.706	35312.96
519.073	35691.7
519.44	35786.62
519.808	36222.76
520.175	36174.85
520.542	36688.51
520.909	36794.5
521.276	36764.22
521.643	37294.6
522.009	37520.13
522.376	37642.16
522.743	37883.96
523.11	38319.2
523.477	38692.98
523.843	39072.63
524.21	39249.8
524.577	39389.01
524.943	39598.49
525.31	39977.47
525.676	40380.85
526.043	40562.54
526.409	40798.91
526.776	41273.02
527.142	41382.63
527.508	41735.16
527.874	42181.7
528.241	42301.02
528.607	42440.9
528.973	43000.66
529.339	42943.72
529.705	43472.06
530.071	43696.01
530.437	43875.89
530.803	44181.65
531.169	44376.45
531.535	44369.67
531.901	44441.08
532.267	44709.54
532.632	45050.33
532.998	44995.41
533.364	45225.69
533.73	45490.32
534.095	45723.76
534.461	45781.83
534.826	46015.27
535.192	46149.28
535.557	46575.48
535.923	46506.33
536.288	46653.45
536.653	47001.24
537.019	46811.18
537.384	46963.5
537.749	47214.11
538.114	47294.56
538.479	47409.36
538.845	47647.32
539.21	47727.54
539.575	47913.75
539.94	48111.94
540.305	48379.5
540.67	48443.23
541.034	48549.67
541.399	48812.04
541.764	48902.2
542.129	49076.21
542.494	49199.6
542.858	49354.62
543.223	49495.18
543.587	49474.17
543.952	49576.54
544.316	49855.85
544.681	49701.5
545.045	50072.34
545.41	50132.23
545.774	50230.76
546.138	50147.82
546.503	50337.19
546.867	50317.76
547.231	50623.51
547.595	50655.6
547.959	50816.5
548.324	50828.93
548.688	50798.65
549.052	51117.29
549.416	51219.66
549.779	51205.87
550.143	51345.3
550.507	51458.07
550.871	51635.01
551.235	51625.97
551.599	51974.66
551.962	52025.51
552.326	52068.9
552.689	52340.98
553.053	52224.38
553.417	52390.02
553.78	52757.69
554.143	52767.19
554.507	52977.58
554.87	53009.67
555.234	53311.58
555.597	53284.01
555.96	53418.24
556.323	53566.49
556.686	53617.56
557.05	53795.63
557.413	53920.83
557.776	53905.69
558.139	54154.49
558.502	54177.09
558.865	54299.12
559.228	54376.18
559.59	54514.94
559.953	54570.53
560.316	54896.4
560.679	54805.32
561.041	54976.39
561.404	55167.8
561.767	55267.46
562.129	55187.46
562.492	55546.32
562.854	55553.78
563.217	55512.65
563.579	55612.76
563.941	55849.14
564.304	55949.48
564.666	56187.21
565.028	56203.03
565.39	56267.66
565.753	56492.06
566.115	56493.64
566.477	56627.42
566.839	56717.59
567.201	56924.59
567.563	56934.99
567.925	57099.5
568.287	57113.29
568.648	57248.65
569.01	57390.34
569.372	57467.85
569.734	57438.02
570.095	57695.87
570.457	57879.59
570.819	57871.01
571.18	57880.5
571.542	58068.74
571.903	58081.62
572.265	58123.66
572.626	58167.27
572.987	58212.92
573.349	58372.91
573.71	58327.04
574.071	58418.11
574.432	58510.31
574.794	58574.94
575.155	58575.17
575.516	58472.12
575.877	58600.25
576.238	58713.47
576.599	58760.7
576.96	58760.02
577.32	58776.29
577.681	58843.41
578.042	58900.36
578.403	58913.47
578.763	58965.89
579.124	59069.17
579.485	59021.26
579.845	59157.07
580.206	59178.32
580.566	59160.24
580.927	59242.72
581.287	59421.25
581.648	59218.77
582.008	59373.57
582.368	59312.1
582.728	59399.1
583.089	59358.88
583.449	59414.47
583.809	59506.9
584.169	59536.27
584.529	59482.26
584.889	59674.8
585.249	59476.16
585.609	59497.4
585.969	59569.49
586.329	59519.78
586.688	59557.97
587.048	59585.31
587.408	59508.03
587.768	59514.58
588.127	59511.19
588.487	59487.69
588.846	59590.28
589.206	59461.02
589.565	59494.01
589.925	59526.56
590.284	59385.09
590.643	59411.98
591.003	59445.65
591.362	59513.45
591.721	59411.31
592.08	59422.15
592.44	59454.02
592.799	59445.65
593.158	59483.85
593.517	59414.92
593.876	59509.16
594.235	59481.81
594.593	59470.74
594.952	59577.85
595.311	59570.62
595.67	59537.63
596.029	59682.26
596.387	59660.56
596.746	59788.7
597.104	59627.57
597.463	59628.47
597.822	59754.57
598.18	59675.93
598.538	59692.88
598.897	59840.9
599.255	59705.31
599.613	60090.16
599.972	59887.45
600.33	59988.01
600.688	59875.25
601.046	60028.69
601.404	60041.35
601.762	60010.61
602.12	60071.63
602.478	60076.6
602.836	60073.66
603.194	59983.49
603.552	60008.58
603.91	59957.05
604.268	60072.76
604.625	60007
604.983	60099.87
605.341	59954.34
605.698	60079.76
606.056	60075.47
606.413	59985.3
606.771	60126.99
607.128	60117.05
607.485	59970.16
607.843	59989.14
608.2	60155.24
608.557	60174.67
608.914	60071.17
609.272	60213.77
609.629	60260.1
609.986	60365.18
610.343	60203.83
610.7	60398.85
611.057	60371.05
611.414	60366.76
611.771	60436.14
612.127	60503.25
612.484	60504.61
612.841	60563.14
613.198	60488.11
613.554	60551.84
613.911	60712.29
614.267	60700.31
614.624	60629.35
614.98	60695.11
615.337	60877.03
615.693	60855.11
616.05	60834.09
616.406	60944.37
616.762	60842.23
617.118	60905.5
617.475	60918.84
617.831	60910.02
618.187	60962.68
618.543	60952.73
618.899	61113.18
619.255	60996.8
619.611	61040.64
619.967	61027.53
620.323	61112.28
620.678	60978.04
621.034	60949.34
621.39	60900.08
621.746	60943.69
622.101	61130.13
622.457	60890.59
622.812	60878.61
623.168	61002.9
623.523	60903.24
623.879	60980.53
624.234	60778.73
624.589	60896.92
624.945	60815.79
625.3	60830.02
625.655	60831.15
626.01	60784.83
626.365	60857.37
626.72	60811.49
627.075	60750.03
627.43	60711.61
627.785	60689.01
628.14	60800.2
628.495	60835
628.85	60707.77
629.205	60732.85
629.559	60866.86
629.914	60656.24
630.269	60744.38
630.623	60696.92
630.978	60631.16
631.332	60778.73
631.687	60789.35
632.041	60710.03
632.396	60798.16
632.75	60697.15
633.104	60735.11
633.459	60598.17
633.813	60644.27
634.167	60643.82
634.521	60632.97
634.875	60628.22
635.229	60613.08
635.583	60427.1
635.937	60499.86
636.291	60496.25
636.645	60510.94
636.999	60466.42
637.352	60500.54
637.706	60329.02
638.06	60406.08
638.413	60332.64
638.767	60211.74
639.121	60276.14
639.474	60100.55
639.828	60159.31
640.181	60117.5
640.534	60051.97
640.888	59997.05
641.241	59824.4
641.594	59874.8
641.947	59896.04
642.301	59795.7
642.654	59703.27
643.007	59766.32
643.36	59666.67
643.713	59643.84
644.066	59670.73
644.419	59529.27
644.771	59364.07
645.124	59103.06
645.477	59036.63
645.83	58931.77
646.182	58778.55
646.535	58696.3
646.888	58776.75
647.24	58587.82
647.593	58678.44
647.945	58669.4
648.298	58557.99
648.65	58497.66
649.002	58447.26
649.355	58547.37
649.707	58517.32
650.059	58670.99
650.411	58987.36
650.763	59013.35
651.115	59240.01
651.467	59182.16
651.819	59153.68
652.171	59139
652.523	59095.61
652.875	59168.37
653.227	59041.37
653.578	59156.85
653.93	59116.85
654.282	58990.3
654.633	58914.37
654.985	58938.32
655.337	58984.2
655.688	58981.94
656.039	59059.45
656.391	58766.58
656.742	58821.94
657.094	58900.58
657.445	58924.54
657.796	58806.35
658.147	58765.45
658.498	58711.21
658.849	58739.46
659.2	58642.29
659.551	58620.37
659.902	58644.32
660.253	58514.61
660.604	58541.27
660.955	58312.35
661.306	58464.44
661.656	58318.23
662.007	58340.82
662.358	58319.36
662.708	58293.82
663.059	58200.04
663.409	58041.4
663.76	58195.74
664.11	58167.95
664.461	58183.54
664.811	58149.42
665.161	58111
665.511	58010.21
665.862	58102.64
666.212	58155.52
666.562	58155.97
666.912	58137.67
667.262	58064.67
667.612	58084.33
667.962	58065.8
668.312	58146.03
668.662	58174.28
669.011	58088.63
669.361	58135.86
669.711	58118.91
670.06	58080.94
670.41	58128.4
670.76	58046.37
671.109	58197.1
671.459	58085.92
671.808	58103.54
672.157	58059.48
672.507	57962.3
672.856	57994.62
673.205	57951.46
673.554	58029.19
673.904	57997.56
674.253	58093.37
674.602	58014.73
674.951	57630.33
675.3	57433.05
675.649	57872.14
675.998	57910.55
676.346	57838.24
676.695	57967.28
677.044	57753.04
677.393	57793.27
677.741	57757.34
678.09	57728.64
678.438	57665.36
678.787	57701.29
679.135	57627.62
679.484	57449.77
679.832	57419.04
680.181	57287.52
680.529	57321.19
680.877	57219.05
681.225	57186.5
681.573	57331.36
681.922	57124.13
682.27	56986.74
682.618	57042.1
682.966	56857.47
683.314	56936.79
683.661	56740.41
684.009	56684.15
684.357	56603.7
684.705	56534.54
685.053	56590.14
685.4	56530.02
685.748	56429.91
686.095	56360.76
686.443	56305.62
686.79	56292.29
687.138	56301.1
687.485	56200.09
687.832	56264.27
688.18	56303.14
688.527	56095.69
688.874	56023.82
689.221	55997.61
689.568	55978.4
689.915	55918.74
690.262	55935.01
690.609	55807.56
690.956	55801.46
691.303	55774.34
691.65	55602.59
691.997	55598.3
692.344	55495.48
692.69	55409.38
693.037	55412.09
693.383	55232.88
693.73	55349.04
694.077	55206.67
694.423	55220.23
694.769	55086.67
695.116	55024.98
695.462	55014.81
695.808	54921.93
696.155	54967.81
696.501	54744.99
696.847	54789.28
697.193	54548.16
697.539	54690.07
697.885	54382.28
698.231	54366.24
698.577	54355.62
698.923	54218.22
699.269	54063.65
699.614	53888.29
699.96	53839.7
700.306	53755.86
700.651	53587.96
700.997	53627.73
701.342	53495.53
701.688	53464.34
702.033	53352.93
702.379	53292.14
702.724	53190.68
703.069	53266.38
703.415	52879.95
703.76	52868.2
704.105	52781.2
704.45	52728.54
704.795	52451.04
705.14	52289.23
705.485	52172.63
705.83	52155.9
706.175	52118.16
706.52	51952.29
706.865	51814.67
707.209	51896.7
707.554	51647.44
707.899	51694.22
708.243	51553.88
708.588	51490.38
708.932	51277.06
709.277	51292.2
709.621	51294.68
709.966	51032.99
710.31	51186.44
710.654	50901.7
710.998	50990.96
711.342	50945.54
711.687	50912.09
712.031	50672.78
712.375	50654.7
712.719	50745.32
713.063	50674.59
713.407	50751.87
713.75	50478.66
714.094	50518.88
714.438	50476.62
714.782	50388.94
715.125	50145.56
715.469	50228.72
715.812	50080.03
716.156	49989.18
716.499	50040.03
716.843	50210.87
717.186	49787.38
717.53	50006.58
717.873	49882.74
718.216	49792.57
718.559	49627.83
718.902	49461.51
719.246	49514.84
719.589	49434.84
719.932	49214.96
720.275	49202.08
720.617	49087.28
720.96	48984.69
721.303	49013.16
721.646	48970
721.989	48826.05
722.331	48881.41
722.674	48788.53
723.016	48574.08
723.359	48594.41
723.701	48635.32
724.044	48275.33
724.386	48054.77
724.729	48299.73
725.071	48141.77
725.413	47999.4
725.755	48041.21
726.097	47782.01
726.439	47607.1
726.782	47549.92
727.124	47711.95
727.465	47432.86
727.807	47481.9
728.149	47282.13
728.491	47157.16
728.833	47195.81
729.175	46994
729.516	46805.76
729.858	46787
730.199	46720.11
730.541	46668.59
730.882	46633.56
731.224	46629.04
731.565	46314.93
731.906	46414.81
732.248	46374.36
732.589	45968.95
732.93	45925.56
733.271	46024.76
733.612	46050.53
733.953	46046.46
734.294	45792
734.635	45811.44
734.976	45865.45
735.317	45609.63
735.658	45589.07
735.999	45551.56
736.339	45486.47
736.68	45750.2
737.021	45545.45
737.361	45238.12
737.702	45552.01
738.042	45356.08
738.383	45438.79
738.723	45378.68
739.063	45171.23
739.404	45172.81
739.744	45155.41
740.084	44986.37
740.424	45109.76
740.764	45067.73
741.104	44955.19
741.444	44699.83
741.784	44724.91
742.124	44755.19
742.464	44726.49
742.804	44553.84
743.143	44467.29
743.483	44636.1
743.823	44283.12
744.162	44225.72
744.502	44338.26
744.841	44115.89
745.181	44294.87
745.52	44024.82
745.86	43977.36
746.199	43872.73
746.538	43880.64
746.877	43777.37
747.216	43752.73
747.556	43647.43
747.895	43533.76
748.234	43188.23
748.573	43276.81
748.911	43340.09
749.25	43243.14
749.589	42989.59
749.928	42892.64
750.267	42984.17
750.605	42771.97
750.944	42790.95
751.283	42524.29
751.621	42530.39
751.96	42385.99
752.298	42334.01
