Data from aluminium_macbook_case_FLMS001491_062.txt Node
Date: Tue Feb 07 10:44:01 GMT 2017
User: dcchb
Spectrometer: FLMS00149
Trigger mode: 0
Integration Time (sec): 2.000000E-2
Scans to average: 10
Electric dark correction enabled: true
Nonlinearity correction enabled: false
Boxcar width: 0
XAxis mode: Wavelengths
Number of Pixels in Spectrum: 2048
>>>>>Begin Spectral Data<<<<<
341.393	-11.79
341.776	-11.79
342.16	-11.79
342.543	-51.11
342.927	-53.6
343.31	-66.03
343.693	-75.97
344.077	-64.67
344.46	-66.71
344.843	-37.1
345.226	-35.52
345.61	-33.26
345.993	-43.43
346.376	20.97
346.759	1.09
347.142	17.81
347.525	41.76
347.908	49
348.291	82.44
348.674	101.42
349.057	108.2
349.44	132.61
349.823	143.68
350.206	199.05
350.588	252.38
350.971	260.74
351.354	282.89
351.737	301.87
352.119	307.75
352.502	307.07
352.884	339.16
353.267	343
353.65	352.72
354.032	367.86
354.414	356.56
354.797	370.12
355.179	378.7
355.562	394.75
355.944	402.21
356.326	396.33
356.709	398.14
357.091	409.89
357.473	404.47
357.855	424.35
358.238	420.96
358.62	404.92
359.002	392.72
359.384	418.48
359.766	417.35
360.148	411.02
360.53	413.05
360.912	415.09
361.294	394.3
361.676	413.96
362.057	381.42
362.439	414.18
362.821	427.52
363.203	428.19
363.584	431.58
363.966	424.58
364.348	397.24
364.729	411.25
365.111	442.21
365.493	419.38
365.874	434.75
366.256	439.27
366.637	427.74
367.019	410.79
367.4	419.83
367.781	405.6
368.163	413.28
368.544	425.94
368.925	432.94
369.306	451.47
369.688	440.62
370.069	432.49
370.45	464.35
370.831	438.82
371.212	432.04
371.593	429.1
371.974	455.76
372.355	464.35
372.736	479.72
373.117	463.22
373.498	452.83
373.879	456.89
374.26	456.44
374.641	423.68
375.021	429.1
375.402	474.97
375.783	489.89
376.163	514.29
376.544	517.23
376.925	511.36
377.305	500.51
377.686	503.67
378.066	492.83
378.447	536.89
378.827	518.59
379.208	526.5
379.588	557.68
379.968	524.24
380.349	533.95
380.729	530.34
381.109	540.96
381.489	544.8
381.87	557.91
382.25	561.07
382.63	570.79
383.01	573.73
383.39	598.13
383.77	602.43
384.15	596.33
384.53	592.26
384.91	613.5
385.29	618.02
385.67	638.36
386.049	641.75
386.429	646.27
386.809	647.85
387.189	653.95
387.568	652.82
387.948	651.24
388.328	659.6
388.707	700.28
389.087	696.66
389.466	699.6
389.846	723.55
390.225	730.33
390.605	728.75
390.984	732.82
391.363	748.86
391.743	742.09
392.122	764.68
392.501	781.86
392.881	799.03
393.26	783.44
393.639	804
394.018	788.19
394.397	834.06
394.776	850.78
395.155	821.63
395.534	865.47
395.913	842.2
396.292	849.43
396.671	882.42
397.05	881.29
397.429	910.89
397.808	915.87
398.186	936.2
398.565	917.22
398.944	928.52
399.323	927.62
399.701	940.95
400.08	972.81
400.458	972.81
400.837	992.02
401.215	1003.32
401.594	1012.13
401.972	997.9
402.351	1039.03
402.729	1055.75
403.107	1051.91
403.486	1055.3
403.864	1051.46
404.242	1063.43
404.62	1106.6
404.999	1105.24
405.377	1138.23
405.755	1134.39
406.133	1158.8
406.511	1186.59
406.889	1161.51
407.267	1208.51
407.645	1231.11
408.023	1251.68
408.401	1243.77
408.779	1281.28
409.156	1311.56
409.534	1301.84
409.912	1342.3
410.29	1347.72
410.667	1403.76
411.045	1423.87
411.422	1424.33
411.8	1424.55
412.178	1448.28
412.555	1521.95
412.933	1494.83
413.31	1528.96
413.687	1539.13
414.065	1578
414.442	1579.8
414.819	1601.27
415.197	1611.21
415.574	1627.49
415.951	1660.7
416.328	1643.08
416.705	1720.14
417.082	1695.28
417.46	1720.82
417.837	1755.17
418.214	1746.35
418.591	1745.45
418.967	1804.88
419.344	1822.06
419.721	1843.3
420.098	1856.18
420.475	1874.71
420.852	1940.7
421.228	1904.77
421.605	1943.18
421.982	1978.66
422.358	2025.67
422.735	2062.95
423.111	2057.53
423.488	2062.05
423.864	2081.94
424.241	2120.81
424.617	2146.12
424.994	2144.99
425.37	2189.5
425.746	2197.87
426.123	2217.53
426.499	2236.28
426.875	2266.34
427.251	2282.84
427.627	2379.33
428.003	2376.62
428.379	2420.46
428.756	2452.1
429.132	2491.42
429.507	2530.29
429.883	2567.35
430.259	2639.89
430.635	2622.04
431.011	2646.22
431.387	2710.17
431.763	2809.15
432.138	2801.24
432.514	2872.65
432.89	2867.68
433.265	2923.04
433.641	2987.9
434.016	2961.46
434.392	3068.58
434.767	3113.77
435.143	3098.86
435.518	3120.55
435.894	3189.25
436.269	3227.44
436.644	3285.07
437.02	3319.64
437.395	3297.05
437.77	3378.85
438.145	3459.3
438.52	3464.05
438.895	3507.21
439.271	3513.76
439.646	3626.3
440.021	3583.14
440.395	3655
440.77	3618.62
441.145	3668.79
441.52	3745.17
441.895	3754.44
442.27	3787.2
442.645	3821.78
443.019	3885.28
443.394	3867.43
443.769	3913.08
444.143	3906.3
444.518	4020.87
444.892	3957.37
445.267	4029.91
445.641	4059.06
446.016	4097.25
446.39	4145.39
446.764	4142
447.139	4216.8
447.513	4259.05
447.887	4239.85
448.262	4299.51
448.636	4317.81
449.01	4382.22
449.384	4394.19
449.758	4445.72
450.132	4524.36
450.506	4527.3
450.88	4570.46
451.254	4563.23
451.628	4701.53
452.002	4793.96
452.376	4753.96
452.75	4842.09
453.123	4922.31
453.497	4951.01
453.871	4951.47
454.244	5094.29
454.618	5138.58
454.992	5218.13
455.365	5214.51
455.739	5353.72
456.112	5374.96
456.486	5396.43
456.859	5493.15
457.232	5647.72
457.606	5614.5
457.979	5718.68
458.352	5845
458.725	5943.08
459.099	5939.69
459.472	6107.82
459.845	6069.63
460.218	6186.24
460.591	6207.7
460.964	6211.32
461.337	6440.01
461.71	6505.55
462.083	6631.2
462.456	6623.74
462.829	6660.12
463.201	6803.85
463.574	6858.99
463.947	6952.09
464.32	7079.09
464.692	7150.73
465.065	7207.68
465.438	7355.02
465.81	7499.2
466.183	7517.05
466.555	7695.8
466.928	7770.6
467.3	7806.76
467.672	7885.17
468.045	8062.12
468.417	8136.47
468.789	8185.05
469.161	8326.74
469.534	8405.39
469.906	8638.37
470.278	8659.62
470.65	8815.32
471.022	8995.43
471.394	9182.99
471.766	9288.98
472.138	9420.73
472.51	9627.73
472.882	9769.42
473.253	9853.94
473.625	10000.82
473.997	10213.02
474.369	10307.71
474.74	10396.97
475.112	10715.83
475.484	10854.81
475.855	10995.83
476.227	11125.54
476.598	11478.75
476.97	11579.99
477.341	11751.74
477.713	12003.71
478.084	12032.64
478.455	12332.06
478.827	12450.25
479.198	12816.34
479.569	12909.9
479.94	13249.33
480.311	13396.67
480.682	13693.16
481.053	13940.83
481.424	14221.73
481.795	14427.37
482.166	14612.68
482.537	14769.74
482.908	15083.18
483.279	15301.93
483.65	15563.16
484.021	15853.1
484.391	16067.56
484.762	16303.03
485.133	16426.42
485.503	16684.04
485.874	16983.69
486.244	17265.72
486.615	17691.7
486.985	17737.8
487.356	18058.24
487.726	18201.74
488.097	18605.12
488.467	18629.52
488.837	19085.11
489.207	19193.58
489.578	19544.53
489.948	19817.97
490.318	20184.06
490.688	20144.74
491.058	20410.27
491.428	20750.6
491.798	20898.17
492.168	21303.58
492.538	21447.53
492.908	21758.03
493.278	22061.98
493.648	21951.47
494.017	22332.03
494.387	22592.36
494.757	22753.48
495.126	23072.12
495.496	23204.09
495.866	23238.89
496.235	23654.48
496.605	23789.16
496.974	24105.76
497.344	24209.49
497.713	24454.23
498.082	24637.28
498.452	24836.14
498.821	25093.54
499.19	25142.12
499.559	25309.8
499.928	25518.83
500.298	25709.79
500.667	25941.42
501.036	25914.53
501.405	26276.33
501.774	26290.34
502.143	26552.48
502.512	26597.45
502.88	26994.28
503.249	26869.99
503.618	27196.76
503.987	27295.06
504.356	27550.65
504.724	27829.51
505.093	27906.57
505.462	28053.91
505.83	28266.56
506.199	28509.04
506.567	28916.49
506.936	28922.36
507.304	29328.9
507.672	29342.91
508.041	29539.52
508.409	29861.32
508.777	30027.42
509.145	30292.72
509.514	30380.85
509.882	30545.6
510.25	30782.65
510.618	31100.83
510.986	31006.37
511.354	31424.44
511.722	31686.36
512.09	31891.32
512.458	32063.3
512.826	32234.59
513.193	32332.67
513.561	32529.95
513.929	32862.37
514.297	33084.74
514.664	33339.87
515.032	33541.22
515.4	33785.28
515.767	33968.1
516.135	34161.09
516.502	34003.58
516.869	34777.12
517.237	34865.26
517.604	34957.91
517.972	35310.89
518.339	35654.61
518.706	35797.89
519.073	35987.49
519.44	36235.84
519.808	36612.1
520.175	36611.88
520.542	37054.12
520.909	37375.7
521.276	37476.26
521.643	37870.37
522.009	38224.04
522.376	38450.92
522.743	38633.52
523.11	39040.29
523.477	39314.63
523.843	39492.25
524.21	40006.82
524.577	40212.69
524.943	40262.4
525.31	40676.85
525.676	40884.08
526.043	41274.8
526.409	41379.89
526.776	41787.56
527.142	41923.83
527.508	42252.41
527.874	42558.61
528.241	42722.68
528.607	42960.41
528.973	43156.11
529.339	43292.15
529.705	43781.86
530.071	44055.3
530.437	44353.37
530.803	44623.19
531.169	44782.51
531.535	44696.64
531.901	45128.71
532.267	45339.1
532.632	45672.43
532.998	45841.46
533.364	46058.63
533.73	46269.7
534.095	46599.41
534.461	46529.58
534.826	46795.11
535.192	46993.98
535.557	47256.34
535.923	47199.17
536.288	47453.85
536.653	47618.82
537.019	47481.65
537.384	47777.68
537.749	47967.74
538.114	47966.38
538.479	48068.75
538.845	48230.78
539.21	48243.66
539.575	48486.14
539.94	48558.45
540.305	48859.92
540.67	48713.71
541.034	48979.91
541.399	49182.39
541.764	49282.5
542.129	49440.01
542.494	49607.69
542.858	49682.95
543.223	49866.22
543.587	50040.68
543.952	50094.46
544.316	50214
544.681	50228.69
545.045	50503.94
545.41	50637.5
545.774	50725.4
546.138	50850.82
546.503	50932.4
546.867	51044.04
547.231	51369.68
547.595	51357.93
547.959	51464.37
548.324	51670.24
548.688	51639.5
549.052	51801.31
549.416	51891.7
549.779	51942.32
550.143	52029.32
550.507	52228.19
550.871	52278.81
551.235	52260.28
551.599	52449.65
551.962	52608.52
552.326	52641.06
552.689	52851
553.053	52666.14
553.417	52895.74
553.78	53214.38
554.143	53084.44
554.507	53250.76
554.87	53420.02
555.234	53677.64
555.597	53485.78
555.96	53651.88
556.323	53844.87
556.686	53869.73
557.05	54105.88
557.413	54343.84
557.776	54288.7
558.139	54587.22
558.502	54582.25
558.865	54728.24
559.228	54998.29
559.59	55036.7
559.953	55078.96
560.316	55455.9
560.679	55377.94
561.041	55579.74
561.404	55702.22
561.767	55836.23
562.129	55871.26
562.492	56111.7
562.854	56113.28
563.217	56208.42
563.579	56246.61
563.941	56480.73
564.304	56524.57
564.666	56693.38
565.028	56739.03
565.39	56831.46
565.753	56883.43
566.115	56958.46
566.477	57026.03
566.839	57089.3
567.201	57296.76
567.563	57347.38
567.925	57448.84
568.287	57466.24
568.648	57527.03
569.01	57754.82
569.372	57889.51
569.734	57781.04
570.095	58004.31
570.457	58131.76
570.819	58230.29
571.18	58161.14
571.542	58364.3
571.903	58373.56
572.265	58513
572.626	58562.26
572.987	58634.57
573.349	58729.26
573.71	58835.7
574.071	58917.05
574.432	58978.52
574.794	59124.05
575.155	59115.47
575.516	59082.25
575.877	59244.73
576.238	59296.93
576.599	59383.48
576.96	59376.02
577.32	59429.13
577.681	59484.04
578.042	59621.89
578.403	59598.84
578.763	59574.44
579.124	59700.53
579.485	59670.03
579.845	59730.36
580.206	59603.59
580.566	59623.25
580.927	59639.29
581.287	59713.42
581.648	59580.76
582.008	59754.32
582.368	59669.58
582.728	59786.86
583.089	59733.53
583.449	59656.02
583.809	59801.32
584.169	59827.31
584.529	59684.04
584.889	59951.15
585.249	59811.49
585.609	59744.6
585.969	59921.55
586.329	59787.54
586.688	59842.9
587.048	59805.84
587.408	59837.25
587.768	59768.78
588.127	59844.94
588.487	59758.16
588.846	60063.69
589.206	59874.99
589.565	59911.6
589.925	59988.66
590.284	59923.35
590.643	60011.94
591.003	60049.9
591.362	60124.48
591.721	60019.17
592.08	60109.79
592.44	60198.6
592.799	60192.5
593.158	60128.55
593.517	60152.05
593.876	60199.28
594.235	60073.86
594.593	60168.55
594.952	60181.43
595.311	60099.62
595.67	60128.09
596.029	60196.57
596.387	60195.89
596.746	60248.09
597.104	60140.07
597.463	60082.22
597.822	60175.1
598.18	60045.38
598.538	59987.98
598.897	60188.88
599.255	59997.02
599.613	60320.63
599.972	60211.03
600.33	60265.94
600.688	60107.08
601.046	60215.1
601.404	60327.41
601.762	60245.15
602.12	60340.52
602.478	60404.02
602.836	60415.77
603.194	60309.78
603.552	60361.08
603.91	60271.14
604.268	60404.25
604.625	60342.1
604.983	60434.07
605.341	60385.04
605.698	60540.06
606.056	60618.25
606.413	60521.53
606.771	60663
607.128	60674.97
607.485	60590.91
607.843	60660.96
608.2	60830.45
608.557	60843.78
608.914	60915.42
609.272	60928.07
609.629	60962.65
609.986	61001.52
610.343	60949.54
610.7	61099.14
611.057	61076.77
611.414	61001.29
611.771	61019.82
612.127	61071.35
612.484	61002.65
612.841	61088.29
613.198	60934.17
613.554	60939.37
613.911	61125.81
614.267	61097.56
614.624	61070.89
614.98	61033.61
615.337	61152.02
615.693	61101.4
616.05	61121.51
616.406	61206.26
616.762	61106.15
617.118	61104.79
617.475	61107.96
617.831	61186.82
618.187	61194.51
618.543	61200.16
618.899	61316.54
619.255	61215.75
619.611	61301.62
619.967	61329.87
620.323	61362.41
620.678	61294.39
621.034	61234.73
621.39	61244
621.746	61248.52
622.101	61516.31
622.457	61320.83
622.812	61361.96
623.168	61424.11
623.523	61484.22
623.879	61562.41
624.234	61402.64
624.589	61488.74
624.945	61488.96
625.3	61550.2
625.655	61520.37
626.01	61531.22
626.365	61566.7
626.72	61572.58
627.075	61533.71
627.43	61525.35
627.785	61469.3
628.14	61487.38
628.495	61518.34
628.85	61468.85
629.205	61371.9
629.559	61486.93
629.914	61378.68
630.269	61423.88
630.623	61243.09
630.978	61205.13
631.332	61285.35
631.687	61268.63
632.041	61245.13
632.396	61234.96
632.75	61060.72
633.104	61099.14
633.459	60921.75
633.813	60923.78
634.167	60905.25
634.521	60943.21
634.875	60912.93
635.229	60855.98
635.583	60706.38
635.937	60751.58
636.291	60749.77
636.645	60785.25
636.999	60673.39
637.352	60790.45
637.706	60524.69
638.06	60639.72
638.413	60559.95
638.767	60527.63
639.121	60512.49
639.474	60422.1
639.828	60446.5
640.181	60503.9
640.534	60457.58
640.888	60402.44
641.241	60355.88
641.594	60351.37
641.947	60359.95
642.301	60362.44
642.654	60360.86
643.007	60362.21
643.36	60318.82
643.713	60276.34
644.066	60431.81
644.419	60257.13
644.771	60089.68
645.124	59887.65
645.477	59869.8
645.83	59731.49
646.182	59541.44
646.535	59499.18
646.888	59525.85
647.24	59344.39
647.593	59533.53
647.945	59417.15
648.298	59305.29
648.65	59244.28
649.002	59188.23
649.355	59229.59
649.707	59253.99
650.059	59347.32
650.411	59542.35
650.763	59562.23
651.115	59803.81
651.467	59663.93
651.819	59578.05
652.171	59540.31
652.523	59501.67
652.875	59452.86
653.227	59332.63
653.578	59463.48
653.93	59331.73
654.282	59221.45
654.633	59182.58
654.985	59125.18
655.337	59163.15
655.688	59146.2
656.039	59223.94
656.391	59024.39
656.742	59079.31
657.094	59029.59
657.445	59078.86
657.796	59061.91
658.147	59036.15
658.498	58960.67
658.849	59054.22
659.2	58955.24
659.551	58880.67
659.902	58966.54
660.253	58891.06
660.604	58962.48
660.955	58878.18
661.306	58996.15
661.656	58955.24
662.007	58951.63
662.358	58928.35
662.708	58992.76
663.059	58952.98
663.409	58814
663.76	58991.63
664.11	58967.45
664.461	59001.8
664.811	58944.85
665.161	59002.47
665.511	58948.24
665.862	58909.82
666.212	59039.08
666.562	59018.52
666.912	58978.29
667.262	58879.31
667.612	58890.16
667.962	58916.83
668.312	58801.58
668.662	58915.24
669.011	58803.16
669.361	58755.02
669.711	58679.32
670.06	58669.15
670.41	58635.25
670.76	58537.63
671.109	58637.96
671.459	58558.19
671.808	58487.91
672.157	58560.45
672.507	58291.98
672.856	58315.94
673.205	58302.83
673.554	58295.6
673.904	58209.05
674.253	58323.62
674.602	58209.73
674.951	57847.25
675.3	57709.63
675.649	58147.13
675.998	58025.1
676.346	58090.86
676.695	58143.29
677.044	57968.6
677.393	58001.14
677.741	58033.01
678.09	57900.81
678.438	57809.29
678.787	57945.55
679.135	57957.08
679.484	57695.16
679.832	57834.6
680.181	57742.62
680.529	57664.66
680.877	57695.16
681.225	57624.66
681.573	57785.78
681.922	57626.01
682.27	57602.51
682.618	57666.46
682.966	57619.01
683.314	57630.31
683.661	57528.61
684.009	57457.66
684.357	57408.39
684.705	57513.47
685.053	57464.89
685.4	57358.45
685.748	57253.14
686.095	57242.52
686.443	57134.5
686.79	57173.37
687.138	57196.87
687.485	57120.94
687.832	57060.38
688.18	57027.38
688.527	56841.63
688.874	56865.36
689.221	56849.99
689.568	56711.23
689.915	56677.34
690.262	56655.19
690.609	56535.65
690.956	56440.73
691.303	56370.9
691.65	56294.97
691.997	56165.26
692.344	56091.36
692.69	56052.72
693.037	56025.38
693.383	55667.65
693.73	55792.39
694.077	55631.72
694.423	55624.03
694.769	55444.83
695.116	55420.87
695.462	55352.17
695.808	55236.02
696.155	55257.71
696.501	55003.94
696.847	54999.42
697.193	54755.35
697.539	54883.49
697.885	54608.24
698.231	54584.51
698.577	54493.67
698.923	54484.85
699.269	54228.81
699.614	54128.48
699.96	54119.89
700.306	54219.1
700.651	54052.1
700.997	53794.93
701.342	53818.2
701.688	53692.11
702.033	53732.56
702.379	53699.34
702.724	53563.97
703.069	53731.65
703.415	53345
703.76	53354.49
704.105	53435.16
704.45	53342.51
704.795	53011.22
705.14	53130.99
705.485	53002.63
705.83	52921.96
706.175	53004.44
706.52	52867.72
706.865	52716.31
707.209	52691.45
707.554	52660.95
707.899	52790.21
708.243	52563.1
708.588	52527.39
708.932	52391.8
709.277	52384.79
709.621	52343.89
709.966	52146.84
710.31	52137.57
710.654	51895.99
710.998	52043.33
711.342	52091.92
711.687	51869.33
712.031	51648.09
712.375	51587.53
712.719	51658.26
713.063	51500.07
713.407	51677.92
713.75	51271.83
714.094	51308.67
714.438	51187.76
714.782	51237.71
715.125	51076.81
715.469	51051.04
715.812	50910.71
716.156	50649.7
716.499	50678.17
716.843	50531.28
717.186	50352.08
717.53	50576.71
717.873	50472.3
718.216	50301.91
718.559	50162.25
718.902	49892.43
719.246	49914.58
719.589	49785.09
719.932	49663.28
720.275	49559.33
720.617	49578.54
720.96	49487.47
721.303	49320.69
721.646	49271.2
721.989	48982.4
722.331	49101.27
722.674	49002.96
723.016	49093.58
723.359	48889.29
723.701	48922.97
724.044	48609.75
724.386	48445.01
724.729	48616.76
725.071	48469.42
725.413	48427.84
725.755	48329.99
726.097	48142.87
726.439	48008.19
726.782	48015.42
727.124	48322.53
727.465	48090.44
727.807	48032.14
728.149	47979.71
728.491	47944.01
728.833	47817.46
729.175	47893.84
729.516	47835.76
729.858	47782.43
730.199	47963.22
730.541	47756.44
730.882	47658.37
731.224	47756.89
731.565	47511.7
731.906	47541.76
732.248	47485.94
732.589	47284.82
732.93	47154.88
733.271	47391.93
733.612	47356.23
733.953	47378.37
734.294	47214.08
734.635	47028.55
734.976	47239.39
735.317	47006.63
735.658	46892.96
735.999	46979.51
736.339	46802.79
736.68	46877.37
737.021	46710.37
737.361	46355.12
737.702	46619.52
738.042	46330.26
738.383	46186.99
738.723	46315.35
739.063	46097.05
739.404	46145.64
739.744	46093.89
740.084	45891.63
740.424	46000.1
740.764	45771.86
741.104	45768.25
741.444	45448.03
741.784	45228.82
742.124	45387.24
742.464	45328.71
742.804	45114.25
743.143	45131.88
743.483	44959.68
743.823	44763.07
744.162	44828.38
744.502	44679.69
744.841	44543.65
745.181	44664.32
745.52	44477.88
745.86	44385.23
746.199	44318.34
746.538	44181.85
746.877	44173.49
747.216	44042.64
747.556	43836.77
747.895	43747.06
748.234	43642.43
748.573	43563.56
748.911	43505.93
749.25	43384.81
749.589	43295.54
749.928	43357.01
750.267	43241.08
750.605	43078.15
750.944	42995.21
751.283	42964.25
751.621	43070.24
751.96	42801.77
752.298	42868.66
