Data from aluminium_macbook_case_FLMS001491_018.txt Node
Date: Tue Feb 07 10:43:17 GMT 2017
User: dcchb
Spectrometer: FLMS00149
Trigger mode: 0
Integration Time (sec): 2.000000E-2
Scans to average: 10
Electric dark correction enabled: true
Nonlinearity correction enabled: false
Boxcar width: 0
XAxis mode: Wavelengths
Number of Pixels in Spectrum: 2048
>>>>>Begin Spectral Data<<<<<
341.393	-18.91
341.776	-18.91
342.16	-18.91
342.543	-44.22
342.927	-56.43
343.31	-65.01
343.693	-64.11
344.077	-57.1
344.46	-47.39
344.843	-72.02
345.226	-36.76
345.61	-42.64
345.993	-19.36
346.376	-0.83
346.759	24.93
347.142	5.72
347.525	38.04
347.908	61.31
348.291	72.84
348.674	96.11
349.057	106.28
349.44	136.11
349.823	140.63
350.206	165.26
350.588	232.61
350.971	259.5
351.354	265.15
351.737	278.03
352.119	278.93
352.502	296.33
352.884	328.2
353.267	338.37
353.65	343.56
354.032	357.35
354.414	333.85
354.797	387.63
355.179	361.87
355.562	384.92
355.944	386.5
356.326	404.81
356.709	404.35
357.091	407.52
357.473	386.73
357.855	402.77
358.238	414.75
358.62	400.29
359.002	390.79
359.384	416.33
359.766	430.34
360.148	425.14
360.53	411.36
360.912	438.03
361.294	402.77
361.676	426.05
362.057	431.47
362.439	399.83
362.821	402.32
363.203	419.27
363.584	415.88
363.966	403.68
364.348	427.86
364.729	433.96
365.111	398.7
365.493	428.76
365.874	424.47
366.256	409.33
366.637	401.87
367.019	410
367.4	403.9
367.781	424.69
368.163	425.6
368.544	423.56
368.925	425.82
369.306	455.2
369.688	438.7
370.069	450.91
370.45	441.87
370.831	451.36
371.212	465.37
371.593	454.75
371.974	441.41
372.355	440.74
372.736	476.44
373.117	462.43
373.498	472.83
373.879	445.71
374.26	476.89
374.641	433.28
375.021	471.7
375.402	466.5
375.783	493.16
376.163	520.51
376.544	508.76
376.925	512.83
377.305	516.89
377.686	499.72
378.066	524.12
378.447	525.93
378.827	526.38
379.208	551.47
379.588	555.54
379.968	554.86
380.349	532.03
380.729	547.17
381.109	539.27
381.489	559.38
381.87	563.67
382.25	561.41
382.63	555.99
383.01	568.42
383.39	580.62
383.77	606.16
384.15	593.73
384.53	617.46
384.91	619.04
385.29	625.82
385.67	618.36
386.049	644.12
386.429	636.44
386.809	649.09
387.189	668.53
387.568	659.26
387.948	669.66
388.328	687.06
388.707	685.7
389.087	701.75
389.466	692.71
389.846	711.24
390.225	705.36
390.605	721.86
390.984	728.87
391.363	757.79
391.743	767.28
392.122	748.98
392.501	785.59
392.881	806.6
393.26	770.45
393.639	805.47
394.018	793.27
394.397	804.34
394.776	831.91
395.155	840.27
395.534	874.62
395.913	860.84
396.292	877.56
396.671	884.12
397.05	903.78
397.429	890.44
397.808	891.57
398.186	910.1
398.565	920.72
398.944	910.56
399.323	940.61
399.701	964.57
400.08	940.84
400.458	958.01
400.837	996.43
401.215	1016.09
401.594	1006.82
401.972	1033.72
402.351	1013.15
402.729	1045.92
403.107	1074.17
403.486	1057.22
403.864	1054.73
404.242	1080.72
404.62	1084.56
404.999	1116.43
405.377	1122.3
405.755	1150.1
406.133	1167.27
406.511	1176.54
406.889	1227.61
407.267	1230.77
407.645	1240.94
408.023	1262.41
408.401	1251.56
408.779	1284.78
409.156	1313.26
409.534	1294.27
409.912	1325.69
410.29	1362.07
410.667	1358.45
411.045	1383.76
411.422	1426.7
411.8	1416.3
412.178	1470.54
412.555	1456.98
412.933	1507.15
413.31	1519.35
413.687	1579.24
414.065	1569.75
414.442	1577.2
414.819	1614.49
415.197	1587.15
415.574	1634.15
415.951	1663.53
416.328	1680.03
416.705	1699.01
417.082	1699.91
417.46	1735.84
417.837	1747.14
418.214	1773.36
418.591	1797.54
418.967	1822.4
419.344	1827.14
419.721	1832.79
420.098	1844.99
420.475	1847.71
420.852	1906.01
421.228	1939.91
421.605	1972.45
421.982	1950.53
422.358	1987.59
422.735	2050.19
423.111	2055.61
423.488	2051.32
423.864	2081.37
424.241	2108.26
424.617	2123.18
424.994	2155.72
425.37	2153.01
425.746	2212.22
426.123	2230.29
426.499	2208.6
426.875	2259.67
427.251	2328.37
427.627	2353
428.003	2416.28
428.379	2438.88
428.756	2470.29
429.132	2487.69
429.507	2494.47
429.883	2554.13
430.259	2614.01
430.635	2614.01
431.011	2657.18
431.387	2725.2
431.763	2758.42
432.138	2800.45
432.514	2808.81
432.89	2862.37
433.265	2925.87
433.641	2965.42
434.016	2996.15
434.392	3070.27
434.767	3096.49
435.143	3124.06
435.518	3172.87
435.894	3190.72
436.269	3277.5
436.644	3284.28
437.02	3304.16
437.395	3311.17
437.77	3378.96
438.145	3404.5
438.52	3469.58
438.895	3499.87
439.271	3514.55
439.646	3597.26
440.021	3628.68
440.395	3681.78
440.77	3618.05
441.145	3673.19
441.52	3776.47
441.895	3767.43
442.27	3815.56
442.645	3789.12
443.019	3865.28
443.394	3875.67
443.769	3921.78
444.143	3937.37
444.518	3992.06
444.892	3983.02
445.267	4054.2
445.641	4058.04
446.016	4129.91
446.39	4152.28
446.764	4171.94
447.139	4151.15
447.513	4243.35
447.887	4282.67
448.262	4274.31
448.636	4314.99
449.01	4386.85
449.384	4409.22
449.758	4430.01
450.132	4517.69
450.506	4546.39
450.88	4592.94
451.254	4579.61
451.628	4658.03
452.002	4726.95
452.376	4774.86
452.75	4807.85
453.123	4849.89
453.497	4925.36
453.871	4996.1
454.244	5054.4
454.618	5120.84
454.992	5214.4
455.365	5192.7
455.739	5350.21
456.112	5406.93
456.486	5429.76
456.859	5487.16
457.232	5540.04
457.606	5568.96
457.979	5680.6
458.352	5791.33
458.725	5887.15
459.099	5922.85
459.472	6048.27
459.845	6062.74
460.218	6136.18
460.591	6241.71
460.964	6265.89
461.337	6468.6
461.71	6521.03
462.083	6586.79
462.456	6639.22
462.829	6695.26
463.201	6793.11
463.574	6869.04
463.947	6990.4
464.32	7138.87
464.692	7165.31
465.065	7237.39
465.438	7325.3
465.81	7481.91
466.183	7535.24
466.555	7731.39
466.928	7741.79
467.3	7752.64
467.672	7908.34
468.045	8144.72
468.417	8125.96
468.789	8117.37
469.161	8313.75
469.534	8418.61
469.906	8647.98
470.278	8751.03
470.65	8782.44
471.022	9031.47
471.394	9225.36
471.766	9289.09
472.138	9423.55
472.51	9541.51
472.882	9789.87
473.253	9838.68
473.625	9986.47
473.997	10226.92
474.369	10377.65
474.74	10415.84
475.112	10610.87
475.484	10790.75
475.855	10870.52
476.227	11085.65
476.598	11426.21
476.97	11522.25
477.341	11705.98
477.713	11971.51
478.084	12036.36
478.455	12423.92
478.827	12544.37
479.198	12883.12
479.569	12913.86
479.94	13279.72
480.311	13356.33
480.682	13764.45
481.053	14077.89
481.424	14243.99
481.795	14401.27
482.166	14622.06
482.537	14793.58
482.908	15229.05
483.279	15276.73
483.65	15637.17
484.021	15972.08
484.391	16064.06
484.762	16280.32
485.133	16391.05
485.503	16683.7
485.874	17027.65
486.244	17120.75
486.615	17546.5
486.985	17743.11
487.356	18012.93
487.726	18203.89
488.097	18611.56
488.467	18646.81
488.837	19055.84
489.207	19357.3
489.578	19627.13
489.948	19793
490.318	20140.56
490.688	20221.46
491.058	20583.71
491.428	20855.34
491.798	21028.44
492.168	21479.28
492.538	21542.1
492.908	21875.2
493.278	22187.51
493.648	22143.67
494.017	22486.94
494.387	22660.04
494.757	22771.45
495.126	23027.71
495.496	23179.57
495.866	23370.08
496.235	23602.84
496.605	23790.41
496.974	24064.07
497.344	24144.97
497.713	24299.09
498.082	24440.56
498.452	24770.94
498.821	24977.49
499.19	25055.46
499.559	25370.93
499.928	25630.81
500.298	25655.22
500.667	25977.47
501.036	25999.16
501.405	26407.51
501.774	26382.65
502.143	26642.31
502.512	26740.38
502.88	27124.33
503.249	27086.14
503.618	27366.36
503.987	27349.63
504.356	27620.81
504.724	27833.24
505.093	27974.25
505.462	28074.13
505.83	28237.29
506.199	28560.68
506.567	28850.39
506.936	28941.68
507.304	29317.04
507.672	29360.43
508.041	29481.1
508.409	29768.78
508.777	30132.61
509.145	30253.74
509.514	30401.31
509.882	30549.1
510.25	30709.32
510.618	30832.48
510.986	31157.22
511.354	31443.76
511.722	31692.34
512.09	32109.73
512.458	32033.58
512.826	32427.69
513.193	32674.01
513.561	32858.42
513.929	32981.35
514.297	33302.92
514.664	33621.11
515.032	33512.64
515.4	34197.82
515.767	34197.82
516.135	34480.29
516.502	34405.27
516.869	34797.12
517.237	35023.56
517.604	35025.36
517.972	35341.74
518.339	35666.93
518.706	35690.88
519.073	36041.83
519.44	36181.27
519.808	36597.75
520.175	36606.34
520.542	37052.66
520.909	37302.59
521.276	37376.04
521.643	37969.24
522.009	38165.39
522.376	38427.31
522.743	38748.66
523.11	39163.56
523.477	39593.61
523.843	39814.16
524.21	40220.48
524.577	40390.42
524.943	40634.93
525.31	40883.06
525.676	41277.63
526.043	41499.54
526.409	41820.21
526.776	42198.51
527.142	42408
527.508	42518.73
527.874	42759.85
528.241	42993.29
528.607	43118.48
528.973	43588.3
529.339	43435.31
529.705	43937.9
530.071	44158.01
530.437	44336.08
530.803	44581.72
531.169	45002.96
531.535	44860.59
531.901	44967.7
532.267	45331.99
532.632	45581.24
532.998	45674.35
533.364	45980.78
533.73	46157.05
534.095	46514.1
534.461	46636.36
534.826	46899.85
535.192	47046.52
535.557	47445.38
535.923	47545.49
536.288	47727.63
536.653	47786.38
537.019	47737.57
537.384	48030.9
537.749	48264.56
538.114	48462.75
538.479	48548.85
538.845	48703.2
539.21	48649.41
539.575	48856.41
539.94	48937.99
540.305	49211.88
540.67	49171.89
541.034	49262.73
541.399	49496.85
541.764	49406.23
542.129	49544.53
542.494	49685.77
542.858	49877.4
543.223	49885.76
543.587	50055.25
543.952	50183.38
544.316	50299.76
544.681	50321.69
545.045	50546.99
545.41	50646.87
545.774	50769.36
546.138	50760.54
546.503	50963.25
546.867	51026.75
547.231	51277.37
547.595	51459.28
547.959	51552.84
548.324	51607.08
548.688	51712.16
549.052	51953.28
549.416	52086.61
549.779	52059.04
550.143	52234.4
550.507	52391.01
550.871	52623.09
551.235	52647.27
551.599	52875.74
551.962	52904.89
552.326	53009.75
552.689	53146.47
553.053	52923.2
553.417	53187.82
553.78	53561.83
554.143	53463.75
554.507	53566.57
554.87	53649.96
555.234	53921.59
555.597	53731.31
555.96	53934.47
556.323	54023.73
556.686	54167.01
557.05	54261.69
557.413	54313.67
557.776	54372.2
558.139	54702.81
558.502	54623.04
558.865	54780.1
559.228	54985.52
559.59	55089.02
559.953	55150.03
560.316	55478.84
560.679	55457.14
561.041	55601.55
561.404	55699.85
561.767	55907.3
562.129	55897.81
562.492	56166.73
562.854	56126.5
563.217	56305.48
563.579	56471.58
563.941	56622.54
564.304	56720.84
564.666	56865.47
565.028	56960.83
565.39	57059.14
565.753	57175.52
566.115	57274.5
566.477	57361.95
566.839	57424.32
567.201	57656.18
567.563	57621.61
567.925	57788.61
568.287	57832
568.648	57826.12
569.01	57982.27
569.372	58028.38
569.734	58003.07
570.095	58222.49
570.457	58289.61
570.819	58295.03
571.18	58338.88
571.542	58439.44
571.903	58560.11
572.265	58548.14
572.626	58639.21
572.987	58723.72
573.349	58726.89
573.71	58884.4
574.071	58900.67
574.432	58989.71
574.794	59141.79
575.155	59115.58
575.516	59135.92
575.877	59250.94
576.238	59273.54
576.599	59403.48
576.96	59470.37
577.32	59517.83
577.681	59654.77
578.042	59673.3
578.403	59718.27
578.763	59757.14
579.124	59766.41
579.485	59851.38
579.845	59925.95
580.206	59941.55
580.566	59905.39
580.927	59961.88
581.287	60070.58
581.648	59963.47
582.008	60022.22
582.368	59986.97
582.728	60036.68
583.089	59997.82
583.449	60003.24
583.809	60013.18
584.169	60076.91
584.529	59943.35
584.889	60156.91
585.249	59969.34
585.609	59913.98
585.969	60050.92
586.329	59971.6
586.688	60031.71
587.048	60017.93
587.408	59913.75
587.768	59955.78
588.127	59946.29
588.487	59967.53
588.846	60163.69
589.206	59925.5
589.565	59904.26
589.925	60026.74
590.284	60028.77
590.643	60082.11
591.003	60134.08
591.362	60177.92
591.721	60098.38
592.08	60126.85
592.44	60226.06
592.799	60207.75
593.158	60165.72
593.517	60285.94
593.876	60278.49
594.235	60284.59
594.593	60331.37
594.952	60360.97
595.311	60266.96
595.67	60340.18
596.029	60441.65
596.387	60429.67
596.746	60479.84
597.104	60395.32
597.463	60382.21
597.822	60468.54
598.18	60448.88
598.538	60365.26
598.897	60485.03
599.255	60252.95
599.613	60590.12
599.972	60431.48
600.33	60530.68
600.688	60445.49
601.046	60428.31
601.404	60494.53
601.762	60482.32
602.12	60614.52
602.478	60621.53
602.836	60610.23
603.194	60451.36
603.552	60497.24
603.91	60485.49
604.268	60600.96
604.625	60538.59
604.983	60604.35
605.341	60512.38
605.698	60661.07
606.056	60654.97
606.413	60655.42
606.771	60754.41
607.128	60748.53
607.485	60645.93
607.843	60718.25
608.2	60843.89
608.557	60894.74
608.914	60826.95
609.272	60962.54
609.629	60993.04
609.986	61099.03
610.343	61034.85
610.7	61242.75
611.057	61179.48
611.414	61139.71
611.771	61211.57
612.127	61336.76
612.484	61256.54
612.841	61375.63
613.198	61214.28
613.554	61235.52
613.911	61394.61
614.267	61352.81
614.624	61360.04
614.98	61419.92
615.337	61408.63
615.693	61407.27
616.05	61348.06
616.406	61497.44
616.762	61409.3
617.118	61327.5
617.475	61388.06
617.831	61459.7
618.187	61535.18
618.543	61527.27
618.899	61542.41
619.255	61643.65
619.611	61472.35
619.967	61576.3
620.323	61579.24
620.678	61456.99
621.034	61465.57
621.39	61434.16
621.746	61359.36
622.101	61683.19
622.457	61482.97
622.812	61454.73
623.168	61580.6
623.523	61528.17
623.879	61667.6
624.234	61456.31
624.589	61548.51
624.945	61581.5
625.3	61618.79
625.655	61605
626.01	61576.08
626.365	61578.56
626.72	61491.34
627.075	61590.32
627.43	61612.24
627.785	61529.3
628.14	61570.2
628.495	61620.15
628.85	61560.03
629.205	61522.52
629.559	61689.75
629.914	61489.75
630.269	61595.29
630.623	61485.91
630.978	61466.93
631.332	61581.73
631.687	61643.65
632.041	61444.78
632.396	61441.17
632.75	61348.74
633.104	61329.76
633.459	61178.12
633.813	61207.05
634.167	61294.28
634.521	61242.98
634.875	61215.86
635.229	61177.9
635.583	61061.97
635.937	61045.92
636.291	61072.14
636.645	61021.29
636.999	60897.23
637.352	60947.62
637.706	60778.81
638.06	60983.33
638.413	60840.96
638.767	60753.95
639.121	60787.62
639.474	60647.97
639.828	60689.1
640.181	60635.76
640.534	60582.21
640.888	60532.49
641.241	60414.3
641.594	60505.37
641.947	60518.03
642.301	60418.59
642.654	60428.99
643.007	60391.48
643.36	60363
643.713	60309.9
644.066	60337.92
644.419	60288.2
644.771	60105.61
645.124	59943.58
645.477	59845.95
645.83	59790.81
646.182	59626.07
646.535	59546.98
646.888	59650.03
647.24	59572.29
647.593	59675.56
647.945	59524.83
648.298	59484.83
648.65	59439.19
649.002	59420.88
649.355	59448.9
649.707	59429.47
650.059	59562.12
650.411	59721.44
650.763	59772.51
651.115	59987.19
651.467	59881.21
651.819	59818.84
652.171	59811.15
652.523	59772.96
652.875	59727.99
653.227	59651.16
653.578	59798.95
653.93	59713.08
654.282	59674.66
654.633	59542.23
654.985	59628.79
655.337	59624.94
655.688	59533.87
656.039	59665.17
656.391	59386.98
656.742	59403.25
657.094	59457.72
657.445	59482.12
657.796	59368.68
658.147	59312.41
658.498	59259.98
658.849	59356.02
659.2	59297.27
659.551	59172.98
659.902	59272.41
660.253	59237.16
660.604	59214.78
660.955	59107.67
661.306	59204.62
661.656	59091.4
662.007	59056.14
662.358	59169.59
662.708	59067.67
663.059	58996.49
663.409	58834.46
663.76	59110.61
664.11	59062.25
664.461	59012.76
664.811	59007.78
665.161	59010.72
665.511	58936.6
665.862	59005.75
666.212	59104.73
666.562	59114
666.912	59111.51
667.262	59007.11
667.612	59052.08
667.962	59003.72
668.312	58986.32
668.662	59111.06
669.011	59034.45
669.361	58951.74
669.711	58974.79
670.06	58932.08
670.41	58849.37
670.76	58854.12
671.109	58980.44
671.459	58902.48
671.808	58796.94
672.157	58917.62
672.507	58725.53
672.856	58732.99
673.205	58692.09
673.554	58760.33
673.904	58663.84
674.253	58719.2
674.602	58612.77
674.951	58274.7
675.3	58195.6
675.649	58600.34
675.998	58554.46
676.346	58494.58
676.695	58587.46
677.044	58349.04
677.393	58407.35
677.741	58405.99
678.09	58345.88
678.438	58200.12
678.787	58341.59
679.135	58288.93
679.484	58100.46
679.832	58141.37
680.181	58001.48
680.529	58127.13
680.877	58019.79
681.225	57877.42
681.573	58090.75
681.922	57882.84
682.27	57818.44
682.618	57812.34
682.966	57628.16
683.314	57683.3
683.661	57636.07
684.009	57486.69
684.357	57459.12
684.705	57446.92
685.053	57449.86
685.4	57431.1
685.748	57347.72
686.095	57351.11
686.443	57242.63
686.79	57188.62
687.138	57253.48
687.485	57265.01
687.832	57231.11
688.18	57155.63
688.527	56998.8
688.874	57093.03
689.221	57032.92
689.568	57020.49
689.915	56886.03
690.262	56908.4
690.609	56797.45
690.956	56801.29
691.303	56768.3
691.65	56555.87
691.997	56577.11
692.344	56373.05
692.69	56376.22
693.037	56346.16
693.383	56200.4
693.73	56270.46
694.077	56060.07
694.423	56039.28
694.769	55953.4
695.116	55881.77
695.462	55754.54
695.808	55678.83
696.155	55740.07
696.501	55520.19
696.847	55476.8
697.193	55267.77
697.539	55404.26
697.885	55060.09
698.231	55056.48
698.577	55067.78
698.923	54943.71
699.269	54838.18
699.614	54727.67
699.96	54578.75
700.306	54641.12
700.651	54516.6
700.997	54344.4
701.342	54241.81
701.688	54224.63
702.033	54060.8
702.379	54056.28
702.724	54006.11
703.069	54028.48
703.415	53677.08
703.76	53620.58
704.105	53677.08
704.45	53458.55
704.795	53409.74
705.14	53263.98
705.485	53265.11
705.83	53155.06
706.175	53159.58
706.52	53097.21
706.865	52886.36
707.209	52866.25
707.554	52788.97
707.899	52841.17
708.243	52673.49
708.588	52655.64
708.932	52491.57
709.277	52372.48
709.621	52485.24
709.966	52186.5
710.31	52377.68
710.654	52106.05
710.998	52263.56
711.342	52222.88
711.687	52059.94
712.031	52046.39
712.375	51980.85
712.719	52073.73
713.063	51885.71
713.407	51873.73
713.75	51731.14
714.094	51791.03
714.438	51626.96
714.782	51661.54
715.125	51436.46
715.469	51558.94
715.812	51334.99
716.156	51200.53
716.499	51252.73
716.843	51107.88
717.186	51008.45
717.53	51049.12
717.873	50958.96
718.216	50895
718.559	50616.82
718.902	50565.75
719.246	50570.49
719.589	50352.87
719.932	50318.52
720.275	50358.29
720.617	50135.48
720.96	50110.39
721.303	50071.07
721.646	50045.99
721.989	49843.73
722.331	49969.83
722.674	49782.49
723.016	49675.37
723.359	49659.1
723.701	49648.03
724.044	49302.96
724.386	49188.61
724.729	49341.15
725.071	49125.33
725.413	49211.66
725.755	49098.44
726.097	48839.69
726.439	48680.82
726.782	48709.75
727.124	48886.02
727.465	48467.5
727.807	48478.57
728.149	48298.46
728.491	48205.58
728.833	48322.64
729.175	48141.18
729.516	48077.9
729.858	48003.78
730.199	48054.4
730.541	47778.48
730.882	47782.09
731.224	47880.62
731.565	47687.86
731.906	47771.02
732.248	47759.72
732.589	47545.04
732.93	47391.82
733.271	47338.94
733.612	47623.68
733.953	47535.32
734.294	47371.48
734.635	47237.47
734.976	47401.76
735.317	47165.16
735.658	47195.67
735.999	47081.09
736.339	47241.77
736.68	47270.69
737.021	47057.59
737.361	46809.01
737.702	47132.39
738.042	46908.89
738.383	46881.78
738.723	46917.93
739.063	46725.85
739.404	46840.65
739.744	46684.72
740.084	46515.01
740.424	46549.81
740.764	46397.49
741.104	46461.67
741.444	46282.02
741.784	46168.35
742.124	46222.81
742.464	46096.26
742.804	45864.85
743.143	45866.21
743.483	45854.01
743.823	45588.7
744.162	45648.59
744.502	45730.85
744.841	45410.63
745.181	45473.68
745.52	45196.17
745.86	45220.12
746.199	45077.98
746.538	45124.76
746.877	44937.65
747.216	45001.83
747.556	44920.25
747.895	44796.86
748.234	44466.92
748.573	44466.7
748.911	44438
749.25	44314.39
749.589	44123.43
749.928	44108.29
750.267	44104.9
750.605	43842.53
750.944	43728.19
751.283	43574.07
751.621	43614.07
751.96	43348.76
