Data from aluminium_macbook_case_FLMS001491_014.txt Node
Date: Tue Feb 07 10:43:16 GMT 2017
User: dcchb
Spectrometer: FLMS00149
Trigger mode: 0
Integration Time (sec): 2.000000E-2
Scans to average: 10
Electric dark correction enabled: true
Nonlinearity correction enabled: false
Boxcar width: 0
XAxis mode: Wavelengths
Number of Pixels in Spectrum: 2048
>>>>>Begin Spectral Data<<<<<
341.393	3.9
341.776	3.9
342.16	3.9
342.543	-58.47
342.927	-52.15
343.31	-71.35
343.693	-65.7
344.077	-44.01
344.46	-66.83
344.843	-61.41
345.226	-33.39
345.61	-45.37
345.993	-33.61
346.376	17.68
346.759	5.03
347.142	29.21
347.525	68.53
347.908	71.69
348.291	55.65
348.674	82.31
349.057	91.58
349.44	120.96
349.823	151.24
350.206	188.98
350.588	244.34
350.971	266.04
351.354	273.27
351.737	288.86
352.119	311.23
352.502	302.65
352.884	316.66
353.267	345.36
353.65	355.75
354.032	338.13
354.414	367.5
354.797	355.98
355.179	385.13
355.562	392.59
355.944	400.5
356.326	382.87
356.709	399.14
357.091	415.41
357.473	399.82
357.855	379.71
358.238	414.51
358.62	406.83
359.002	407.05
359.384	426.49
359.766	409.09
360.148	426.26
360.53	412.48
360.912	422.87
361.294	405.92
361.676	427.62
362.057	416.77
362.439	412.7
362.821	408.86
363.203	419.48
363.584	413.83
363.966	403.66
364.348	415.41
364.729	436.43
365.111	419.03
365.493	421.51
365.874	407.28
366.256	416.54
366.637	414.73
367.019	409.09
367.4	401.4
367.781	436.66
368.163	426.49
368.544	440.72
368.925	443.21
369.306	450.21
369.688	435.07
370.069	461.51
370.45	432.59
370.831	455.41
371.212	434.85
371.593	468.52
371.974	456.99
372.355	474.62
372.736	453.6
373.117	464.9
373.498	466.71
373.879	495.86
374.26	479.14
374.641	452.47
375.021	480.72
375.402	480.27
375.783	496.31
376.163	531.57
376.544	532.47
376.925	496.99
377.305	507.61
377.686	510.78
378.066	546.03
378.447	522.98
378.827	520.49
379.208	534.51
379.588	518.23
379.968	526.14
380.349	528.86
380.729	534.51
381.109	547.16
381.489	584.9
381.87	573.6
382.25	564.11
382.63	577.67
383.01	590.32
383.39	592.13
383.77	575.86
384.15	593.26
384.53	625.58
384.91	618.8
385.29	624.67
385.67	605.46
386.049	650.66
386.429	644.11
386.809	651.56
387.189	654.05
387.568	684.78
387.948	673.03
388.328	685.24
388.707	695.63
389.087	710.32
389.466	688.4
389.846	715.29
390.225	725.91
390.605	738.57
390.984	757.78
391.363	736.08
391.743	733.82
392.122	782.18
392.501	785.57
392.881	810.2
393.26	809.3
393.639	798.68
394.018	796.87
394.397	832.58
394.776	822.86
395.155	846.36
395.534	833.48
395.913	866.25
396.292	860.6
396.671	864.44
397.05	877.55
397.429	889.52
397.808	910.09
398.186	913.93
398.565	926.13
398.944	941.27
399.323	955.29
399.701	943.31
400.08	959.58
400.458	971.56
400.837	987.6
401.215	986.92
401.594	995.51
401.972	1021.72
402.351	1007.04
402.729	1032.8
403.107	1057.2
403.486	1072.57
403.864	1090.42
404.242	1098.11
404.62	1126.35
404.999	1139.46
405.377	1141.04
405.755	1140.14
406.133	1159.12
406.511	1181.49
406.889	1201.61
407.267	1230.53
407.645	1225.34
408.023	1235.5
408.401	1263.75
408.779	1272.57
409.156	1304.2
409.534	1296.75
409.912	1341.26
410.29	1376.74
410.667	1374.03
411.045	1391.21
411.422	1399.79
411.8	1441.15
412.178	1482.05
412.555	1495.61
412.933	1514.82
413.31	1506.91
413.687	1552.78
414.065	1573.35
414.442	1604.53
414.819	1595.95
415.197	1609.73
415.574	1605.21
415.951	1656.74
416.328	1669.39
416.705	1682.72
417.082	1695.38
417.46	1747.13
417.837	1779.67
418.214	1768.37
418.591	1758.2
418.967	1803.17
419.344	1825.55
419.721	1852.44
420.098	1871.19
420.475	1885.43
420.852	1904.41
421.228	1910.29
421.605	1924.75
421.982	1998.2
422.358	1964.75
422.735	2026.44
423.111	2041.58
423.488	2057.86
423.864	2108.02
424.241	2102.6
424.617	2152.09
424.994	2137.4
425.37	2193.45
425.746	2224.86
426.123	2266.21
426.499	2269.83
426.875	2285.19
427.251	2316.61
427.627	2367.45
428.003	2402.25
428.379	2451.07
428.756	2454.68
429.132	2479.31
429.507	2541.01
429.883	2597.73
430.259	2648.57
430.635	2656.71
431.011	2675.92
431.387	2697.16
431.763	2780.77
432.138	2773.77
432.514	2879.75
432.89	2849.25
433.265	2929.02
433.641	2984.16
434.016	3043.82
434.392	3026.64
434.767	3075.46
435.143	3093.31
435.518	3155.23
435.894	3184.38
436.269	3254.43
436.644	3287.2
437.02	3323.13
437.395	3326.97
437.77	3405.84
438.145	3429.12
438.52	3460.3
438.895	3495.78
439.271	3518.83
439.646	3595.44
440.021	3633.41
440.395	3641.54
440.77	3659.4
441.145	3642.9
441.52	3781.2
441.895	3742.56
442.27	3817.36
442.645	3808.09
443.019	3880.41
443.394	3886.06
443.769	3984.58
444.143	3940.52
444.518	3972.83
444.892	3961.76
445.267	4047.18
445.641	4040.63
446.016	4063.23
446.39	4166.73
446.764	4147.07
447.139	4195.43
447.513	4238.14
447.887	4282.66
448.262	4281.98
448.636	4333.05
449.01	4361.98
449.384	4402.88
449.758	4412.37
450.132	4521.29
450.506	4545.7
450.88	4631.8
451.254	4604.91
451.628	4699.82
452.002	4706.83
452.376	4743.21
452.75	4843.54
453.123	4911.57
453.497	5027.49
453.871	4994.95
454.244	5109.98
454.618	5160.15
454.992	5214.38
455.365	5246.02
455.739	5359.69
456.112	5416.64
456.486	5416.86
456.859	5547.71
457.232	5630.64
457.606	5586.35
457.979	5682.62
458.352	5802.84
458.725	5893.46
459.099	5958.32
459.472	6067.02
459.845	6132.1
460.218	6189.5
460.591	6268.14
460.964	6316.5
461.337	6460.23
461.71	6592.2
462.083	6624.29
462.456	6626.55
462.829	6670.16
463.201	6854.57
463.574	6827.22
463.947	7014.11
464.32	7112.64
464.692	7192.86
465.065	7256.59
465.438	7382.91
465.81	7518.28
466.183	7554.66
466.555	7651.15
466.928	7730.02
467.3	7731.6
467.672	7913.52
468.045	8070.13
468.417	8162.55
468.789	8173.17
469.161	8300.63
469.534	8502.66
469.906	8640.06
470.278	8763.89
470.65	8803.67
471.022	9087.73
471.394	9249.53
471.766	9299.92
472.138	9411.11
472.51	9674.15
472.882	9715.73
473.253	9847.93
473.625	10024.43
473.997	10256.74
474.369	10327.47
474.74	10432.78
475.112	10656.05
475.484	10803.39
475.855	11014.46
476.227	11120.67
476.598	11398.17
476.97	11541.9
477.341	11813.31
477.713	11972.17
478.084	12027.08
478.455	12344.36
478.827	12492.61
479.198	12896.89
479.569	12961.52
479.94	13289.42
480.311	13441.06
480.682	13729.41
481.053	14060.93
481.424	14284.88
481.795	14408.04
482.166	14669.73
482.537	14814.81
482.908	15143.16
483.279	15302.7
483.65	15622.92
484.021	15912.63
484.391	16057.26
484.762	16257.48
485.133	16430.13
485.503	16637.81
485.874	17023.11
486.244	17180.62
486.615	17472.37
486.985	17713.49
487.356	18035.29
487.726	18285.68
488.097	18539
488.467	18647.48
488.837	19123.85
489.207	19241.81
489.578	19669.82
489.948	19822.81
490.318	20114.1
490.688	20276.13
491.058	20518.84
491.428	20931.94
491.798	21046.51
492.168	21471.13
492.538	21498.7
492.908	21819.37
493.278	22055.3
493.648	22150.89
494.017	22476.53
494.387	22635.39
494.757	22906.57
495.126	23100.47
495.496	23234.47
495.866	23405.99
496.235	23637.85
496.605	23882.37
496.974	23922.14
497.344	24206.65
497.713	24276.25
498.082	24502.92
498.452	24882.34
498.821	25010.02
499.19	25074.43
499.559	25331.82
499.928	25536.11
500.298	25739.27
500.667	25957.57
501.036	26000.5
501.405	26393.03
501.774	26447.5
502.143	26639.58
502.512	26843.64
502.88	27164.77
503.249	27188.95
503.618	27280.24
503.987	27623.51
504.356	27723.4
504.724	27850.17
505.093	27908.7
505.462	28112.31
505.83	28278.18
506.199	28583.94
506.567	28915.68
506.936	28934.44
507.304	29292.85
507.672	29352.05
508.041	29583.23
508.409	29930.79
508.777	29992.49
509.145	30271.35
509.514	30320.62
509.882	30524.23
510.25	30792.24
510.618	30924.22
510.986	31093.7
511.354	31516.52
511.722	31766.68
512.09	32009.38
512.458	32085.09
512.826	32458.64
513.193	32674.23
513.561	32760.78
513.929	33030.37
514.297	33387.88
514.664	33651.15
515.032	33764.37
515.4	34040.29
515.767	34188.54
516.135	34416.78
516.502	34359.38
516.869	34932.7
517.237	35023.77
517.604	34984
517.972	35407.04
518.339	35722.06
518.706	35854.03
519.073	36016.51
519.44	36221.03
519.808	36660.11
520.175	36736.94
520.542	37027.11
520.909	37403.14
521.276	37511.16
521.643	37947.76
522.009	38129
522.376	38426.39
522.743	38738.7
523.11	39235.41
523.477	39607.6
523.843	39751.55
524.21	40191.99
524.577	40447.13
524.943	40705.43
525.31	40965.53
525.676	41327.56
526.043	41652.29
526.409	41795.79
526.776	42247.31
527.142	42334.31
527.508	42530.24
527.874	42934.97
528.241	43007.51
528.607	43275.3
528.973	43591.45
529.339	43516.88
529.705	44065.56
530.071	44382.84
530.437	44516.17
530.803	44706
531.169	44851.08
531.535	44957.97
531.901	45121.36
532.267	45397.28
532.632	45664.84
532.998	45705.07
533.364	46018.73
533.73	46218.73
534.095	46432.06
534.461	46687.42
534.826	46818.49
535.192	47161.98
535.557	47405.59
535.923	47484.46
536.288	47686.94
536.653	47867.72
537.019	47899.81
537.384	48165.8
537.749	48374.38
538.114	48442.85
538.479	48555.39
538.845	48580.7
539.21	48673.8
539.575	48816.85
539.94	49035.38
540.305	49282.38
540.67	49146.56
541.034	49374.58
541.399	49503.61
541.764	49516.04
542.129	49610.96
542.494	49693.21
542.858	49904.06
543.223	49962.81
543.587	50153.99
543.952	50154.67
544.316	50333.65
544.681	50368
545.045	50512.85
545.41	50673.53
545.774	50847.76
546.138	50867.87
546.503	51029
546.867	51076.23
547.231	51406.39
547.595	51374.52
547.959	51575.42
548.324	51684.12
548.688	51831.91
549.052	51979.71
549.416	52052.93
549.779	52151.91
550.143	52391.22
550.507	52489.07
550.871	52578.11
551.235	52623.31
551.599	52869.63
551.962	52950.08
552.326	52994.37
552.689	53202.73
553.053	53085.67
553.417	53238.2
553.78	53557.07
554.143	53503.73
554.507	53600.91
554.87	53639.32
555.234	53929.03
555.597	53792.54
555.96	53979.2
556.323	54117.5
556.686	54134.9
557.05	54330.38
557.413	54359.08
557.776	54502.35
558.139	54612.41
558.502	54698.51
558.865	54805.62
559.228	55061.66
559.59	55092.17
559.953	55233.63
560.316	55471.37
560.679	55486.73
561.041	55616.45
561.404	55840.4
561.767	55923.78
562.129	56004.69
562.492	56273.83
562.854	56241.52
563.217	56280.38
563.579	56481.96
563.941	56670.88
564.304	56728.28
564.666	56900.71
565.028	56929.86
565.39	57060.7
565.753	57178.89
566.115	57366.46
566.477	57352.9
566.839	57414.82
567.201	57670.18
567.563	57676.05
567.925	57874.01
568.287	57781.59
568.648	57850.96
569.01	57972.54
569.372	58149.49
569.734	58085.53
570.095	58156.04
570.457	58347.22
570.819	58337.28
571.18	58338.18
571.542	58497.5
571.903	58471.97
572.265	58640.1
572.626	58660.21
572.987	58698.85
573.349	58829.7
573.71	58885.29
574.071	59001.67
574.432	59067.88
574.794	59226.3
575.155	59193.75
575.516	59167.09
575.877	59240.76
576.238	59354.88
576.599	59429.68
576.96	59514.65
577.32	59487.98
577.681	59662.44
578.042	59661.09
578.403	59774.3
578.763	59790.35
579.124	59781.76
579.485	59838.48
579.845	60032.15
580.206	59899.72
580.566	59949.44
580.927	59931.81
581.287	60051.81
581.648	59954.41
582.008	60066.95
582.368	59999.61
582.728	60109.66
583.089	60032.15
583.449	60040.06
583.809	59981.98
584.169	60071.25
584.529	59935.43
584.889	60139.27
585.249	59970.01
585.609	59932.27
585.969	60088.65
586.329	59976.33
586.688	60006.39
587.048	60066.5
587.408	59980.63
587.768	59977.01
588.127	59970.68
588.487	59946.95
588.846	60077.35
589.206	59966.84
589.565	59969.78
589.925	60079.61
590.284	60051.36
590.643	60119.15
591.003	60132.03
591.362	60171.13
591.721	60159.38
592.08	60219.49
592.44	60226.27
592.799	60256.78
593.158	60239.15
593.517	60282.99
593.876	60292.03
594.235	60248.64
594.593	60340.84
594.952	60336.32
595.311	60252.03
595.67	60336.78
596.029	60541.97
596.387	60478.01
596.746	60497.67
597.104	60378.13
597.463	60398.47
597.822	60471.46
598.18	60407.73
598.538	60411.12
598.897	60459.26
599.255	60352.14
599.613	60551.91
599.972	60461.29
600.33	60506.26
600.688	60373.61
601.046	60447.28
601.404	60574.73
601.762	60471.91
602.12	60603.89
602.478	60612.02
602.836	60650.44
603.194	60498.35
603.552	60567.73
603.91	60502.65
604.268	60646.37
604.625	60553.72
604.983	60675.98
605.341	60489.09
605.698	60639.14
606.056	60660.16
606.413	60665.35
606.771	60768.4
607.128	60767.05
607.485	60654.73
607.843	60750.55
608.2	60881.39
608.557	60982.86
608.914	60859.25
609.272	61070.54
609.629	60993.26
609.986	61152.35
610.343	61032.12
610.7	61224.89
611.057	61222.4
611.414	61203.19
611.771	61199.58
612.127	61303.3
612.484	61274.15
612.841	61386.47
613.198	61295.39
613.554	61309.86
613.911	61390.76
614.267	61393.92
614.624	61331.55
614.98	61403.19
615.337	61497.2
615.693	61414.03
616.05	61341.95
616.406	61494.26
616.762	61344.88
617.118	61389.18
617.475	61401.15
617.831	61439.34
618.187	61498.33
618.543	61538.33
618.899	61638.44
619.255	61575.84
619.611	61515.5
619.967	61597.31
620.323	61637.53
620.678	61507.14
621.034	61416.29
621.39	61446.8
621.746	61424.88
622.101	61698.55
622.457	61527.25
622.812	61475.5
623.168	61587.14
623.523	61594.82
623.879	61643.18
624.234	61537.42
624.589	61555.27
624.945	61580.36
625.3	61594.14
625.655	61598.21
626.01	61649.06
626.365	61589.85
626.72	61564.99
627.075	61620.58
627.43	61523.86
627.785	61565.67
628.14	61588.04
628.495	61649.51
628.85	61579.45
629.205	61527.25
629.559	61701.71
629.914	61567.7
630.269	61620.36
630.623	61477.99
630.978	61469.17
631.332	61528.38
631.687	61573.35
632.041	61468.5
632.396	61493.13
632.75	61396.63
633.104	61398.22
633.459	61228.05
633.813	61245.23
634.167	61233.7
634.521	61255.85
634.875	61224.89
635.229	61183.31
635.583	61058.79
635.937	61130.88
636.291	61028.73
636.645	61035.29
636.999	60876.65
637.352	60965.69
637.706	60804.11
638.06	60894.05
638.413	60856.08
638.767	60770.66
639.121	60827.38
639.474	60678.91
639.828	60756.88
640.181	60643.66
640.534	60633.72
640.888	60520.95
641.241	60512.36
641.594	60481.86
641.947	60582.19
642.301	60430.11
642.654	60477.34
643.007	60406.6
643.36	60403.21
643.713	60310.56
644.066	60389.2
644.419	60267.62
644.771	60137.68
645.124	59932.04
645.477	59886.84
645.83	59758.94
646.182	59654.53
646.535	59574.31
646.888	59709.67
647.24	59555.78
647.593	59697.47
647.945	59598.49
648.298	59379.96
648.65	59498.38
649.002	59306.97
649.355	59478.04
649.707	59387.42
650.059	59537.7
650.411	59773.63
650.763	59805.49
651.115	60046.84
651.467	59866.28
651.819	59856.56
652.171	59836.45
652.523	59801.42
652.875	59744.47
653.227	59690.24
653.578	59821.53
653.93	59751.03
654.282	59673.97
654.633	59616.34
654.985	59618.83
655.337	59607.98
655.688	59560.3
656.039	59624.93
656.391	59419.06
656.742	59414.31
657.094	59356.01
657.445	59492.73
657.796	59418.16
658.147	59300.42
658.498	59313.53
658.849	59330.02
659.2	59349.68
659.551	59188.33
659.902	59351.26
660.253	59173.64
660.604	59308.55
660.955	59095.45
661.306	59230.14
661.656	59119.41
662.007	59092.97
662.358	59057.26
662.708	59143.36
663.059	58953.31
663.409	58903.59
663.76	59077.37
664.11	59026.98
664.461	59083.93
664.811	59100.2
665.161	59042.8
665.511	58985.17
665.862	59009.8
666.212	59053.42
666.562	59100.2
666.912	59041.89
667.262	59107.43
667.612	59047.77
667.962	59049.35
668.312	58979.07
668.662	59065.4
669.011	59018.39
669.361	59001.44
669.711	58979.75
670.06	58958.96
670.41	58931.61
670.76	58871.5
671.109	58919.41
671.459	58892.29
671.808	58802.8
672.157	58859.3
672.507	58702.69
672.856	58702.47
673.205	58697.27
673.554	58749.02
673.904	58669.25
674.253	58781.79
674.602	58609.36
674.951	58270.16
675.3	58180.9
675.649	58579.76
675.998	58493.66
676.346	58523.49
676.695	58559.42
677.044	58376.83
677.393	58446.43
677.741	58474.45
678.09	58312.65
678.438	58240.79
678.787	58339.31
679.135	58249.15
679.484	58101.35
679.832	58161.01
680.181	57958.31
680.529	58100.45
680.877	57975.48
681.225	57994.46
681.573	58123.73
681.922	57948.59
682.27	57787.24
682.618	57766
682.966	57707.47
683.314	57720.57
683.661	57570.07
684.009	57473.57
684.357	57482.16
684.705	57410.52
685.053	57473.35
685.4	57453.24
685.748	57368.27
686.095	57261.15
686.443	57228.16
686.79	57228.38
687.138	57263.18
687.485	57244.65
687.832	57119.01
688.18	57243.52
688.527	57053.02
688.874	57012.57
689.221	56959.91
689.568	56899.8
689.915	56910.2
690.262	56888.96
690.609	56782.74
690.956	56787.72
691.303	56713.59
691.65	56633.6
691.997	56592.01
692.344	56421.85
692.69	56381.85
693.037	56384.34
693.383	56201.97
693.73	56291.91
694.077	55996.1
694.423	56110.22
694.769	55954.74
695.116	55822.32
695.462	55818.93
695.808	55673.17
696.155	55743.45
696.501	55516.79
696.847	55543.91
697.193	55322.67
697.539	55387.07
697.885	55125.16
698.231	55089.91
698.577	55066.41
698.923	55011.72
699.269	54885.17
699.614	54630.26
699.96	54701.9
700.306	54563.82
700.651	54443.82
700.997	54286.99
701.342	54343.26
701.688	54208.12
702.033	54140.78
702.379	54162.02
702.724	54042.48
703.069	54106.2
703.415	53626.44
703.76	53715.25
704.105	53631.19
704.45	53514.81
704.795	53284.76
705.14	53263.97
705.485	53327.47
705.83	53113.01
706.175	53231.2
706.52	53121.6
706.865	52926.8
707.209	52839.57
707.554	52751.21
707.899	52846.8
708.243	52629.63
708.588	52561.61
708.932	52358.23
709.277	52484.55
709.621	52487.26
709.966	52276.87
710.31	52353.03
710.654	52135.63
710.998	52194.16
711.342	52215.41
711.687	52139.02
712.031	52033.26
712.375	51929.54
712.719	51959.82
713.063	51898.8
713.407	51946.04
713.75	51771.35
714.094	51679.6
714.438	51525.26
714.782	51723.89
715.125	51492.94
715.469	51534.29
715.812	51325.71
716.156	51162.1
716.499	51234.64
716.843	51128.88
717.186	50910.36
717.53	51003.24
717.873	51000.07
718.216	51008.21
718.559	50771.83
718.902	50549.69
719.246	50612.96
719.589	50443.25
719.932	50274.89
720.275	50220.66
720.617	50178.17
720.96	50139.3
721.303	50064.95
721.646	50092.07
721.989	49802.36
722.331	49870.61
722.674	49710.61
723.016	49701.12
723.359	49696.6
723.701	49607.11
724.044	49300.68
724.386	49117.41
724.729	49245.09
725.071	49161.02
725.413	49204.86
725.755	49015.72
726.097	48799
726.439	48669.51
726.782	48582.73
727.124	48831.99
727.465	48519.23
727.807	48342.06
728.149	48330.99
728.491	48223.65
728.833	48289.41
729.175	48073.82
729.516	48078.34
729.858	48059.13
730.199	48068.62
730.541	47817.78
730.882	47742.3
731.224	47882.41
731.565	47756.31
731.906	47796.77
732.248	47758.57
732.589	47509.54
732.93	47478.13
733.271	47553.61
733.612	47509.54
733.953	47547.73
734.294	47361.3
734.635	47279.94
734.976	47394.97
735.317	47088.99
735.658	47234.97
735.999	47204.01
736.339	47251.24
736.68	47249.66
737.021	46936.68
737.361	46979.61
737.702	47145.03
738.042	46987.75
738.383	46773.29
738.723	46909.78
739.063	46664.37
739.404	46876.11
739.744	46572.62
740.084	46578.49
740.424	46420.3
740.764	46400.64
741.104	46508.44
741.444	46302.34
741.784	46089.69
742.124	46193.42
742.464	46113.87
742.804	45915.23
743.143	45897.15
743.483	45787.78
743.823	45670.95
744.162	45684.73
744.502	45710.49
744.841	45505.07
745.181	45479.09
745.52	45203.16
745.86	45284.74
746.199	45115.71
746.538	44950.29
746.877	45061.02
747.216	45002.04
747.556	44629.17
747.895	44797.52
748.234	44628.94
748.573	44595.27
748.911	44563.18
749.25	44264.88
749.589	44181.27
749.928	44129.29
750.267	44071.44
750.605	43995.28
750.944	43786.93
751.283	43552.36
751.621	43690.43
751.96	43248.86
752.298	43428.75
