Data from aluminium_surface_pro_back_FLMS001491_00021.txt Node
Date: Wed Feb 08 15:33:49 GMT 2017
User: dcchb
Spectrometer: FLMS00149
Trigger mode: 0
Integration Time (sec): 2.000000E-2
Scans to average: 10
Electric dark correction enabled: true
Nonlinearity correction enabled: false
Boxcar width: 0
XAxis mode: Wavelengths
Number of Pixels in Spectrum: 2048
>>>>>Begin Spectral Data<<<<<
341.393	-11.1
341.776	-11.1
342.16	-11.1
342.543	-62.85
342.927	-67.6
343.31	-65.11
343.693	-71.21
344.077	-76.64
344.46	-61.95
344.843	-53.81
345.226	-29.18
345.61	-27.37
345.993	-23.98
346.376	-20.59
346.759	12.4
347.142	30.93
347.525	35.68
347.908	49.91
348.291	84.04
348.674	87.2
349.057	129.69
349.44	134.43
349.823	136.01
350.206	161.78
350.588	220.76
350.971	248.1
351.354	241.1
351.737	263.47
352.119	276.12
352.502	280.42
352.884	309.34
353.267	319.51
353.65	335.1
354.032	331.26
354.414	318.38
354.797	331.04
355.179	365.84
355.562	359.74
355.944	346.63
356.326	362.22
356.709	379.17
357.091	362.67
357.473	383.69
357.855	362
358.238	370.36
358.62	386.63
359.002	376.69
359.384	367.65
359.766	375.1
360.148	366.06
360.53	383.92
360.912	382.56
361.294	373.3
361.676	370.36
362.057	373.52
362.439	366.97
362.821	401.32
363.203	367.19
363.584	381.43
363.966	369.23
364.348	380.98
364.729	348.66
365.111	360.87
365.493	366.97
365.874	386.4
366.256	362.22
366.637	381.2
367.019	359.74
367.4	372.84
367.781	377.59
368.163	383.69
368.544	350.7
368.925	340.98
369.306	387.76
369.688	361.32
370.069	377.59
370.45	387.08
370.831	376.23
371.212	385.5
371.593	397.02
371.974	379.4
372.355	380.75
372.736	386.85
373.117	373.75
373.498	385.5
373.879	397.93
374.26	399.51
374.641	405.16
375.021	374.65
375.402	413.75
375.783	385.05
376.163	429.56
376.544	404.71
376.925	416.01
377.305	407.42
377.686	400.64
378.066	402.67
378.447	426.4
378.827	419.85
379.208	429.56
379.588	419.85
379.968	438.6
380.349	440.86
380.729	443.8
381.109	435.67
381.489	457.36
381.87	435.67
382.25	438.38
382.63	471.6
383.01	449.68
383.39	471.37
383.77	464.59
384.15	463.24
384.53	474.99
384.91	485.16
385.29	479.51
385.67	505.95
386.049	511.82
386.429	484.93
386.809	521.31
387.189	514.76
387.568	499.85
387.948	504.82
388.328	523.35
388.707	516.79
389.087	535.78
389.466	522.44
389.846	547.3
390.225	566.06
390.605	530.35
390.984	574.87
391.363	553.4
391.743	570.58
392.122	611.48
392.501	581.43
392.881	621.65
393.26	633.18
393.639	622.1
394.018	593.4
394.397	617.58
394.776	613.97
395.155	670.91
395.534	642.67
395.913	641.54
396.292	678.37
396.671	674.08
397.05	668.43
397.429	688.77
397.808	676.34
398.186	695.55
398.565	675.89
398.944	686.51
399.323	723.34
399.701	700.29
400.08	699.39
400.458	745.04
400.837	744.13
401.215	760.86
401.594	747.75
401.972	771.25
402.351	760.18
402.729	776
403.107	806.05
403.486	788.2
403.864	822.1
404.242	842.66
404.62	816.67
404.999	836.56
405.377	847.41
405.755	852.15
406.133	865.26
406.511	866.62
406.889	898.93
407.267	906.16
407.645	927.4
408.023	919.04
408.401	947.29
408.779	942.09
409.156	965.14
409.534	968.31
409.912	959.72
410.29	1008.98
410.667	1007.85
411.045	1019.15
411.422	1047.4
411.8	1047.4
412.178	1085.37
412.555	1090.34
412.933	1087.63
413.31	1139.6
413.687	1147.96
414.065	1156.1
414.442	1161.07
414.819	1189.09
415.197	1215.31
415.574	1191.35
415.951	1203.56
416.328	1222.09
416.705	1211.92
417.082	1247.85
417.46	1253.05
417.837	1261.86
418.214	1271.12
418.591	1289.2
418.967	1280.84
419.344	1310.22
419.721	1363.78
420.098	1311.12
420.475	1356.32
420.852	1344.34
421.228	1400.39
421.605	1422.99
421.982	1421.4
422.358	1431.8
422.735	1464.79
423.111	1451.91
423.488	1465.47
423.864	1479.48
424.241	1499.82
424.617	1531
424.994	1537.11
425.37	1526.49
425.746	1556.54
426.123	1607.16
426.499	1598.57
426.875	1629.08
427.251	1634.05
427.627	1704.79
428.003	1711.79
428.379	1742.07
428.756	1739.36
429.132	1761.51
429.507	1797.44
429.883	1813.71
430.259	1840.38
430.635	1828.17
431.011	1862.07
431.387	1892.8
431.763	1949.3
432.138	1947.49
432.514	1989.3
432.89	1991.56
433.265	2037.88
433.641	2053.93
434.016	2061.39
434.392	2119.46
434.767	2165.34
435.143	2165.79
435.518	2207.37
435.894	2217.09
436.269	2227.03
436.644	2263.19
437.02	2262.51
437.395	2276.75
437.77	2337.09
438.145	2371.43
438.52	2417.99
438.895	2419.12
439.271	2385.67
439.646	2482.39
440.021	2509.51
440.395	2542.5
440.77	2493.47
441.145	2524.65
441.52	2566.46
441.895	2613.01
442.27	2631.77
442.645	2610.07
443.019	2689.17
443.394	2683.52
443.769	2681.03
444.143	2643.52
444.518	2759.67
444.892	2725.32
445.267	2791.76
445.641	2795.6
446.016	2802.16
446.39	2836.28
446.764	2809.84
447.139	2849.16
447.513	2891.65
447.887	2911.99
448.262	2878.77
448.636	2879.22
449.01	2977.07
449.384	3009.16
449.758	3043.28
450.132	3048.93
450.506	3079.89
450.88	3133.9
451.254	3113.56
451.628	3152.88
452.002	3210.51
452.376	3220.45
452.75	3259.1
453.123	3267
453.497	3329.38
453.871	3335.93
454.244	3393.1
454.618	3462.48
454.992	3508.58
455.365	3511.07
455.739	3594
456.112	3607.33
456.486	3657.73
456.859	3717.39
457.232	3754.22
457.606	3787.89
457.979	3834.67
458.352	3932.75
458.725	3951.96
459.099	3972.75
459.472	4091.84
459.845	4069.92
460.218	4143.59
460.591	4149.02
460.964	4172.29
461.337	4271.27
461.71	4346.75
462.083	4426.3
462.456	4420.42
462.829	4468.1
463.201	4552.85
463.574	4587.65
463.947	4655.89
464.32	4768.21
464.692	4783.12
465.065	4794.65
465.438	4853.86
465.81	4944.7
466.183	5008.65
466.555	5091.14
466.928	5122.32
467.3	5170.91
467.672	5224.47
468.045	5362.32
468.417	5431.92
468.789	5433.95
469.161	5494.52
469.534	5646.83
469.906	5712.36
470.278	5751.01
470.65	5858.57
471.022	5960.94
471.394	6051.56
471.766	6102.18
472.138	6232.12
472.51	6321.16
472.882	6421.95
473.253	6504.89
473.625	6578.33
473.997	6728.38
474.369	6783.07
474.74	6808.15
475.112	6923.86
475.484	7089.28
475.855	7182.38
476.227	7251.53
476.598	7415.37
476.97	7519.32
477.341	7700.11
477.713	7823.95
478.084	7844.96
478.455	8048.57
478.827	8192.75
479.198	8464.16
479.569	8377.83
479.94	8662.57
480.311	8786.86
480.682	8960.64
481.053	9072.73
481.424	9341.2
481.795	9381.65
482.166	9496.9
482.537	9672.49
482.908	9833.84
483.279	9960.39
483.65	10135.3
484.021	10370.55
484.391	10492.58
484.762	10602.18
485.133	10686.7
485.503	10817.31
485.874	11118.55
486.244	11227.7
486.615	11401.03
486.985	11587.24
487.356	11721.92
487.726	11910.17
488.097	12056.6
488.467	12141.35
488.837	12477.38
489.207	12525.74
489.578	12772.07
489.948	12903.14
490.318	13107.42
490.688	13058.39
491.058	13333.41
491.428	13494.31
491.798	13668.09
492.168	13909.66
492.538	13966.61
492.908	14119.6
493.278	14386.03
493.648	14413.6
494.017	14651.34
494.387	14691.34
494.757	14848.85
495.126	15077.32
495.496	15080.71
495.866	15248.84
496.235	15403.86
496.605	15511.65
496.974	15709.16
497.344	15763.4
497.713	15838.65
498.082	16068.93
498.452	16188.7
498.821	16327.23
499.19	16381.24
499.559	16590.5
499.928	16651.51
500.298	16780.77
500.667	16987.77
501.036	17057.38
501.405	17219.63
501.774	17165.85
502.143	17388.89
502.512	17438.61
502.88	17593.41
503.249	17632.95
503.618	17748.21
503.987	17881.31
504.356	17990.01
504.724	18157.69
505.093	18156.78
505.462	18368.3
505.83	18445.14
506.199	18633.38
506.567	18893.71
506.936	18914.5
507.304	19054.61
507.672	19204.21
508.041	19335.96
508.409	19473.13
508.777	19646.23
509.145	19854.14
509.514	19855.04
509.882	20089.61
510.25	20153.57
510.618	20339.32
510.986	20431.75
511.354	20617.51
511.722	20785.64
512.09	20951.51
512.458	20992.64
512.826	21185.63
513.193	21319.64
513.561	21397.6
513.929	21643.47
514.297	21756.24
514.664	22008.43
515.032	21941.54
515.4	22332.27
515.767	22357.12
516.135	22456.78
516.502	22470.57
516.869	22870.1
517.237	22928.63
517.604	22918.01
517.972	23236.2
518.339	23491.78
518.706	23490.43
519.073	23546.7
519.44	23761.61
519.808	24128.15
520.175	24121.15
520.542	24513.45
520.909	24635.48
521.276	24657.85
521.643	24980.33
522.009	25155.24
522.376	25366.76
522.743	25503.03
523.11	25882.68
523.477	26041.32
523.843	26241.99
524.21	26671.59
524.577	26875.88
524.943	26794.97
525.31	27031.8
525.676	27280.84
526.043	27419.14
526.409	27645.57
526.776	27928.73
527.142	28086.24
527.508	28130.53
527.874	28372.79
528.241	28480.8
528.607	28699.33
528.973	28940.68
529.339	28838.54
529.705	29225.19
530.071	29328.69
530.437	29635.8
530.803	29771.39
531.169	29971.61
531.535	29916.02
531.901	30144.49
532.267	30327.76
532.632	30451.15
532.998	30666.28
533.364	30872.61
533.73	31002.77
534.095	31291.13
534.461	31319.6
534.826	31483.89
535.192	31599.82
535.557	31882.75
535.923	31788.06
536.288	32054.04
536.653	32170.43
537.019	32160.48
537.384	32249.52
537.749	32382.4
538.114	32478.21
538.479	32519.57
538.845	32756.62
539.21	32569.51
539.575	32926.34
539.94	33010.18
540.305	33301.47
540.67	33213.79
541.034	33357.74
541.399	33467.57
541.764	33553.89
542.129	33786.2
542.494	33806.31
542.858	33997.72
543.223	33923.37
543.587	34254.21
543.952	34315.23
544.316	34306.19
544.681	34375.57
545.045	34615.33
545.41	34795.89
545.774	34795.67
546.138	34995.89
546.503	35043.57
546.867	35094.42
547.231	35498.02
547.595	35385.93
547.959	35549.55
548.324	35721.52
548.688	35764.23
549.052	35884
549.416	35994.96
549.779	36093.49
550.143	36117.21
550.507	36311.79
550.871	36399.24
551.235	36418.9
551.599	36722.85
551.962	36885.33
552.326	36919
552.689	37194.93
553.053	37029.73
553.417	37211.2
553.78	37587.68
554.143	37540.45
554.507	37846.43
554.87	37834.23
555.234	38298.4
555.597	38147.22
555.96	38476.02
556.323	38637.6
556.686	38691.16
557.05	38949.68
557.413	38962.34
557.776	39183.57
558.139	39492.94
558.502	39480.74
558.865	39709.21
559.228	39978.13
559.59	39975.87
559.953	40006.15
560.316	40517.32
560.679	40434.16
561.041	40877.09
561.404	40947.14
561.767	41229.85
562.129	41114.14
562.492	41478.2
562.854	41526.11
563.217	41571.53
563.579	41804.07
563.941	42094.01
564.304	42263.72
564.666	42528.12
565.028	42764.72
565.39	42812.86
565.753	43174.43
566.115	43209.01
566.477	43490.13
566.839	43585.94
567.201	43889.44
567.563	44007.85
567.925	44289.65
568.287	44292.37
568.648	44355.19
569.01	44648.06
569.372	44916.98
569.734	44910.43
570.095	45206.47
570.457	45308.38
570.819	45442.84
571.18	45600.35
571.542	45854.36
571.903	46023.62
572.265	46052.55
572.626	46118.76
572.987	46190.62
573.349	46362.82
573.71	46582.93
574.071	46746.99
574.432	46820.44
574.794	47097.49
575.155	47062.24
575.516	47120.54
575.877	47192.63
576.238	47350.59
576.599	47486.63
576.96	47682.56
577.32	47611.6
577.681	47820.64
578.042	47991.03
578.403	47898.15
578.763	48012.49
579.124	48109.89
579.485	48454.52
579.845	48431.47
580.206	48391.47
580.566	48310.79
580.927	48419.94
581.287	48557.79
581.648	48455.87
582.008	48658.81
582.368	48628.3
582.728	48654.06
583.089	48692.02
583.449	48806.6
583.809	48753.94
584.169	48968.4
584.529	48762.76
584.889	49074.16
585.249	48874.62
585.609	48864.45
585.969	49074.84
586.329	49073.26
586.688	49024.22
587.048	49130.66
587.408	48895.18
587.768	48964.79
588.127	48918.23
588.487	48834.62
588.846	49113.71
589.206	48757.79
589.565	48903.32
589.925	49122.75
590.284	48986.48
590.643	49075.29
591.003	49201.84
591.362	49264.21
591.721	49112.13
592.08	49221.28
592.44	49333.59
592.799	49401.61
593.158	49232.58
593.517	49298.79
593.876	49390.76
594.235	49285
594.593	49323.87
594.952	49464.43
595.311	49360.26
595.67	49391.22
596.029	49697.87
596.387	49686.12
596.746	49624.43
597.104	49497.2
597.463	49521.16
597.822	49713.24
598.18	49566.35
598.538	49560.7
598.897	49721.38
599.255	49417.43
599.613	49981.48
599.972	49747.59
600.33	49862.16
600.688	49788.95
601.046	49860.13
601.404	49991.2
601.762	49956.4
602.12	50056.73
602.478	50103.51
602.836	50135.38
603.194	49915.95
603.552	50020.13
603.91	49947.13
604.268	50140.8
604.625	50006.11
604.983	50048.15
605.341	50012.44
605.698	50171.31
606.056	50242.04
606.413	50121.14
606.771	50249.72
607.128	50411.3
607.485	50261.48
607.843	50451.3
608.2	50546.67
608.557	50535.37
608.914	50585.08
609.272	50670.73
609.629	50817.62
609.986	50883.38
610.343	50748.47
610.7	51028.46
611.057	50884.51
611.414	50777.85
611.771	50834.79
612.127	51109.14
612.484	51010.83
612.841	51123.6
613.198	50979.65
613.554	51178.29
613.911	51236.82
614.267	51234.33
614.624	51203.6
614.98	51151.17
615.337	51463.93
615.693	51283.37
616.05	51256.93
616.406	51506.64
616.762	51289.7
617.118	51320.66
617.475	51366.76
617.831	51517.94
618.187	51489.01
618.543	51476.13
618.899	51652.85
619.255	51661.66
619.611	51573.3
619.967	51668.9
620.323	51746.41
620.678	51584.83
621.034	51497.37
621.39	51465.74
621.746	51369.02
622.101	51712.96
622.457	51450.6
622.812	51604.94
623.168	51651.72
623.523	51605.85
623.879	51677.03
624.234	51575.11
624.589	51536.92
624.945	51713.64
625.3	51706.18
625.655	51684.26
626.01	51675
626.365	51681.55
626.72	51726.52
627.075	51669.8
627.43	51594.77
627.785	51537.15
628.14	51648.33
628.495	51680.42
628.85	51625.73
629.205	51404.95
629.559	51662.34
629.914	51458.73
630.269	51483.82
630.623	51419.86
630.978	51270.94
631.332	51447.21
631.687	51483.82
632.041	51397.94
632.396	51357.72
632.75	51309.58
633.104	51369.69
633.459	51211.96
633.813	51148.91
634.167	51148.01
634.521	51203.15
634.875	51290.37
635.229	51266.65
635.583	51046.99
635.937	51077.95
636.291	51033.66
636.645	50991.85
636.999	50786.43
637.352	50974.68
637.706	50702.37
638.06	50919.76
638.413	50765.19
638.767	50613.78
639.121	50751.41
639.474	50436.61
639.828	50491.53
640.181	50532.65
640.534	50603.84
640.888	50477.29
641.241	50250.85
641.594	50391.87
641.947	50415.37
642.301	50220.57
642.654	50256.05
643.007	50277.52
643.36	50195.71
643.713	50070.75
644.066	50160.01
644.419	49955.95
644.771	49671.21
645.124	49296.3
645.477	49262.41
645.83	48972.02
646.182	48938.35
646.535	48731.12
646.888	48889.99
647.24	48572.03
647.593	48948.29
647.945	48694.51
648.298	48591.01
648.65	48377.46
649.002	48367.51
649.355	48579.71
649.707	48409.32
650.059	48520.96
650.411	48927.95
650.763	49055.63
651.115	49394.15
651.467	49174.95
651.819	49199.36
652.171	49031
652.523	49004.11
652.875	48970.66
653.227	48960.04
653.578	49140.15
653.93	48967.05
654.282	48775.19
654.633	48555.53
654.985	48714.62
655.337	48716.43
655.688	48777.9
656.039	48878.46
656.391	48497.45
656.742	48639.6
657.094	48647.96
657.445	48836.2
657.796	48659.48
658.147	48590.33
658.498	48596.89
658.849	48610.45
659.2	48496.32
659.551	48415.2
659.902	48598.47
660.253	48432.37
660.604	48473.5
660.955	48272.83
661.306	48367.29
661.656	48280.51
662.007	48245.71
662.358	48088.2
662.708	48215.65
663.059	48178.82
663.409	48071.25
663.76	48311.02
664.11	48207.52
664.461	48222.66
664.811	48239.83
665.161	48116.22
665.511	47970.01
665.862	48095.43
666.212	48164.58
666.562	48163.23
666.912	47977.69
667.262	48020.63
667.612	48046.17
667.962	48004.13
668.312	48003
668.662	48172.26
669.011	47921.2
669.361	47980.86
669.711	47788.32
670.06	47816.57
670.41	47698.15
670.76	47648.21
671.109	47728.43
671.459	47791.48
671.808	47648.44
672.157	47696.57
672.507	47456.35
672.856	47421.78
673.205	47553.75
673.554	47697.7
673.904	47462
674.253	47736.57
674.602	47543.58
674.951	46969.58
675.3	46821.11
675.649	47384.04
675.998	47391.04
676.346	47329.12
676.695	47323.93
677.044	46995.57
677.393	47113.76
677.741	47164.38
678.09	46983.6
678.438	47022.24
678.787	46866.31
679.135	46968.68
679.484	46749.93
679.832	46891.85
680.181	46658.18
680.529	46777.5
680.877	46545.87
681.225	46553.55
681.573	46764.17
681.922	46331.41
682.27	46322.14
682.618	46230.62
682.966	46314.69
683.314	46175.25
683.661	46035.37
684.009	45844.87
684.357	45822.27
684.705	45647.81
685.053	45747.02
685.4	45872.89
685.748	45594.25
686.095	45484.88
686.443	45406.24
686.79	45379.34
687.138	45469.06
687.485	45358.33
687.832	45206.24
688.18	45248.73
688.527	45019.35
688.874	44853.93
689.221	44907.27
689.568	44884.67
689.915	44624.11
690.262	44787.04
690.609	44546.37
690.956	44480.38
691.303	44531.91
691.65	44336.89
691.997	44233.16
692.344	43940.96
692.69	44059.83
693.037	44013.5
693.383	43696
693.73	43846.28
694.077	43621.88
694.423	43578.49
694.769	43334.65
695.116	43370.36
695.462	43366.29
695.808	43148.22
696.155	43295.33
696.501	42666.42
696.847	42862.12
697.193	42393.21
697.539	42773.08
697.885	42458.29
698.231	42224.85
698.577	42353.89
698.923	42294
699.269	41889.94
699.614	41875.71
699.96	41761.59
700.306	41726.56
700.651	41498.32
700.997	41388.94
701.342	41346.68
701.688	41298.32
702.033	41155.27
702.379	41195.5
702.724	41027.14
703.069	41063.3
703.415	40644.78
703.76	40607.94
704.105	40700.82
704.45	40501.73
704.795	40325.92
705.14	40263.09
705.485	40262.42
705.83	39977.68
706.175	40067.17
706.52	39896.78
706.865	39676.44
707.209	39625.37
707.554	39575.65
707.899	39693.39
708.243	39338.37
708.588	39320.07
708.932	39310.12
709.277	39001.88
709.621	39061.32
709.966	38738.84
710.31	38839.4
710.654	38510.15
710.998	38487.55
711.342	38592.86
711.687	38642.8
712.031	38317.61
712.375	38288.46
712.719	38347.89
713.063	38466.76
713.407	38384.95
713.75	38036.49
714.094	38094.11
714.438	37953.32
714.782	37979.09
715.125	37667.68
715.469	37865.64
715.812	37581.13
716.156	37394.24
716.499	37477.63
716.843	37480.12
717.186	37320.57
717.53	37503.84
717.873	37565.99
718.216	37208.94
718.559	37173.91
718.902	36847.82
719.246	36914.26
719.589	36825.9
719.932	36723.98
720.275	36727.14
720.617	36578.22
720.96	36655.73
721.303	36559.69
721.646	36606.92
721.989	36218.91
722.331	36514.49
722.674	36330.77
723.016	36359.92
723.359	36165.8
723.701	36142.98
724.044	36015.3
724.386	35830.44
724.729	35983.43
725.071	35920.61
725.413	35866.37
725.755	35677.9
726.097	35559.94
726.439	35383.67
726.782	35420.74
727.124	35576.66
727.465	35432.49
727.807	35204.7
728.149	35180.29
728.491	35169.89
728.833	35255.99
729.175	35013.29
729.516	34975.78
729.858	34952.05
730.199	34896
730.541	34814.65
730.882	34827.98
731.224	34900.75
731.565	34649.46
731.906	34557.93
732.248	34806.06
732.589	34526.97
732.93	34419.86
733.271	34467.09
733.612	34493.75
733.953	34469.35
734.294	34293.53
734.635	34117.27
734.976	34025.97
735.317	34003.82
735.658	34063.93
735.999	33975.8
736.339	33793.89
736.68	33950.27
737.021	33777.61
737.361	33680.89
737.702	33797.5
738.042	33744.62
738.383	33558.41
738.723	33616.71
739.063	33445.87
739.404	33698.52
739.744	33458.08
740.084	33512.08
740.424	33297.18
740.764	33261.7
741.104	33330.62
741.444	33152.55
741.784	33051.98
742.124	32999.1
742.464	32957.07
742.804	33026.67
743.143	32954.36
743.483	32934.02
743.823	32766.57
744.162	32722.28
744.502	32813.12
744.841	32643.86
745.181	32770.86
745.52	32659.68
745.86	32602.28
746.199	32538.1
746.538	32454.49
746.877	32471.66
747.216	32377.2
747.556	32346.69
747.895	32304.43
748.234	32014.05
748.573	32019.02
748.911	32049.07
749.25	31894.95
749.589	31766.37
749.928	31850.89
750.267	31720.95
750.605	31660.38
750.944	31579.48
751.283	31512.82
751.621	31483.89
751.96	31291.8
752.298	31165.71
752.636	31351.46
752.975	31228.53
753.313	31084.58
