Data from aluminium_surface_pro_back_FLMS001491_00032.txt Node
Date: Wed Feb 08 15:33:58 GMT 2017
User: dcchb
Spectrometer: FLMS00149
Trigger mode: 0
Integration Time (sec): 2.000000E-2
Scans to average: 10
Electric dark correction enabled: true
Nonlinearity correction enabled: false
Boxcar width: 0
XAxis mode: Wavelengths
Number of Pixels in Spectrum: 2048
>>>>>Begin Spectral Data<<<<<
341.393	-2.33
341.776	-2.33
342.16	-2.33
342.543	-49.79
342.927	-64.25
343.31	-83.91
343.693	-50.01
344.077	-59.5
344.46	-62.22
344.843	-73.74
345.226	-26.74
345.61	-2.33
345.993	-24.25
346.376	2.42
346.759	13.71
347.142	21.17
347.525	30.44
347.908	53.71
348.291	76.31
348.674	79.93
349.057	105.01
349.44	112.02
349.823	130.77
350.206	182.07
350.588	223.2
350.971	200.83
351.354	246.02
351.737	241.73
352.119	286.93
352.502	270.2
352.884	297.55
353.267	299.58
353.65	306.36
354.032	317.21
354.414	361.05
354.797	336.19
355.179	356.53
355.562	351.56
355.944	337.77
356.326	342.52
356.709	366.7
357.091	375.06
357.473	355.63
357.855	354.95
358.238	375.51
358.62	365.57
359.002	352.24
359.384	363.99
359.766	360.6
360.148	372.12
360.53	366.93
360.912	364.21
361.294	387.26
361.676	353.14
362.057	350.88
362.439	366.47
362.821	368.06
363.203	376.19
363.584	375.29
363.966	377.09
364.348	357.43
364.729	346.81
365.111	349.3
365.493	356.98
365.874	357.66
366.256	370.77
366.637	352.24
367.019	333.25
367.4	352.69
367.781	347.04
368.163	371.22
368.544	380.26
368.925	371.45
369.306	373.48
369.688	365.12
370.069	367.38
370.45	378.68
370.831	367.6
371.212	379.35
371.593	365.34
371.974	389.98
372.355	399.69
372.736	361.5
373.117	368.06
373.498	372.35
373.879	387.94
374.26	394.27
374.641	356.08
375.021	394.04
375.402	376.64
375.783	402.86
376.163	397.21
376.544	392.01
376.925	407.38
377.305	418.22
377.686	392.91
378.066	398.56
378.447	439.47
378.827	427.94
379.208	422.07
379.588	426.58
379.968	393.59
380.349	425.68
380.729	422.29
381.109	390.43
381.489	413.03
381.87	450.99
382.25	437.88
382.63	451.67
383.01	461.61
383.39	454.61
383.77	461.61
384.15	449.18
384.53	480.14
384.91	455.28
385.29	469.75
385.67	480.37
386.049	489.63
386.429	494.83
386.809	475.62
387.189	504.32
387.568	488.28
387.948	508.39
388.328	500.03
388.707	509.97
389.087	508.39
389.466	514.94
389.846	524.89
390.225	532.8
390.605	547.03
390.984	568.95
391.363	559.46
391.743	565.56
392.122	589.07
392.501	566.24
392.881	579.8
393.26	558.33
393.639	589.74
394.018	581.16
394.397	582.74
394.776	601.95
395.155	592.91
395.534	630.42
395.913	611.89
396.292	615.05
396.671	637.65
397.05	641.49
397.429	673.58
397.808	623.87
398.186	667.71
398.565	668.16
398.944	672.23
399.323	690.08
399.701	677.2
400.08	673.58
400.458	689.63
400.837	717.42
401.215	719.46
401.594	734.6
401.972	752.68
402.351	728.72
402.729	750.87
403.107	748.16
403.486	765.33
403.864	785.9
404.242	764.43
404.62	782.96
404.999	791.1
405.377	808.5
405.755	832
406.133	815.28
406.511	817.31
406.889	869.74
407.267	867.48
407.645	882.17
408.023	896.85
408.401	895.95
408.779	926.23
409.156	912.22
409.534	935.5
409.912	935.5
410.29	982.28
410.667	976.17
411.045	982.73
411.422	996.29
411.8	982.28
412.178	992.45
412.555	1040.58
412.933	1054.14
413.31	1062.5
413.687	1090.52
414.065	1082.84
414.442	1089.62
414.819	1116.74
415.197	1121.26
415.574	1133.46
415.951	1149.28
416.328	1143.63
416.705	1173.91
417.082	1172.78
417.46	1198.77
417.837	1201.71
418.214	1221.14
418.591	1225.43
418.967	1222.72
419.344	1225.21
419.721	1264.75
420.098	1258.2
420.475	1299.78
420.852	1294.13
421.228	1342.94
421.605	1322.15
421.982	1363.96
422.358	1333.68
422.735	1368.25
423.111	1354.7
423.488	1409.38
423.864	1448.7
424.241	1430.63
424.617	1445.77
424.994	1449.83
425.37	1472.21
425.746	1484.86
426.123	1496.39
426.499	1522.38
426.875	1493.45
427.251	1556.5
427.627	1605.54
428.003	1607.34
428.379	1601.24
428.756	1617.29
429.132	1651.64
429.507	1689.38
429.883	1714.69
430.259	1729.15
430.635	1758.98
431.011	1770.96
431.387	1811.86
431.763	1864.74
432.138	1827.45
432.514	1877.62
432.89	1898.64
433.265	1914.46
433.641	1973.89
434.016	1992.19
434.392	1999.2
434.767	2036.26
435.143	2010.05
435.518	2076.94
435.894	2071.97
436.269	2134.79
436.644	2158.74
437.02	2128.91
437.395	2170.49
437.77	2189.93
438.145	2207.78
438.52	2249.81
438.895	2283.03
439.271	2292.3
439.646	2339.98
440.021	2353.09
440.395	2380.66
440.77	2361
441.145	2380.66
441.52	2413.88
441.895	2436.7
442.27	2452.07
442.645	2455.91
443.019	2524.38
443.394	2489.81
443.769	2544.72
444.143	2540.2
444.518	2590.37
444.892	2606.19
445.267	2600.31
445.641	2617.49
446.016	2603.02
446.39	2673.31
446.764	2680.54
447.139	2664.04
447.513	2731.83
447.887	2700.42
448.262	2744.94
448.636	2785.39
449.01	2788.56
449.384	2861.1
449.758	2837.37
450.132	2912.85
450.506	2893.19
450.88	2883.24
451.254	2918.04
451.628	2939.51
452.002	3029.91
452.376	3019.74
452.75	3050.24
453.123	3053.63
453.497	3154.42
453.871	3141.77
454.244	3245.27
454.618	3268.09
454.992	3336.34
455.365	3305.83
455.739	3415.88
456.112	3399.84
456.486	3474.87
456.859	3497.69
457.232	3547.18
457.606	3570.68
457.979	3614.98
458.352	3715.76
458.725	3735.65
459.099	3735.88
459.472	3820.85
459.845	3866.49
460.218	3922.54
460.591	3935.42
460.964	3932.71
461.337	4044.57
461.71	4152.36
462.083	4175.64
462.456	4189.42
462.829	4211.34
463.201	4291.79
463.574	4324.56
463.947	4370.21
464.32	4478.46
464.692	4523.88
465.065	4509.42
465.438	4605.68
465.81	4668.96
466.183	4713.93
466.555	4814.49
466.928	4859.69
467.3	4862.63
467.672	4961.61
468.045	5050.19
468.417	5110.08
468.789	5110.76
469.161	5236.4
469.534	5281.37
469.906	5397.08
470.278	5454.25
470.65	5478.66
471.022	5606.11
471.394	5693.56
471.766	5752.32
472.138	5850.17
472.51	5918.19
472.882	6030.28
473.253	6064.18
473.625	6168.35
473.997	6334
474.369	6345.98
474.74	6429.82
475.112	6514.33
475.484	6702.35
475.855	6784.38
476.227	6871.16
476.598	7074.09
476.97	7096.92
477.341	7243.35
477.713	7409.68
478.084	7458.72
478.455	7627.07
478.827	7706.39
479.198	7980.28
479.569	7950.91
479.94	8155.65
480.311	8252.14
480.682	8422.98
481.053	8636.31
481.424	8776.65
481.795	8855.29
482.166	9006.92
482.537	9094.83
482.908	9323.98
483.279	9410.08
483.65	9639.9
484.021	9837.41
484.391	9886.22
484.762	9953.11
485.133	10093.22
485.503	10226.1
485.874	10390.16
486.244	10548.8
486.615	10730.27
486.985	10888.23
487.356	11063.82
487.726	11158.96
488.097	11398.73
488.467	11483.02
488.837	11607.31
489.207	11840.97
489.578	11918.26
489.948	12103.11
490.318	12304.01
490.688	12404.8
491.058	12576.55
491.428	12709.43
491.798	12825.13
492.168	13097.66
492.538	13161.62
492.908	13356.64
493.278	13532
493.648	13555.51
494.017	13713.24
494.387	13860.13
494.757	13949.39
495.126	14077.07
495.496	14223.28
495.866	14338.08
496.235	14480.45
496.605	14663.05
496.974	14748.24
497.344	14864.62
497.713	14975.13
498.082	15046.54
498.452	15235.24
498.821	15286.31
499.19	15327.89
499.559	15517.49
499.928	15625.51
500.298	15801.77
500.667	15840.87
501.036	15957.7
501.405	16081.99
501.774	16081.77
502.143	16238.37
502.512	16385.26
502.88	16590.68
503.249	16634.75
503.618	16763.33
503.987	16808.75
504.356	16954.96
504.724	17089.42
505.093	17209.87
505.462	17242.64
505.83	17352.69
506.199	17596.53
506.567	17772.34
506.936	17853.47
507.304	18048.27
507.672	18180.24
508.041	18303.18
508.409	18355.15
508.777	18540.46
509.145	18676.73
509.514	18667.24
509.882	18890.96
510.25	18917.62
510.618	19091.18
510.986	19144.51
511.354	19411.17
511.722	19555.57
512.09	19700.65
512.458	19775.68
512.826	20056.35
513.193	20034.2
513.561	20118.27
513.929	20221.77
514.297	20432.84
514.664	20642.78
515.032	20854.75
515.4	21003.22
515.767	21022.2
516.135	21147.62
516.502	21102.43
516.869	21544
517.237	21622.86
517.604	21627.84
517.972	21932.01
518.339	22186.24
518.706	22217.88
519.073	22351.21
519.44	22538.32
519.808	22907.35
520.175	22881.59
520.542	23308.7
520.909	23373.55
521.276	23439.99
521.643	23615.35
522.009	23865.29
522.376	24067.32
522.743	24237.94
523.11	24482.45
523.477	24708.66
523.843	24711.14
524.21	25153.39
524.577	25246.27
524.943	25401.3
525.31	25601.06
525.676	25853.71
526.043	25938.23
526.409	26125.34
526.776	26320.14
527.142	26429.52
527.508	26647.59
527.874	26915.38
528.241	27037.41
528.607	27115.15
528.973	27438.3
529.339	27399.89
529.705	27770.95
530.071	27912.64
530.437	28088
530.803	28269.92
531.169	28529.35
531.535	28443.7
531.901	28701.32
532.267	28762.56
532.632	28927.98
532.998	29117.58
533.364	29296.79
533.73	29334.07
534.095	29570.45
534.461	29704.69
534.826	29885.47
535.192	30099.25
535.557	30263.09
535.923	30284.56
536.288	30451.78
536.653	30637.77
537.019	30652
537.384	30776.3
537.749	30901.49
538.114	30903.98
538.479	31166.57
538.845	31271.2
539.21	31284.08
539.575	31456.5
539.94	31585.99
540.305	31743.05
540.67	31692.2
541.034	31859.2
541.399	32045.41
541.764	32043.38
542.129	32239.76
542.494	32224.62
542.858	32455.35
543.223	32585.51
543.587	32804.94
543.952	32725.62
544.316	32976.46
544.681	32866.64
545.045	33189.34
545.41	33284.7
545.774	33493.74
546.138	33491.03
546.503	33557.47
546.867	33664.81
547.231	33913.39
547.595	33897.34
547.959	34092.59
548.324	34139.14
548.688	34037.9
549.052	34360.61
549.416	34468.4
549.779	34523.54
550.143	34601.28
550.507	34874.49
550.871	34997.43
551.235	35030.19
551.599	35222.28
551.962	35319.9
552.326	35507.02
552.689	35620.69
553.053	35552.21
553.417	35655.72
553.78	36234
554.143	36019.32
554.507	36323.04
554.87	36416.6
555.234	36823.82
555.597	36711.51
555.96	36721.22
556.323	37005.96
556.686	37255.22
557.05	37458.15
557.413	37578.15
557.776	37618.83
558.139	37831.7
558.502	37883.23
558.865	38093.39
559.228	38197.57
559.59	38327.96
559.953	38433.72
560.316	38889.08
560.679	38954.84
561.041	39087.49
561.404	39323.42
561.767	39463.52
562.129	39408.16
562.492	40020.57
562.854	39777.64
563.217	39900.12
563.579	40165.65
563.941	40474.12
564.304	40625.08
564.666	40882.7
565.028	41042.47
565.39	41359.52
565.753	41485.39
566.115	41473.19
566.477	41750.47
566.839	41853.07
567.201	42199.5
567.563	42280.63
567.925	42479.94
568.287	42637.68
568.648	42790.44
569.01	43031.11
569.372	43253.26
569.734	43223.2
570.095	43545.9
570.457	43799.46
570.819	43916.74
571.18	44034.48
571.542	44327.58
571.903	44431.53
572.265	44647.57
572.626	44768.92
572.987	44852.54
573.349	45110.83
573.71	45312.64
574.071	45216.14
574.432	45418.62
574.794	45662.91
575.155	45776.13
575.516	45610.71
575.877	45836.24
576.238	45951.72
576.599	46145.38
576.96	46149.68
577.32	46139.06
577.681	46320.52
578.042	46484.36
578.403	46623.79
578.763	46631.02
579.124	46693.16
579.485	46875.53
579.845	46980.61
580.206	46931.58
580.566	47001.18
580.927	47065.81
581.287	47181.29
581.648	47083.66
582.008	47356.88
582.368	47279.82
582.728	47332.24
583.089	47257.67
583.449	47360.27
583.809	47511.9
584.169	47486.59
584.529	47390.55
584.889	47827.82
585.249	47627.6
585.609	47531.33
585.969	47675.51
586.329	47607.27
586.688	47645.46
587.048	47564.1
587.408	47545.12
587.768	47567.94
588.127	47620.37
588.487	47547.83
588.846	47883.87
589.206	47681.39
589.565	47662.86
589.925	47743.08
590.284	47716.87
590.643	47645
591.003	47803.42
591.362	47919.8
591.721	47844.1
592.08	47847.71
592.44	47903.08
592.799	47935.17
593.158	47838.45
593.517	47873.02
593.876	48029.17
594.235	47869.18
594.593	47913.25
594.952	47987.82
595.311	47978.78
595.67	47906.47
596.029	48202.5
596.387	48267.81
596.746	48266
597.104	48043.64
597.463	48108.49
597.822	48269.85
598.18	48100.36
598.538	48149.62
598.897	48280.69
599.255	48042.73
599.613	48586.67
599.972	48344.19
600.33	48484.76
600.688	48272.11
601.046	48375.61
601.404	48558.65
601.762	48551.2
602.12	48711.64
602.478	48713.45
602.836	48692.89
603.194	48643.17
603.552	48613.11
603.91	48616.28
604.268	48637.75
604.625	48582.61
604.983	48839.32
605.341	48710.96
605.698	48841.58
606.056	48868.7
606.413	48715.71
606.771	48841.36
607.128	48860.11
607.485	48788.48
607.843	48917.51
608.2	49107.11
608.557	49150.5
608.914	48944.63
609.272	49168.35
609.629	49237.5
609.986	49497.38
610.343	49040
610.7	49391.63
611.057	49295.81
611.414	49284.74
611.771	49259.65
612.127	49285.19
612.484	49367.67
612.841	49503.26
613.198	49425.3
613.554	49479.53
613.911	49728.57
614.267	49841.33
614.624	49729.7
614.98	49901.67
615.337	49965.85
615.693	49966.98
616.05	49979.18
616.406	50230.25
616.762	49994.77
617.118	49964.27
617.475	50051.04
617.831	50059.86
618.187	50086.07
618.543	50110.48
618.899	50285.84
619.255	50228.67
619.611	50270.02
619.967	50458.26
620.323	50394.08
620.678	50337.36
621.034	50300.75
621.39	50185.28
621.746	50203.36
622.101	50595.21
622.457	50288.32
622.812	50368.1
623.168	50382.79
623.523	50264.14
623.879	50416.23
624.234	50220.3
624.589	50290.58
624.945	50367.19
625.3	50337.59
625.655	50375.33
626.01	50337.59
626.365	50327.65
626.72	50319.74
627.075	50133.3
627.43	50292.17
627.785	50227.76
628.14	50329.23
628.495	50339.62
628.85	50335.33
629.205	50182.34
629.559	50451.48
629.914	50117.48
630.269	50140.31
630.623	50140.08
630.978	50127.2
631.332	50197.93
631.687	50305.5
632.041	49953.87
632.396	50008.56
632.75	49990.93
633.104	50049.23
633.459	49875.23
633.813	49806.53
634.167	49722.69
634.521	49781.45
634.875	49808.56
635.229	49740.09
635.583	49539.87
635.937	49645.63
636.291	49441.57
636.645	49519.31
636.999	49488.57
637.352	49596.82
637.706	49348.01
638.06	49446.54
638.413	49413.55
638.767	49210.84
639.121	49294.9
639.474	49081.8
639.828	49080.67
640.181	49005.42
640.534	49122.48
640.888	48920.9
641.241	48745.54
641.594	48721.59
641.947	48746.22
642.301	48738.08
642.654	48738.99
643.007	48685.65
643.36	48502.61
643.713	48460.58
644.066	48542.38
644.419	48323.63
644.771	48026.24
645.124	47665.12
645.477	47694.27
645.83	47286.14
646.182	47220.38
646.535	47092.48
646.888	47184.68
647.24	46974.74
647.593	47210.21
647.945	47081.63
648.298	46712.15
648.65	46768.42
649.002	46705.82
649.355	46797.12
649.707	46726.84
650.059	47004.34
650.411	47340.61
650.763	47273.04
651.115	47771.55
651.467	47581.28
651.819	47378.34
652.171	47456.08
652.523	47294.73
652.875	47357.1
653.227	47152.14
653.578	47445.91
653.93	47306.93
654.282	47126.83
654.633	46909.88
654.985	47145.81
655.337	47086.6
655.688	47000.05
656.039	47159.14
656.391	46844.8
656.742	46909.43
657.094	46918.7
657.445	46966.6
657.796	46737.68
658.147	46762.99
658.498	46795.99
658.849	46819.94
659.2	46802.77
659.551	46628.08
659.902	46821.52
660.253	46678.7
660.604	46762.77
660.955	46493.62
661.306	46757.57
661.656	46486.62
662.007	46504.24
662.358	46483.9
662.708	46532.49
663.059	46508.76
663.409	46212.05
663.76	46574.52
664.11	46473.51
664.461	46609.78
664.811	46574.75
665.161	46351.25
665.511	46301.31
665.862	46503.57
666.212	46481.87
666.562	46544.92
666.912	46460.85
667.262	46423.57
667.612	46267.64
667.962	46287.98
668.312	46173.86
668.662	46409.1
669.011	46323.68
669.361	46034.65
669.711	46027.65
670.06	45974.77
670.41	45992.39
670.76	45997.14
671.109	46175.44
671.459	46030.13
671.808	46056.8
672.157	46087.98
672.507	45798.95
672.856	45828.78
673.205	45916.91
673.554	46034.43
673.904	45838.5
674.253	45969.12
674.602	45791.72
674.951	45293.88
675.3	45171.62
675.649	45669.24
675.998	45547.66
676.346	45760.31
676.695	45722.79
677.044	45537.04
677.393	45355.35
677.741	45602.57
678.09	45372.3
678.438	45205.52
678.787	45387.44
679.135	45381.79
679.484	45132.08
679.832	45233.54
680.181	45058.18
680.529	45241.23
680.877	45136.82
681.225	45084.17
681.573	45211.4
681.922	44918.07
682.27	44722.6
682.618	44675.59
682.966	44734.12
683.314	44748.36
683.661	44594.46
684.009	44392.89
684.357	44323.74
684.705	44249.61
685.053	44220.46
685.4	44116.51
685.748	43923.75
686.095	43775.05
686.443	43610.76
686.79	43711.1
687.138	43755.16
687.485	43711.32
687.832	43553.36
688.18	43392.69
688.527	43324.21
688.874	43340.71
689.221	43264.1
689.568	43164.22
689.915	42860.05
690.262	43048.29
690.609	42885.81
690.956	42757.45
691.303	42778.01
691.65	42617.79
691.997	42514.97
692.344	42311.36
692.69	42234.75
693.037	42303
693.383	42002.67
693.73	42118.6
694.077	41830.02
694.423	41896.23
694.769	41740.53
695.116	41686.06
695.462	41569.68
695.808	41555.22
696.155	41605.16
696.501	41140.09
696.847	41177.15
697.193	40837.95
697.539	41164.04
697.885	40634.79
698.231	40668.92
698.577	40590.73
698.923	40527
699.269	40261.24
699.614	40138.54
699.96	40198.65
700.306	40144.41
700.651	39862.16
700.997	39716.17
701.342	39737.42
701.688	39591.2
702.033	39555.95
702.379	39254.04
702.724	39266.69
703.069	39267.15
703.415	38975.85
703.76	39007.94
704.105	38940.83
704.45	38736.54
704.795	38485.7
705.14	38419.03
705.485	38384.68
705.83	38110.34
706.175	38279.15
706.52	38140.85
706.865	38021.3
707.209	38004.35
707.554	37790.12
707.899	37940.63
708.243	37707.86
708.588	37679.84
708.932	37477.36
709.277	37485.05
709.621	37266.75
709.966	37187.2
710.31	37335.22
710.654	37010.26
710.998	37106.75
711.342	37022.68
711.687	36991.73
712.031	36819.75
712.375	36707.21
712.719	36784.95
713.063	36521
713.407	36677.38
713.75	36392.64
714.094	36399.42
714.438	36180.45
714.782	36251.86
715.125	36073.33
715.469	36047.8
715.812	35981.58
716.156	35833.34
716.499	35744.3
716.843	35762.83
717.186	35671.99
717.53	35812.1
717.873	35776.62
718.216	35660.46
718.559	35316.74
718.902	35174.6
719.246	35154.49
719.589	35200.13
719.932	35089.85
720.275	34964.89
720.617	34971.89
720.96	34785.68
721.303	34964.21
721.646	34885.57
721.989	34669.75
722.331	34825.23
722.674	34519.25
723.016	34554.05
723.359	34445.8
723.701	34444.9
724.044	34293.26
724.386	34053.95
724.729	34237.9
725.071	34155.19
725.413	33960.17
725.755	33942.09
726.097	33729.89
726.439	33555.43
726.782	33649.21
727.124	33754.75
727.465	33511.36
727.807	33574.19
728.149	33495.32
728.491	33329.45
728.833	33331.93
729.175	33186.18
729.516	33234.76
729.858	33171.49
730.199	33132.17
730.541	33036.57
730.882	33017.37
731.224	33100.98
731.565	32805.17
731.906	32888.78
732.248	32927.2
732.589	32724.04
732.93	32550.49
733.271	32723.59
733.612	32614.44
733.953	32620.99
734.294	32410.6
734.635	32402.92
734.976	32604.27
735.317	32230.72
735.658	32269.59
735.999	32153.66
736.339	31936.94
736.68	32135.36
737.021	32079.99
737.361	31964.51
737.702	31972.87
738.042	31880.67
738.383	31821.69
738.723	31722.71
739.063	31627.8
739.404	31603.17
739.744	31604.52
740.084	31420.12
740.424	31508.71
740.764	31532.21
741.104	31578.31
741.444	31308.71
741.784	31233.01
742.124	31247.24
742.464	31248.15
742.804	31250.41
743.143	31160.92
743.483	31162.73
743.823	30868.95
744.162	30878.44
744.502	30921.38
744.841	30794.37
745.181	30933.35
745.52	30685.45
745.86	30832.79
746.199	30796.41
746.538	30580.37
746.877	30706.47
747.216	30571.78
747.556	30563.19
747.895	30478
748.234	30462.18
748.573	30268.74
748.911	30230.55
749.25	30280.94
749.589	30066.03
749.928	30018.8
750.267	30135.63
750.605	30003.89
750.944	29829.43
751.283	29627.4
751.621	29721.41
751.96	29578.13
752.298	29609.77
752.636	29544.01
752.975	29193.51
753.313	29301.08
753.651	29437.12
