Data from aluminium_surface_pro_back_FLMS001491_00088.txt Node
Date: Wed Feb 08 15:34:40 GMT 2017
User: dcchb
Spectrometer: FLMS00149
Trigger mode: 0
Integration Time (sec): 2.000000E-2
Scans to average: 10
Electric dark correction enabled: true
Nonlinearity correction enabled: false
Boxcar width: 0
XAxis mode: Wavelengths
Number of Pixels in Spectrum: 2048
>>>>>Begin Spectral Data<<<<<
341.393	-15.25
341.776	-15.25
342.16	-15.25
342.543	-34.46
342.927	-72.65
343.31	-65.42
343.693	-71.98
344.077	-69.26
344.46	-58.87
344.843	-47.57
345.226	-39.21
345.61	-46.21
345.993	-28.13
346.376	-8.02
346.759	3.73
347.142	16.61
347.525	34.91
347.908	60.45
348.291	98.42
348.674	106.55
349.057	114.01
349.44	125.31
349.823	151.52
350.206	156.72
350.588	212.08
350.971	238.07
351.354	256.15
351.737	279.65
352.119	287.56
352.502	294.57
352.884	326.66
353.267	328.24
353.65	328.92
354.032	322.82
354.414	360.33
354.797	335.47
355.179	363.27
355.562	352.19
355.944	383.38
356.326	376.83
356.709	378.41
357.091	380.89
357.473	365.08
357.855	391.29
358.238	388.13
358.62	366.43
359.002	370.27
359.384	398.07
359.766	396.49
360.148	360.56
360.53	399.42
360.912	385.19
361.294	375.7
361.676	386.09
362.057	388.8
362.439	363.27
362.821	378.41
363.203	375.02
363.584	356.49
363.966	360.33
364.348	366.66
364.729	379.31
365.111	355.81
365.493	367.33
365.874	379.31
366.256	374.57
366.637	354.91
367.019	372.98
367.4	389.48
367.781	390.16
368.163	386.32
368.544	382.25
368.925	391.06
369.306	418.63
369.688	394
370.069	367.79
370.45	381.57
370.831	364.17
371.212	396.03
371.593	382.25
371.974	395.13
372.355	387
372.736	394.45
373.117	404.4
373.498	402.36
373.879	395.81
374.26	384.74
374.641	372.76
375.021	383.15
375.402	394.68
375.783	414.57
376.163	429.48
376.544	410.27
376.925	427.67
377.305	435.81
377.686	429.25
378.066	436.26
378.447	432.42
378.827	435.81
379.208	463.38
379.588	431.51
379.968	441.01
380.349	451.4
380.729	444.85
381.109	425.41
381.489	446.88
381.87	459.31
382.25	452.08
382.63	468.58
383.01	490.72
383.39	471.51
383.77	490.04
384.15	495.24
384.53	502.92
384.91	499.31
385.29	495.02
385.67	498.18
386.049	530.27
386.429	532.98
386.809	526.43
387.189	526.43
387.568	525.3
387.948	527.56
388.328	533.66
388.707	552.64
389.087	540.44
389.466	542.25
389.846	561.91
390.225	569.59
390.605	565.52
390.984	574.11
391.363	600.55
391.743	607.55
392.122	608.23
392.501	610.72
392.881	622.7
393.26	618.63
393.639	623.6
394.018	620.44
394.397	638.51
394.776	660.43
395.155	641.23
395.534	643.03
395.913	685.74
396.292	654.79
396.671	677.16
397.05	694.56
397.429	678.29
397.808	700.21
398.186	697.72
398.565	703.6
398.944	713.09
399.323	709.25
399.701	703.15
400.08	746.31
400.458	738.85
400.837	772.75
401.215	766.87
401.594	782.01
401.972	801.67
402.351	772.52
402.729	805.97
403.107	796.25
403.486	823.59
403.864	838.51
404.242	838.06
404.62	877.38
404.999	862.24
405.377	875.34
405.755	873.76
406.133	881.45
406.511	901.78
406.889	918.96
407.267	921.9
407.645	940.88
408.023	972.74
408.401	975.23
408.779	955.34
409.156	993.99
409.534	1003.25
409.912	1016.36
410.29	1036.02
410.667	1065.62
411.045	1036.47
411.422	1055.45
411.8	1073.53
412.178	1118.28
412.555	1103.59
412.933	1116.92
413.31	1139.29
413.687	1167.31
414.065	1197.37
414.442	1184.49
414.819	1184.49
415.197	1232.17
415.574	1254.54
415.951	1215.22
416.328	1245.28
416.705	1260.19
417.082	1282.79
417.46	1303.58
417.837	1327.54
418.214	1304.49
418.591	1336.12
418.967	1375.9
419.344	1388.78
419.721	1387.2
420.098	1395.1
420.475	1408.44
420.852	1439.85
421.228	1446.85
421.605	1425.84
421.982	1471.71
422.358	1477.59
422.735	1483.01
423.111	1504.71
423.488	1509.68
423.864	1554.87
424.241	1558.49
424.617	1578.83
424.994	1577.7
425.37	1584.48
425.746	1610.92
426.123	1644.82
426.499	1659.73
426.875	1679.62
427.251	1717.58
427.627	1749.45
428.003	1783.57
428.379	1780.63
428.756	1800.07
429.132	1818.6
429.507	1826.28
429.883	1858.82
430.259	1860.18
430.635	1906.5
431.011	1942.43
431.387	1981.53
431.763	1973.39
432.138	2029.44
432.514	2057.01
432.89	2060.62
433.265	2096.1
433.641	2126.84
434.016	2161.86
434.392	2209.09
434.767	2230.34
435.143	2258.58
435.518	2246.38
435.894	2302.2
436.269	2316.44
436.644	2355.98
437.02	2377
437.395	2373.61
437.77	2397.79
438.145	2473.72
438.52	2475.98
438.895	2504.23
439.271	2514.85
439.646	2550.33
440.021	2572.7
440.395	2601.85
440.77	2612.47
441.145	2630.55
441.52	2659.25
441.895	2686.37
442.27	2709.19
442.645	2725.01
443.019	2787.84
443.394	2789.19
443.769	2793.49
444.143	2771.11
444.518	2867.38
444.892	2867.16
445.267	2862.18
445.641	2889.75
446.016	2926.82
446.39	2946.48
446.764	2940.83
447.139	2956.19
447.513	2983.99
447.887	3058.79
448.262	3034.84
448.636	3025.8
449.01	3077.77
449.384	3106.02
449.758	3143.99
450.132	3174.04
450.506	3173.81
450.88	3168.17
451.254	3196.64
451.628	3278.22
452.002	3299.24
452.376	3348.27
452.75	3418.33
453.123	3392.57
453.497	3491.32
453.871	3475.95
454.244	3547.59
454.618	3597.53
454.992	3633.01
455.365	3630.75
455.739	3740.58
456.112	3757.3
456.486	3798.88
456.859	3842.5
457.232	3932.21
457.606	3941.48
457.979	3972.66
458.352	4063.73
458.725	4119.33
459.099	4153
459.472	4210.62
459.845	4272.09
460.218	4310.96
460.591	4313.45
460.964	4332.65
461.337	4456.27
461.71	4508.7
462.083	4613.55
462.456	4603.83
462.829	4644.51
463.201	4710.72
463.574	4751.63
463.947	4817.39
464.32	4894.45
464.692	4965.86
465.065	5008.57
465.438	5105.06
465.81	5173.08
466.183	5204.04
466.555	5362.68
466.928	5347.99
467.3	5349.58
467.672	5406.07
468.045	5629.8
468.417	5643.13
468.789	5649
469.161	5753.18
469.534	5846.51
469.906	5971.93
470.278	6002.44
470.65	6091.93
471.022	6200.4
471.394	6281.08
471.766	6317.69
472.138	6410.57
472.51	6562.43
472.882	6712.7
473.253	6771.01
473.625	6868.18
473.997	7033.37
474.369	7017.56
474.74	7191.79
475.112	7288.06
475.484	7339.13
475.855	7539.35
476.227	7718.55
476.598	7806.24
476.97	7923.29
477.341	8150.41
477.713	8249.39
478.084	8261.36
478.455	8522.15
478.827	8603.73
479.198	8882.82
479.569	8877.85
479.94	9121
480.311	9190.83
480.682	9412.97
481.053	9570.93
481.424	9786.3
481.795	9883.02
482.166	10119.39
482.537	10137.47
482.908	10399.84
483.279	10533.4
483.65	10753.95
484.021	10946.27
484.391	11034.63
484.762	11119.14
485.133	11281.4
485.503	11495.18
485.874	11639.35
486.244	11837.09
486.615	12073.24
486.985	12217.64
487.356	12385.32
487.726	12544.42
488.097	12884.97
488.467	12887.68
488.837	13111.63
489.207	13398.4
489.578	13509.59
489.948	13550.49
490.318	13902.8
490.688	13763.37
491.058	14154.54
491.428	14356.8
491.798	14476.12
492.168	14747.3
492.538	14803.79
492.908	14970.11
493.278	15188.19
493.648	15234.51
494.017	15498.01
494.387	15547.05
494.757	15658.91
495.126	15929.86
495.496	15959.47
495.866	16103.42
496.235	16257.99
496.605	16446.46
496.974	16556.97
497.344	16673.57
497.713	16762.61
498.082	16881.93
498.452	17144.07
498.821	17297.06
499.19	17283.05
499.559	17534.79
499.928	17683.26
500.298	17696.6
500.667	17912.41
501.036	17889.81
501.405	18153.99
501.774	18160.54
502.143	18434.88
502.512	18474.2
502.88	18654.99
503.249	18717.13
503.618	18828.77
503.987	18901.08
504.356	19058.59
504.724	19053.4
505.093	19270.34
505.462	19336.33
505.83	19539.71
506.199	19706.71
506.567	19951.23
506.936	19972.24
507.304	20195.97
507.672	20239.81
508.041	20384.89
508.409	20577.2
508.777	20799.34
509.145	20977.19
509.514	21051.31
509.882	21119.11
510.25	21244.3
510.618	21535.59
510.986	21615.82
511.354	21751.63
511.722	22011.51
512.09	22251.05
512.458	22122.7
512.826	22507.54
513.193	22610.14
513.561	22719.29
513.929	22837.03
514.297	22999.51
514.664	23241.76
515.032	23253.74
515.4	23523.34
515.767	23728.53
516.135	23881.97
516.502	23768.3
516.869	24369.19
517.237	24338.23
517.604	24474.5
517.972	24846.69
518.339	24849.18
518.706	24895.96
519.073	25164.2
519.44	25298.66
519.808	25520.8
520.175	25672.88
520.542	26017.51
520.909	26166.43
521.276	26232.87
521.643	26521.45
522.009	26760.09
522.376	26926.18
522.743	27064.26
523.11	27424.93
523.477	27783.79
523.843	27863.34
524.21	28050
524.577	28286.37
524.943	28527.95
525.31	28734.95
525.676	28996.64
526.043	29250.19
526.409	29287.25
526.776	29626.68
527.142	29808.37
527.508	30012.21
527.874	30194.35
528.241	30306.89
528.607	30572.64
528.973	30850.6
529.339	30929.02
529.705	31167.66
530.071	31473.41
530.437	31534.2
530.803	31821.2
531.169	32029.55
531.535	31997.24
531.901	32178.7
532.267	32254.18
532.632	32702.53
532.998	32724
533.364	32849.64
533.73	32905.24
534.095	33199.69
534.461	33484.88
534.826	33619.57
535.192	33722.16
535.557	34098.2
535.923	34023.63
536.288	34077.86
536.653	34302.49
537.019	34322.83
537.384	34482.6
537.749	34652.54
538.114	34895.01
538.479	34856.6
538.845	35066.31
539.21	34972.53
539.575	35196.7
539.94	35269.69
540.305	35398.96
540.67	35476.92
541.034	35680.3
541.399	35873.75
541.764	35929.34
542.129	35978.15
542.494	36204.58
542.858	36232.15
543.223	36316.9
543.587	36595.76
543.952	36507.18
544.316	36711.92
544.681	36719.15
545.045	37007.95
545.41	37152.36
545.774	37220.15
546.138	37266.93
546.503	37372.46
546.867	37534.72
547.231	37941.94
547.595	37834.37
547.959	38074.59
548.324	38205.89
548.688	38369.27
549.052	38463.51
549.416	38486.11
549.779	38608.36
550.143	38701.92
550.507	39115.02
550.871	39043.15
551.235	39015.36
551.599	39403.6
551.962	39338.97
552.326	39459.41
552.689	39715.23
553.053	39490.6
553.417	39691.5
553.78	40183.69
554.143	40059.17
554.507	40160.41
554.87	40405.38
555.234	40808.76
555.597	40651.25
555.96	40808.31
556.323	41083.33
556.686	41046.94
557.05	41386.82
557.413	41495.07
557.776	41557.89
558.139	41875.85
558.502	41937.77
558.865	41991.33
559.228	42507.7
559.59	42440.35
559.953	42631.08
560.316	43050.51
560.679	43154.46
561.041	43426.99
561.404	43561.68
561.767	43811.16
562.129	43715.57
562.492	44049.8
562.854	44060.2
563.217	44198.5
563.579	44426.06
563.941	44724.59
564.304	44960.06
564.666	45193.27
565.028	45284.8
565.39	45446.6
565.753	45689.08
566.115	45940.15
566.477	45995.51
566.839	46136.3
567.201	46470.76
567.563	46501.49
567.925	46692.44
568.287	46774.93
568.648	46906.45
569.01	47142.83
569.372	47540.11
569.734	47381.01
570.095	47680.89
570.457	47811.74
570.819	47990.26
571.18	47971.51
571.542	48171.73
571.903	48277.26
572.265	48619.4
572.626	48701.43
572.987	48762.9
573.349	48867.3
573.71	48984.59
574.071	49127.86
574.432	49179.16
574.794	49517.23
575.155	49521.97
575.516	49359.95
575.877	49727.39
576.238	49757.45
576.599	49833.38
576.96	49838.12
577.32	49867.28
577.681	50103.2
578.042	50240.83
578.403	50337.77
578.763	50265.46
579.124	50363.08
579.485	50603.3
579.845	50608.05
580.206	50566.24
580.566	50683.07
580.927	50596.07
581.287	50786.8
581.648	50810.75
582.008	50888.49
582.368	50849.85
582.728	50891.66
583.089	50796.97
583.449	50996.29
583.809	50933.46
584.169	50979.11
584.529	51102.27
584.889	51261.59
585.249	51168.94
585.609	51074.02
585.969	51323.96
586.329	51170.29
586.688	51242.16
587.048	51239.67
587.408	51182.27
587.768	51180.24
588.127	51310.18
588.487	51120.35
588.846	51444.41
589.206	51207.81
589.565	51166.9
589.925	51311.76
590.284	51262.72
590.643	51329.38
591.003	51362.15
591.362	51441.47
591.721	51349.95
592.08	51386.78
592.44	51350.85
592.799	51507.46
593.158	51434.69
593.517	51372.55
593.876	51488.93
594.235	51335.26
594.593	51450.06
594.952	51569.15
595.311	51424.07
595.67	51638.98
596.029	51719.88
596.387	51676.04
596.746	51718.75
597.104	51605.76
597.463	51629.94
597.822	51791.52
598.18	51551.07
598.538	51539.77
598.897	51849.82
599.255	51523.96
599.613	52158.97
599.972	51867.45
600.33	51848.02
600.688	51877.84
601.046	51929.6
601.404	52004.62
601.762	51991.51
602.12	52142.92
602.478	52173.43
602.836	52228.12
603.194	51966.43
603.552	52081
603.91	51975.47
604.268	52208.68
604.625	51998.97
604.983	52191.96
605.341	52052.98
605.698	52212.53
606.056	52327.32
606.413	52261.11
606.771	52272.64
607.128	52415.91
607.485	52173.66
607.843	52251.39
608.2	52446.64
608.557	52575
608.914	52465.85
609.272	52675.56
609.629	52611.84
609.986	52720.53
610.343	52599.63
610.7	52818.84
611.057	52757.37
611.414	52727.54
611.771	52811.38
612.127	52868.78
612.484	52886.18
612.841	53043.69
613.198	52933.18
613.554	53002.79
613.911	53115.78
614.267	53136.12
614.624	53113.29
614.98	53111.48
615.337	53329.11
615.693	53287.3
616.05	53311.25
616.406	53360.07
616.762	53280.29
617.118	53281.65
617.475	53273.51
617.831	53293.4
618.187	53294.98
618.543	53378.14
618.899	53454.75
619.255	53435.54
619.611	53494.53
619.967	53541.53
620.323	53568.87
620.678	53460.4
621.034	53498.59
621.39	53448.65
621.746	53461.53
622.101	53756.44
622.457	53458.37
622.812	53527.52
623.168	53688.19
623.523	53687.29
623.879	53820.62
624.234	53680.74
624.589	53799.6
624.945	53769.77
625.3	53779.72
625.655	53691.81
626.01	53819.04
626.365	53726.38
626.72	53666.05
627.075	53705.37
627.43	53653.62
627.785	53519.16
628.14	53778.13
628.495	53686.16
628.85	53673.28
629.205	53605.48
629.559	53766.61
629.914	53584.01
630.269	53601.19
630.623	53552.6
630.978	53481.64
631.332	53612.04
631.687	53726.84
632.041	53499.5
632.396	53524.81
632.75	53354.87
633.104	53416.56
633.459	53323.23
633.813	53327.98
634.167	53324.81
634.521	53308.54
634.875	53312.84
635.229	53279.62
635.583	53028.32
635.937	53078.04
636.291	52946.97
636.645	52942
636.999	52847.54
637.352	52890.02
637.706	52660.65
638.06	52773.19
638.413	52666.52
638.767	52621.33
639.121	52670.82
639.474	52442.35
639.828	52439.64
640.181	52387.89
640.534	52398.74
640.888	52365.06
641.241	52183.6
641.594	52323.93
641.947	52333.2
642.301	52284.16
642.654	52303.6
643.007	52272.18
643.36	52278.96
643.713	52076.71
644.066	52229.7
644.419	52036.71
644.771	51834.68
645.124	51584.29
645.477	51575.93
645.83	51275.37
646.182	51211.65
646.535	51060.92
646.888	51091.42
647.24	51016.62
647.593	51112.89
647.945	51031.54
648.298	50823.86
648.65	50771.21
649.002	50673.58
649.355	50714.49
649.707	50695.96
650.059	50828.38
650.411	51214.59
650.763	51251.19
651.115	51581.81
651.467	51420.68
651.819	51433.34
652.171	51346.56
652.523	51263.62
652.875	51182.5
653.227	51133.01
653.578	51284.41
653.93	51281.25
654.282	51148.37
654.633	50933.91
654.985	51024.08
655.337	51141.82
655.688	50876.29
656.039	51227.47
656.391	50892.33
656.742	50933.46
657.094	50997.64
657.445	51086
657.796	50972.56
658.147	50814.37
658.498	50813.01
658.849	50745.45
659.2	50771.21
659.551	50601.72
659.902	50710.87
660.253	50662.51
660.604	50668.61
660.955	50533.25
661.306	50584.55
661.656	50512.91
662.007	50557.43
662.358	50507.94
662.708	50500.93
663.059	50471.33
663.409	50244.89
663.76	50590.42
664.11	50476.07
664.461	50488.5
664.811	50417.09
665.161	50313.14
665.511	50211.45
665.862	50260.26
666.212	50481.5
666.562	50455.96
666.912	50323.99
667.262	50232.24
667.612	50181.17
667.962	50251.67
668.312	50190.88
668.662	50386.58
669.011	50277.44
669.361	50216.42
669.711	50140.49
670.06	50073.6
670.41	49932.13
670.76	49967.84
671.109	50119.47
671.459	49922.87
671.808	49950.21
672.157	49961.29
672.507	49902.3
672.856	49852.14
673.205	49896.65
673.554	49995.18
673.904	49888.74
674.253	49921.51
674.602	49883.1
674.951	49255.54
675.3	49191.59
675.649	49835.64
675.998	49783.44
676.346	49815.07
676.695	49836.09
677.044	49514.97
677.393	49726.49
677.741	49615.08
678.09	49631.8
678.438	49543.67
678.787	49599.49
679.135	49561.52
679.484	49299.61
679.832	49380.96
680.181	49300.29
680.529	49428.87
680.877	49206.95
681.225	49131.7
681.573	49317.23
681.922	49045.6
682.27	48996.34
682.618	48951.59
682.966	48785.72
683.314	48962.44
683.661	48809.68
684.009	48571.72
684.357	48461.66
684.705	48465.28
685.053	48441.78
685.4	48410.59
685.748	48227.32
686.095	48013.54
686.443	48023.03
686.79	47902.36
687.138	48030.04
687.485	48025.29
687.832	47819.42
688.18	47955.91
688.527	47689.25
688.874	47686.99
689.221	47664.4
689.568	47463.72
689.915	47453.1
690.262	47275.25
690.609	47245.88
690.956	47048.82
691.303	47028.93
691.65	46942.38
691.997	46693.12
692.344	46543.52
692.69	46616.51
693.037	46620.36
693.383	46253.59
693.73	46400.02
694.077	46077.77
694.423	46120.93
694.769	45996.42
695.116	45866.03
695.462	45862.18
695.808	45653.15
696.155	45665.58
696.501	45491.35
696.847	45535.64
697.193	45158.25
697.539	45366.38
697.885	44963.9
698.231	44907.86
698.577	44760.74
698.923	44793.51
699.269	44499.51
699.614	44379.51
699.96	44239.85
700.306	44307.2
700.651	44097.03
700.997	43866.76
701.342	43917.15
701.688	43943.59
702.033	43670.6
702.379	43682.13
702.724	43577.5
703.069	43525.07
703.415	42999.89
703.76	43224.51
704.105	43258.41
704.45	43102.71
704.795	42851.19
705.14	42763.51
705.485	42782.26
705.83	42455.04
706.175	42659.78
706.52	42476.28
706.865	42266.8
707.209	42235.61
707.554	42087.14
707.899	42126.24
708.243	41930.31
708.588	41939.58
708.932	41669.53
709.277	41690.99
709.621	41651
709.966	41319.7
710.31	41418.23
710.654	41205.36
710.998	41156.32
711.342	41133.49
711.687	40919.26
712.031	40835.42
712.375	40686.05
712.719	40715.43
713.063	40690.57
713.407	40680.85
713.75	40411.48
714.094	40533.28
714.438	40340.07
714.782	40202.22
715.125	40097.59
715.469	40090.36
715.812	39988.89
716.156	39787.32
716.499	39779.63
716.843	39840.65
717.186	39599.75
717.53	39743.25
717.873	39566.3
718.216	39444.05
718.559	39326.31
718.902	39117.28
719.246	39238.4
719.589	39128.58
719.932	39162.93
720.275	39011.52
720.617	39054.68
720.96	38846.32
721.303	38822.37
721.646	38978.07
721.989	38694.24
722.331	38707.8
722.674	38447.46
723.016	38540.79
723.359	38435.26
723.701	38502.38
724.044	38157.53
724.386	37891.55
724.729	38186.23
725.071	37982.17
725.413	38061.03
725.755	38049.96
726.097	37761.15
726.439	37635.51
726.782	37627.6
727.124	37806.35
727.465	37552.57
727.807	37478.9
728.149	37425.34
728.491	37268.96
728.833	37333.59
729.175	37292.47
729.516	37130.21
729.858	37132.02
730.199	37064
730.541	36990.55
730.882	37042.75
731.224	37006.82
731.565	36741.29
731.906	36671.69
732.248	36709.88
732.589	36424.01
732.93	36284.36
733.271	36384.47
733.612	36365.26
733.953	36379.04
734.294	36269.22
734.635	36145.6
734.976	36189.22
735.317	36075.1
735.658	35964.82
735.999	35905.38
736.339	35892.28
736.68	36030.35
737.021	35903.35
737.361	35674.2
737.702	35753.52
738.042	35686.41
738.383	35506.3
738.723	35601.21
739.063	35241.45
739.404	35412.97
739.744	35474.89
740.084	35177.95
740.424	35195.12
740.764	35097.95
741.104	35189.24
741.444	34972.53
741.784	34942.47
742.124	34965.97
742.464	34885.52
742.804	34726.66
743.143	34694.79
743.483	34734.57
743.823	34577.96
744.162	34470.62
744.502	34584.74
744.841	34298.65
745.181	34327.57
745.52	34268.14
745.86	34270.17
746.199	34291.19
746.538	34082.61
746.877	33969.62
747.216	34092.55
747.556	33961.48
747.895	33869.96
748.234	33868.15
748.573	33739.79
748.911	33712.9
749.25	33650.75
749.589	33529.17
749.928	33490.53
750.267	33567.37
750.605	33267.03
750.944	33321.27
751.283	33205.12
751.621	33202.86
751.96	33100.94
752.298	32927.61
752.636	33158.79
752.975	33003.31
