Data from aluminium_surface_pro_back_FLMS001491_00075.txt Node
Date: Wed Feb 08 15:34:31 GMT 2017
User: dcchb
Spectrometer: FLMS00149
Trigger mode: 0
Integration Time (sec): 2.000000E-2
Scans to average: 10
Electric dark correction enabled: true
Nonlinearity correction enabled: false
Boxcar width: 0
XAxis mode: Wavelengths
Number of Pixels in Spectrum: 2048
>>>>>Begin Spectral Data<<<<<
341.393	-18.86
341.776	-18.86
342.16	-18.86
342.543	-48.23
342.927	-74
343.31	-67.67
343.693	-53.43
344.077	-69.7
344.46	-65.86
344.843	-67.67
345.226	-42.13
345.61	-33.09
345.993	-20.89
346.376	-1.23
346.759	4.87
347.142	34.7
347.525	29.28
347.908	63.63
348.291	65.89
348.674	97.53
349.057	125.77
349.44	130.07
349.823	165.32
350.206	175.94
350.588	212.32
350.971	230.63
351.354	260.01
351.737	273.57
352.119	281.02
352.502	289.61
352.884	288.48
353.267	320.8
353.65	312.89
354.032	307.24
354.414	318.54
354.797	343.85
355.179	339.55
355.562	342.72
355.944	369.16
356.326	362.6
356.709	349.5
357.091	382.04
357.473	365.54
357.855	372.55
358.238	357.18
358.62	379.33
359.002	374.81
359.384	363.73
359.766	370.29
360.148	382.72
360.53	375.48
360.912	363.28
361.294	361.7
361.676	385.65
362.057	359.67
362.439	366.45
362.821	369.83
363.203	361.02
363.584	352.89
363.966	359.67
364.348	354.47
364.729	361.25
365.111	384.3
365.493	382.26
365.874	349.27
366.256	349.5
366.637	376.61
367.019	374.58
367.4	365.77
367.781	368.25
368.163	358.99
368.544	352.89
368.925	385.65
369.306	375.94
369.688	375.94
370.069	369.61
370.45	365.32
370.831	380
371.212	389.72
371.593	378.87
371.974	373.45
372.355	347.91
372.736	375.48
373.117	399.44
373.498	379.55
373.879	387.69
374.26	379.1
374.641	387.91
375.021	377.74
375.402	396.95
375.783	389.27
376.163	417.07
376.544	429.72
376.925	425.65
377.305	449.15
377.686	433.34
378.066	416.39
378.447	446.9
378.827	418.87
379.208	441.7
379.588	436.95
379.968	420.46
380.349	431.98
380.729	450.96
381.109	451.41
381.489	470.85
381.87	464.75
382.25	477.85
382.63	474.24
383.01	464.97
383.39	453
383.77	493
384.15	481.92
384.53	508.59
384.91	473.11
385.29	478.98
385.67	482.37
386.049	528.02
386.429	518.76
386.809	509.49
387.189	515.82
387.568	521.7
387.948	531.64
388.328	523.28
388.707	540
389.087	537.51
389.466	562.15
389.846	554.24
390.225	550.4
390.605	590.17
390.984	568.02
391.363	590.17
391.743	584.07
392.122	578.87
392.501	599.21
392.881	612.99
393.26	620.22
393.639	624.97
394.018	633.33
394.397	632.65
394.776	652.31
395.155	644.63
395.534	656.83
395.913	663.39
396.292	654.12
396.671	683.27
397.05	674.23
397.429	673.56
397.808	692.09
398.186	697.74
398.565	698.64
398.944	707.91
399.323	730.28
399.701	747.68
400.08	736.15
400.458	739.54
400.837	766.21
401.215	774.8
401.594	759.2
401.972	777.06
402.351	784.74
402.729	813.44
403.107	824.29
403.486	819.54
403.864	805.3
404.242	849.14
404.62	856.6
404.999	852.76
405.377	878.3
405.755	878.3
406.133	883.04
406.511	897.28
406.889	918.75
407.267	946.09
407.645	934.79
408.023	923.72
408.401	954
408.779	954.9
409.156	981.8
409.534	976.15
409.912	1020.89
410.29	1004.85
410.667	1022.47
411.045	1082.58
411.422	1060.66
411.8	1066.31
412.178	1084.84
412.555	1086.65
412.933	1094.34
413.31	1156.25
413.687	1152.87
414.065	1144.96
414.442	1158.97
414.819	1198.74
415.197	1189.93
415.574	1226.99
415.951	1254.33
416.328	1246.65
416.705	1237.83
417.082	1259.53
417.46	1273.54
417.837	1285.52
418.214	1298.62
418.591	1342.01
418.967	1321
419.344	1328.23
419.721	1335.91
420.098	1361.45
420.475	1373.65
420.852	1387.89
421.228	1397.15
421.605	1423.82
421.982	1457.49
422.358	1444.61
422.735	1479.41
423.111	1471.95
423.488	1513.53
423.864	1535.68
424.241	1562.12
424.617	1551.5
424.994	1560.76
425.37	1553.31
425.746	1572.29
426.123	1597.15
426.499	1637.82
426.875	1627.43
427.251	1675.34
427.627	1713.75
428.003	1723.7
428.379	1737.71
428.756	1765.73
429.132	1769.12
429.507	1803.92
429.883	1822
430.259	1836.46
430.635	1873.98
431.011	1880.76
431.387	1930.92
431.763	1975.89
432.138	1974.99
432.514	1984.48
432.89	2056.12
433.265	2075.78
433.641	2130.47
434.016	2088.66
434.392	2144.03
434.767	2182.22
435.143	2152.84
435.518	2218.83
435.894	2236
436.269	2277.58
436.644	2300.18
437.02	2335.88
437.395	2332.5
437.77	2402.55
438.145	2412.04
438.52	2452.94
438.895	2433.96
439.271	2451.59
439.646	2519.83
440.021	2530
440.395	2534.07
440.77	2520.96
441.145	2595.54
441.52	2599.83
441.895	2599.83
442.27	2631.02
442.645	2650.9
443.019	2694.97
443.394	2687.51
443.769	2672.37
444.143	2749.89
444.518	2765.7
444.892	2748.53
445.267	2777.91
445.641	2829.21
446.016	2833.27
446.39	2882.99
446.764	2861.75
447.139	2871.69
447.513	2896.1
447.887	2925.7
448.262	2948.07
448.636	2959.82
449.01	3042.53
449.384	3065.81
449.758	3057
450.132	3083.66
450.506	3114.4
450.88	3124.11
451.254	3124.79
451.628	3168.41
452.002	3204.79
452.376	3254.96
452.75	3269.19
453.123	3299.25
453.497	3374.5
453.871	3390.55
454.244	3473.71
454.618	3453.82
454.992	3525.91
455.365	3554.84
455.739	3625.34
456.112	3635.96
456.486	3696.75
456.859	3721.61
457.232	3790.08
457.606	3775.62
457.979	3816.98
458.352	3906.47
458.725	4000.25
459.099	4026.46
459.472	4115.27
459.845	4111.88
460.218	4175.61
460.591	4228.26
460.964	4209.28
461.337	4310.07
461.71	4355.49
462.083	4443.17
462.456	4494.92
462.829	4465.77
463.201	4564.3
463.574	4625.32
463.947	4678.2
464.32	4770.4
464.692	4787.8
465.065	4827.12
465.438	4898.98
465.81	4957.51
466.183	5066.66
466.555	5193.89
466.928	5177.84
467.3	5193.44
467.672	5262.36
468.045	5413.32
468.417	5462.58
468.789	5509.59
469.161	5530.6
469.534	5664.38
469.906	5761.56
470.278	5822.57
470.65	5811.95
471.022	5967.43
471.394	6072.28
471.766	6178.27
472.138	6186.63
472.51	6312.28
472.882	6427.3
473.253	6507.3
473.625	6646.96
473.997	6756.33
474.369	6803.56
474.74	6883.34
475.112	7013.95
475.484	7123.33
475.855	7286.94
476.227	7291.69
476.598	7556.76
476.97	7589.98
477.341	7775.52
477.713	7893.93
478.084	7975.28
478.455	8163.08
478.827	8232
479.198	8478.32
479.569	8519.9
479.94	8751.31
480.311	8840.12
480.682	8981.59
481.053	9250.51
481.424	9397.17
481.795	9488.47
482.166	9593.1
482.537	9654.79
482.908	9904.05
483.279	10035.57
483.65	10178.16
484.021	10464.48
484.391	10556.91
484.762	10626.74
485.133	10715.55
485.503	10920.29
485.874	11141.53
486.244	11251.13
486.615	11486.15
486.985	11673.94
487.356	11800.04
487.726	11919.14
488.097	12232.57
488.467	12302.85
488.837	12536.52
489.207	12701.04
489.578	12817.64
489.948	12943.29
490.318	13128.37
490.688	13198.42
491.058	13440
491.428	13581.24
491.798	13741.23
492.168	13974.9
492.538	14136.03
492.908	14251.73
493.278	14414.44
493.648	14394.78
494.017	14612.17
494.387	14788.44
494.757	14857.14
495.126	15103.91
495.496	15143.01
495.866	15394.07
496.235	15506.61
496.605	15595.88
496.974	15700.96
497.344	15875.64
497.713	16025.47
498.082	16130.78
498.452	16284.22
498.821	16420.71
499.19	16490.54
499.559	16659.58
499.928	16730.53
500.298	16901.15
500.667	17115.38
501.036	17117.64
501.405	17333.68
501.774	17308.37
502.143	17525.32
502.512	17580.46
502.88	17780
503.249	17737.97
503.618	17939.32
503.987	18053.44
504.356	18129.82
504.724	18216.6
505.093	18372.98
505.462	18464.95
505.83	18647.55
506.199	18716.47
506.567	19059.06
506.936	19077.82
507.304	19248.89
507.672	19343.12
508.041	19508.09
508.409	19704.69
508.777	19796.44
509.145	20032.37
509.514	20035.31
509.882	20177.68
510.25	20254.51
510.618	20353.94
510.986	20478.01
511.354	20783.08
511.722	20839.35
512.09	21117.76
512.458	20994.38
512.826	21436.63
513.193	21466.68
513.561	21575.38
513.929	21780.12
514.297	22027.57
514.664	22253.78
515.032	22391.4
515.4	22475.92
515.767	22563.83
516.135	22867.32
516.502	22696.71
516.869	23223.92
517.237	23432.28
517.604	23300.08
517.972	23624.14
518.339	23736.23
518.706	23900.06
519.073	24053.51
519.44	24251.47
519.808	24397.23
520.175	24512.25
520.542	24858.46
520.909	24975.06
521.276	25062.52
521.643	25311.78
522.009	25457.54
522.376	25750.86
522.743	25876.51
523.11	26285.31
523.477	26456.38
523.843	26463.61
524.21	26948.57
524.577	27012.52
524.943	27172.07
525.31	27363.02
525.676	27771.6
526.043	27867.19
526.409	28082.33
526.776	28228.76
527.142	28447.29
527.508	28567.96
527.874	28869.42
528.241	28878.92
528.607	29047.5
528.973	29332.92
529.339	29317.1
529.705	29663.08
530.071	29769.06
530.437	30030.07
530.803	30097.64
531.169	30374.24
531.535	30318.43
531.901	30620.79
532.267	30748.02
532.632	30889.94
532.998	30974.91
533.364	31271.17
533.73	31377.61
534.095	31645.85
534.461	31677.71
534.826	31825.5
535.192	32043.8
535.557	32220.07
535.923	32250.35
536.288	32549.33
536.653	32528.99
537.019	32561.3
537.384	32698.25
537.749	32989.09
538.114	33069.99
538.479	33158.35
538.845	33393.83
539.21	33285.58
539.575	33503.43
539.94	33604.44
540.305	33855.06
540.67	33690.31
541.034	34004.43
541.399	34085.78
541.764	34226.57
542.129	34411.65
542.494	34416.17
542.858	34672.21
543.223	34657.07
543.587	34752.21
543.952	34769.83
544.316	35028.58
544.681	35008.25
545.045	35060.45
545.41	35546.99
545.774	35627.21
546.138	35460.21
546.503	35573.43
546.867	35792.41
547.231	36101.78
547.595	36417.02
547.959	36308.32
548.324	36254.99
548.688	36455.44
549.052	36529.79
549.416	36594.19
549.779	36633.51
550.143	36831.25
550.507	37074.41
550.871	37269.2
551.235	37253.84
551.599	37572.25
551.962	37566.15
552.326	37699.93
552.689	37902.18
553.053	37757.33
553.417	38047.49
553.78	38402.51
554.143	38252.91
554.507	38566.12
554.87	38602.73
555.234	39009.95
555.597	38837.75
555.96	39077.74
556.323	39377.17
556.686	39298.98
557.05	39635.7
557.413	39650.84
557.776	39861.68
558.139	40114.78
558.502	40216.24
558.865	40233.87
559.228	40606.07
559.59	40856.68
559.953	40917.92
560.316	41343.22
560.679	41359.49
561.041	41516.32
561.404	41670.44
561.767	41984.56
562.129	41855.98
562.492	42285.34
562.854	42432.91
563.217	42483.98
563.579	42669.74
563.941	42944.53
564.304	43031.54
564.666	43502.03
565.028	43421.58
565.39	43532.32
565.753	43893.66
566.115	44133.2
566.477	44248.46
566.839	44402.8
567.201	44715.34
567.563	44779.97
567.925	45120.07
568.287	45076.46
568.648	45162.56
569.01	45613.84
569.372	45706.04
569.734	45707.4
570.095	46100.84
570.457	46272.58
570.819	46390.77
571.18	46397.33
571.542	46626.47
571.903	46774.94
572.265	46943.3
572.626	47118.66
572.987	47264.65
573.349	47313.69
573.71	47407.47
574.071	47483.4
574.432	47755.48
574.794	47980.56
575.155	47961.35
575.516	47941.47
575.877	48029.6
576.238	48195.02
576.599	48479.53
576.96	48447.89
577.32	48398.85
577.681	48676.14
578.042	48685.17
578.403	48820.31
578.763	48859.41
579.124	49027.09
579.485	49207.42
579.845	49367.42
580.206	49292.39
580.566	49223.69
580.927	49305.27
581.287	49500.07
581.648	49399.96
582.008	49657.13
582.368	49388.88
582.728	49653.51
583.089	49618.48
583.449	49684.92
583.809	49651.02
584.169	49804.92
584.529	49726.05
584.889	49955.65
585.249	49725.37
585.609	49718.59
585.969	49911.58
586.329	49916.78
586.688	49922.66
587.048	49731.02
587.408	49699.39
587.768	49733.06
588.127	49727.18
588.487	49836.1
588.846	50091.69
589.206	49816.9
589.565	49872.71
589.925	50084.01
590.284	49942.77
590.643	50040.85
591.003	50109.77
591.362	50111.8
591.721	50099.83
592.08	50076.78
592.44	50174.18
592.799	50210.78
593.158	50134.4
593.517	50134.18
593.876	50211.91
594.235	50169.88
594.593	50226.38
594.952	50378.69
595.311	50256.88
595.67	50275.64
596.029	50608.29
596.387	50471.34
596.746	50542.3
597.104	50310.44
597.463	50349.99
597.822	50539.82
598.18	50399.93
598.538	50392.47
598.897	50583.2
599.255	50323.32
599.613	50973.02
599.972	50601.73
600.33	50685.8
600.688	50604.22
601.046	50814.84
601.404	50826.59
601.762	50818.45
602.12	50952.69
602.478	50947.04
602.836	50985
603.194	50868.62
603.552	50881.5
603.91	50844.44
604.268	50970.31
604.625	50833.59
604.983	51036.98
605.341	50872.69
605.698	51059.8
606.056	51129.18
606.413	51146.35
606.771	51125.56
607.128	51257.76
607.485	51086.02
607.843	51182.96
608.2	51317.2
608.557	51405.78
608.914	51343.64
609.272	51387.48
609.629	51552.67
609.986	51584.76
610.343	51405.56
610.7	51643.74
611.057	51526.91
611.414	51517.42
611.771	51577.53
612.127	51599.67
612.484	51658.43
612.841	51731.65
613.198	51661.14
613.554	51564.65
613.911	51865.88
614.267	51742.27
614.624	51763.06
614.98	51741.37
615.337	51979.1
615.693	51925.54
616.05	51855.26
616.406	52102.94
616.762	51947.01
617.118	51910.4
617.475	51980.23
617.831	52009.83
618.187	52100
618.543	52099.32
618.899	52281.24
619.255	52229.04
619.611	52174.8
619.967	52340.45
620.323	52292.09
620.678	52241.92
621.034	52203.5
621.39	52212.31
621.746	52139.77
622.101	52482.59
622.457	52244.18
622.812	52372.31
623.168	52434
623.523	52445.08
623.879	52528.01
624.234	52274.46
624.589	52400.78
624.945	52382.48
625.3	52389.03
625.655	52348.58
626.01	52376.38
626.365	52431.97
626.72	52374.12
627.075	52364.17
627.43	52350.84
627.785	52324.18
628.14	52312.2
628.495	52355.13
628.85	52363.5
629.205	52177.06
629.559	52425.42
629.914	52235.36
630.269	52267.45
630.623	52195.59
630.978	52211.86
631.332	52320.79
631.687	52288.7
632.041	52194.01
632.396	52257.28
632.75	52090.51
633.104	52140.9
633.459	52035.6
633.813	51997.63
634.167	51949.5
634.521	52018.42
634.875	51973
635.229	51920.34
635.583	51743.63
635.937	51797.18
636.291	51612.1
636.645	51740.69
636.999	51626.79
637.352	51762.16
637.706	51424.09
638.06	51675.15
638.413	51518.55
638.767	51445.1
639.121	51489.85
639.474	51392.67
639.828	51322.39
640.181	51276.74
640.534	51301.15
640.888	51219.35
641.241	50975.28
641.594	51181.38
641.947	51151.1
642.301	51081.72
642.654	51168.27
643.007	51109.97
643.36	50945.68
643.713	51004.44
644.066	51100.25
644.419	50815.74
644.771	50523.09
645.124	50393.83
645.477	50180.73
645.83	49971.69
646.182	49880.85
646.535	49797.46
646.888	49799.04
647.24	49612.16
647.593	49778.03
647.945	49609.44
648.298	49444.48
648.65	49495.77
649.002	49301.88
649.355	49415.32
649.707	49426.62
650.059	49521.31
650.411	49857.35
650.763	49903
651.115	50301.18
651.467	50039.26
651.819	50023.9
652.171	49872.49
652.523	49938.25
652.875	49905.26
653.227	49858.7
653.578	50019.15
653.93	50006.5
654.282	49794.98
654.633	49694.19
654.985	49762.21
655.337	49702.32
655.688	49742.77
656.039	49813.96
656.391	49599.5
656.742	49547.07
657.094	49567.41
657.445	49629.1
657.796	49532.61
658.147	49438.83
658.498	49321.77
658.849	49468.88
659.2	49317.47
659.551	49144.82
659.902	49225.27
660.253	49170.13
660.604	49370.81
660.955	49136.69
661.306	49156.8
661.656	49098.05
662.007	49112.96
662.358	49142.34
662.708	49155.22
663.059	49054.2
663.409	48891.72
663.76	49156.57
664.11	49061.66
664.461	49131.04
664.811	49054.88
665.161	49152.96
665.511	48968.78
665.862	49163.81
666.212	49125.62
666.562	49086.29
666.912	49009.23
667.262	48869.12
667.612	48895.11
667.962	48911.84
668.312	48959.29
668.662	49061.44
669.011	48912.51
669.361	48834.78
669.711	48942.34
670.06	48804.72
670.41	48761.56
670.76	48726.08
671.109	48737.15
671.459	48742.35
671.808	48677.94
672.157	48713.65
672.507	48388.91
672.856	48562.47
673.205	48475.69
673.554	48651.5
673.904	48517.95
674.253	48548.46
674.602	48474.33
674.951	47817.85
675.3	47801.36
675.649	48293.32
675.998	48234.57
676.346	48283.15
676.695	48299.65
677.044	48023.95
677.393	48043.84
677.741	48079.09
678.09	47976.27
678.438	47884.74
678.787	47956.61
679.135	47860.34
679.484	47678.65
679.832	47760.23
680.181	47564.53
680.529	47674.13
680.877	47584.19
681.225	47577.18
681.573	47646.56
681.922	47339
682.27	47339
682.618	47486.79
682.966	47354.81
683.314	47331.09
683.661	47166.34
684.009	46808.84
684.357	46877.99
684.705	46779.46
685.053	46850.19
685.4	46793.92
685.748	46508.51
686.095	46525.01
686.443	46358.68
686.79	46341.28
687.138	46426.93
687.485	46300.15
687.832	46255.41
688.18	46183.77
688.527	46022.65
688.874	45953.27
689.221	45940.61
689.568	45853.16
689.915	45531.13
690.262	45546.27
690.609	45584.01
690.956	45549.44
691.303	45397.35
691.65	45361.65
691.997	45228.99
692.344	44920.98
692.69	44905.39
693.037	44943.13
693.383	44608.9
693.73	44541.55
694.077	44302.69
694.423	44402.12
694.769	44262.47
695.116	44074.22
695.462	44121.45
695.808	43864.28
696.155	44157.61
696.501	43559.89
696.847	43588.59
697.193	43435.37
697.539	43607.12
697.885	43263.85
698.231	43298.2
698.577	43325.32
698.923	43108.37
699.269	42988.38
699.614	42684.2
699.96	42685.56
700.306	42652.79
700.651	42363.08
700.997	42259.13
701.342	42314.49
701.688	42149.98
702.033	42059.81
702.379	42058
702.724	41890.33
703.069	41865.69
703.415	41621.18
703.76	41371.92
704.105	41398.59
704.45	41290.79
704.795	41088.31
705.14	40895.1
705.485	40895.1
705.83	40695.33
706.175	40766.29
706.52	40688.32
706.865	40482.9
707.209	40217.15
707.554	40347.77
707.899	40355
708.243	40116.81
708.588	40129.02
708.932	39823.94
709.277	39728.12
709.621	39729.25
709.966	39482.7
710.31	39686.99
710.654	39140.11
710.998	39337.17
711.342	39255.14
711.687	39178.53
712.031	39064.41
712.375	38868.94
712.719	39040.91
713.063	38892.89
713.407	38977.86
713.75	38743.52
714.094	38673.69
714.438	38621.48
714.782	38522.5
715.125	38516.4
715.469	38492.67
715.812	38216.52
716.156	38129.29
716.499	38088.17
716.843	38193.93
717.186	37963.2
717.53	38120.25
717.873	38000.03
718.216	37706.93
718.559	37854.95
718.902	37401.86
719.246	37470.33
719.589	37441.18
719.932	37149.21
720.275	37142.88
720.617	37226.04
720.96	37212.26
721.303	37101.07
721.646	37082.54
721.989	36854.98
722.331	37002.54
722.674	36728.65
723.016	36879.16
723.359	36796.45
723.701	36729.33
724.044	36443.91
724.386	36420.41
724.729	36593.74
725.071	36432.62
725.413	36518.49
725.755	36350.81
726.097	36236.01
726.439	36064.04
726.782	36247.08
727.124	36350.13
727.465	36171.83
727.807	36026.52
728.149	36060.65
728.491	35853.42
728.833	35888.22
729.175	35686.65
729.516	35529.36
729.858	35716.7
730.199	35577.95
730.541	35477.39
730.882	35389.48
731.224	35427.22
731.565	35334.34
731.906	35176.15
732.248	35325.75
732.589	35005.76
732.93	34977.29
733.271	34879.44
733.612	34842.15
733.953	34855.48
734.294	34745.2
734.635	34606.45
734.976	34678.31
735.317	34508.6
735.658	34493.01
735.999	34416.62
736.339	34361.71
736.68	34452.33
737.021	34348.15
737.361	34164.88
737.702	34267.47
738.042	34142.51
738.383	34014.6
738.723	34056.41
739.063	34006.24
739.404	33885.79
739.744	33776.64
740.084	33722.63
740.424	33682.86
740.764	33586.36
741.104	33631.79
741.444	33476.08
741.784	33572.58
742.124	33515.86
742.464	33398.12
742.804	33239.71
743.143	33328.06
743.483	33142.31
743.823	33070.9
744.162	33055.98
744.502	33091.01
744.841	32944.12
745.181	33152.7
745.52	32881.07
745.86	32928.75
746.199	32843.11
746.538	32786.38
746.877	32669.55
747.216	32678.59
747.556	32592.49
747.895	32423.23
748.234	32332.38
748.573	32299.39
748.911	32238.15
749.25	32208.32
749.589	32112.05
749.928	32021.21
750.267	32140.07
750.605	32027.53
750.944	31934.2
751.283	31723.36
751.621	31771.5
751.96	31613.08
752.298	31615.79
752.636	31590.26
752.975	31297.16
753.313	31254.45
753.651	31388.23
