Data from aluminium_macbook_case_FLMS001491_069.txt Node
Date: Tue Feb 07 10:44:02 GMT 2017
User: dcchb
Spectrometer: FLMS00149
Trigger mode: 0
Integration Time (sec): 2.000000E-2
Scans to average: 10
Electric dark correction enabled: true
Nonlinearity correction enabled: false
Boxcar width: 0
XAxis mode: Wavelengths
Number of Pixels in Spectrum: 2048
>>>>>Begin Spectral Data<<<<<
341.393	-9.27
341.776	-9.27
342.16	-9.27
342.543	-68.92
342.927	-73.9
343.31	-55.82
343.693	-74.12
344.077	-69.38
344.46	-72.77
344.843	-61.47
345.226	-51.3
345.61	-30.51
345.993	-30.06
346.376	17.63
346.759	18.76
347.142	28.25
347.525	44.52
347.908	60.79
348.291	77.51
348.674	86.33
349.057	111.64
349.44	132.88
349.823	161.13
350.206	151.18
350.588	228.24
350.971	251.07
351.354	280.44
351.737	296.49
352.119	304.17
352.502	320.22
352.884	338.97
353.267	349.6
353.65	350.05
354.032	341.23
354.414	375.58
354.797	371.52
355.179	375.81
355.562	370.84
355.944	388.69
356.326	379.88
356.709	380.78
357.091	413.1
357.473	398.63
357.855	403.61
358.238	407.67
358.62	400.44
359.002	432.31
359.384	412.42
359.766	425.98
360.148	416.03
360.53	412.64
360.912	417.84
361.294	420.55
361.676	426.66
362.057	430.5
362.439	436.82
362.821	408.58
363.203	428.01
363.584	433.89
363.966	412.64
364.348	433.21
364.729	414.23
365.111	404.74
365.493	420.55
365.874	417.62
366.256	428.01
366.637	424.17
367.019	405.64
367.4	401.8
367.781	413.1
368.163	428.46
368.544	428.24
368.925	441.12
369.306	438.18
369.688	440.44
370.069	432.31
370.45	427.79
370.831	436.37
371.212	435.02
371.593	450.61
371.974	445.19
372.355	459.42
372.736	473.21
373.117	453.32
373.498	469.14
373.879	465.3
374.26	454.68
374.641	464.62
375.021	448.12
375.402	482.7
375.783	469.82
376.163	519.76
376.544	538.29
376.925	509.82
377.305	493.32
377.686	496.71
378.066	528.57
378.447	536.94
378.827	534
379.208	531.29
379.588	528.57
379.968	545.52
380.349	553.21
380.729	550.27
381.109	561.12
381.489	574.67
381.87	576.26
382.25	569.02
382.63	570.61
383.01	592.75
383.39	585.52
383.77	597.72
384.15	609.7
384.53	604.73
384.91	636.59
385.29	629.59
385.67	622.81
386.049	657.38
386.429	661.68
386.809	670.72
387.189	651.73
387.568	673.2
387.948	654.45
388.328	684.73
388.707	663.94
389.087	683.15
389.466	714.11
389.846	720.43
390.225	740.77
390.605	737.16
390.984	748.68
391.363	754.33
391.743	781.45
392.122	763.14
392.501	783.26
392.881	780.09
393.26	796.14
393.639	795.23
394.018	793.43
394.397	823.71
394.776	845.85
395.155	844.05
395.534	868.23
395.913	843.82
396.292	864.38
396.671	876.14
397.05	909.81
397.429	879.07
397.808	893.76
398.186	886.08
398.565	926.53
398.944	927.66
399.323	908.45
399.701	980.09
400.08	966.98
400.458	972.86
400.837	999.07
401.215	984.15
401.594	1024.38
401.972	1020.99
402.351	1028.22
402.729	1038.84
403.107	1035.23
403.486	1079.07
403.864	1058.96
404.242	1062.12
404.62	1092.17
404.999	1147.54
405.377	1131.04
405.755	1143.92
406.133	1173.53
406.511	1208.56
406.889	1185.73
407.267	1215.11
407.645	1215.34
408.023	1261.44
408.401	1267.09
408.779	1261.44
409.156	1323.58
409.534	1335.78
409.912	1331.72
410.29	1387.99
410.667	1416.91
411.045	1389.57
411.422	1430.92
411.8	1442.22
412.178	1480.64
412.555	1471.15
412.933	1475.44
413.31	1524.25
413.687	1563.8
414.065	1555.67
414.442	1581.43
414.819	1605.38
415.197	1601.77
415.574	1659.39
415.951	1663.01
416.328	1693.06
416.705	1664.36
417.082	1668.88
417.46	1729.22
417.837	1759.28
418.214	1804.25
418.591	1801.53
418.967	1807.41
419.344	1818.48
419.721	1871.36
420.098	1865.94
420.475	1922.21
420.852	1886.73
421.228	1918.14
421.605	1943
421.982	2001.53
422.358	1995.88
422.735	2020.29
423.111	2010.12
423.488	2099.61
423.864	2112.03
424.241	2144.12
424.617	2118.59
424.994	2157.01
425.37	2193.16
425.746	2192.26
426.123	2231.13
426.499	2246.72
426.875	2285.82
427.251	2341.18
427.627	2368.3
428.003	2346.6
428.379	2455.08
428.756	2448.75
429.132	2469.77
429.507	2543.66
429.883	2589.99
430.259	2643.77
430.635	2634.28
431.011	2676.31
431.387	2754.05
431.763	2767.84
432.138	2759.02
432.514	2836.08
432.89	2865.69
433.265	2902.97
433.641	2978.45
434.016	3024.78
434.392	3051.9
434.767	3103.2
435.143	3131.44
435.518	3154.72
435.894	3208.73
436.269	3262.74
436.644	3314.94
437.02	3323.53
437.395	3330.08
437.77	3410.76
438.145	3457.08
438.52	3466.8
438.895	3524.43
439.271	3516.52
439.646	3634.03
440.021	3624.76
440.395	3665.67
440.77	3633.8
441.145	3731.88
441.52	3759.9
441.895	3832.89
442.27	3842.38
442.645	3835.38
443.019	3860.46
443.394	3912.89
443.769	3955.6
444.143	3931.2
444.518	4008.48
444.892	3998.09
445.267	4017.75
445.641	4090.06
446.016	4072.89
446.39	4135.94
446.764	4179.33
447.139	4226.78
447.513	4238.08
447.887	4303.39
448.262	4254.58
448.636	4307.01
449.01	4327.12
449.384	4444.85
449.758	4473.55
450.132	4535.93
450.506	4560.78
450.88	4565.08
451.254	4593.1
451.628	4700.67
452.002	4742.25
452.376	4795.81
452.75	4864.05
453.123	4912.64
453.497	4988.8
453.871	5025.4
454.244	5099.07
454.618	5179.98
454.992	5219.3
455.365	5219.3
455.739	5392.17
456.112	5406.86
456.486	5438.95
456.859	5521.21
457.232	5582.23
457.606	5629.46
457.979	5752.62
458.352	5844.59
458.725	5886.85
459.099	5886.4
459.472	6103.34
459.845	6139.95
460.218	6165.94
460.591	6250.68
460.964	6317.12
461.337	6453.84
461.71	6547.4
462.083	6660.39
462.456	6636.21
462.829	6712.82
463.201	6844.79
463.574	6834.85
463.947	7001.4
464.32	7176.53
464.692	7161.17
465.065	7239.13
465.438	7391.67
465.81	7466.02
466.183	7609.52
466.555	7723.19
466.928	7741.27
467.3	7774.94
467.672	7917.08
468.045	8103.52
468.417	8178.32
468.789	8268.94
469.161	8356.62
469.534	8456.5
469.906	8648.36
470.278	8723.84
470.65	8827.79
471.022	9026.88
471.394	9162.02
471.766	9244.5
472.138	9410.83
472.51	9623.93
472.882	9779.86
473.253	9844.94
473.625	10037.02
473.997	10178.72
474.369	10353.17
474.74	10426.39
475.112	10648.99
475.484	10781.86
475.855	10980.73
476.227	11063.21
476.598	11382.3
476.97	11499.36
477.341	11820.48
477.713	11979.35
478.084	12118.1
478.455	12358.55
478.827	12477.41
479.198	12815.03
479.569	12922.15
479.94	13252.76
480.311	13330.27
480.682	13727.32
481.053	14026.75
481.424	14205.73
481.795	14280.08
482.166	14610.69
482.537	14861.08
482.908	15118.7
483.279	15287.73
483.65	15537.22
484.021	15986.92
484.391	16113.47
484.762	16326.35
485.133	16431.66
485.503	16735.38
485.874	17047.46
486.244	17235.48
486.615	17583.27
486.985	17763.83
487.356	18148
487.726	18154.78
488.097	18683.8
488.467	18725.16
488.837	19039.95
489.207	19294.86
489.578	19567.62
489.948	19729.88
490.318	20114.05
490.688	20071.11
491.058	20403.53
491.428	20693.02
491.798	20919.45
492.168	21338.42
492.538	21501.13
492.908	21775.47
493.278	22032.19
493.648	22147.44
494.017	22346.53
494.387	22601.44
494.757	22796.01
495.126	23022.9
495.496	23165.27
495.866	23361.19
496.235	23647.74
496.605	23877.56
496.974	24006.6
497.344	24254.5
497.713	24511.67
498.082	24653.36
498.452	24794.38
498.821	24915.73
499.19	25032.56
499.559	25321.14
499.928	25585.09
500.298	25690.17
500.667	25875.25
501.036	25913.67
501.405	26276.6
501.774	26237.73
502.143	26585.06
502.512	26736.92
502.88	26969.91
503.249	26935.34
503.618	27245.84
503.987	27203.35
504.356	27521.08
504.724	27695.32
505.093	27865.26
505.462	28207.17
505.83	28327.16
506.199	28604.22
506.567	28899.58
506.936	28926.92
507.304	29286.69
507.672	29436.06
508.041	29572.33
508.409	29807.35
508.777	30092.09
509.145	30409.82
509.514	30375.25
509.882	30613.21
510.25	30766.2
510.618	31034.21
510.986	31076.47
511.354	31403.24
511.722	31765.72
512.09	32005.03
512.458	31867.41
512.826	32280.28
513.193	32458.36
513.561	32591.01
513.929	32924.56
514.297	33132.01
514.664	33327.71
515.032	33431.66
515.4	33752.56
515.767	33955.49
516.135	34195.49
516.502	34126.79
516.869	34853.77
517.237	34937.61
517.604	34840.67
517.972	35351.61
518.339	35566.07
518.706	35776.91
519.073	35945.95
519.44	36328.99
519.808	36528.76
520.175	36683.33
520.542	37229.08
520.909	37627.49
521.276	37552.68
521.643	37980.24
522.009	38143.63
522.376	38499.33
522.743	38602.15
523.11	39078.97
523.477	39562.12
523.843	39688.22
524.21	40108.1
524.577	40171.83
524.943	40393.97
525.31	40593.96
525.676	41043.89
526.043	41223.77
526.409	41410.44
526.776	41798.22
527.142	41974.72
527.508	42175.39
527.874	42595.04
528.241	42762.72
528.607	42768.59
528.973	43284.51
529.339	43413.55
529.705	43774.89
530.071	44043.81
530.437	44392.51
530.803	44669.79
531.169	44911.81
531.535	44911.81
531.901	45048.53
532.267	45256.44
532.632	45660.49
532.998	45880.38
533.364	46196.53
533.73	46149.75
534.095	46583.86
534.461	46684.87
534.826	46765.1
535.192	47047.35
535.557	47327.57
535.923	47187.23
536.288	47400.79
536.653	47500.22
537.019	47502.48
537.384	47677.16
537.749	47968
538.114	48031.51
538.479	47968.68
538.845	48361.89
539.21	48191.28
539.575	48421.1
539.94	48605.5
540.305	48877.81
540.67	48880.07
541.034	49137.24
541.399	49244.13
541.764	49356.44
542.129	49449.1
542.494	49591.92
542.858	49798.46
543.223	49836.88
543.587	50045.46
543.952	50097.89
544.316	50235.29
544.681	50292.69
545.045	50453.81
545.41	50705.11
545.774	50756.41
546.138	50767.48
546.503	51052.89
546.867	50969.96
547.231	51488.82
547.595	51373.34
547.959	51601.58
548.324	51516.16
548.688	51592.32
549.052	51822.37
549.416	51821.46
549.779	51861.01
550.143	52068.46
550.507	52152.75
550.871	52267.78
551.235	52296.25
551.599	52521.56
551.962	52599.29
552.326	52651.27
552.689	52828.22
553.053	52777.37
553.417	52846.97
553.78	53245.38
554.143	53002.22
554.507	53348.2
554.87	53426.84
555.234	53668.87
555.597	53592.04
555.96	53752.71
556.323	53865.25
556.686	53949.32
557.05	54219.14
557.413	54240.83
557.776	54376.42
558.139	54597.89
558.502	54653.25
558.865	54790.65
559.228	54975.96
559.59	55064.09
559.953	55145.22
560.316	55455.72
560.679	55495.49
561.041	55621.36
561.404	55723.51
561.767	55883.05
562.129	55863.39
562.492	56138.86
562.854	56171.63
563.217	56261.35
563.579	56306.77
563.941	56475.13
564.304	56539.98
564.666	56666.08
565.028	56645.97
565.39	56789.24
565.753	56963.25
566.115	56980.42
566.477	57057.48
566.839	57146.52
567.201	57276.23
567.563	57295.44
567.925	57505.38
568.287	57515.32
568.648	57558.71
569.01	57734.08
569.372	57845.71
569.734	57791.02
570.095	58047.74
570.457	58139.26
570.819	58210.45
571.18	58180.17
571.542	58382.65
571.903	58384.91
572.265	58503.32
572.626	58575.86
572.987	58629.64
573.349	58739.25
573.71	58818.79
574.071	58854.72
574.432	59049.75
574.794	59181.27
575.155	59174.04
575.516	59113.02
575.877	59235.73
576.238	59309.4
576.599	59406.8
576.96	59531.77
577.32	59461.71
577.681	59506.46
578.042	59640.69
578.403	59600.69
578.763	59618.09
579.124	59703.51
579.485	59706.9
579.845	59782.61
580.206	59669.17
580.566	59635.95
580.927	59680.69
581.287	59770.86
581.648	59664.42
582.008	59785.32
582.368	59670.97
582.728	59711.2
583.089	59762.95
583.449	59772.67
583.809	59819.44
584.169	59828.03
584.529	59732.44
584.889	59939.89
585.249	59786.22
585.609	59720.01
585.969	59845.88
586.329	59816.28
586.688	59896.5
587.048	59821.93
587.408	59808.37
587.768	59856.28
588.127	59870.74
588.487	59853.12
588.846	60049.04
589.206	59835.94
589.565	59906.45
589.925	59982.6
590.284	59966.56
590.643	60046.78
591.003	60091.08
591.362	60150.51
591.721	60119.1
592.08	60189.83
592.44	60216.95
592.799	60242.94
593.158	60172.88
593.517	60183.28
593.876	60224.18
594.235	60136.72
594.593	60203.61
594.952	60137.4
595.311	60117.29
595.67	60089.95
596.029	60254.91
596.387	60165.42
596.746	60239.77
597.104	60121.13
597.463	60067.8
597.822	60137.85
598.18	60091.3
598.538	60089.72
598.897	60246.78
599.255	59994.58
599.613	60334.01
599.972	60176.04
600.33	60273.9
600.688	60114.35
601.046	60265.99
601.404	60289.49
601.762	60241.13
602.12	60375.59
602.478	60437.51
602.836	60423.5
603.194	60255.82
603.552	60371.29
603.91	60278.42
604.268	60482.03
604.625	60393.89
604.983	60479.09
605.341	60413.55
605.698	60612.64
606.056	60613.77
606.413	60599.54
606.771	60715.01
607.128	60697.84
607.485	60661.46
607.843	60701.23
608.2	60907.1
608.557	60889.92
608.914	60786.88
609.272	60956.59
609.629	61033.88
609.986	61062.8
610.343	60958.85
610.7	61140.09
611.057	61076.13
611.414	61069.58
611.771	61067.09
612.127	61099.86
612.484	61040.88
612.841	61066.19
613.198	60971.96
613.554	60979.41
613.911	61151.61
614.267	61133.76
614.624	61132.86
614.98	61124.95
615.337	61184.15
615.693	61122.46
616.05	61118.17
616.406	61198.84
616.762	61093.99
617.118	61150.03
617.475	61126.08
617.831	61143.25
618.187	61231.61
618.543	61221.67
618.899	61366.07
619.255	61265.96
619.611	61266.19
619.967	61390.48
620.323	61355.22
620.678	61307.99
621.034	61335.11
621.39	61312.51
621.746	61293.98
622.101	61536.24
622.457	61296.02
622.812	61431.83
623.168	61439.29
623.523	61481.1
623.879	61587.76
624.234	61426.63
624.589	61507.31
624.945	61525.16
625.3	61529.46
625.655	61559.74
626.01	61538.27
626.365	61548.21
626.72	61605.39
627.075	61547.08
627.43	61555.44
627.785	61533.98
628.14	61578.95
628.495	61550.92
628.85	61490.81
629.205	61402.68
629.559	61492.85
629.914	61403.36
630.269	61432.06
630.623	61299.41
630.978	61231.38
631.332	61324.04
631.687	61308.9
632.041	61181.44
632.396	61204.94
632.75	61071.39
633.104	61094.89
633.459	60989.36
633.813	60959.08
634.167	60918.17
634.521	60960.88
634.875	60953.43
635.229	60855.12
635.583	60784.62
635.937	60792.53
636.291	60750.27
636.645	60788.46
636.999	60699.65
637.352	60735.13
637.706	60562.02
638.06	60692.42
638.413	60533.78
638.767	60502.36
639.121	60543.27
639.474	60414.46
639.828	60432.31
640.181	60479.77
640.534	60520.44
640.888	60432.76
641.241	60275.7
641.594	60364.97
641.947	60403.61
642.301	60340.79
642.654	60326.1
643.007	60354.12
643.36	60341.69
643.713	60331.3
644.066	60445.64
644.419	60280
644.771	60153.9
645.124	59880.46
645.477	59850.86
645.83	59722.5
646.182	59560.92
646.535	59495.16
646.888	59551.2
647.24	59372.68
647.593	59485.67
647.945	59359.8
648.298	59300.59
648.65	59262.85
649.002	59153.7
649.355	59239.35
649.707	59184.88
650.059	59250.65
650.411	59573.8
650.763	59618.32
651.115	59781.25
651.467	59633.69
651.819	59647.25
652.171	59530.64
652.523	59478.66
652.875	59459.23
653.227	59359.8
653.578	59472.33
653.93	59432.34
654.282	59261.94
654.633	59156.64
654.985	59229.18
655.337	59252.45
655.688	59164.09
656.039	59296.97
656.391	59059.01
656.742	59128.61
657.094	59071.44
657.445	59119.35
657.796	58990.99
658.147	59015.62
658.498	58960.94
658.849	59073.47
659.2	58931.33
659.551	58904.89
659.902	58969.3
660.253	58948.28
660.604	58935.63
660.955	58883.65
661.306	58977.21
661.656	58930.88
662.007	58991.44
662.358	58911.9
662.708	58963.87
663.059	58986.25
663.409	58808.85
663.76	58978.56
664.11	59008.84
664.461	58986.47
664.811	58994.83
665.161	58994.61
665.511	58914.61
665.862	59014.49
666.212	59050.2
666.562	59020.82
666.912	58944.89
667.262	58945.12
667.612	58831.45
667.962	58872.58
668.312	58789.19
668.662	58923.2
669.011	58800.04
669.361	58728.4
669.711	58664.67
670.06	58694.95
670.41	58644.56
670.76	58605.01
671.109	58623.77
671.459	58507.39
671.808	58537.44
672.157	58513.49
672.507	58287.51
672.856	58319.82
673.205	58282.54
673.554	58369.09
673.904	58295.64
674.253	58372.48
674.602	58143.33
674.951	57885.48
675.3	57729.78
675.649	58108.08
675.998	58057
676.346	58136.55
676.695	58123.22
677.044	57935.2
677.393	58032.6
677.741	57993.05
678.09	57926.61
678.438	57835.99
678.787	57921.64
679.135	57940.17
679.484	57728.2
679.832	57812.04
680.181	57685.71
680.529	57720.97
680.877	57629.9
681.225	57720.06
681.573	57821.76
681.922	57642.1
682.27	57574.98
682.618	57659.95
682.966	57511.93
683.314	57596
683.661	57561.42
684.009	57505.15
684.357	57369.34
684.705	57353.52
685.053	57455.44
685.4	57393.07
685.748	57237.14
686.095	57124.6
686.443	57211.83
686.79	57155.33
687.138	57168.21
687.485	57082.79
687.832	57043.25
688.18	57046.86
688.527	56890.48
688.874	56879.18
689.221	56735.91
689.568	56732.29
689.915	56668.11
690.262	56672.18
690.609	56550.15
690.956	56515.12
691.303	56393.32
691.65	56252.76
691.997	56185.64
692.344	56095.93
692.69	56048.92
693.037	56019.77
693.383	55735.94
693.73	55784.52
694.077	55624.07
694.423	55616.84
694.769	55434.47
695.116	55410.97
695.462	55283.74
695.808	55230.64
696.155	55255.04
696.501	55019.8
696.847	54924.88
697.193	54717.43
697.539	54829.52
697.885	54641.05
698.231	54529.41
698.577	54541.39
698.923	54343.2
699.269	54327.84
699.614	54168.29
699.96	54168.75
700.306	54158.35
700.651	53991.57
700.997	53849.43
701.342	53847.85
701.688	53783.44
702.033	53820.05
702.379	53660.96
702.724	53652.83
703.069	53716.33
703.415	53393.62
703.76	53369.67
704.105	53394.98
704.45	53301.65
704.795	53049
705.14	53083.58
705.485	53090.36
705.83	52952.05
706.175	52972.62
706.52	52813.75
706.865	52685.85
707.209	52759.74
707.554	52705.28
707.899	52727.88
708.243	52615.34
708.588	52566.3
708.932	52308.91
709.277	52359.3
709.621	52402.92
709.966	52235.91
710.31	52262.81
710.654	51834.12
710.998	52070.5
711.342	51976.49
711.687	51945.98
712.031	51717.51
712.375	51612.2
712.719	51613.33
713.063	51536.27
713.407	51629.38
713.75	51329.27
714.094	51370.63
714.438	51171.31
714.782	51183.06
715.125	51035.27
715.469	51059.22
715.812	50860.13
716.156	50649.06
716.499	50651.1
716.843	50667.59
717.186	50342.63
717.53	50520.71
717.873	50535.62
718.216	50391.9
718.559	50111.45
718.902	49941.29
719.246	49988.74
719.589	49774.74
719.932	49650.45
720.275	49534.29
720.617	49507.62
720.96	49359.38
721.303	49375.88
721.646	49312.15
721.989	48968.2
722.331	49139.05
722.674	49047.07
723.016	48982.89
723.359	48915.32
723.701	48882.33
724.044	48573.41
724.386	48499.74
724.729	48519.63
725.071	48398.28
725.413	48404.38
725.755	48383.13
726.097	48172.74
726.439	47988.57
726.782	48105.63
727.124	48327.54
727.465	48155.12
727.807	48096.36
728.149	47984.5
728.491	47973.65
728.833	47966.65
729.175	47769.14
729.516	47715.36
729.858	47603.49
730.199	47781.79
730.541	47588.35
730.882	47750.83
731.224	47880.77
731.565	47474.23
731.906	47496.6
732.248	47601.01
732.589	47294.58
732.93	47313.78
733.271	47230.17
733.612	47366.66
733.953	47391.97
734.294	47128.03
734.635	47036.5
734.976	47188.82
735.317	46957.86
735.658	46918.31
735.999	46804.65
736.339	46658.89
736.68	46791.09
737.021	46614.37
737.361	46448.95
737.702	46573.92
738.042	46344.77
738.383	46210.54
738.723	46392.23
739.063	46110.88
739.404	46196.3
739.744	45889.19
740.084	45906.14
740.424	45842.41
740.764	45816.2
741.104	45779.59
741.444	45405.13
741.784	45299.83
742.124	45521.06
742.464	45303.22
742.804	45245.36
743.143	44884.7
743.483	45016.44
743.823	44753.63
744.162	44656
744.502	44721.31
744.841	44494.2
745.181	44715.21
745.52	44383.92
745.86	44408.32
746.199	44325.84
746.538	44134.88
746.877	44088.78
747.216	44182.57
747.556	43744.61
747.895	43741
748.234	43565.41
748.573	43550.27
748.911	43549.59
749.25	43450.16
749.589	43329.71
749.928	43338.52
750.267	43243.16
750.605	43222.14
750.944	43116.15
751.283	42899.44
751.621	43094.23
751.96	42805.88
