Data from aluminium_macbook_case_FLMS001491_063.txt Node
Date: Tue Feb 07 10:44:01 GMT 2017
User: dcchb
Spectrometer: FLMS00149
Trigger mode: 0
Integration Time (sec): 2.000000E-2
Scans to average: 10
Electric dark correction enabled: true
Nonlinearity correction enabled: false
Boxcar width: 0
XAxis mode: Wavelengths
Number of Pixels in Spectrum: 2048
>>>>>Begin Spectral Data<<<<<
341.393	-21.65
341.776	-21.65
342.16	-21.65
342.543	-67.53
342.927	-60.97
343.31	-72.05
343.693	-66.17
344.077	-59.62
344.46	-61.42
344.843	-52.39
345.226	-53.52
345.61	-16.91
345.993	-13.97
346.376	-21.2
346.759	3.43
347.142	22.87
347.525	40.27
347.908	71.23
348.291	72.36
348.674	94.73
349.057	112.36
349.44	115.07
349.823	145.35
350.206	176.08
350.588	225.35
350.971	259.7
351.354	273.26
351.737	286.36
352.119	309.64
352.502	315.97
352.884	326.14
353.267	347.38
353.65	347.83
354.032	361.84
354.414	354.84
354.797	373.14
355.179	366.13
355.562	384.89
355.944	388.73
356.326	398.22
356.709	403.42
357.091	398.45
357.473	400.03
357.855	407.49
358.238	404.1
358.62	382.41
359.002	410.43
359.384	399.13
359.766	409.07
360.148	419.01
360.53	446.36
360.912	431.44
361.294	404.55
361.676	411.56
362.057	415.62
362.439	431.67
362.821	419.24
363.203	430.31
363.584	426.02
363.966	419.69
364.348	421.5
364.729	430.77
365.111	428.96
365.493	408.85
365.874	426.7
366.256	390.54
366.637	426.92
367.019	414.49
367.4	428.73
367.781	426.7
368.163	420.82
368.544	428.96
368.925	428.73
369.306	435.51
369.688	455.62
370.069	451.56
370.45	437.54
370.831	448.39
371.212	450.65
371.593	448.17
371.974	473.93
372.355	452.01
372.736	472.12
373.117	459.47
373.498	455.85
373.879	469.18
374.26	471.89
374.641	447.04
375.021	482.29
375.402	470.99
375.783	501.5
376.163	510.54
376.544	497.2
376.925	497.43
377.305	528.62
377.686	510.99
378.066	521.61
378.447	529.97
378.827	503.76
379.208	513.02
379.588	544.66
379.968	539.92
380.349	530.42
380.729	565.9
381.109	539.69
381.489	561.38
381.87	556.19
382.25	566.13
382.63	574.26
383.01	579.24
383.39	598.9
383.77	610.2
384.15	600.93
384.53	596.41
384.91	624.66
385.29	620.59
385.67	625.56
386.049	656.97
386.429	645.22
386.809	647.26
387.189	643.19
387.568	651.78
387.948	671.44
388.328	703.75
388.707	718.44
389.087	679.35
389.466	703.53
389.846	722.51
390.225	742.4
390.605	724.77
390.984	737.42
391.363	737.2
391.743	759.12
392.122	761.38
392.501	781.04
392.881	762.28
393.26	804.09
393.639	788.04
394.018	819.23
394.397	793.47
394.776	832.79
395.155	823.07
395.534	859
395.913	846.8
396.292	859.91
396.671	861.04
397.05	874.37
397.429	917.76
397.808	915.05
398.186	899.91
398.565	930.87
398.944	938.32
399.323	950.98
399.701	957.98
400.08	959.57
400.458	979.9
400.837	976.74
401.215	990.3
401.594	1009.06
401.972	1014.48
402.351	1054.48
402.729	1072.33
403.107	1063.97
403.486	1067.81
403.864	1081.6
404.242	1113.69
404.62	1098.09
404.999	1092.22
405.377	1124.08
405.755	1142.16
406.133	1152.78
406.511	1188.03
406.889	1189.16
407.267	1180.35
407.645	1238.88
408.023	1257.86
408.401	1273.68
408.779	1240.69
409.156	1307.35
409.534	1322.95
409.912	1347.58
410.29	1374.24
410.667	1369.95
411.045	1428.71
411.422	1422.15
411.8	1426.67
412.178	1447.01
412.555	1466.67
412.933	1475.26
413.31	1517.52
413.687	1562.49
414.065	1556.39
414.442	1590.06
414.819	1606.1
415.197	1623.5
415.574	1636.16
415.951	1703.73
416.328	1699.88
416.705	1684.74
417.082	1708.47
417.46	1717.29
417.837	1745.53
418.214	1752.54
418.591	1811.07
418.967	1786.21
419.344	1825.31
419.721	1864.4
420.098	1893.55
420.475	1904.85
420.852	1915.7
421.228	1941.01
421.605	1919.09
421.982	1975.13
422.358	1989.82
422.735	2025.98
423.111	2035.02
423.488	2060.33
423.864	2075.02
424.241	2132.87
424.617	2126.99
424.994	2161.12
425.37	2198.63
425.746	2224.39
426.123	2264.62
426.499	2260.55
426.875	2284.95
427.251	2348
427.627	2375.12
428.003	2407.21
428.379	2424.16
428.756	2469.58
429.132	2501.45
429.507	2549.58
429.883	2564.72
430.259	2620.31
430.635	2607.43
431.011	2669.12
431.387	2727.88
431.763	2775.56
432.138	2786.64
432.514	2815.11
432.89	2867.54
433.265	2942.56
433.641	2997.25
434.016	3004.03
434.392	3051.71
434.767	3129
435.143	3134.42
435.518	3191.14
435.894	3170.35
436.269	3226.85
436.644	3279.73
437.02	3323.34
437.395	3344.36
437.77	3415.32
438.145	3432.49
438.52	3462.1
438.895	3481.53
439.271	3531.25
439.646	3610.79
440.021	3647.4
440.395	3655.99
440.77	3624.81
441.145	3652.15
441.52	3762.66
441.895	3761.3
442.27	3789.32
442.645	3816.21
443.019	3898.47
443.394	3875.87
443.769	3886.72
444.143	3946.38
444.518	4015.98
444.892	3986.38
445.267	4049.88
445.641	4098.47
446.016	4092.14
446.39	4139.37
446.764	4200.84
447.139	4145.7
447.513	4291.23
447.887	4264.34
448.262	4285.58
448.636	4341.17
449.01	4383.2
449.384	4421.85
449.758	4472.69
450.132	4530.09
450.506	4581.39
450.88	4570.54
451.254	4612.12
451.628	4713.82
452.002	4725.79
452.376	4779.58
452.75	4845.11
453.123	4869.74
453.497	4963.53
453.871	4967.37
454.244	5085.56
454.618	5123.07
454.992	5187.48
455.365	5171.66
455.739	5391.09
456.112	5401.26
456.486	5471.31
456.859	5504.3
457.232	5592.66
457.606	5637.63
457.979	5675.37
458.352	5824.07
458.725	5887.35
459.099	5958.98
459.472	6039.43
459.845	6121.92
460.218	6206.21
460.591	6240.56
460.964	6248.24
461.337	6471.06
461.71	6480.32
462.083	6664.05
462.456	6655.46
462.829	6697.27
463.201	6848.68
463.574	6845.74
463.947	6970.71
464.32	7148.78
464.692	7178.61
465.065	7254.77
465.438	7308.55
465.81	7450.69
466.183	7608.66
466.555	7665.83
466.928	7756.9
467.3	7719.84
467.672	7905.6
468.045	8125.03
468.417	8125.03
468.789	8189.66
469.161	8322.76
469.534	8507.84
469.906	8618.35
470.278	8727.5
470.65	8841.39
471.022	9017.66
471.394	9156.19
471.766	9298.78
472.138	9374.26
472.51	9602.5
472.882	9764.53
473.253	9835.04
473.625	10035.26
473.997	10283.16
474.369	10193.22
474.74	10440.67
475.112	10607
475.484	10825.97
475.855	11011.5
476.227	11100.09
476.598	11464.37
476.97	11478.84
477.341	11845.83
477.713	12017.35
478.084	11999.5
478.455	12396.78
478.827	12519.04
479.198	12929.65
479.569	12838.35
479.94	13245.34
480.311	13382.29
480.682	13681.72
481.053	13975.49
481.424	14300.01
481.795	14367.8
482.166	14637.17
482.537	14747
482.908	15172.07
483.279	15282.13
483.65	15576.58
484.021	15920.53
484.391	16044.82
484.762	16186.51
485.133	16462.89
485.503	16595.31
485.874	17065.13
486.244	17236.2
486.615	17590.09
486.985	17686.81
487.356	18038.89
487.726	18177.64
488.097	18693.34
488.467	18611.3
488.837	19116.83
489.207	19225.07
489.578	19516.14
489.948	19750.48
490.318	20060.53
490.688	20048.33
491.058	20368.09
491.428	20761.53
491.798	20933.05
492.168	21450.78
492.538	21499.82
492.908	21740.26
493.278	22040.59
493.648	22101.16
494.017	22463.63
494.387	22577.98
494.757	22761.93
495.126	23069.94
495.496	23200.79
495.866	23424.96
496.235	23602.59
496.605	23898.4
496.974	24014.33
497.344	24315.56
497.713	24294.54
498.082	24561.66
498.452	24847.98
498.821	25069.89
499.19	25027.41
499.559	25388.3
499.928	25501.97
500.298	25643.44
500.667	25952.58
501.036	25911.23
501.405	26143.54
501.774	26335.85
502.143	26497.65
502.512	26728.83
502.88	26936.74
503.249	26945.1
503.618	27126.56
503.987	27320
504.356	27520
504.724	27660.56
505.093	27874.11
505.462	28172.18
505.83	28334.89
506.199	28489.69
506.567	28968.32
506.936	28898.94
507.304	29340.06
507.672	29453.05
508.041	29566.72
508.409	29892.59
508.777	30064.11
509.145	30301.84
509.514	30291.45
509.882	30656.41
510.25	30705
510.618	30927.14
510.986	31035.38
511.354	31422.49
511.722	31685.54
512.09	32016.38
512.458	31955.36
512.826	32228.57
513.193	32410.04
513.561	32580.43
513.929	32674.89
514.297	33058.61
514.664	33255.89
515.032	33475.77
515.4	33708.76
515.767	33927.06
516.135	34178.8
516.502	34073.95
516.869	34841.61
517.237	34910.54
517.604	34915.51
517.972	35339
518.339	35608.15
518.706	35765.2
519.073	35902.15
519.44	36251.97
519.808	36682.02
520.175	36666.42
520.542	37185.51
520.909	37521.99
521.276	37518.15
521.643	37834.53
522.009	38080.62
522.376	38524.23
522.743	38770.77
523.11	39095.06
523.477	39369.63
523.843	39594.48
524.21	40081.02
524.577	40197.86
524.943	40427.23
525.31	40494.8
525.676	40987.44
526.043	41324.83
526.409	41289.13
526.776	41866.06
527.142	41944.7
527.508	42180.4
527.874	42572.26
528.241	42754.62
528.607	42868.29
528.973	43148.96
529.339	43373.14
529.705	43827.59
530.071	44106.91
530.437	44427.35
530.803	44709.15
531.169	44849.26
531.535	44797.28
531.901	45217.16
532.267	45309.81
532.632	45736.92
532.998	45724.26
533.364	46149.11
533.73	46245.15
534.095	46571.47
534.461	46579.38
534.826	46795.2
535.192	46985.25
535.557	47199.71
535.923	47134.4
536.288	47429.3
536.653	47546.36
537.019	47472.24
537.384	47764.89
537.749	47900.03
538.114	47975.96
538.479	48046.91
538.845	48286.91
539.21	48242.62
539.575	48467.24
539.94	48609.84
540.305	48816.84
540.67	48803.28
541.034	48950.17
541.399	49178.86
541.764	49231.06
542.129	49466.54
542.494	49593.31
542.858	49782.69
543.223	49760.32
543.587	49976.36
543.952	50064.04
544.316	50297.25
544.681	50233.75
545.045	50435.1
545.41	50680.07
545.774	50677.81
546.138	50823.79
546.503	51011.58
546.867	50979.04
547.231	51350.1
547.595	51367.73
547.959	51563.21
548.324	51637.33
548.688	51688.85
549.052	51833.71
549.416	51869.86
549.779	51936.53
550.143	51999.35
550.507	52168.61
550.871	52201.38
551.235	52334.94
551.599	52527.7
551.962	52542.62
552.326	52598.43
552.689	52755.04
553.053	52767.47
553.417	52786
553.78	53197.51
554.143	53086.56
554.507	53241.35
554.87	53390.05
555.234	53665.3
555.597	53544.4
555.96	53743.04
556.323	53885.86
556.686	53943.26
557.05	54204.04
557.413	54242.91
557.776	54362
558.139	54463.47
558.502	54602.45
558.865	54787.75
559.228	54918.6
559.59	54998.14
559.953	55059.84
560.316	55376.21
560.679	55405.59
561.041	55627.28
561.404	55750.44
561.767	55917.67
562.129	55772.59
562.492	56194.95
562.854	56085.8
563.217	56181.84
563.579	56316.53
563.941	56460.48
564.304	56528.27
564.666	56615.73
565.028	56657.99
565.39	56816.63
565.753	56904.08
566.115	56962.61
566.477	57118.31
566.839	57139.78
567.201	57270.85
567.563	57341.13
567.925	57485.99
568.287	57521.02
568.648	57585.65
569.01	57747
569.372	57829.48
569.734	57825.87
570.095	58003.71
570.457	58096.82
570.819	58150.83
571.18	58169.59
571.542	58337.04
571.903	58384.04
572.265	58532.06
572.626	58544.49
572.987	58607.77
573.349	58679.18
573.71	58860.42
574.071	58876.23
574.432	59034.65
574.794	59117.36
575.155	59144.25
575.516	59094.08
575.877	59225.6
576.238	59344.24
576.599	59401.42
576.96	59365.49
577.32	59412.94
577.681	59568.87
578.042	59564.58
578.403	59553.5
578.763	59648.19
579.124	59645.03
579.485	59699.94
579.845	59780.62
580.206	59634.18
580.566	59607.06
580.927	59684.35
581.287	59718.47
581.648	59709.21
582.008	59698.81
582.368	59716.66
582.728	59733.39
583.089	59714.63
583.449	59807.06
583.809	59786.27
584.169	59795.76
584.529	59696.55
584.889	59893.38
585.249	59847.06
585.609	59746.49
585.969	59862.2
586.329	59800.5
586.688	59837.34
587.048	59800.5
587.408	59825.36
587.768	59798.24
588.127	59867.85
588.487	59814.74
588.846	59972.7
589.206	59858.13
589.565	59927.96
589.925	60029.65
590.284	59945.13
590.643	60037.11
591.003	60098.35
591.362	60120.04
591.721	60092.02
592.08	60085.02
592.44	60187.61
592.799	60232.58
593.158	60132.02
593.517	60169.99
593.876	60186.03
594.235	60129.08
594.593	60163.43
594.952	60202.53
595.311	60108.74
595.67	60110.33
596.029	60225.8
596.387	60161.85
596.746	60288.17
597.104	60116.2
597.463	60084.56
597.822	60150.33
598.18	60068.75
598.538	60085.02
598.897	60227.61
599.255	59998.92
599.613	60364.78
599.972	60191.23
600.33	60303.77
600.688	60133.6
601.046	60242.07
601.404	60352.35
601.762	60276.88
602.12	60422.18
602.478	60419.47
602.836	60367.04
603.194	60353.71
603.552	60364.78
603.91	60252.7
604.268	60421.73
604.625	60372.01
604.983	60493.59
605.341	60439.13
605.698	60603.65
606.056	60673.7
606.413	60587.83
606.771	60685.45
607.128	60705.56
607.485	60566.59
607.843	60680.25
608.2	60857.43
608.557	60955.05
608.914	60813.58
609.272	60946.01
609.629	61007.25
609.986	61006.57
610.343	60917.54
610.7	61109.62
611.057	61092.45
611.414	61083.18
611.771	61048.38
612.127	61105.55
612.484	60964.77
612.841	61034.37
613.198	60962.28
613.554	60991.66
613.911	61110.07
614.267	61103.97
614.624	61035.73
614.98	61084.31
615.337	61157.76
615.693	61103.29
616.05	61078.66
616.406	61237.53
616.762	61092.22
617.118	61038.89
617.475	61094.26
617.831	61204.76
618.187	61197.08
618.543	61248.83
618.899	61351.65
619.255	61258.77
619.611	61277.3
619.967	61366.11
620.323	61360.69
620.678	61268.49
621.034	61257.19
621.39	61218.55
621.746	61277.75
622.101	61466.67
622.457	61292.22
622.812	61457.86
623.168	61528.82
623.523	61529.05
623.879	61547.12
624.234	61419.22
624.589	61546.67
624.945	61577.18
625.3	61635.48
625.655	61526.11
626.01	61550.06
626.365	61583.51
626.72	61537.86
627.075	61566.11
627.43	61511.19
627.785	61484.08
628.14	61566.56
628.495	61576.5
628.85	61551.87
629.205	61412.44
629.559	61533.57
629.914	61389.84
630.269	61413.57
630.623	61332.44
630.978	61216.74
631.332	61267.13
631.687	61287.24
632.041	61139.45
632.396	61167.7
632.75	61016.97
633.104	61111.43
633.459	60966.35
633.813	60943.07
634.167	60928.61
634.521	60899.23
634.875	60871.89
635.229	60878.89
635.583	60776.3
635.937	60777.65
636.291	60726.36
636.645	60744.66
636.999	60728.39
637.352	60768.16
637.706	60577.66
638.06	60662.18
638.413	60566.59
638.767	60548.51
639.121	60531.78
639.474	60438.68
639.828	60442.29
640.181	60462.63
640.534	60541.73
640.888	60429.64
641.241	60308.74
641.594	60331.34
641.947	60348.06
642.301	60306.93
642.654	60336.31
643.007	60366.82
643.36	60322.07
643.713	60273.49
644.066	60399.13
644.419	60256.54
644.771	60134.96
645.124	59933.16
645.477	59903.78
645.83	59689.55
646.182	59532.49
646.535	59503.79
646.888	59526.39
647.24	59358.48
647.593	59481.87
647.945	59390.12
648.298	59224.7
648.65	59235.55
649.002	59172.05
649.355	59210.01
649.707	59235.77
650.059	59292.49
650.411	59512.15
650.763	59553.5
651.115	59770.9
651.467	59713.27
651.819	59618.59
652.171	59532.04
652.523	59525.93
652.875	59427.18
653.227	59368.2
653.578	59492.94
653.93	59387.63
654.282	59193.06
654.633	59181.76
654.985	59174.98
655.337	59187.41
655.688	59157.58
656.039	59299.73
656.391	59070.13
656.742	59093.4
657.094	59097.02
657.445	59163.46
657.796	59043.69
658.147	58998.49
658.498	58937.25
658.849	59039.62
659.2	58963.92
659.551	58874.43
659.902	58977.7
660.253	58907.65
660.604	58976.34
660.955	58871.49
661.306	59020.86
661.656	58896.35
662.007	58935.22
662.358	58912.17
662.708	58996.68
663.059	58994.42
663.409	58836.69
663.76	59015.44
664.11	58992.62
664.461	58929.11
664.811	58983.12
665.161	59021.99
665.511	58896.57
665.862	58943.13
666.212	59023.8
666.562	59032.61
666.912	58988.1
667.262	58879.4
667.612	58858.16
667.962	58813.64
668.312	58810.02
668.662	58934.99
669.011	58787.42
669.361	58717.59
669.711	58742
670.06	58694.77
670.41	58629.91
670.76	58558.05
671.109	58649.8
671.459	58612.06
671.808	58529.58
672.157	58601.21
672.507	58317.38
672.856	58279.64
673.205	58299.53
673.554	58332.75
673.904	58295.46
674.253	58299.98
674.602	58279.41
674.951	57893.44
675.3	57710.16
675.649	58082.13
675.998	58056.14
676.346	58084.39
676.695	58151.73
677.044	57947.22
677.393	57942.93
677.741	58054.11
678.09	57915.36
678.438	57832.19
678.787	57920.1
679.135	57953.09
679.484	57782.03
679.832	57906.09
680.181	57670.84
680.529	57762.59
680.877	57706.32
681.225	57692.54
681.573	57808.69
681.922	57651.86
682.27	57698.86
682.618	57690.5
682.966	57516.72
683.314	57659.77
683.661	57507.68
684.009	57467.01
684.357	57430.85
684.705	57413.67
685.053	57517.63
685.4	57351.3
685.748	57226.79
686.095	57261.81
686.443	57172.1
686.79	57129.61
687.138	57197.18
687.485	57141.59
687.832	57019.79
688.18	57028.6
688.527	56912.44
688.874	56836.97
689.221	56830.64
689.568	56655.95
689.915	56660.7
690.262	56679.91
690.609	56570.31
690.956	56448.95
691.303	56338.67
691.65	56145.46
691.997	56290.77
692.344	56079.47
692.69	56123.76
693.037	55965.12
693.383	55800.38
693.73	55862.53
694.077	55661.18
694.423	55607.62
694.769	55452.6
695.116	55403.11
695.462	55312.03
695.808	55232.94
696.155	55215.77
696.501	54964.25
696.847	54997.01
697.193	54714.76
697.539	54850.58
697.885	54663.69
698.231	54540.3
698.577	54441.32
698.923	54384.6
699.269	54291.95
699.614	54209.24
699.96	54170.6
700.306	54227.77
700.651	54055.34
700.997	53846.99
701.342	53768.12
701.688	53726.31
702.033	53705.97
702.379	53663.26
702.724	53613.1
703.069	53755.01
703.415	53418.75
703.76	53385.53
704.105	53330.84
704.45	53338.3
704.795	53039.33
705.14	52985.09
705.485	53109.83
705.83	52872.32
706.175	52975.15
706.52	52858.54
706.865	52848.14
707.209	52789.84
707.554	52658.77
707.899	52748.94
708.243	52599.11
708.588	52542.39
708.932	52343.98
709.277	52333.13
709.621	52322.28
709.966	52129.75
710.31	52229.86
710.654	51969.07
710.998	52094.49
711.342	52026.47
711.687	51998.45
712.031	51718
712.375	51583.32
712.719	51591.45
713.063	51527.95
713.407	51577.67
713.75	51383.1
714.094	51373.61
714.438	51225.59
714.782	51088.42
715.125	51021.98
715.469	51033.05
715.812	50820.85
716.156	50707.64
716.499	50613.85
716.843	50628.99
717.186	50406.4
717.53	50608.43
717.873	50428.32
718.216	50386.29
718.559	50132.06
718.902	49940.42
719.246	49942.68
719.589	49746.53
719.932	49551.06
720.275	49618.4
720.617	49552.86
720.96	49351.29
721.303	49382.25
721.646	49389.7
721.989	49036.49
722.331	49224.06
722.674	48941.58
723.016	48970.96
723.359	48989.04
723.701	48873.11
724.044	48563.51
724.386	48385.44
724.729	48649.84
725.071	48445.77
725.413	48455.72
725.755	48377.3
726.097	48233.35
726.439	47979.57
726.782	48163.07
727.124	48323.74
727.465	48158.1
727.807	47913.13
728.149	47945.22
728.491	47952.23
728.833	47997.65
729.175	47859.12
729.516	47758.56
729.858	47707.26
730.199	47806.92
730.541	47691.9
730.882	47694.16
731.224	47802.85
731.565	47378.01
731.906	47518.57
732.248	47633.59
732.589	47293.94
732.93	47320.15
733.271	47302.3
733.612	47353.37
733.953	47285.8
734.294	47145.47
734.635	46944.34
734.976	47083.1
735.317	46928.98
735.658	46958.13
735.999	46810.34
736.339	46651.92
736.68	46784.57
737.021	46593.39
737.361	46426.62
737.702	46556.78
738.042	46337.58
738.383	46375.32
738.723	46365.38
739.063	46263.91
739.404	46180.3
739.744	46057.81
740.084	45915.67
740.424	45934.2
740.764	45727.2
741.104	45841.32
741.444	45436.59
741.784	45299.64
742.124	45484.95
742.464	45289.02
742.804	45243.6
743.143	45083.83
743.483	44910.73
743.823	44860.33
744.162	44694.01
744.502	44593.67
744.841	44599.32
745.181	44711.64
745.52	44508.25
745.86	44494.01
746.199	44265.32
746.538	44157.07
746.877	44185.77
747.216	44113.91
747.556	43816.07
747.895	43773.58
748.234	43620.82
748.573	43674.15
748.911	43392.35
749.25	43438
749.589	43396.19
749.928	43383.99
750.267	43275.29
750.605	43219.47
750.944	43089.53
751.283	43006.82
751.621	43073.49
751.96	42754.85
752.298	42874.62
