Data from aluminium_surface_pro_back_FLMS001491_00087.txt Node
Date: Wed Feb 08 15:34:40 GMT 2017
User: dcchb
Spectrometer: FLMS00149
Trigger mode: 0
Integration Time (sec): 2.000000E-2
Scans to average: 10
Electric dark correction enabled: true
Nonlinearity correction enabled: false
Boxcar width: 0
XAxis mode: Wavelengths
Number of Pixels in Spectrum: 2048
>>>>>Begin Spectral Data<<<<<
341.393	-5.61
341.776	-5.61
342.16	-5.61
342.543	-76.34
342.927	-53.52
343.31	-92.84
343.693	-82.44
344.077	-78.83
344.46	-42.44
344.843	-54.19
345.226	-28.66
345.61	-25.49
345.993	-6.96
346.376	-23.46
346.759	6.6
347.142	35.75
347.525	42.98
347.908	57.89
348.291	72.81
348.674	100.38
349.057	118.91
349.44	118.91
349.823	135.41
350.206	180.15
350.588	230.54
350.971	230.77
351.354	272.8
351.737	264.67
352.119	282.29
352.502	303.76
352.884	298.11
353.267	331.11
353.65	289.3
354.032	333.82
354.414	358.68
354.797	360.48
355.179	372.91
355.562	346.47
355.944	372.01
356.326	364.1
356.709	371.56
357.091	346.25
357.473	392.8
357.855	381.95
358.238	389.41
358.62	378.11
359.002	372.91
359.384	378.79
359.766	388.28
360.148	382.63
360.53	413.14
360.912	395.29
361.294	370.2
361.676	367.49
362.057	362.07
362.439	399.58
362.821	382.86
363.203	386.25
363.584	361.84
363.966	348.51
364.348	365
364.729	363.65
365.111	377.21
365.493	387.83
365.874	368.17
366.256	381.05
366.637	382.18
367.019	369.07
367.4	378.79
367.781	365
368.163	376.76
368.544	375.85
368.925	381.95
369.306	391.22
369.688	379.02
370.069	385.57
370.45	386.25
370.831	395.51
371.212	372.46
371.593	390.77
371.974	390.31
372.355	403.2
372.736	404.1
373.117	401.84
373.498	383.54
373.879	406.13
374.26	382.86
374.641	394.83
375.021	402.07
375.402	405.46
375.783	406.81
376.163	423.08
376.544	438.45
376.925	427.83
377.305	422.86
377.686	429.41
378.066	435.29
378.447	432.57
378.827	430.31
379.208	424.21
379.588	428.51
379.968	447.49
380.349	451.33
380.729	428.51
381.109	479.35
381.489	462.18
381.87	469.86
382.25	459.01
382.63	454.72
383.01	485
383.39	484.1
383.77	476.87
384.15	485.68
384.53	477.54
384.91	502.63
385.29	497.43
385.67	505.57
386.049	493.14
386.429	526.36
386.809	504.66
387.189	531.1
387.568	507.37
387.948	531.55
388.328	522.97
388.707	545.11
389.087	546.02
389.466	562.97
389.846	575.85
390.225	577.88
390.605	562.74
390.984	576.52
391.363	596.41
391.743	592.8
392.122	590.76
392.501	619.91
392.881	634.38
393.26	597.09
393.639	627.37
394.018	622.4
394.397	626.92
394.776	638.67
395.155	646.35
395.534	656.75
395.913	677.99
396.292	653.36
396.671	670.76
397.05	707.14
397.429	711.89
397.808	679.57
398.186	710.53
398.565	718.44
398.944	697.2
399.323	723.41
399.701	741.72
400.08	731.55
400.458	774.03
400.837	755.28
401.215	792.34
401.594	770.19
401.972	774.94
402.351	800.25
402.729	800.02
403.107	836.18
403.486	815.84
403.864	837.53
404.242	846.12
404.62	853.13
404.999	847.03
405.377	868.04
405.755	859.45
406.133	866.23
406.511	873.92
406.889	903.3
407.267	913.46
407.645	921.83
408.023	957.08
408.401	960.02
408.779	996.17
409.156	964.08
409.534	1007.25
409.912	1019.45
410.29	1030.75
410.667	1052.44
411.045	1060.35
411.422	1060.13
411.8	1088.15
412.178	1113.69
412.555	1115.95
412.933	1110.75
413.31	1159.79
413.687	1166.79
414.065	1160.24
414.442	1176.73
414.819	1209.95
415.197	1218.99
415.574	1227.35
415.951	1255.6
416.328	1244.3
416.705	1271.87
417.082	1293.79
417.46	1302.38
417.837	1297.86
418.214	1309.16
418.591	1321.82
418.967	1345.09
419.344	1377.86
419.721	1380.35
420.098	1385.32
420.475	1411.98
420.852	1429.38
421.228	1439.55
421.605	1452.21
421.982	1480
422.358	1483.17
422.735	1496.73
423.111	1528.36
423.488	1531.3
423.864	1532.66
424.241	1547.12
424.617	1560.23
424.994	1615.14
425.37	1598.42
425.746	1583.96
426.123	1638.64
426.499	1655.59
426.875	1671.86
427.251	1696.49
427.627	1722.03
428.003	1758.41
428.379	1745.99
428.756	1770.17
429.132	1856.04
429.507	1818.75
429.883	1863.95
430.259	1878.86
430.635	1905.75
431.011	1925.19
431.387	1969.26
431.763	2005.19
432.138	1994.79
432.514	2031.85
432.89	2065.52
433.265	2136.71
433.641	2138.07
434.016	2151.62
434.392	2188.01
434.767	2231.62
435.143	2209.93
435.518	2249.93
435.894	2262.58
436.269	2287.21
436.644	2339.64
437.02	2388
437.395	2368.79
437.77	2352.97
438.145	2462.12
438.52	2459.41
438.895	2523.14
439.271	2488.34
439.646	2559.52
440.021	2586.64
440.395	2578.51
440.77	2578.73
441.145	2647.43
441.52	2678.39
441.895	2680.2
442.27	2705.28
442.645	2684.49
443.019	2757.94
443.394	2745.73
443.769	2796.35
444.143	2765.39
444.518	2855.56
444.892	2848.1
445.267	2855.33
445.641	2895.11
446.016	2929.46
446.39	2931.04
446.764	2940.76
447.139	2941.66
447.513	3012.84
447.887	3046.52
448.262	3031.6
448.636	3030.25
449.01	3027.08
449.384	3069.11
449.758	3109.57
450.132	3201.09
450.506	3164.25
450.88	3209.22
451.254	3211.26
451.628	3252.16
452.002	3313.18
452.376	3321.31
452.75	3376.68
453.123	3401.31
453.497	3465.26
453.871	3491.7
454.244	3560.17
454.618	3569.44
454.992	3665.48
455.365	3650.12
455.739	3754.07
456.112	3756.78
456.486	3832.26
456.859	3842.43
457.232	3922.65
457.606	3916.78
457.979	3996.1
458.352	4038.81
458.725	4118.13
459.099	4145.7
459.472	4199.03
459.845	4257.33
460.218	4281.06
460.591	4332.36
460.964	4323.32
461.337	4497.1
461.71	4509.53
462.083	4591.33
462.456	4632.91
462.829	4638.34
463.201	4746.81
463.574	4685.57
463.947	4836.75
464.32	4906.13
464.692	4933.25
465.065	5008.95
465.438	5089.63
465.81	5157.87
466.183	5198.1
466.555	5335.95
466.928	5349.73
467.3	5317.42
467.672	5474.93
468.045	5598.54
468.417	5596.05
468.789	5655.03
469.161	5712.89
469.534	5842.6
469.906	5991.75
470.278	6002.6
470.65	6047.57
471.022	6204.17
471.394	6276.94
471.766	6411.85
472.138	6410.27
472.51	6596.25
472.882	6653.43
473.253	6732.52
473.625	6862.23
473.997	6964.83
474.369	7056.81
474.74	7149.23
475.112	7272.39
475.484	7464.25
475.855	7570.24
476.227	7643.46
476.598	7836.45
476.97	7915.99
477.341	8061.3
477.713	8225.59
478.084	8292.71
478.455	8551.68
478.827	8640.95
479.198	8850.88
479.569	8879.36
479.94	9147.82
480.311	9226.92
480.682	9384.88
481.053	9623.97
481.424	9791.88
481.795	9930.4
482.166	10062.6
482.537	10181.7
482.908	10428.24
483.279	10524.74
483.65	10668.91
484.021	10931.51
484.391	11004.95
484.762	11130.37
485.133	11246.75
485.503	11477.48
485.874	11731.26
486.244	11881.54
486.615	12059.39
486.985	12180.06
487.356	12365.82
487.726	12596.77
488.097	12906.14
488.467	12909.08
488.837	13133.03
489.207	13324.66
489.578	13488.5
489.948	13624.09
490.318	13842.16
490.688	13799.68
491.058	14159.44
491.428	14358.31
491.798	14490.51
492.168	14690.5
492.538	14793.1
492.908	15051.85
493.278	15256.36
493.648	15185.86
494.017	15388.34
494.387	15582.23
494.757	15739.97
495.126	15940.87
495.496	16005.27
495.866	16083.69
496.235	16302.66
496.605	16413.62
496.974	16473.96
497.344	16692.94
497.713	16777.45
498.082	16912.37
498.452	17081.63
498.821	17226.48
499.19	17260.38
499.559	17527.72
499.928	17585.79
500.298	17741.04
500.667	17900.59
501.036	17963.86
501.405	18103.52
501.774	18162.28
502.143	18333.35
502.512	18402.27
502.88	18702.83
503.249	18585.99
503.618	18764.29
503.987	18851.75
504.356	19039.32
504.724	19105.75
505.093	19281.57
505.462	19396.37
505.83	19591.39
506.199	19699.86
506.567	19917.71
506.936	19940.54
507.304	20250.36
507.672	20384.59
508.041	20446.51
508.409	20524.47
508.777	20795.88
509.145	20889.66
509.514	21009.21
509.882	21093.27
510.25	21222.76
510.618	21435.41
510.986	21565.13
511.354	21810.99
511.722	22013.02
512.09	22248.72
512.458	22179.35
512.826	22421.83
513.193	22550.41
513.561	22686
513.929	22771.2
514.297	23083.5
514.664	23296.38
515.032	23327.11
515.4	23676.71
515.767	23638.74
516.135	23910.6
516.502	23793.09
516.869	24206.86
517.237	24472.85
517.604	24297.93
517.972	24689.11
518.339	24973.4
518.706	24761.43
519.073	25072.38
519.44	25441.41
519.808	25627.84
520.175	25622.65
520.542	25938.8
520.909	26126.59
521.276	26221.95
521.643	26454.49
522.009	26772.67
522.376	26832.11
522.743	26999.33
523.11	27343.96
523.477	27637.06
523.843	27755.92
524.21	28119.08
524.577	28380.99
524.943	28474.77
525.31	28694.43
525.676	29065.94
526.043	29135.55
526.409	29307.52
526.776	29592.71
527.142	29624.57
527.508	29968.29
527.874	30158.8
528.241	30425.23
528.607	30463.65
528.973	30814.37
529.339	30868.84
529.705	31228.6
530.071	31459.78
530.437	31640.79
530.803	31820
531.169	32059.31
531.535	32002.36
531.901	32130.72
532.267	32286.2
532.632	32593.08
532.998	32577.49
533.364	33028.33
533.73	33096.8
534.095	33355.1
534.461	33469.67
534.826	33622.44
535.192	33688.2
535.557	33987.4
535.923	33928.42
536.288	34139.03
536.653	34358.91
537.019	34393.49
537.384	34486.59
537.749	34639.36
538.114	34825.79
538.479	34919.35
538.845	35098.55
539.21	34945.79
539.575	35296.29
539.94	35377.42
540.305	35575.6
540.67	35456.74
541.034	35699.22
541.399	35794.81
541.764	35887.23
542.129	36052.65
542.494	36244.29
542.858	36349.82
543.223	36333.1
543.587	36654.67
543.952	36554.56
544.316	36753.65
544.681	36742.58
545.045	36983.02
545.41	37110.48
545.774	37261.21
546.138	37296.01
546.503	37575.33
546.867	37563.8
547.231	37888.54
547.595	37982.77
547.959	38184.8
548.324	38175.08
548.688	38284.69
549.052	38502.98
549.416	38481.29
549.779	38591.34
550.143	38813.49
550.507	39106.58
550.871	39050.99
551.235	39050.99
551.599	39312.46
551.962	39476.97
552.326	39460.47
552.689	39562.62
553.053	39578.66
553.417	39739.34
553.78	40100
554.143	39999.22
554.507	40301.13
554.87	40291.19
555.234	40748.35
555.597	40547.45
555.96	40870.83
556.323	41129.36
556.686	41191.28
557.05	41509.01
557.413	41393.53
557.776	41475.34
558.139	41879.62
558.502	41933.18
558.865	42125.94
559.228	42465.59
559.59	42526.61
559.953	42533.84
560.316	43062.41
560.679	43111.45
561.041	43388.73
561.404	43529.29
561.767	43867.36
562.129	43761.38
562.492	44193.68
562.854	44176.96
563.217	44234.13
563.579	44446.33
563.941	44690.17
564.304	44942.14
564.666	45201.79
565.028	45410.83
565.39	45479.3
565.753	45731.04
566.115	45901.66
566.477	46035.89
566.839	46136.91
567.201	46459.16
567.563	46584.58
567.925	46804.91
568.287	46812.6
568.648	46919.49
569.01	47133.04
569.372	47641.73
569.734	47359.48
570.095	47624.33
570.457	47881.72
570.819	47878.56
571.18	47982.51
571.542	48232.45
571.903	48287.81
572.265	48469.05
572.626	48621.36
572.987	48686.45
573.349	48863.16
573.71	49001.69
574.071	49200.56
574.432	49220.67
574.794	49476.71
575.155	49403.72
575.516	49423.83
575.877	49643.48
576.238	49654.33
576.599	49926.41
576.96	49923.25
577.32	49956.92
577.681	50137.26
578.042	50311.94
578.403	50341.32
578.763	50219.51
579.124	50352.84
579.485	50485.49
579.845	50584.7
580.206	50653.85
580.566	50692.27
580.927	50633.29
581.287	50893.17
581.648	50739.27
582.008	50848.65
582.368	50828.54
582.728	50971.81
583.089	50821.98
583.449	50859.95
583.809	51032.37
584.169	51104.46
584.529	51039.6
584.889	51278.69
585.249	51209.32
585.609	51104.46
585.969	51318.02
586.329	51131.13
586.688	51191.92
587.048	51186.27
587.408	51209.54
587.768	51162.54
588.127	51185.14
588.487	51190.79
588.846	51423.55
589.206	51166.38
589.565	51163.44
589.925	51316.43
590.284	51202.31
590.643	51332.7
591.003	51353.72
591.362	51336.77
591.721	51333.83
592.08	51385.81
592.44	51489.99
592.799	51412.48
593.158	51407.05
593.517	51413.61
593.876	51539.03
594.235	51382.19
594.593	51457.9
594.952	51581.74
595.311	51438.92
595.67	51655.63
596.029	51715.07
596.387	51771.11
596.746	51786.93
597.104	51537.44
597.463	51633.26
597.822	51788.51
598.18	51579.93
598.538	51701.51
598.897	51742.18
599.255	51644.56
599.613	52069.86
599.972	51882.07
600.33	51901.05
600.688	51895.63
601.046	51897.43
601.404	52049.75
601.762	51929.52
602.12	52208.39
602.478	52043.87
602.836	52216.75
603.194	52072.12
603.552	52034.15
603.91	52011.33
604.268	52119.8
604.625	52066.24
604.983	52335.84
605.341	52122.51
605.698	52171.55
606.056	52273.47
606.413	52237.76
606.771	52345.11
607.128	52423.97
607.485	52254.04
607.843	52327.93
608.2	52541.26
608.557	52598.21
608.914	52433.92
609.272	52605.66
609.629	52625.55
609.986	52766.11
610.343	52510.75
610.7	52808.37
611.057	52760.01
611.414	52698.54
611.771	52818.31
612.127	52818.77
612.484	52901.25
612.841	53002.04
613.198	52902.15
613.554	52890.4
613.911	53119.55
614.267	53137.18
614.624	53038.65
614.98	53134.92
615.337	53289.04
615.693	53174.69
616.05	53161.36
616.406	53455.59
616.762	53238.19
617.118	53257.17
617.475	53287.91
617.831	53354.12
618.187	53306.66
618.543	53457.85
618.899	53539.2
619.255	53427.56
619.611	53530.84
619.967	53487
620.323	53549.14
620.678	53483.16
621.034	53463.72
621.39	53508.24
621.746	53392.54
622.101	53732.41
622.457	53491.07
622.812	53597.73
623.168	53755.01
623.523	53742.36
623.879	53795.01
624.234	53590.72
624.589	53738.06
624.945	53726.99
625.3	53783.49
625.655	53709.14
626.01	53842.47
626.365	53787.1
626.72	53717.73
627.075	53708.69
627.43	53658.07
627.785	53602.02
628.14	53728.35
628.495	53676.6
628.85	53574.45
629.205	53577.62
629.559	53765.18
629.914	53548.24
630.269	53694.9
630.623	53512.31
630.978	53482.93
631.332	53560.67
631.687	53532.87
632.041	53413.55
632.396	53508.92
632.75	53503.04
633.104	53423.5
633.459	53252.88
633.813	53295.59
634.167	53309.83
634.521	53308.47
634.875	53294.91
635.229	53251.3
635.583	53071.64
635.937	53014.02
636.291	52960.91
636.645	52983.06
636.999	52813.34
637.352	52929.27
637.706	52657.19
638.06	52720.24
638.413	52670.07
638.767	52555.27
639.121	52513.01
639.474	52438.21
639.828	52406.57
640.181	52363.64
640.534	52446.12
640.888	52313.24
641.241	52170.2
641.594	52293.81
641.947	52357.76
642.301	52193.02
642.654	52177.43
643.007	52286.35
643.36	52176.75
643.713	52017.88
644.066	52237.09
644.419	52088.62
644.771	51923.2
645.124	51580.16
645.477	51521.85
645.83	51349.65
646.182	51118.92
646.535	51138.81
646.888	51135.2
647.24	50894.98
647.593	51169.77
647.945	50989.21
648.298	50789.44
648.65	50825.15
649.002	50683
649.355	50739.95
649.707	50713.96
650.059	50857.69
650.411	51251.8
650.763	51342.87
651.115	51571.57
651.467	51435.98
651.819	51338.81
652.171	51294.96
652.523	51276.66
652.875	51259.49
653.227	51080.73
653.578	51374.51
653.93	51144.69
654.282	51083.67
654.633	51011.36
654.985	51080.96
655.337	51032.15
655.688	51095.2
656.039	51159.15
656.391	50854.52
656.742	50858.59
657.094	50877.12
657.445	50970
657.796	50859.95
658.147	50854.52
658.498	50811.59
658.849	50779.95
659.2	50786.73
659.551	50618.82
659.902	50778.82
660.253	50619.5
660.604	50676
660.955	50499.51
661.306	50617.24
661.656	50529.34
662.007	50575.21
662.358	50426.97
662.708	50512.61
663.059	50400.53
663.409	50292.73
663.76	50477.36
664.11	50484.14
664.461	50524.59
664.811	50492.27
665.161	50445.5
665.511	50289.34
665.862	50346.29
666.212	50393.97
666.562	50369.34
666.912	50212.06
667.262	50252.51
667.612	50101.55
667.962	50207.54
668.312	50300.87
668.662	50298.38
669.011	50241.89
669.361	50096.58
669.711	50083.02
670.06	50007.77
670.41	50042.57
670.76	49984.04
671.109	50051.16
671.459	49934.55
671.808	49911.5
672.157	50090.93
672.507	49733.42
672.856	49825.85
673.205	49956.47
673.554	49977.94
673.904	49925.06
674.253	50128.89
674.602	49881.22
674.951	49379.53
675.3	49255.47
675.649	49874.44
675.998	49737.49
676.346	49777.94
676.695	49828.34
677.044	49511.06
677.393	49694.78
677.741	49736.14
678.09	49543.37
678.438	49602.81
678.787	49628.12
679.135	49553.99
679.484	49242.36
679.832	49436.48
680.181	49180.22
680.529	49401.91
680.877	49173.21
681.225	49113.78
681.573	49360.33
681.922	49000.11
682.27	48927.57
682.618	48898.19
682.966	48914.69
683.314	48995.36
683.661	48707.91
684.009	48591.31
684.357	48552.89
684.705	48389.28
685.053	48521.7
685.4	48355.83
685.748	48193.8
686.095	48216.85
686.443	48057.54
686.79	48032
687.138	48002.17
687.485	48010.08
687.832	47829.29
688.18	47794.04
688.527	47528.06
688.874	47684.21
689.221	47606.02
689.568	47492.58
689.915	47391.34
690.262	47369.42
690.609	47190.21
690.956	47152.7
691.303	47147.28
691.65	46883.56
691.997	46800.62
692.344	46610.34
692.69	46562.43
693.037	46539.84
693.383	46197.92
693.73	46406.28
694.077	46130.35
694.423	46059.4
694.769	45997.03
695.116	45768.78
695.462	45776.24
695.808	45677.71
696.155	45808.78
696.501	45276.59
696.847	45405.4
697.193	45057.16
697.539	45293.77
697.885	45095.13
698.231	44915.92
698.577	44743.27
698.923	44677.96
699.269	44574.92
699.614	44477.06
699.96	44255.6
700.306	44243.62
700.651	44147.13
700.997	44008.15
701.342	43896.52
701.688	43885.89
702.033	43474.38
702.379	43532.23
702.724	43415.85
703.069	43648.39
703.415	43127.72
703.76	43078.91
704.105	43203.65
704.45	43047.27
704.795	42857.67
705.14	42659.26
705.485	42708.75
705.83	42546.95
706.175	42533.16
706.52	42379.49
706.865	42199.38
707.209	42270.57
707.554	42171.36
707.899	42202.32
708.243	42031.48
708.588	41797.14
708.932	41657.25
709.277	41540.65
709.621	41616.58
709.966	41338.16
710.31	41572.28
710.654	41081
710.998	41179.07
711.342	41145.85
711.687	40901.57
712.031	40764.17
712.375	40684.4
712.719	40847.56
713.063	40829.7
713.407	40731.4
713.75	40488.92
714.094	40519.88
714.438	40264.75
714.782	40315.37
715.125	40023.17
715.469	40276.72
715.812	39987.24
716.156	39815.94
716.499	39790.18
716.843	39689.85
717.186	39580.24
717.53	39714.7
717.873	39744.99
718.216	39518.1
718.559	39347.71
718.902	39247.15
719.246	39212.57
719.589	39141.16
719.932	39054.83
720.275	39011.67
720.617	38978.45
720.96	38916.08
721.303	38773.94
721.646	38847.61
721.989	38658.23
722.331	38668.86
722.674	38474.06
723.016	38624.34
723.359	38376.89
723.701	38556.99
724.044	38084.69
724.386	37972.38
724.729	38233.39
725.071	38029.32
725.413	37975.09
725.755	37868.2
726.097	37605.83
726.439	37616.91
726.782	37662.78
727.124	37859.39
727.465	37518.38
727.807	37530.58
728.149	37402
728.491	37366.74
728.833	37332.39
729.175	37169.46
729.516	37085.85
729.858	37145.51
730.199	37125.17
730.541	36858.73
730.882	36903.03
731.224	37107.99
731.565	36752.07
731.906	36622.36
732.248	36820.77
732.589	36393.44
732.93	36279.31
733.271	36308.24
733.612	36370.16
733.953	36318.41
734.294	36265.98
734.635	36137.4
734.976	36219.2
735.317	35894.47
735.658	35932.66
735.999	35894.01
736.339	35863.73
736.68	35873.68
737.021	35842.49
737.361	35703.28
737.702	35746.45
738.042	35582.61
738.383	35542.84
738.723	35602.72
739.063	35331.99
739.404	35501.03
739.744	35433.46
740.084	35211.55
740.424	35266.46
740.764	35135.84
741.104	35257.65
741.444	35018.56
741.784	34999.12
742.124	34951.44
742.464	34968.39
742.804	34888.16
743.143	34667.15
743.483	34716.19
743.823	34508.06
744.162	34464.45
744.502	34485.46
744.841	34366.14
745.181	34522.3
745.52	34281.17
745.86	34292.93
746.199	34221.06
746.538	34139.94
746.877	34095.64
747.216	34084.8
747.556	33885.93
747.895	33924.12
748.234	33796.89
748.573	33674.64
748.911	33678.93
749.25	33623.79
749.589	33397.81
749.928	33544.92
750.267	33489.11
750.605	33420.63
750.944	33092.51
751.283	33160.75
751.621	33217.93
751.96	32975.22
752.298	32956.01
752.636	32984.94
752.975	32910.82
