Data from aluminium_macbook_case_FLMS001491_066.txt Node
Date: Tue Feb 07 10:44:02 GMT 2017
User: dcchb
Spectrometer: FLMS00149
Trigger mode: 0
Integration Time (sec): 2.000000E-2
Scans to average: 10
Electric dark correction enabled: true
Nonlinearity correction enabled: false
Boxcar width: 0
XAxis mode: Wavelengths
Number of Pixels in Spectrum: 2048
>>>>>Begin Spectral Data<<<<<
341.393	-9.87
341.776	-9.87
342.16	-9.87
342.543	-40.61
342.927	-63.88
343.31	-79.7
343.693	-75.63
344.077	-63.66
344.46	-49.87
344.843	-34.73
345.226	-45.8
345.61	-19.82
345.993	-22.3
346.376	-17.78
346.759	21.99
347.142	25.61
347.525	41.43
347.908	50.46
348.291	70.8
348.674	92.72
349.057	106.28
349.44	123.46
349.823	152.16
350.206	189.22
350.588	234.19
350.971	267.41
351.354	270.35
351.737	275.32
352.119	318.25
352.502	331.81
352.884	328.88
353.267	351.7
353.65	356.22
354.032	329.1
354.414	353.96
354.797	377.24
355.179	374.75
355.562	389.44
355.944	392.15
356.326	401.64
356.709	383.11
357.091	401.42
357.473	413.17
357.855	420.4
358.238	395.09
358.62	407.74
359.002	403
359.384	432.38
359.766	408.65
360.148	397.57
360.53	412.26
360.912	406.61
361.294	396.44
361.676	425.14
362.057	410.68
362.439	438.03
362.821	405.26
363.203	423.56
363.584	415.65
363.966	415.88
364.348	425.6
364.729	412.72
365.111	431.92
365.493	403.68
365.874	426.73
366.256	439.83
366.637	439.61
367.019	422.43
367.4	422.21
367.781	438.93
368.163	402.09
368.544	409.33
368.925	424.92
369.306	416.78
369.688	449.32
370.069	438.48
370.45	430.12
370.831	441.41
371.212	455.43
371.593	451.13
371.974	482.77
372.355	475.99
372.736	460.62
373.117	456.56
373.498	461.08
373.879	439.83
374.26	478.93
374.641	460.62
375.021	471.02
375.402	485.93
375.783	508.31
376.163	487.74
376.544	511.47
376.925	509.44
377.305	503.79
377.686	514.41
378.066	507.63
378.447	514.18
378.827	541.07
379.208	525.25
379.588	520.28
379.968	562.77
380.349	537.01
380.729	547.4
381.109	550.79
381.489	570.23
381.87	569.32
382.25	567.97
382.63	577.68
383.01	566.61
383.39	570.68
383.77	583.56
384.15	599.83
384.53	603.67
384.91	596.21
385.29	637.34
385.67	647.29
386.049	636.44
386.429	624.91
386.809	664.69
387.189	657.91
387.568	660.17
387.948	663.56
388.328	674.18
388.707	699.94
389.087	687.74
389.466	699.26
389.846	725.93
390.225	710.11
390.605	751.92
390.984	740.84
391.363	743.33
391.743	735.19
392.122	796.66
392.501	758.02
392.881	814.74
393.26	808.41
393.639	808.41
394.018	811.35
394.397	833.27
394.776	845.7
395.155	841.63
395.534	824.46
395.913	855.87
396.292	902.19
396.671	879.37
397.05	884.79
397.429	889.54
397.808	909.88
398.186	918.01
398.565	912.59
398.944	926.6
399.323	930.44
399.701	939.71
400.08	954.85
400.458	954.17
400.837	983.1
401.215	997.78
401.594	1008.18
401.972	1026.48
402.351	1043.21
402.729	1061.51
403.107	1067.61
403.486	1067.84
403.864	1049.53
404.242	1095.18
404.62	1130.21
404.999	1109.19
405.377	1099.02
405.755	1148.74
406.133	1169.76
406.511	1182.86
406.889	1189.42
407.267	1226.03
407.645	1216.76
408.023	1247.72
408.401	1263.77
408.779	1253.82
409.156	1292.01
409.534	1299.7
409.912	1337.89
410.29	1362.52
410.667	1359.58
411.045	1410.88
411.422	1417.66
411.8	1424.21
412.178	1454.95
412.555	1499.01
412.933	1497.66
413.31	1516.19
413.687	1543.98
414.065	1560.48
414.442	1568.16
414.819	1603.64
415.197	1602.51
415.574	1653.81
415.951	1641.84
416.328	1678.44
416.705	1694.94
417.082	1700.14
417.46	1741.27
417.837	1758.22
418.214	1757.09
418.591	1792.79
418.967	1769.52
419.344	1827.82
419.721	1848.84
420.098	1827.14
420.475	1884.77
420.852	1918.44
421.228	1956.18
421.605	1940.81
421.982	1963.86
422.358	2022.39
422.735	2004.31
423.111	2052.67
423.488	2047.25
423.864	2075.5
424.241	2110.3
424.617	2122.27
424.994	2144.87
425.37	2181.03
425.746	2222.16
426.123	2244.31
426.499	2239.33
426.875	2290.86
427.251	2303.51
427.627	2373.34
428.003	2400.69
428.379	2409.95
428.756	2446.33
429.132	2480.68
429.507	2560
429.883	2575.14
430.259	2620.57
430.635	2655.37
431.011	2665.76
431.387	2734.46
431.763	2769.04
432.138	2786.44
432.514	2862.82
432.89	2875.7
433.265	2941.91
433.641	2966.32
434.016	2993.66
434.392	3011.29
434.767	3133.32
435.143	3107.56
435.518	3122.02
435.894	3161.57
436.269	3214.68
436.644	3312.53
437.02	3311.62
437.395	3333.99
437.77	3370.6
438.145	3435.23
438.52	3459.41
438.895	3490.37
439.271	3555.23
439.646	3598.85
440.021	3664.16
440.395	3638.17
440.77	3645.85
441.145	3717.26
441.52	3804.49
441.895	3759.29
442.27	3833.42
442.645	3837.71
443.019	3883.81
443.394	3894.43
443.769	3930.59
444.143	3944.37
444.518	4026.41
444.892	4050.59
445.267	4080.64
445.641	4133.52
446.016	4106.18
446.39	4087.65
446.764	4170.36
447.139	4213.97
447.513	4285.16
447.887	4257.59
448.262	4258.49
448.636	4342.56
449.01	4355.44
449.384	4451.03
449.758	4474.76
450.132	4519.95
450.506	4574.19
450.88	4615.54
451.254	4590.68
451.628	4719.72
452.002	4802.66
452.376	4806.05
452.75	4801.07
453.123	4912.94
453.497	4955.87
453.871	4997.23
454.244	5109.77
454.618	5142.08
454.992	5252.81
455.365	5187.28
455.739	5369.65
456.112	5430.66
456.486	5462.07
456.859	5459.59
457.232	5619.36
457.606	5594.27
457.979	5733.25
458.352	5878.56
458.725	5931.67
459.099	5972.34
459.472	6068.16
459.845	6135.73
460.218	6169.63
460.591	6253.47
460.964	6285.78
461.337	6429.05
461.71	6566.68
462.083	6607.58
462.456	6675.15
462.829	6682.15
463.201	6810.74
463.574	6864.97
463.947	6960.79
464.32	7092.31
464.692	7122.37
465.065	7242.59
465.438	7367.11
465.81	7506.77
466.183	7556.93
466.555	7719.64
466.928	7807.77
467.3	7713.99
467.672	7950.14
468.045	8131.83
468.417	8105.62
468.789	8199.4
469.161	8305.16
469.534	8461.54
469.906	8696.11
470.278	8690.24
470.65	8838.71
471.022	9026.27
471.394	9235.08
471.766	9283.67
472.138	9386.94
472.51	9593.72
472.882	9754.39
473.253	9865.57
473.625	10011.33
473.997	10247.48
474.369	10293.13
474.74	10385.11
475.112	10637.76
475.484	10843.63
475.855	11049.5
476.227	11141.7
476.598	11471.41
476.97	11559.09
477.341	11840.21
477.713	11875.92
478.084	12047.89
478.455	12386.41
478.827	12459.86
479.198	12858.49
479.569	12841.31
479.94	13260.74
480.311	13406.5
480.682	13686.49
481.053	13992.47
481.424	14233.59
481.795	14243.09
482.166	14563.08
482.537	14835.16
482.908	15100.01
483.279	15321.7
483.65	15664.97
484.021	15873.78
484.391	16047.33
484.762	16295.01
485.133	16494.1
485.503	16654.1
485.874	17061.54
486.244	17193.74
486.615	17570.23
486.985	17690.68
487.356	18066.94
487.726	18221.06
488.097	18550.77
488.467	18657.66
488.837	19032.11
489.207	19335.38
489.578	19560.46
489.948	19800.68
490.318	20084.97
490.688	20029.6
491.058	20444.96
491.428	20656.25
491.798	20946.64
492.168	21432.95
492.538	21532.61
492.908	21714.08
493.278	21974.63
493.648	22079.94
494.017	22415.53
494.387	22553.83
494.757	22696.2
495.126	23017.09
495.496	23173.47
495.866	23401.26
496.235	23629.96
496.605	23856.84
496.974	24028.82
497.344	24305.65
497.713	24403.5
498.082	24653.89
498.452	24913.31
498.821	24984.05
499.19	25036.7
499.559	25318.05
499.928	25494.77
500.298	25791.26
500.667	25912.38
501.036	25881.65
501.405	26175.2
501.774	26332.71
502.143	26531.12
502.512	26565.25
502.88	26891.11
503.249	26814.05
503.618	27280.94
503.987	27408.84
504.356	27569.74
504.724	27749.17
505.093	27982.61
505.462	28110.29
505.83	28261.47
506.199	28527.91
506.567	29020.78
506.936	28893.77
507.304	29388.45
507.672	29375.57
508.041	29588.67
508.409	29899.85
508.777	30085.38
509.145	30302.32
509.514	30451.25
509.882	30577.57
510.25	30738.92
510.618	30874.51
510.986	31154.51
511.354	31447.61
511.722	31688.28
512.09	31945.45
512.458	31991.77
512.826	32157.19
513.193	32389.73
513.561	32537.29
513.929	32813.67
514.297	33097.51
514.664	33273.32
515.032	33593.09
515.4	33834.89
515.767	33923.47
516.135	34114.43
516.502	34151.94
516.869	34767.97
517.237	34934.97
517.604	34924.58
517.972	35312.36
518.339	35584.45
518.706	35796.19
519.073	36012.23
519.44	36332.45
519.808	36675.26
520.175	36597.3
520.542	37229.6
520.909	37548.46
521.276	37307.79
521.643	37948.68
522.009	38229.57
522.376	38438.16
522.743	38719.5
523.11	39111.36
523.477	39385.7
523.843	39666.82
524.21	40082.63
524.577	40269.29
524.943	40491.21
525.31	40704.54
525.676	41023.62
526.043	41186.78
526.409	41240.79
526.776	41845.75
527.142	41990.38
527.508	42109.02
527.874	42495.9
528.241	42677.37
528.607	42854.31
528.973	43468.08
529.339	43321.19
529.705	43753.27
530.071	44230.55
530.437	44289.75
530.803	44698.1
531.169	44974.03
531.535	44951.66
531.901	45140.35
532.267	45332.44
532.632	45686.78
532.998	45782.14
533.364	46108.01
533.73	46278.4
534.095	46543.25
534.461	46611.27
534.826	46790.48
535.192	46992.06
535.557	47202.67
535.923	47279.28
536.288	47590.91
536.653	47746.84
537.019	47600.85
537.384	47677.91
537.749	47928.98
538.114	48014.85
538.479	48104.79
538.845	48440.38
539.21	48232.7
539.575	48462.07
539.94	48622.97
540.305	48789.52
540.67	48865.23
541.034	48947.26
541.399	49160.13
541.764	49270.41
542.129	49495.49
542.494	49650.29
542.858	49738.2
543.223	49835.82
543.587	49970.73
543.952	50132.99
544.316	50201.01
544.681	50322.59
545.045	50554.67
545.41	50677.61
545.774	50800.32
546.138	50827.89
546.503	51008.9
546.867	50947.43
547.231	51442.56
547.595	51419.74
547.959	51551.48
548.324	51644.59
548.688	51647.75
549.052	51737.92
549.416	51846.62
549.779	51966.61
550.143	51997.12
550.507	52201.64
550.871	52293.16
551.235	52315.76
551.599	52552.14
551.962	52584.9
552.326	52728.85
552.689	52888.17
553.053	52686.37
553.417	52909.41
553.78	53250.42
554.143	53083.42
554.507	53297.88
554.87	53420.13
555.234	53662.61
555.597	53583.52
555.96	53771.31
556.323	53839.78
556.686	53959.33
557.05	54169.95
557.413	54309.38
557.776	54465.53
558.139	54569.94
558.502	54668.46
558.865	54751.63
559.228	54954.33
559.59	55079.75
559.953	55164.27
560.316	55452.85
560.679	55452.17
561.041	55706.63
561.404	55701.66
561.767	55946.62
562.129	55885.61
562.492	56151.36
562.854	56137.35
563.217	56196.56
563.579	56331.92
563.941	56428.64
564.304	56580.96
564.666	56700.5
565.028	56706.15
565.39	56776.2
565.753	56995.86
566.115	56995.41
566.477	57089.64
566.839	57146.82
567.201	57272.24
567.563	57301.39
567.925	57500.25
568.287	57489.86
568.648	57541.38
569.01	57782.73
569.372	57857.53
569.734	57835.61
570.095	58045.32
570.457	58155.15
570.819	58179.11
571.18	58239.67
571.542	58361.02
571.903	58381.81
572.265	58552.66
572.626	58552.66
572.987	58609.83
573.349	58803.72
573.71	58822.48
574.071	58901.35
574.432	59020.44
574.794	59172.07
575.155	59174.56
575.516	59144.28
575.877	59308.57
576.238	59314.67
576.599	59450.48
576.96	59408.9
577.32	59479.64
577.681	59520.54
578.042	59557.15
578.403	59532.97
578.763	59688.67
579.124	59685.05
579.485	59694.32
579.845	59753.08
580.206	59615.68
580.566	59652.51
580.927	59692.96
581.287	59730.03
581.648	59648.45
582.008	59772.74
582.368	59722.79
582.728	59803.24
583.089	59720.99
583.449	59809.35
583.809	59769.57
584.169	59834.2
584.529	59674.43
584.889	59934.99
585.249	59851.83
585.609	59721.21
585.969	59911.49
586.329	59825.62
586.688	59865.39
587.048	59839.18
587.408	59808.44
587.768	59837.59
588.127	59912.17
588.487	59809.57
588.846	60003.69
589.206	59858.16
589.565	59897.03
589.925	60062.67
590.284	59985.16
590.643	60079.39
591.003	60097.93
591.362	60166.17
591.721	60102.9
592.08	60138.15
592.44	60177.47
592.799	60248.2
593.158	60122.11
593.517	60181.54
593.876	60198.04
594.235	60124.37
594.593	60198.49
594.952	60190.35
595.311	60120.3
595.67	60196.45
596.029	60229.9
596.387	60222.22
596.746	60247.53
597.104	60145.38
597.463	60106.96
597.822	60210.01
598.18	60093.18
598.538	60079.39
598.897	60217.02
599.255	60042.33
599.613	60365.72
599.972	60240.97
600.33	60265.38
600.688	60204.14
601.046	60275.1
601.404	60367.52
601.762	60247.3
602.12	60445.26
602.478	60445.94
602.836	60480.06
603.194	60310.12
603.552	60438.26
603.91	60319.84
604.268	60451.36
604.625	60389.67
604.983	60531.13
605.341	60410.91
605.698	60556.9
606.056	60671.92
606.413	60572.26
606.771	60707.17
607.128	60745.14
607.485	60683.67
607.843	60733.16
608.2	60842.76
608.557	60911.01
608.914	60812.48
609.272	60954.63
609.629	60959.82
609.986	61067.39
610.343	60950.33
610.7	61119.59
611.057	61086.15
611.414	61051.8
611.771	61048.41
612.127	61093.15
612.484	61066.94
612.841	61103.1
613.198	61032.59
613.554	61005.7
613.911	61137.45
614.267	61062.65
614.624	61041.63
614.98	61065.36
615.337	61240.95
615.693	61099.48
616.05	61071.23
616.406	61217.67
616.762	61093.61
617.118	61158.24
617.475	61182.87
617.831	61194.62
618.187	61232.36
618.543	61191.23
618.899	61333.6
619.255	61280.72
619.611	61271.68
619.967	61395.52
620.323	61356.2
620.678	61308.97
621.034	61297.67
621.39	61291.57
621.746	61315.75
622.101	61529.75
622.457	61374.73
622.812	61464.67
623.168	61488.17
623.523	61541.73
623.879	61546.25
624.234	61450.21
624.589	61503.76
624.945	61580.82
625.3	61595.51
625.655	61543.76
626.01	61592.8
626.365	61601.16
626.72	61555.06
627.075	61556.64
627.43	61527.27
627.785	61542.63
628.14	61549.86
628.495	61556.87
628.85	61488.62
629.205	61358.68
629.559	61507.38
629.914	61383.77
630.269	61373.15
630.623	61367.5
630.978	61215.86
631.332	61289.31
631.687	61302.87
632.041	61174.28
632.396	61187.84
632.75	61071.46
633.104	61129.31
633.459	60919.6
633.813	60963.89
634.167	60956.21
634.521	60923.89
634.875	60920.73
635.229	60877.11
635.583	60768.64
635.937	60803.67
636.291	60760.96
636.645	60786.72
636.999	60705.14
637.352	60769.09
637.706	60607.06
638.06	60675.76
638.413	60581.53
638.767	60587.4
639.121	60595.09
639.474	60422.21
639.828	60426.73
640.181	60534.07
640.534	60501.76
640.888	60419.72
641.241	60270.58
641.594	60383.79
641.947	60374.3
642.301	60348.77
642.654	60391.7
643.007	60386.05
643.36	60318.94
643.713	60365.26
644.066	60475.54
644.419	60304.7
644.771	60113.52
645.124	59909.23
645.477	59868.33
645.83	59686.86
646.182	59604.61
646.535	59527.09
646.888	59529.8
647.24	59335.01
647.593	59494.55
647.945	59392.63
648.298	59337.04
648.65	59209.36
649.002	59186.54
649.355	59271.51
649.707	59257.27
650.059	59319.41
650.411	59569.13
650.763	59496.13
651.115	59720.76
651.467	59669.01
651.819	59652.06
652.171	59584.04
652.523	59532.29
652.875	59474.44
653.227	59363.03
653.578	59541.33
653.93	59341.11
654.282	59220.89
654.633	59209.36
654.985	59190.83
655.337	59199.64
655.688	59166.88
656.039	59257.72
656.391	59011.17
656.742	59122.81
657.094	59074.45
657.445	59148.57
657.796	59072.64
658.147	58995.58
658.498	58967.56
658.849	59034.68
659.2	58878.3
659.551	58951.51
659.902	58991.51
660.253	58986.54
660.604	58999.88
660.955	58857.05
661.306	59062.7
661.656	58955.58
662.007	59002.81
662.358	58911.06
662.708	58983.83
663.059	58959.65
663.409	58846.66
663.76	59004.85
664.11	58955.13
664.461	59021.34
664.811	59028.12
665.161	59011.63
665.511	58862.93
665.862	58953.55
666.212	59010.95
666.562	58999.88
666.912	58959.42
667.262	58852.31
667.612	58914.23
667.962	58848.24
668.312	58819.99
668.662	58903.83
669.011	58712.65
669.361	58723.27
669.711	58671.52
670.06	58681.47
670.41	58618.64
670.76	58571.19
671.109	58621.81
671.459	58588.81
671.808	58492.32
672.157	58446.44
672.507	58313.57
672.856	58264.53
673.205	58328.93
673.554	58380.23
673.904	58233.57
674.253	58366.22
674.602	58213.46
674.951	57846.46
675.3	57762.62
675.649	58177.75
675.998	58124.19
676.346	58062.5
676.695	58158.32
677.044	57979.34
677.393	57990.64
677.741	58027.7
678.09	57922.62
678.438	57895.72
678.787	57888.49
679.135	57936.4
679.484	57730.08
679.832	57855.5
680.181	57697.31
680.529	57746.57
680.877	57692.34
681.225	57663.64
681.573	57731.89
681.922	57681.72
682.27	57578.9
682.618	57595.39
682.966	57591.32
683.314	57643.53
683.661	57616.18
684.009	57381.16
684.357	57347.04
684.705	57413.25
685.053	57498.45
685.4	57472.23
685.748	57260.49
686.095	57309.07
686.443	57154.95
686.79	57129.87
687.138	57171
687.485	57075.86
687.832	57026.14
688.18	57001.06
688.527	56894.17
688.874	56835.64
689.221	56851.01
689.568	56750.22
689.915	56661.63
690.262	56623.44
690.609	56534.86
690.956	56482.43
691.303	56354.52
691.65	56257.35
691.997	56235.2
692.344	56026.85
692.69	56041.99
693.037	55988.88
693.383	55794.08
693.73	55819.85
694.077	55607.42
694.423	55573.98
694.769	55451.27
695.116	55388.67
695.462	55350.03
695.808	55229.13
696.155	55228.67
696.501	54931.06
696.847	54958.4
697.193	54740.78
697.539	54865.29
697.885	54652.19
698.231	54508.02
698.577	54481.35
698.923	54396.15
699.269	54324.74
699.614	54194.13
699.96	54115.03
700.306	54168.59
700.651	54058.99
700.997	53903.51
701.342	53850.86
701.688	53762.5
702.033	53761.59
702.379	53763.18
702.724	53634.59
703.069	53721.6
703.415	53259.24
703.76	53376.52
704.105	53378.33
704.45	53265.34
704.795	53100.14
705.14	53124.55
705.485	53010.2
705.83	52848.62
706.175	53008.39
706.52	52828.96
706.865	52734.5
707.209	52786.93
707.554	52682.75
707.899	52800.94
708.243	52599.14
708.588	52540.38
708.932	52422.87
709.277	52441.4
709.621	52349.2
709.966	52133.62
710.31	52176.1
710.654	51906.5
710.998	52075.76
711.342	52105.59
711.687	51896.11
712.031	51827.86
712.375	51537.7
712.719	51615.44
713.063	51523.24
713.407	51597.36
713.75	51428.1
714.094	51297.93
714.438	51181.1
714.782	51103.13
715.125	51001.67
715.469	51031.72
715.812	50880.99
716.156	50603.26
716.499	50547.89
716.843	50651.62
717.186	50400.78
717.53	50550.38
717.873	50455.02
718.216	50338.18
718.559	50138.19
718.902	49834.01
719.246	49958.76
719.589	49773.23
719.932	49522.38
720.275	49476.06
720.617	49590.41
720.96	49359.9
721.303	49256.63
721.646	49301.83
721.989	48977.09
722.331	49234.71
722.674	48975.05
723.016	49112
723.359	48907.26
723.701	48892.34
724.044	48580.04
724.386	48522.64
724.729	48645.35
725.071	48434.05
725.413	48534.16
725.755	48377.56
726.097	48111.57
726.439	48036.55
726.782	48083.33
727.124	48318.35
727.465	48122.2
727.807	48088.98
728.149	47884.91
728.491	47873.61
728.833	47899.38
729.175	47882.65
729.516	47768.98
729.858	47653.05
730.199	47820.06
730.541	47781.87
730.882	47786.84
731.224	47715.65
731.565	47543.91
731.906	47627.07
732.248	47513.85
732.589	47308.88
732.93	47120.64
733.271	47263.01
733.612	47265.27
733.953	47387.98
734.294	47267.3
734.635	47137.36
734.976	47055.56
735.317	46880.65
735.658	46929.23
735.999	46790.03
736.339	46820.99
736.68	46752.06
737.021	46632.97
737.361	46385.07
737.702	46605.4
738.042	46318.85
738.383	46227.33
738.723	46286.54
739.063	46092.87
739.404	46187.78
739.744	46170.16
740.084	45900.11
740.424	45759.77
740.764	45686.78
741.104	45746.66
741.444	45487.69
741.784	45359.33
742.124	45369.5
742.464	45273.46
742.804	45221.48
743.143	45041.6
743.483	44916.86
743.823	44845.22
744.162	44823.98
744.502	44703.08
744.841	44519.13
745.181	44578.33
745.52	44424.44
745.86	44470.99
746.199	44212.69
746.538	44147.38
746.877	44189.19
747.216	44026.48
747.556	43877.33
747.895	43755.08
748.234	43738.58
748.573	43519.38
748.911	43548.53
749.25	43544.24
749.589	43268.54
749.928	43468.08
750.267	43326.16
750.605	43172.72
750.944	43132.72
751.283	42978.83
751.621	42981.09
