Data from aluminium_macbook_case_FLMS001491_091.txt Node
Date: Tue Feb 07 10:44:26 GMT 2017
User: dcchb
Spectrometer: FLMS00149
Trigger mode: 0
Integration Time (sec): 2.000000E-2
Scans to average: 10
Electric dark correction enabled: true
Nonlinearity correction enabled: false
Boxcar width: 0
XAxis mode: Wavelengths
Number of Pixels in Spectrum: 2048
>>>>>Begin Spectral Data<<<<<
341.393	-21.58
341.776	-21.58
342.16	-21.58
342.543	-58.19
342.927	-80.11
343.31	-52.09
343.693	-56.61
344.077	-61.13
344.46	-83.73
344.843	-64.29
345.226	-49.83
345.61	-30.17
345.993	-27
346.376	-1.47
346.759	1.02
347.142	26.33
347.525	38.76
347.908	62.03
348.291	97.29
348.674	91.41
349.057	109.49
349.44	131.86
349.823	126.44
350.206	177.51
350.588	259.99
350.971	259.99
351.354	257.96
351.737	282.59
352.119	309.03
352.502	301.57
352.884	330.5
353.267	338.64
353.65	338.64
354.032	337.05
354.414	365.08
354.797	363.95
355.179	374.34
355.562	391.06
355.944	374.79
356.326	413.66
356.709	393.32
357.091	390.39
357.473	393.32
357.855	409.37
358.238	402.59
358.62	398.97
359.002	402.14
359.384	422.47
359.766	423.6
360.148	412.31
360.53	431.06
360.912	427.9
361.294	400.1
361.676	418.41
362.057	423.6
362.439	400.33
362.821	412.98
363.203	412.31
363.584	416.15
363.966	409.82
364.348	419.99
364.729	413.66
365.111	427.22
365.493	426.99
365.874	418.18
366.256	430.61
366.637	424.51
367.019	434.23
367.4	429.03
367.781	417.28
368.163	441.01
368.544	452.3
368.925	420.44
369.306	442.81
369.688	434.9
370.069	428.58
370.45	421.12
370.831	438.29
371.212	461.12
371.593	435.36
371.974	459.31
372.355	472.87
372.736	449.82
373.117	447.78
373.498	454.11
373.879	462.7
374.26	485.52
374.641	441.46
375.021	446.88
375.402	464.96
375.783	496.6
376.163	507.22
376.544	502.7
376.925	508.8
377.305	509.03
377.686	506.77
378.066	509.25
378.447	511.29
378.827	524.84
379.208	537.27
379.588	518.52
379.968	532.75
380.349	557.16
380.729	537.95
381.109	537.5
381.489	549.03
381.87	583.37
382.25	563.04
382.63	558.06
383.01	565.97
383.39	584.05
383.77	580.21
384.15	590.83
384.53	597.39
384.91	613.66
385.29	646.42
385.67	641.45
386.049	630.6
386.429	633.32
386.809	644.62
387.189	665.86
387.568	670.38
387.948	673.09
388.328	675.12
388.707	684.84
389.087	683.94
389.466	704.05
389.846	691.17
390.225	727.55
390.605	734.33
390.984	722.35
391.363	761
391.743	767.32
392.122	764.39
392.501	754.44
392.881	777.27
393.26	777.04
393.639	798.74
394.018	802.58
394.397	808
394.776	831.28
395.155	815.91
395.534	827.21
395.913	858.85
396.292	848.9
396.671	866.76
397.05	881.45
397.429	881.45
397.808	888.68
398.186	884.16
398.565	911.05
398.944	929.81
399.323	934.33
399.701	930.71
400.08	967.32
400.458	968.68
400.837	974.78
401.215	985.85
401.594	998.96
401.972	1004.38
402.351	993.53
402.729	1005.06
403.107	1038.73
403.486	1096.81
403.864	1051.61
404.242	1070.82
404.62	1099.75
404.999	1104.04
405.377	1102.91
405.755	1133.19
406.133	1110.37
406.511	1158.05
406.889	1187.65
407.267	1213.64
407.645	1197.82
408.023	1227.88
408.401	1238.05
408.779	1265.16
409.156	1316.91
409.534	1310.36
409.912	1318.04
410.29	1349
410.667	1342.45
411.045	1398.72
411.422	1433.75
411.8	1395.56
412.178	1430.13
412.555	1463.58
412.933	1491.37
413.31	1496.57
413.687	1555.78
414.065	1504.25
414.442	1542.67
414.819	1604.14
415.197	1612.5
415.574	1617.47
415.951	1638.04
416.328	1678.26
416.705	1675.1
417.082	1683.68
417.46	1730.24
417.837	1709.45
418.214	1729.79
418.591	1766.39
418.967	1785.83
419.344	1800.97
419.721	1822.21
420.098	1830.8
420.475	1857.01
420.852	1888.42
421.228	1900.63
421.605	1930.01
421.982	1960.29
422.358	1969.1
422.735	2027.18
423.111	2001.87
423.488	2024.24
423.864	2035.09
424.241	2100.4
424.617	2146.72
424.994	2125.03
425.37	2165.48
425.746	2198.02
426.123	2207.96
426.499	2230.56
426.875	2258.13
427.251	2297.91
427.627	2332.93
428.003	2363.21
428.379	2387.17
428.756	2436.66
429.132	2450.44
429.507	2472.14
429.883	2544.45
430.259	2536.54
430.635	2633.94
431.011	2608.86
431.387	2709.19
431.763	2723.66
432.138	2768.18
432.514	2788.29
432.89	2786.93
433.265	2907.16
433.641	2920.71
434.016	2944.89
434.392	3002.29
434.767	3062.18
435.143	3041.39
435.518	3106.47
435.894	3157.77
436.269	3166.81
436.644	3270.76
437.02	3275.28
437.395	3280.93
437.77	3337.43
438.145	3383.3
438.52	3401.83
438.895	3428.27
439.271	3471.89
439.646	3567.93
440.021	3588.04
440.395	3607.02
440.77	3552.56
441.145	3595.5
441.52	3761.6
441.895	3753.69
442.27	3767.02
442.645	3789.62
443.019	3807.92
443.394	3837.98
443.769	3917.98
444.143	3842.05
444.518	3940.12
444.892	3895.38
445.267	3991.87
445.641	4008.82
446.016	4040.46
446.39	4090.4
446.764	4162.04
447.139	4094.92
447.513	4197.06
447.887	4199.55
448.262	4242.49
448.636	4261.7
449.01	4306.44
449.384	4372.65
449.758	4401.35
450.132	4430.73
450.506	4469.37
450.88	4565.87
451.254	4551.86
451.628	4560.45
452.002	4653.55
452.376	4696.71
452.75	4762.47
453.123	4817.61
453.497	4878.4
453.871	4862.81
454.244	4997.04
454.618	5048.57
454.992	5107.78
455.365	5141.9
455.739	5248.34
456.112	5345.06
456.486	5371.5
456.859	5435.45
457.232	5557.26
457.606	5542.57
457.979	5630.25
458.352	5712.05
458.725	5835.44
459.099	5873.4
459.472	6015.32
459.845	6019.62
460.218	6150.91
460.591	6117.69
460.964	6259.38
461.337	6312.26
461.71	6422.09
462.083	6530.11
462.456	6526.95
462.829	6611.69
463.201	6720.84
463.574	6746.83
463.947	6813.49
464.32	6994.73
464.692	7105.91
465.065	7160.6
465.438	7215.06
465.81	7372.35
466.183	7409.64
466.555	7637.2
466.928	7625.68
467.3	7641.49
467.672	7805.11
468.045	7991.54
468.417	8059.56
468.789	8124.42
469.161	8234.7
469.534	8305.43
469.906	8527.12
470.278	8589.27
470.65	8668.81
471.022	8838.07
471.394	9043.04
471.766	9126.43
472.138	9239.42
472.51	9434.89
472.882	9624.49
473.253	9661.78
473.625	9809.35
473.997	10040.3
474.369	10121.88
474.74	10247.53
475.112	10419.5
475.484	10647.52
475.855	10831.24
476.227	10956.44
476.598	11296.09
476.97	11314.84
477.341	11642.74
477.713	11850.2
478.084	11923.87
478.455	12330.86
478.827	12349.17
479.198	12693.56
479.569	12616.28
479.94	13085.19
480.311	13234.12
480.682	13528.8
481.053	13810.37
481.424	13956.13
481.795	14153.64
482.166	14391.6
482.537	14549.79
482.908	14887.18
483.279	14992.26
483.65	15322.2
484.021	15655.07
484.391	15794.5
484.762	15949.07
485.133	16144.32
485.503	16341.15
485.874	16782.5
486.244	17050.29
486.615	17319.66
486.985	17504.74
487.356	17972.07
487.726	18020.66
488.097	18330.7
488.467	18496.8
488.837	18852.05
489.207	19122.1
489.578	19417.23
489.948	19579.94
490.318	19830.55
490.688	19806.37
491.058	20242.29
491.428	20383.76
491.798	20730.42
492.168	21112.33
492.538	21087.02
492.908	21395.26
493.278	21663.05
493.648	21617.4
494.017	22021.68
494.387	22134.9
494.757	22291.05
495.126	22674.77
495.496	22829.57
495.866	23096.45
496.235	23298.26
496.605	23522.66
496.974	23554.07
497.344	23951.12
497.713	24053.04
498.082	24294.39
498.452	24589.97
498.821	24757.88
499.19	24706.58
499.559	25009.62
499.928	25248.49
500.298	25401.93
500.667	25598.99
501.036	25587.24
501.405	26011.86
501.774	26020.45
502.143	26258.41
502.512	26350.15
502.88	26480.09
503.249	26577.49
503.618	26842.8
503.987	26836.47
504.356	27116.01
504.724	27327.08
505.093	27435.1
505.462	27605.04
505.83	27814.3
506.199	28001.64
506.567	28454.28
506.936	28359.37
507.304	28778.11
507.672	28973.14
508.041	29134.94
508.409	29280.93
508.777	29655.38
509.145	29894.69
509.514	29969.27
509.882	30158.64
510.25	30347.34
510.618	30642.25
510.986	30828.68
511.354	31126.98
511.722	31337.59
512.09	31576.91
512.458	31691.26
512.826	31834.08
513.193	32094.41
513.561	32137.57
513.929	32502.76
514.297	32700.5
514.664	32858.91
515.032	33128.28
515.4	33333.47
515.767	33427.48
516.135	33585.67
516.502	33561.94
516.869	34136.39
517.237	34260.91
517.604	34390.17
517.972	34777.73
518.339	35015.46
518.706	35244.38
519.073	35370.71
519.44	35592.85
519.808	35994.87
520.175	36119.62
520.542	36671.01
520.909	36853.16
521.276	36906.26
521.643	37484.55
522.009	37729.06
522.376	37820.14
522.743	38219.22
523.11	38633.67
523.477	38922.25
523.843	39121.34
524.21	39530.37
524.577	39785.96
524.943	39993.41
525.31	40032.05
525.676	40491.93
526.043	40750.23
526.409	40777.12
526.776	41246.03
527.142	41294.85
527.508	41608.28
527.874	41979.8
528.241	42206.91
528.607	42380.24
528.973	42615.49
529.339	42664.08
529.705	43131.18
530.071	43471.06
530.437	43559.19
530.803	43913.76
531.169	43986.08
531.535	44141.55
531.901	44466.74
532.267	44455.44
532.632	44911.02
532.998	45101.98
533.364	45487.73
533.73	45573.15
534.095	45889.75
534.461	46038.45
534.826	46215.62
535.192	46211.78
535.557	46755.95
535.923	46620.58
536.288	46864.87
536.653	46971.99
537.019	47111.87
537.384	47199.1
537.749	47399.32
538.114	47610.16
538.479	47482.93
538.845	47822.81
539.21	47740.55
539.575	47990.04
539.94	48091.28
540.305	48191.61
540.67	48288.33
541.034	48574.43
541.399	48719.28
541.764	48769
542.129	48821.88
542.494	48917.02
542.858	49163.79
543.223	49246.95
543.587	49473.39
543.952	49410.34
544.316	49661.63
544.681	49655.76
545.045	50003.32
545.41	50134.61
545.774	50087.61
546.138	50205.57
546.503	50331.44
546.867	50340.94
547.231	50683.75
547.595	50697.09
547.959	50947.93
548.324	51010.3
548.688	51059.11
549.052	51292.78
549.416	51422.72
549.779	51533.45
550.143	51561.47
550.507	51796.94
550.871	51827.22
551.235	51915.81
551.599	52098.63
551.962	52153.54
552.326	52252.52
552.689	52385.4
553.053	52303.37
553.417	52427.89
553.78	52798.5
554.143	52676.02
554.507	52888.44
554.87	52958.49
555.234	53266.06
555.597	53103.35
555.96	53232.16
556.323	53463.79
556.686	53360.07
557.05	53683.22
557.413	53799.15
557.776	53789.21
558.139	54060.39
558.502	54166.37
558.865	54202.98
559.228	54509.87
559.59	54504.22
559.953	54605.23
560.316	54937.88
560.679	54871.21
561.041	55137.42
561.404	55268.72
561.767	55445.43
562.129	55330.41
562.492	55628.48
562.854	55635.26
563.217	55682.04
563.579	55800.45
563.941	56005.65
564.304	56118.19
564.666	56294.68
565.028	56329.48
565.39	56428.01
565.753	56558.4
566.115	56639.75
566.477	56701.67
566.839	56759.98
567.201	56910.93
567.563	56990.93
567.925	57165.16
568.287	57168.33
568.648	57248.78
569.01	57418.49
569.372	57585.49
569.734	57463.23
570.095	57614.42
570.457	57753.62
570.819	57800.63
571.18	57788.88
571.542	57953.62
571.903	58028.64
572.265	58128.3
572.626	58147.06
572.987	58128.08
573.349	58285.81
573.71	58378.47
574.071	58395.64
574.432	58439.48
574.794	58738
575.155	58691.9
575.516	58601.06
575.877	58702.52
576.238	58813.71
576.599	58905.91
576.96	58886.02
577.32	58955.85
577.681	59054.15
578.042	59066.36
578.403	59058
578.763	59093.47
579.124	59142.51
579.485	59237.2
579.845	59312.68
580.206	59293.92
580.566	59267.26
580.927	59284.88
581.287	59406.69
581.648	59297.99
582.008	59384.77
582.368	59379.79
582.728	59458.66
583.089	59395.39
583.449	59382.28
583.809	59415.73
584.169	59463.18
584.529	59469.06
584.889	59634.7
585.249	59483.52
585.609	59349.06
585.969	59582.73
586.329	59446.23
586.688	59559.68
587.048	59488.49
587.408	59462.73
587.768	59468.83
588.127	59486.01
588.487	59431.54
588.846	59619.56
589.206	59426.12
589.565	59461.6
589.925	59576.85
590.284	59534.59
590.643	59566.68
591.003	59578.89
591.362	59659.79
591.721	59594.93
592.08	59570.07
592.44	59660.01
592.799	59644.87
593.158	59623.86
593.517	59643.52
593.876	59705.21
594.235	59576.63
594.593	59621.6
594.952	59684.19
595.311	59586.57
595.67	59691.2
596.029	59717.64
596.387	59816.85
596.746	59779.56
597.104	59716.73
597.463	59713.12
597.822	59886.67
598.18	59721.48
598.538	59710.86
598.897	59823.4
599.255	59664.53
599.613	60010.51
599.972	59866.79
600.33	59909.27
600.688	59821.59
601.046	59908.14
601.404	59979.33
601.762	59894.81
602.12	60068.36
602.478	60045.31
602.836	60052.09
603.194	59973.68
603.552	60055.03
603.91	59975.94
604.268	60090.51
604.625	59988.82
604.983	60146.78
605.341	60057.06
605.698	60127.35
606.056	60165.08
606.413	60137.29
606.771	60215.48
607.128	60191.98
607.485	60135.48
607.843	60136.38
608.2	60264.52
608.557	60332.54
608.914	60232.88
609.272	60408.02
609.629	60404.4
609.986	60456.15
610.343	60373.67
610.7	60504.28
611.057	60510.39
611.414	60443.5
611.771	60547.9
612.127	60617.5
612.484	60602.14
612.841	60688.69
613.198	60521.91
613.554	60634.68
613.911	60723.26
614.267	60706.54
614.624	60618.18
614.98	60722.36
615.337	60758.29
615.693	60747.89
616.05	60700.21
616.406	60906.99
616.762	60781.11
617.118	60824.05
617.475	60841.9
617.831	60897.04
618.187	60885.29
618.543	60932.3
618.899	60994.67
619.255	60983.59
619.611	61039.19
619.967	61105.4
620.323	61091.39
620.678	61024.27
621.034	60960.09
621.39	60988.34
621.746	60966.42
622.101	61161.22
622.457	60971.84
622.812	61013.2
623.168	61062.69
623.523	61017.27
623.879	61115.79
624.234	60944.5
624.589	60957.38
624.945	61030.37
625.3	61056.59
625.655	61006.19
626.01	61045.51
626.365	60972.07
626.72	60938.17
627.075	60943.82
627.43	60897.72
627.785	60868.57
628.14	60985.4
628.495	60986.98
628.85	60853.43
629.205	60864.05
629.559	60974.78
629.914	60803.03
630.269	60826.76
630.623	60812.3
630.978	60707.67
631.332	60815.01
631.687	60881.22
632.041	60730.49
632.396	60748.57
632.75	60641.23
633.104	60686.88
633.459	60566.2
633.813	60592.19
634.167	60593.32
634.521	60560.55
634.875	60626.77
635.229	60545.19
635.583	60491.63
635.937	60475.81
636.291	60455.7
636.645	60436.26
636.999	60321.01
637.352	60441.01
637.706	60285.31
638.06	60380.67
638.413	60287.57
638.767	60255.25
639.121	60302.26
639.474	60099.55
639.828	60112.66
640.181	60069.95
640.534	60075.82
640.888	60003.28
641.241	59861.36
641.594	59930.97
641.947	59936.16
642.301	59842.38
642.654	59805.77
643.007	59879.44
643.36	59829.73
643.713	59762.61
644.066	59837.64
644.419	59675.61
644.771	59584.76
645.124	59250.31
645.477	59264.09
645.83	59116.3
646.182	58947.94
646.535	58847.15
646.888	58902.75
647.24	58800.83
647.593	58908.62
647.945	58844.22
648.298	58674.95
648.65	58571.68
649.002	58617.55
649.355	58623.88
649.707	58623.88
650.059	58763.77
650.411	59024.55
650.763	59018.45
651.115	59263.19
651.467	59163.08
651.819	59150.42
652.171	59078.79
652.523	59065.9
652.875	59055.96
653.227	58933.03
653.578	59079.92
653.93	59026.36
654.282	58903.2
654.633	58828.17
654.985	58869.3
655.337	58895.74
655.688	58892.35
656.039	59011.22
656.391	58696.2
656.742	58729.64
657.094	58746.14
657.445	58811.45
657.796	58830.43
658.147	58690.32
658.498	58704.56
658.849	58797.66
659.2	58660.04
659.551	58651.68
659.902	58701.39
660.253	58662.98
660.604	58605.13
660.955	58453.94
661.306	58513.83
661.656	58511.79
662.007	58486.26
662.358	58502.08
662.708	58443.55
663.059	58410.1
663.409	58232.25
663.76	58404
664.11	58372.59
664.461	58444.68
664.811	58345.02
665.161	58295.08
665.511	58264.34
665.862	58272.71
666.212	58363.1
666.562	58259.6
666.912	58259.37
667.262	58161.75
667.612	58097.12
667.962	58251.91
668.312	58173.95
668.662	58277.22
669.011	58166.72
669.361	58119.49
669.711	58095.99
670.06	58049.21
670.41	58014.86
670.76	57927.86
671.109	58000.4
671.459	57933.28
671.808	57952.49
672.157	58037.91
672.507	57841.08
672.856	57835.2
673.205	57898.25
673.554	57975.09
673.904	57800.4
674.253	57934.18
674.602	57941.87
674.951	57572.61
675.3	57485.83
675.649	57877.69
675.998	57772.61
676.346	57740.74
676.695	57855.09
677.044	57604.25
677.393	57779.38
677.741	57793.4
678.09	57675.66
678.438	57646.51
678.787	57631.59
679.135	57675.21
679.484	57459.17
679.832	57500.97
680.181	57398.38
680.529	57431.6
680.877	57389.34
681.225	57292.39
681.573	57449.9
681.922	57203.35
682.27	57180.76
682.618	57134.43
682.966	57060.31
683.314	57063.47
683.661	57000.87
684.009	56904.38
684.357	56802.69
684.705	56806.53
685.053	56748.68
685.4	56723.82
685.748	56555.46
686.095	56565.41
686.443	56461
686.79	56444.73
687.138	56434.56
687.485	56409.03
687.832	56283.6
688.18	56366.09
688.527	56174.91
688.874	56156.6
689.221	56007
689.568	55967.23
689.915	55976.95
690.262	55933.11
690.609	55833.9
690.956	55742.15
691.303	55710.96
691.65	55586
691.997	55580.57
692.344	55425.1
692.69	55437.07
693.037	55441.59
693.383	55160.02
693.73	55309.62
694.077	55028.95
694.423	55101.49
694.769	55011.32
695.116	54965.9
695.462	54909.18
695.808	54851.33
696.155	54908.5
696.501	54622.41
696.847	54664.66
697.193	54393.49
697.539	54558
697.885	54337.44
698.231	54273.04
698.577	54247.05
698.923	54186.94
699.269	53995.3
699.614	53866.04
699.96	53819.04
700.306	53890
700.651	53762.54
700.997	53696.55
701.342	53607.29
701.688	53529.55
702.033	53331.82
702.379	53326.62
702.724	53261.31
703.069	53292.05
703.415	52890.47
703.76	52882.79
704.105	52962.11
704.45	52785.62
704.795	52638.05
705.14	52452.75
705.485	52422.24
705.83	52258.4
706.175	52340.88
706.52	52268.12
706.865	52201
707.209	51997.84
707.554	51795.36
707.899	51934.11
708.243	51748.81
708.588	51623.16
708.932	51482.38
709.277	51494.13
709.621	51431.98
709.966	51250.74
710.31	51333.68
710.654	50937.98
710.998	51011.65
711.342	50944.54
711.687	50909.51
712.031	50727.82
712.375	50703.64
712.719	50638.33
713.063	50582.29
713.407	50695.73
713.75	50572.12
714.094	50514.94
714.438	50494.15
714.782	50373.93
715.125	50153.82
715.469	50238.11
715.812	50126.7
716.156	49855.53
716.499	49987.27
716.843	49904.56
717.186	49681.97
717.53	49789.31
717.873	49739.37
718.216	49689.65
718.559	49567.17
718.902	49275.65
719.246	49357.01
719.589	49241.3
719.932	49164.92
720.275	49195.2
720.617	49176.67
720.96	49101.42
721.303	49027.3
721.646	49151.81
721.989	48702.11
722.331	48934.19
722.674	48686.29
723.016	48703.69
723.359	48538.5
723.701	48597.25
724.044	48398.84
724.386	48321.33
724.729	48336.02
725.071	48335.57
725.413	48239.07
725.755	48103.71
726.097	47910.94
726.439	47759.31
726.782	47648.13
727.124	47817.61
727.465	47592.99
727.807	47676.15
728.149	47363.84
728.491	47362.26
728.833	47357.74
729.175	47101.25
729.516	47096.5
729.858	47164.07
730.199	46912.33
730.541	46719.11
730.882	46781.93
731.224	46862.61
731.565	46470.53
731.906	46513.01
732.248	46526.35
732.589	46334.26
732.93	46242.96
733.271	46263.3
733.612	46207.03
733.953	46329.06
734.294	46016.53
734.635	46001.39
734.976	46104.21
735.317	45669.87
735.658	45557.79
735.999	45639.82
736.339	45583.32
736.68	45600.72
737.021	45443.44
737.361	45375.87
737.702	45557.33
738.042	45389.2
738.383	45306.27
738.723	45388.75
739.063	45120.28
739.404	45141.07
739.744	45087.74
740.084	44889.1
740.424	45013.39
740.764	44845.49
741.104	45092.49
741.444	44716.9
741.784	44719.39
742.124	44806.62
742.464	44626.06
742.804	44490.24
743.143	44504.48
743.483	44414.54
743.823	44234.2
744.162	44271.94
744.502	44467.87
744.841	44158.5
745.181	44193.3
745.52	43993.08
745.86	44138.61
746.199	44025.17
746.538	43820.88
746.877	43918.28
747.216	43826.76
747.556	43592.87
747.895	43817.49
748.234	43409.59
748.573	43500.44
748.911	43377.05
749.25	43401.01
749.589	43166.66
749.928	43109.94
750.267	43178.19
750.605	42866.56
750.944	42831.08
751.283	42724.64
751.621	42728.26
751.96	42469.05
752.298	42467.47
752.636	42475.38
