Data from aluminium_macbook_case_FLMS001491_050.txt Node
Date: Tue Feb 07 10:43:41 GMT 2017
User: dcchb
Spectrometer: FLMS00149
Trigger mode: 0
Integration Time (sec): 2.000000E-2
Scans to average: 10
Electric dark correction enabled: true
Nonlinearity correction enabled: false
Boxcar width: 0
XAxis mode: Wavelengths
Number of Pixels in Spectrum: 2048
>>>>>Begin Spectral Data<<<<<
341.393	3.93
341.776	3.93
342.16	3.93
342.543	-26.36
342.927	-48.5
343.31	-73.36
343.693	-71.33
344.077	-47.82
344.46	-69.97
344.843	-53.93
345.226	-50.31
345.61	-18.9
345.993	-42.4
346.376	-7.37
346.759	22.91
347.142	30.82
347.525	49.57
347.908	74.43
348.291	64.26
348.674	88.9
349.057	104.49
349.44	126.86
349.823	130.48
350.206	182.45
350.588	249.34
350.971	293.18
351.354	278.27
351.737	265.16
352.119	321.43
352.502	307.42
352.884	326.4
353.267	367.98
353.65	339.06
354.032	375.89
354.414	375.22
354.797	374.99
355.179	385.16
355.562	382.22
355.944	389.45
356.326	382.67
356.709	402.56
357.091	403.46
357.473	416.34
357.855	399.62
358.238	426.97
358.62	433.97
359.002	416.57
359.384	419.28
359.766	418.83
360.148	422.45
360.53	432.16
360.912	405.05
361.294	422.22
361.676	419.73
362.057	421.54
362.439	421.77
362.821	420.64
363.203	414.54
363.584	411.83
363.966	419.96
364.348	425.16
364.729	414.99
365.111	442.78
365.493	408.44
365.874	417.7
366.256	411.37
366.637	418.38
367.019	405.27
367.4	412.28
367.781	403.46
368.163	447.53
368.544	433.75
368.925	435.78
369.306	452.95
369.688	463.35
370.069	442.11
370.45	448.89
370.831	431.03
371.212	447.76
371.593	452.95
371.974	454.08
372.355	468.77
372.736	466.51
373.117	465.84
373.498	447.53
373.879	459.96
374.26	464.48
374.641	476.91
375.021	464.93
375.402	473.74
375.783	503.35
376.163	508.32
376.544	520.75
376.925	501.31
377.305	512.61
377.686	517.36
378.066	505.83
378.447	535.89
378.827	537.7
379.208	549.22
379.588	540.64
379.968	524.14
380.349	558.94
380.729	549.67
381.109	556.23
381.489	587.41
381.87	569.34
382.25	584.48
382.63	572.05
383.01	576.57
383.39	596
383.77	575.89
384.15	582.22
384.53	629.45
384.91	621.76
385.29	634.19
385.67	625.15
386.049	625.15
386.429	641.2
386.809	683.46
387.189	632.61
387.568	668.32
387.948	651.37
388.328	691.37
388.707	705.6
389.087	686.85
389.466	701.76
389.846	727.52
390.225	729.56
390.605	711.03
390.984	743.79
391.363	734.75
391.743	735.43
392.122	754.87
392.501	769.33
392.881	780.4
393.26	789.22
393.639	813.85
394.018	793.28
394.397	798.26
394.776	829.89
395.155	821.98
395.534	844.36
395.913	832.83
396.292	868.54
396.671	887.97
397.05	882.77
397.429	880.51
397.808	879.38
398.186	896.78
398.565	923.45
398.944	925.26
399.323	936.33
399.701	964.58
400.08	977.91
400.458	939.27
400.837	982.21
401.215	1011.13
401.594	1003.67
401.972	1010.68
402.351	1031.02
402.729	1028.53
403.107	1023.33
403.486	1060.85
403.864	1050.68
404.242	1072.15
404.62	1081.86
404.999	1105.14
405.377	1114.63
405.755	1121.86
406.133	1163.22
406.511	1166.38
406.889	1188.08
407.267	1180.62
407.645	1238.02
408.023	1259.49
408.401	1243.44
408.779	1276.89
409.156	1292.03
409.534	1287.73
409.912	1329.77
410.29	1335.87
410.667	1349.43
411.045	1394.17
411.422	1384.68
411.8	1429.88
412.178	1440.72
412.555	1485.47
412.933	1483.89
413.31	1478.01
413.687	1511.68
414.065	1511.46
414.442	1564.34
414.819	1580.61
415.197	1620.83
415.574	1620.38
415.951	1665.58
416.328	1630.1
416.705	1661.28
417.082	1682.07
417.46	1724.56
417.837	1726.82
418.214	1727.27
418.591	1740.83
418.967	1738.8
419.344	1809.75
419.721	1809.08
420.098	1835.29
420.475	1850.21
420.852	1893.59
421.228	1951.22
421.605	1972.01
421.982	1917.1
422.358	2000.26
422.735	2032.8
423.111	2019.47
423.488	2028.28
423.864	2073.02
424.241	2084.78
424.617	2110.31
424.994	2120.71
425.37	2181.72
425.746	2143.08
426.123	2188.73
426.499	2228.95
426.875	2263.75
427.251	2323.64
427.627	2346.69
428.003	2367.71
428.379	2378.78
428.756	2445.67
429.132	2435.5
429.507	2487.25
429.883	2535.16
430.259	2577.42
430.635	2608.38
431.011	2631.43
431.387	2707.36
431.763	2697.64
432.138	2746
432.514	2812.21
432.89	2814.93
433.265	2881.36
433.641	2927.92
434.016	2953.23
434.392	3031.42
434.767	3083.85
435.143	3064.64
435.518	3087.91
435.894	3084.75
436.269	3175.37
436.644	3235.93
437.02	3252.65
437.395	3282.94
437.77	3350.73
438.145	3358.41
438.52	3404.97
438.895	3495.36
439.271	3458.3
439.646	3576.49
440.021	3563.83
440.395	3558.86
440.77	3578.52
441.145	3651.51
441.52	3754.56
441.895	3713.66
442.27	3769.7
442.645	3744.85
443.019	3839.31
443.394	3822.36
443.769	3892.19
444.143	3867.33
444.518	3997.04
444.892	3924.5
445.267	3980.55
445.641	4034.55
446.016	4036.36
446.39	4109.13
446.764	4170.14
447.139	4077.49
447.513	4167.43
447.887	4215.57
448.262	4268
448.636	4254.89
449.01	4326.3
449.384	4414.21
449.758	4416.01
450.132	4473.41
450.506	4481.32
450.88	4541.43
451.254	4514.54
451.628	4603.35
452.002	4659.62
452.376	4695.33
452.75	4770.58
453.123	4783.69
453.497	4870.47
453.871	4917.24
454.244	5003.34
454.618	5084.7
454.992	5144.13
455.365	5128.76
455.739	5280.62
456.112	5306.16
456.486	5392.94
456.859	5422.77
457.232	5582.08
457.606	5531.24
457.979	5641.97
458.352	5721.06
458.725	5815.98
459.099	5872.47
459.472	6021.4
459.845	6037.67
460.218	6116.99
460.591	6140.26
460.964	6179.58
461.337	6290.09
461.71	6455.96
462.083	6492.57
462.456	6555.62
462.829	6617.99
463.201	6721.49
463.574	6735.27
463.947	6920.13
464.32	7015.04
464.692	7114.93
465.065	7114.93
465.438	7218.43
465.81	7351.98
466.183	7392.21
466.555	7645.99
466.928	7627.23
467.3	7622.71
467.672	7770.73
468.045	8050.04
468.417	8024.96
468.789	8142.02
469.161	8204.39
469.534	8349.47
469.906	8553.53
470.278	8619.52
470.65	8694.09
471.022	8887.99
471.394	9041.65
471.766	9129.34
472.138	9235.55
472.51	9489.55
472.882	9559.38
473.253	9765.48
473.625	9810.22
473.997	10031.46
474.369	10143.09
474.74	10236.88
475.112	10424.44
475.484	10569.07
475.855	10794.6
476.227	10912.34
476.598	11231.65
476.97	11359.33
477.341	11644.07
477.713	11746.89
478.084	11806.33
478.455	12183.72
478.827	12233.44
479.198	12719.98
479.569	12674.78
479.94	13061.21
480.311	13166.97
480.682	13401.54
481.053	13733.06
481.424	14061.64
481.795	14102.31
482.166	14311.12
482.537	14500.04
482.908	14947.26
483.279	15039.24
483.65	15262.06
484.021	15597.19
484.391	15772.78
484.762	15873.34
485.133	16066.55
485.503	16387.22
485.874	16683.26
486.244	16790.83
486.615	17275.79
486.985	17422.45
487.356	17817.47
487.726	17897.02
488.097	18330.9
488.467	18300.39
488.837	18731.12
489.207	19025.12
489.578	19267.37
489.948	19360.93
490.318	19740.36
490.688	19832.56
491.058	20155.49
491.428	20432.32
491.798	20589.6
492.168	21040.66
492.538	21033.88
492.908	21229.36
493.278	21574.21
493.648	21676.35
494.017	21932.39
494.387	22177.13
494.757	22313.4
495.126	22599.72
495.496	22677
495.866	22892.14
496.235	23175.29
496.605	23348.62
496.974	23527.6
497.344	23820.7
497.713	23906.35
498.082	24106.12
498.452	24389.05
498.821	24520.12
499.19	24639.66
499.559	24937.51
499.928	25156.26
500.298	25303.83
500.667	25557.6
501.036	25518.96
501.405	25735
501.774	25913.08
502.143	25987.2
502.512	26305.16
502.88	26415.21
503.249	26514.19
503.618	26785.14
503.987	26902.88
504.356	27016.78
504.724	27225.81
505.093	27348.74
505.462	27476.65
505.83	27666.48
506.199	27913.7
506.567	28292.22
506.936	28325.89
507.304	28698.09
507.672	28638.88
508.041	29004.97
508.409	29151.41
508.777	29505.52
509.145	29761.11
509.514	29712.52
509.882	30065.28
510.25	30277.93
510.618	30573.29
510.986	30550.47
511.354	30992.04
511.722	31131.24
512.09	31417.79
512.458	31409.2
512.826	31725.58
513.193	31995.18
513.561	32032.24
513.929	32347.93
514.297	32729.39
514.664	32709.73
515.032	32953.57
515.4	33121.93
515.767	33329.6
516.135	33579.77
516.502	33285.31
516.869	34108.11
517.237	34221.33
517.604	34146.98
517.972	34565.5
518.339	34896.79
518.706	35038.26
519.073	35363.22
519.44	35472.37
519.808	35986.48
520.175	35941.96
520.542	36439.58
520.909	36571.55
521.276	36808.61
521.643	37209.5
522.009	37417.18
522.376	37653.78
522.743	38002.48
523.11	38294.45
523.477	38705.51
523.843	38890.36
524.21	39255.1
524.577	39665.93
524.943	39717.46
525.31	39985.02
525.676	40379.14
526.043	40429.08
526.409	40750.2
526.776	41168.95
527.142	41155.39
527.508	41433.12
527.874	41792.21
528.241	42014.35
528.607	42144.29
528.973	42449.59
529.339	42566.65
529.705	42924.61
530.071	43371.37
530.437	43363.69
530.803	43678.48
531.169	43972.94
531.535	44027.18
531.901	44268.75
532.267	44415.19
532.632	44711.9
532.998	44995.29
533.364	45222.17
533.73	45332
534.095	45735.83
534.461	45799.33
534.826	46008.37
535.192	46140.57
535.557	46487.22
535.923	46433.44
536.288	46656.94
536.653	46901.45
537.019	46750.04
537.384	47110.03
537.749	47250.82
538.114	47367.88
538.479	47413.53
538.845	47677.25
539.21	47550.7
539.575	47723.8
539.94	47874.76
540.305	48340.06
540.67	48195.2
541.034	48316.1
541.399	48541.63
541.764	48575.76
542.129	48680.39
542.494	48810.78
542.858	48873.83
543.223	49065.01
543.587	49322.86
543.952	49275.63
544.316	49431.55
544.681	49424.77
545.045	49681.04
545.41	49938.66
545.774	49990.86
546.138	50019.33
546.503	50194.02
546.867	50259.55
547.231	50692.09
547.595	50651.41
547.959	50789.94
548.324	50820.9
548.688	50961.23
549.052	51088.01
549.416	51179.98
549.779	51225.63
550.143	51439.86
550.507	51590.59
550.871	51692.28
551.235	51658.61
551.599	51904.03
551.962	51977.25
552.326	52073.97
552.689	52203.01
553.053	52104.7
553.417	52264.7
553.78	52718.7
554.143	52503.56
554.507	52644.35
554.87	52913.95
555.234	53058.58
555.597	52870.33
555.96	53091.12
556.323	53226.03
556.686	53140.38
557.05	53473.03
557.413	53609.52
557.776	53657.2
558.139	53835.51
558.502	53961.15
558.865	54019.91
559.228	54317.98
559.59	54328.15
559.953	54497.63
560.316	54856.72
560.679	54834.35
561.041	54981.92
561.404	55104.4
561.767	55300.1
562.129	55228.92
562.492	55496.7
562.854	55550.04
563.217	55534.22
563.579	55663.48
563.941	55859.18
564.304	55973.75
564.666	56158.61
565.028	56162
565.39	56322.67
565.753	56397.25
566.115	56481.54
566.477	56595.43
566.839	56648.99
567.201	56797.69
567.563	56822.77
567.925	57017.12
568.287	57035.65
568.648	57035.65
569.01	57161.07
569.372	57367.39
569.734	57259.6
570.095	57494.62
570.457	57638.12
570.819	57639.02
571.18	57744.1
571.542	57859.13
571.903	57840.6
572.265	57900.94
572.626	57954.72
572.987	58155.17
573.349	58170.98
573.71	58320.13
574.071	58333.24
574.432	58337.53
574.794	58594.93
575.155	58482.61
575.516	58437.19
575.877	58607.81
576.238	58624.53
576.599	58836.28
576.96	58810.74
577.32	58842.61
577.681	58960.34
578.042	58964.64
578.403	58918.99
578.763	58940
579.124	59061.81
579.485	59164.86
579.845	59201.47
580.206	59149.94
580.566	59180.9
580.927	59143.16
581.287	59238.3
581.648	59133.9
582.008	59299.99
582.368	59184.52
582.728	59246.21
583.089	59233.33
583.449	59187.68
583.809	59255.48
584.169	59238.98
584.529	59300.45
584.889	59408.47
585.249	59259.54
585.609	59155.14
585.969	59301.58
586.329	59227.68
586.688	59329.37
587.048	59284.18
587.408	59236.27
587.768	59249.15
588.127	59332.54
588.487	59304.74
588.846	59483.49
589.206	59250.05
589.565	59288.24
589.925	59427
590.284	59364.17
590.643	59383.38
591.003	59467.45
591.362	59494.34
591.721	59453.44
592.08	59532.98
592.44	59626.09
592.799	59558.74
593.158	59465.19
593.517	59546.99
593.876	59603.94
594.235	59573.21
594.593	59579.54
594.952	59597.16
595.311	59507.45
595.67	59572.76
596.029	59695.46
596.387	59657.27
596.746	59671.74
597.104	59536.15
597.463	59514
597.822	59697.27
598.18	59594.9
598.538	59571.4
598.897	59662.7
599.255	59546.32
599.613	59848.68
599.972	59692.75
600.33	59715.12
600.688	59645.75
601.046	59746.08
601.404	59875.35
601.762	59741.11
602.12	59814.33
602.478	59840.55
602.836	59824.73
603.194	59764.39
603.552	59750.15
603.91	59717.84
604.268	59904.5
604.625	59830.15
604.983	59960.99
605.341	59869.47
605.698	59992.18
606.056	60038.51
606.413	60031.73
606.771	60060.88
607.128	60089.8
607.485	60013.42
607.843	60066.75
608.2	60180.2
608.557	60277.6
608.914	60123.02
609.272	60300.87
609.629	60353.98
609.986	60430.36
610.343	60276.69
610.7	60447.53
611.057	60386.75
611.414	60410.02
611.771	60423.81
612.127	60490.02
612.484	60462.9
612.841	60513.52
613.198	60459.51
613.554	60499.28
613.911	60602.79
614.267	60560.07
614.624	60561.88
614.98	60530.02
615.337	60720.75
615.693	60577.25
616.05	60591.26
616.406	60673.74
616.762	60575.22
617.118	60606.17
617.475	60654.54
617.831	60653.18
618.187	60651.6
618.543	60687.08
618.899	60835.1
619.255	60800.52
619.611	60768.66
619.967	60836.45
620.323	60868.77
620.678	60827.41
621.034	60803.91
621.39	60748.32
621.746	60782.22
622.101	60990.12
622.457	60798.03
622.812	60905.38
623.168	60931.36
623.523	60931.59
623.879	61018.14
624.234	60858.82
624.589	60975.2
624.945	60991.7
625.3	60930.46
625.655	61017.69
626.01	60927.75
626.365	60980.4
626.72	60945.37
627.075	60899.27
627.43	60894.3
627.785	60876.45
628.14	60880.07
628.495	60837.58
628.85	60848.88
629.205	60725.27
629.559	60922.55
629.914	60778.37
630.269	60851.59
630.623	60697.7
630.978	60681.2
631.332	60694.99
631.687	60712.61
632.041	60577.93
632.396	60624.03
632.75	60514.65
633.104	60544.93
633.459	60460.64
633.813	60457.7
634.167	60453.64
634.521	60372.06
634.875	60414.99
635.229	60396.69
635.583	60276.47
635.937	60285.96
636.291	60248.44
636.645	60298.39
636.999	60146.3
637.352	60172.29
637.706	60082.35
638.06	60199.18
638.413	60013.42
638.767	59985.63
639.121	60066.75
639.474	59895.23
639.828	59882.35
640.181	59960.32
640.534	59928.68
640.888	59835.57
641.241	59739.08
641.594	59764.16
641.947	59874.44
642.301	59743.82
642.654	59785.18
643.007	59809.81
643.36	59700.66
643.713	59733.66
644.066	59784.5
644.419	59588.12
644.771	59440.1
645.124	59250.05
645.477	59162.14
645.83	58960.12
646.182	58916.05
646.535	58841.7
646.888	58890.97
647.24	58742.04
647.593	58887.58
647.945	58797.63
648.298	58622.05
648.65	58534.14
649.002	58520.58
649.355	58618.43
649.707	58535.27
650.059	58610.07
650.411	58857.75
650.763	58874.24
651.115	59150.62
651.467	58978.65
651.819	59018.87
652.171	58878.31
652.523	58810.29
652.875	58903.39
653.227	58787.69
653.578	58923.96
653.93	58804.19
654.282	58746.34
654.633	58669.05
654.985	58674.93
655.337	58665.66
655.688	58710.41
656.039	58717.64
656.391	58532.11
656.742	58551.99
657.094	58574.14
657.445	58669.73
657.796	58566
658.147	58561.26
658.498	58429.06
658.849	58615.72
659.2	58450.98
659.551	58362.62
659.902	58457.76
660.253	58387.7
660.604	58474.48
660.955	58354.26
661.306	58410.75
661.656	58365.56
662.007	58374.14
662.358	58326.01
662.708	58322.39
663.059	58304.54
663.409	58144.54
663.76	58330.3
664.11	58324.43
664.461	58318.1
664.811	58340.25
665.161	58278.33
665.511	58130.31
665.862	58208.72
666.212	58290.08
666.562	58297.53
666.912	58233.36
667.262	58188.16
667.612	58150.42
667.962	58147.48
668.312	58147.26
668.662	58171.89
669.011	58035.39
669.361	58072.46
669.711	58068.39
670.06	57980.93
670.41	57992.68
670.76	57915.17
671.109	57992.23
671.459	57908.62
671.808	57769.19
672.157	57816.19
672.507	57715.4
672.856	57674.27
673.205	57731
673.554	57731.22
673.904	57665.69
674.253	57784.55
674.602	57722.41
674.951	57311.12
675.3	57293.04
675.649	57644.44
675.998	57523.09
676.346	57476.09
676.695	57599.25
677.044	57439.48
677.393	57541.4
677.741	57495.52
678.09	57514.05
678.438	57352.48
678.787	57399.03
679.135	57440.16
679.484	57207.39
679.832	57396.54
680.181	57186.83
680.529	57301.85
680.877	57177.79
681.225	57076.78
681.573	57314.06
681.922	57092.82
682.27	57032.26
682.618	56973.95
682.966	56922.88
683.314	56973.5
683.661	56867.97
684.009	56749.55
684.357	56648.76
684.705	56699.38
685.053	56738.48
685.4	56605.6
685.748	56481.09
686.095	56512.72
686.443	56325.38
686.79	56320.86
687.138	56434.99
687.485	56287.42
687.832	56202
688.18	56249.68
688.527	56122.22
688.874	56023.47
689.221	56006.52
689.568	55825.74
689.915	55835.9
690.262	55792.52
690.609	55705.96
690.956	55681.56
691.303	55623.93
691.65	55455.35
691.997	55421.9
692.344	55286.54
692.69	55237.5
693.037	55248.35
693.383	55007.23
693.73	55076.6
694.077	54957.96
694.423	54900.34
694.769	54822.37
695.116	54749.61
695.462	54637.07
695.808	54665.54
696.155	54588.93
696.501	54424.19
696.847	54477.07
697.193	54191.43
697.539	54200.47
697.885	54017.2
698.231	53875.96
698.577	53901.94
698.923	53936.97
699.269	53746.02
699.614	53638.45
699.96	53691.33
700.306	53534.27
700.651	53363.43
700.997	53353.48
701.342	53203.43
701.688	53167.05
702.033	53152.59
702.379	53194.62
702.724	52972.48
703.069	53028.29
703.415	52622.2
703.76	52747.17
704.105	52625.37
704.45	52577.01
704.795	52288.88
705.14	52255.66
705.485	52241.87
705.83	52031.49
706.175	52120.3
706.52	52053.86
706.865	51934.54
707.209	51884.6
707.554	51770.93
707.899	51766.41
708.243	51576.58
708.588	51692.28
708.932	51326.87
709.277	51394.89
709.621	51314.89
709.966	51088.01
710.31	51152.64
710.654	50863.15
710.998	50896.37
711.342	50949.71
711.687	50738.64
712.031	50502.94
712.375	50426.1
712.719	50563.5
713.063	50445.31
713.407	50554.24
713.75	50349.04
714.094	50323.06
714.438	50103.63
714.782	50100.91
715.125	49893.69
715.469	50008.49
715.812	49799.91
716.156	49640.59
716.499	49591.1
716.843	49626.12
717.186	49364.44
717.53	49742.51
717.873	49528.95
718.216	49479.91
718.559	49274.04
718.902	49062.52
719.246	49089.42
719.589	49021.17
719.932	48817.33
720.275	48935.75
720.617	48740.05
720.96	48727.84
721.303	48618.47
721.646	48702.53
721.989	48312.71
722.331	48377.34
722.674	48494.85
723.016	48301.19
723.359	48322.2
723.701	48255.31
724.044	47999.73
724.386	47931.03
724.729	47993.63
725.071	47816
725.413	47745.5
725.755	47745.72
726.097	47551.38
726.439	47444.49
726.782	47441.32
727.124	47541.89
727.465	47225.96
727.807	47230.71
728.149	47101.45
728.491	46975.35
728.833	47002.92
729.175	46827.55
729.516	46726.54
729.858	46741.91
730.199	46761.34
730.541	46633.89
730.882	46522.48
731.224	46635.02
731.565	46368.36
731.906	46312.54
732.248	46255.82
732.589	45999.78
732.93	45946.45
733.271	46057.63
733.612	46102.83
733.953	45909.16
734.294	45796.39
734.635	45573.35
734.976	45806.34
735.317	45550.75
735.658	45510.3
735.999	45475.05
736.339	45371.32
736.68	45588.26
737.021	45340.36
737.361	45136.53
737.702	45333.13
738.042	45137.65
738.383	45070.54
738.723	45150.99
739.063	44923.65
739.404	44978.34
739.744	44780.15
740.084	44786.25
740.424	44743.09
740.764	44596.43
741.104	44884.55
741.444	44516.88
741.784	44391.01
742.124	44401.63
742.464	44400.27
742.804	44320.73
743.143	44142.65
743.483	44236.44
743.823	43912.38
744.162	43964.13
744.502	44000.51
744.841	43819.05
745.181	43749.44
745.52	43657.69
745.86	43698.14
746.199	43647.98
746.538	43430.36
746.877	43581.99
747.216	43478.26
747.556	43313.97
747.895	43241.43
748.234	43052.06
748.573	43142.45
748.911	42947.2
749.25	42870.82
749.589	42560.77
749.928	42776.14
750.267	42578.85
750.605	42541.11
750.944	42417.05
751.283	42184.74
751.621	42298.41
751.96	42127.11
752.298	41990.39
