Data from aluminium_macbook_case_FLMS001491_033.txt Node
Date: Tue Feb 07 10:43:31 GMT 2017
User: dcchb
Spectrometer: FLMS00149
Trigger mode: 0
Integration Time (sec): 2.000000E-2
Scans to average: 10
Electric dark correction enabled: true
Nonlinearity correction enabled: false
Boxcar width: 0
XAxis mode: Wavelengths
Number of Pixels in Spectrum: 2048
>>>>>Begin Spectral Data<<<<<
341.393	-8.11
341.776	-8.11
342.16	-8.11
342.543	-67.54
342.927	-59.63
343.31	-57.37
343.693	-62.57
344.077	-38.39
344.46	-63.92
344.843	-65.51
345.226	-34.55
345.61	-32.51
345.993	-36.13
346.376	-9.24
346.759	6.81
347.142	24.21
347.525	32.12
347.908	62.17
348.291	74.15
348.674	91.33
349.057	109.4
349.44	120.03
349.823	138.1
350.206	181.49
350.588	235.05
350.971	234.37
351.354	277.08
351.737	282.96
352.119	286.12
352.502	306.46
352.884	344.65
353.267	346.91
353.65	353.24
354.032	343.75
354.414	341.26
354.797	367.02
355.179	380.13
355.562	384.42
355.944	383.97
356.326	395.27
356.709	394.37
357.091	397.76
357.473	402.5
357.855	404.76
358.238	414.25
358.62	388.94
359.002	403.86
359.384	429.4
359.766	394.82
360.148	410.86
360.53	444.08
360.912	423.07
361.294	429.17
361.676	403.41
362.057	410.19
362.439	428.04
362.821	444.99
363.203	403.41
363.584	420.13
363.966	414.71
364.348	416.06
364.729	421.49
365.111	428.04
365.493	413.35
365.874	411.32
366.256	428.04
366.637	451.77
367.019	413.12
367.4	423.97
367.781	422.84
368.163	430.75
368.544	434.14
368.925	427.81
369.306	451.77
369.688	422.39
370.069	441.6
370.45	464.42
370.831	449.06
371.212	460.58
371.593	437.08
371.974	445.44
372.355	438.43
372.736	449.28
373.117	457.42
373.498	451.77
373.879	453.8
374.26	467.59
374.641	422.16
375.021	438.89
375.402	463.29
375.783	479.11
376.163	520.24
376.544	518.43
376.925	501.03
377.305	499.45
377.686	501.94
378.066	504.42
378.447	513.69
378.827	503.07
379.208	499.9
379.588	537.87
379.968	521.82
380.349	548.26
380.729	523.86
381.109	573.57
381.489	532.67
381.87	582.84
382.25	559.56
382.63	562.95
383.01	561.14
383.39	568.15
383.77	579.22
384.15	617.87
384.53	612.44
384.91	573.12
385.29	604.08
385.67	607.92
386.049	618.54
386.429	626.68
386.809	660.58
387.189	632.55
387.568	659.45
387.948	677.75
388.328	681.37
388.707	665.32
389.087	684.76
389.466	689.05
389.846	729.73
390.225	724.3
390.605	707.81
390.984	706
391.363	715.94
391.743	736.28
392.122	752.1
392.501	782.15
392.881	760.69
393.26	773.57
393.639	802.94
394.018	796.84
394.397	802.94
394.776	809.05
395.155	850.4
395.534	842.49
395.913	835.94
396.292	863.73
396.671	838.42
397.05	862.38
397.429	877.07
397.808	882.72
398.186	895.15
398.565	895.6
398.944	900.57
399.323	899.67
399.701	916.39
400.08	951.87
400.458	962.26
400.837	976.95
401.215	980.34
401.594	988.7
401.972	999.78
402.351	1003.39
402.729	1013.79
403.107	1051.98
403.486	1039.77
403.864	1057.4
404.242	1056.95
404.62	1098.98
404.999	1109.6
405.377	1120.22
405.755	1118.87
406.133	1132.65
406.511	1146.89
406.889	1173.78
407.267	1170.84
407.645	1195.93
408.023	1231.63
408.401	1259.43
408.779	1245.42
409.156	1274.57
409.534	1295.81
409.912	1308.69
410.29	1362.48
410.667	1359.09
411.045	1367.9
411.422	1383.27
411.8	1402.7
412.178	1417.62
412.555	1453.55
412.933	1448.58
413.31	1503.49
413.687	1533.55
414.065	1539.87
414.442	1522.7
414.819	1558.86
415.197	1583.04
415.574	1609.7
415.951	1618.74
416.328	1618.97
416.705	1643.37
417.082	1663.04
417.46	1682.24
417.837	1692.87
418.214	1711.17
418.591	1745.29
418.967	1743.26
419.344	1769.47
419.721	1802.92
420.098	1828
420.475	1851.28
420.852	1862.8
421.228	1877.27
421.605	1922.24
421.982	1935.34
422.358	1948.9
422.735	1989.81
423.111	1971.5
423.488	2008.34
423.864	2039.52
424.241	2072.97
424.617	2092.85
424.994	2109.58
425.37	2145.96
425.746	2130.59
426.123	2163.36
426.499	2203.59
426.875	2231.61
427.251	2275.45
427.627	2329.91
428.003	2356.35
428.379	2381.66
428.756	2438.38
429.132	2445.84
429.507	2462.79
429.883	2464.14
430.259	2541.2
430.635	2568.32
431.011	2647.42
431.387	2661.2
431.763	2700.75
432.138	2716.34
432.514	2746.85
432.89	2755.21
433.265	2826.17
433.641	2891.48
434.016	2922.21
434.392	2992.04
434.767	3029.78
435.143	3029.78
435.518	3081.53
435.894	3126.5
436.269	3184.13
436.644	3215.31
437.02	3232.49
437.395	3248.76
437.77	3333.5
438.145	3378.47
438.52	3378.02
438.895	3410.33
439.271	3442.42
439.646	3501.63
440.021	3518.13
440.395	3545.92
440.77	3556.32
441.145	3571.69
441.52	3668.63
441.895	3632.02
442.27	3705.47
442.645	3711.57
443.019	3787.5
443.394	3831.79
443.769	3807.84
444.143	3854.84
444.518	3929.19
444.892	3907.72
445.267	3987.49
445.641	4004.44
446.016	4025.46
446.39	4069.07
446.764	4094.84
447.139	4107.94
447.513	4134.83
447.887	4167.38
448.262	4201.27
448.636	4194.27
449.01	4309.07
449.384	4329.18
449.758	4359.46
450.132	4429.97
450.506	4427.03
450.88	4431.55
451.254	4484.43
451.628	4604.43
452.002	4609.62
452.376	4679.68
452.75	4768.49
453.123	4771.43
453.497	4843.97
453.871	4872.44
454.244	4977.3
454.618	5031.53
454.992	5121.25
455.365	5123.74
455.739	5265.65
456.112	5273.79
456.486	5363.28
456.859	5395.82
457.232	5531.86
457.606	5505.87
457.979	5576.15
458.352	5718.52
458.725	5770.05
459.099	5779.09
459.472	5884.39
459.845	6041.23
460.218	6030.15
460.591	6097.95
460.964	6134.56
461.337	6319.41
461.71	6414.55
462.083	6526.86
462.456	6470.14
462.829	6527.31
463.201	6651.83
463.574	6723.92
463.947	6826.06
464.32	6978.6
464.692	7091.82
465.065	7071.03
465.438	7146.51
465.81	7314.86
466.183	7438.93
466.555	7577.68
466.928	7606.38
467.3	7613.39
467.672	7780.16
468.045	8005.24
468.417	7988.29
468.789	8036.65
469.161	8143.77
469.534	8321.17
469.906	8416.3
470.278	8462.18
470.65	8652.23
471.022	8797.31
471.394	8969.96
471.766	9020.58
472.138	9253.57
472.51	9424.87
472.882	9609.27
473.253	9645.42
473.625	9901.01
473.997	10059.65
474.369	10089.25
474.74	10341.9
475.112	10452.18
475.484	10639.3
475.855	10787.54
476.227	10889.46
476.598	11223.91
476.97	11294.42
477.341	11560.63
477.713	11684.47
478.084	11836.1
478.455	12128.3
478.827	12222.76
479.198	12609.41
479.569	12556.31
479.94	12971.89
480.311	13184.09
480.682	13393.35
481.053	13814.58
481.424	13944.52
481.795	14074.91
482.166	14323.49
482.537	14542.02
482.908	14933.19
483.279	15120.31
483.65	15338.83
484.021	15677.81
484.391	15875.54
484.762	16017.91
485.133	16185.14
485.503	16373.84
485.874	16752.58
486.244	16904.67
486.615	17254.72
486.985	17544.43
487.356	17679.56
487.726	17950.29
488.097	18236.16
488.467	18335.59
488.837	18666.2
489.207	18889.25
489.578	19173.54
489.948	19312.06
490.318	19572.85
490.688	19728.32
491.058	20051.03
491.428	20344.8
491.798	20625.93
492.168	21064.11
492.538	21199.92
492.908	21260.71
493.278	21695.95
493.648	21795.39
494.017	22025.89
494.387	22337.07
494.757	22619.09
495.126	22871.29
495.496	22961.46
495.866	23067.44
496.235	23279.19
496.605	23605.06
496.974	23603.02
497.344	23851.6
497.713	23995.78
498.082	24206.85
498.452	24540.17
498.821	24502.66
499.19	24733.39
499.559	24950.33
499.928	25004.57
500.298	25109.65
500.667	25360.27
501.036	25477.55
501.405	25603.42
501.774	25776.75
502.143	26173.35
502.512	26308.26
502.88	26477.75
503.249	26609.72
503.618	26836.16
503.987	27025.76
504.356	27255.13
504.724	27366.09
505.093	27602.01
505.462	27818.28
505.83	27999.52
506.199	28211.26
506.567	28594.3
506.936	28589.78
507.304	28860.74
507.672	29089.66
508.041	29175.53
508.409	29420.05
508.777	29623.66
509.145	30008.05
509.514	29817.32
509.882	30215.05
510.25	30243.53
510.618	30370.53
510.986	30594.93
511.354	30871.31
511.722	31149.94
512.09	31482.82
512.458	31317.17
512.826	31676.71
513.193	31947.66
513.561	32023.14
513.929	32356.01
514.297	32537.93
514.664	32865.6
515.032	33015.21
515.4	33486.61
515.767	33574.74
516.135	34016.76
516.502	33697
516.869	34482.51
517.237	34442.96
517.604	34625.11
517.972	35093.57
518.339	35177.86
518.706	35404.3
519.073	35540.56
519.44	35769.48
519.808	36111.85
520.175	36161.56
520.542	36717.48
520.909	36780.76
521.276	36832.73
521.643	37175.1
522.009	37583.22
522.376	37589.55
522.743	37980.95
523.11	38473.82
523.477	38595.62
523.843	38872.23
524.21	39258.21
524.577	39544.53
524.943	39547.24
525.31	39861.13
525.676	40329.14
526.043	40644.84
526.409	40962.12
526.776	41160.08
527.142	41548.77
527.508	41684.81
527.874	42048.87
528.241	42351.46
528.607	42397.33
528.973	43050.2
529.339	42962.97
529.705	43368.15
530.071	43678.2
530.437	43831.42
530.803	44167
531.169	44425.3
531.535	44268.69
531.901	44493.77
532.267	44548.69
532.632	45007.88
532.998	45157.94
533.364	45299.18
533.73	45444.71
534.095	45716.11
534.461	45803.57
534.826	46169.89
535.192	46186.38
535.557	46636.99
535.923	46445.13
536.288	46739.14
536.653	46968.06
537.019	46805.8
537.384	46953.82
537.749	47276.98
538.114	47307.94
538.479	47449.4
538.845	47674.48
539.21	47651.66
539.575	47993.57
539.94	48250.96
540.305	48370.28
540.67	48378.19
541.034	48652.08
541.399	48792.64
541.764	48842.81
542.129	49080.32
542.494	49195.57
542.858	49339.97
543.223	49431.27
543.587	49620.42
543.952	49660.64
544.316	49795.78
544.681	49753.07
545.045	50034.42
545.41	50129.33
545.774	50104.25
546.138	50260.4
546.503	50388.08
546.867	50366.39
547.231	50642.09
547.595	50628.75
547.959	50866.71
548.324	50853.83
548.688	51039.14
549.052	51111.23
549.416	51127.95
549.779	51189.64
550.143	51265.8
550.507	51498.56
550.871	51641.61
551.235	51640.93
551.599	51888.83
551.962	52014.25
552.326	52179.67
552.689	52416.05
553.053	52221.48
553.417	52401.36
553.78	52774.69
554.143	52727.23
554.507	52975.13
554.87	53047.67
555.234	53286.99
555.597	53167.67
555.96	53454.89
556.323	53593.42
556.686	53576.02
557.05	53859.86
557.413	53933.75
557.776	54076.8
558.139	54181.65
558.502	54249.9
558.865	54317.24
559.228	54415.32
559.59	54439.95
559.953	54633.39
560.316	54857.34
560.679	54845.82
561.041	54969.66
561.404	55096.66
561.767	55290.55
562.129	55145.24
562.492	55572.13
562.854	55548.4
563.217	55536.87
563.579	55702.07
563.941	55842.63
564.304	55939.35
564.666	56206.23
565.028	56181.6
565.39	56273.35
565.753	56436.96
566.115	56554.47
566.477	56636.96
566.839	56767.8
567.201	56942.71
567.563	56972.77
567.925	57120.11
568.287	57205.3
568.648	57274.91
569.01	57312.42
569.372	57554.9
569.734	57502.25
570.095	57754.22
570.457	57872.4
570.819	57932.74
571.18	57898.84
571.542	58075.11
571.903	58073.98
572.265	58163.7
572.626	58197.59
572.987	58247.08
573.349	58276.01
573.71	58374.76
574.071	58427.42
574.432	58513.07
574.794	58625.83
575.155	58620.86
575.516	58499.28
575.877	58584.48
576.238	58637.13
576.599	58718.71
576.96	58770.69
577.32	58851.59
577.681	58801.65
578.042	58945.6
578.403	58946.05
578.763	58937.46
579.124	58989.66
579.485	59102.88
579.845	59223.56
580.206	59168.64
580.566	59152.37
580.927	59222.88
581.287	59349.2
581.648	59199.83
582.008	59306.04
582.368	59362.76
582.728	59420.16
583.089	59438.92
583.449	59429.2
583.809	59412.03
584.169	59513.04
584.529	59480.27
584.889	59649.08
585.249	59515.07
585.609	59478.46
585.969	59625.58
586.329	59550.1
586.688	59575.64
587.048	59579.25
587.408	59463.32
587.768	59491.8
588.127	59503.55
588.487	59402.53
588.846	59661.96
589.206	59447.73
589.565	59415.42
589.925	59476.88
590.284	59381.97
590.643	59458.58
591.003	59477.33
591.362	59523.89
591.721	59442.99
592.08	59483.66
592.44	59508.07
592.799	59521.85
593.158	59529.08
593.517	59491.8
593.876	59478.24
594.235	59495.19
594.593	59596.65
594.952	59581.96
595.311	59539.71
595.67	59581.06
596.029	59658.8
596.387	59704.45
596.746	59705.8
597.104	59577.9
597.463	59672.81
597.822	59794.84
598.18	59690.89
598.538	59689.08
598.897	59871.9
599.255	59719.59
599.613	60031.67
599.972	59870.09
600.33	59999.35
600.688	59921.39
601.046	59987.83
601.404	60125.9
601.762	60085.45
602.12	60139.92
602.478	60111.44
602.836	60093.59
603.194	60010.43
603.552	60053.82
603.91	59952.35
604.268	60118
604.625	59965.91
604.983	60077.54
605.341	59975.85
605.698	60092.46
606.056	60054.95
606.413	60032.35
606.771	60062.86
607.128	60079.13
607.485	59961.84
607.843	59987.15
608.2	60199.58
608.557	60186.47
608.914	60145.11
609.272	60207.71
609.629	60285.9
609.986	60401.38
610.343	60205
610.7	60440.47
611.057	60422.62
611.414	60401.83
611.771	60401.83
612.127	60477.53
612.484	60455.61
612.841	60581.94
613.198	60584.42
613.554	60620.36
613.911	60713.91
614.267	60661.03
614.624	60664.87
614.98	60706.45
615.337	60898.31
615.693	60831.2
616.05	60833.46
616.406	60917.3
616.762	60919.33
617.118	60919.56
617.475	60968.82
617.831	60977.41
618.187	60993.23
618.543	61030.29
618.899	61118.42
619.255	61068.93
619.611	60965.88
619.967	61091.53
620.323	61111.64
620.678	61008.37
621.034	60935.6
621.39	60905.77
621.746	60859.44
622.101	61146.22
622.457	60866.45
622.812	60979.44
623.168	60972.89
623.523	60951.65
623.879	60985.09
624.234	60766.34
624.589	60800.69
624.945	60855.15
625.3	60860.35
625.655	60850.18
626.01	60800.24
626.365	60861.25
626.72	60811.54
627.075	60765.21
627.43	60802.72
627.785	60737.19
628.14	60814.02
628.495	60833.23
628.85	60781.25
629.205	60737.19
629.559	60880.91
629.914	60726.57
630.269	60768.6
630.623	60677.98
630.978	60708.26
631.332	60799.11
631.687	60866.45
632.041	60741.93
632.396	60807.02
632.75	60729.5
633.104	60728.83
633.459	60616.51
633.813	60620.58
634.167	60651.99
634.521	60648.15
634.875	60720.92
635.229	60612.45
635.583	60424.88
635.937	60485.22
636.291	60487.7
636.645	60456.52
636.999	60444.54
637.352	60490.87
637.706	60342.85
638.06	60375.16
638.413	60280.03
638.767	60207.03
639.121	60240.03
639.474	60097.43
639.828	60128.39
640.181	60092.69
640.534	60060.37
640.888	60008.39
641.241	59871.22
641.594	59811.34
641.947	59908.06
642.301	59749.42
642.654	59774.73
643.007	59704
643.36	59696.99
643.713	59643.88
644.066	59666.71
644.419	59454.28
644.771	59242.31
645.124	59089.1
645.477	59107.4
645.83	58964.13
646.182	58804.58
646.535	58693.85
646.888	58790.35
647.24	58534.53
647.593	58710.35
647.945	58672.84
648.298	58531.37
648.65	58502.22
649.002	58492.5
649.355	58651.14
649.707	58609.11
650.059	58701.08
650.411	58977.01
650.763	59026.5
651.115	59257.23
651.467	59167.96
651.819	59204.57
652.171	59155.08
652.523	59160.73
652.875	59077.34
653.227	59025.59
653.578	59285.93
653.93	59126.38
654.282	59045.71
654.633	58916.22
654.985	58937.91
655.337	59014.3
655.688	58952.15
656.039	59057.46
656.391	58802.78
656.742	58832.83
657.094	58830.12
657.445	58904.47
657.796	58823.11
658.147	58757.35
658.498	58701.54
658.849	58701.99
659.2	58638.71
659.551	58568.43
659.902	58652.05
660.253	58570.69
660.604	58614.76
660.955	58357.59
661.306	58412.96
661.656	58310.59
662.007	58331.38
662.358	58275.11
662.708	58261.55
663.059	58315.56
663.409	58057.03
663.76	58176.8
664.11	58098.39
664.461	58172.06
664.811	58146.3
665.161	58127.31
665.511	58092.74
665.862	58045.06
666.212	58152.62
666.562	58162.57
666.912	58117.14
667.262	58055.22
667.612	58076.92
667.962	58168.67
668.312	58118.5
668.662	58212.51
669.011	58113.3
669.361	58076.69
669.711	58128.22
670.06	58147.2
670.41	58065.17
670.76	57982.68
671.109	58193.53
671.459	58126.18
671.808	58027.66
672.157	58118.05
672.507	57873.08
672.856	58035.56
673.205	57964.83
673.554	58016.13
673.904	57928
674.253	58088.67
674.602	57995.57
674.951	57627.67
675.3	57444.62
675.649	57931.16
675.998	57847.09
676.346	57884.16
676.695	57935
677.044	57720.77
677.393	57789.92
677.741	57796.47
678.09	57647.55
678.438	57664.05
678.787	57668.79
679.135	57547.89
679.484	57378.18
679.832	57458.4
680.181	57269.03
680.529	57345.64
680.877	57275.36
681.225	57158.98
681.573	57283.49
681.922	57031.3
682.27	56967.34
682.618	56989.49
682.966	56922.83
683.314	56992.65
683.661	56810.51
684.009	56664.53
684.357	56633.79
684.705	56584.98
685.053	56603.51
685.4	56519.45
685.748	56384.08
686.095	56443.52
686.443	56297.98
686.79	56283.97
687.138	56316.97
687.485	56260.92
687.832	56221.37
688.18	56174.82
688.527	56042.85
688.874	56049.4
689.221	56044.88
689.568	55905
689.915	55900.48
690.262	55916.52
690.609	55848.5
690.956	55756.75
691.303	55792.91
691.65	55595.18
691.997	55640.6
692.344	55499.59
692.69	55472.47
693.037	55450.77
693.383	55309.99
693.73	55298.46
694.077	55175.07
694.423	55211.91
694.769	55093.27
695.116	55045.36
695.462	55103.89
695.808	54988.19
696.155	54997.68
696.501	54721.08
696.847	54778.47
697.193	54499.39
697.539	54689.89
697.885	54327.19
698.231	54333.97
698.577	54324.93
698.923	54255.55
699.269	54083.8
699.614	53905.96
699.96	53792.96
700.306	53724.49
700.651	53552.97
700.997	53511.62
701.342	53558.85
701.688	53447.21
702.033	53294.9
702.379	53276.37
702.724	53216.71
703.069	53227.1
703.415	52825.53
703.76	52863.5
704.105	52740.79
704.45	52654.46
704.795	52483.85
705.14	52369.72
705.485	52336.51
705.83	52133.35
706.175	52086.57
706.52	52094.7
706.865	51826.24
707.209	51816.97
707.554	51720.02
707.899	51628.95
708.243	51517.32
708.588	51501.27
708.932	51223.77
709.277	51286.82
709.621	51263.54
709.966	51087.05
710.31	51162.07
710.654	50878.69
710.998	50938.12
711.342	50953.49
711.687	50823.55
712.031	50733.38
712.375	50593.95
712.719	50702.42
713.063	50591.47
713.407	50714.85
713.75	50525.93
714.094	50472.83
714.438	50335.65
714.782	50424.24
715.125	50344.02
715.469	50270.57
715.812	50149.67
716.156	49981.99
716.499	50100.18
716.843	50084.59
717.186	49924.14
717.53	50001.2
717.873	49882.56
718.216	49852.95
718.559	49697.93
718.902	49373.42
719.246	49544.94
719.589	49390.37
719.932	49280.31
720.275	49308.56
720.617	49164.84
720.96	49095.46
721.303	49045.29
721.646	48995.12
721.989	48768.01
722.331	48905.41
722.674	48777.5
723.016	48716.04
723.359	48571.63
723.701	48635.13
724.044	48327.35
724.386	48209.38
724.729	48310.62
725.071	47964.42
725.413	48105.43
725.755	48055.49
726.097	47742.95
726.439	47604.43
726.782	47538.89
727.124	47728.26
727.465	47389.06
727.807	47375.05
728.149	47413.92
728.491	47200.6
728.833	47148.39
729.175	47025.46
729.516	46910.66
729.858	46770.55
730.199	46722.19
730.541	46720.16
730.882	46577.11
731.224	46702.53
731.565	46368.07
731.906	46380.96
732.248	46269.55
732.589	46133.05
732.93	46023.68
733.271	46089.44
733.612	46212.15
733.953	46146.39
734.294	45917.46
734.635	45876.11
734.976	45839.5
735.317	45590.02
735.658	45627.53
735.999	45585.27
736.339	45479.28
736.68	45627.53
737.021	45612.16
737.361	45308.67
737.702	45489.45
738.042	45423.69
738.383	45329.01
738.723	45446.29
739.063	45097.6
739.404	45330.81
739.744	45169.01
740.084	44983.25
740.424	45015.57
740.764	44984.83
741.104	45057.83
741.444	44702.36
741.784	44560.89
742.124	44761.11
742.464	44561.12
742.804	44470.5
743.143	44409.26
743.483	44541.91
743.823	44233.89
744.162	44232.09
744.502	44312.31
744.841	44158.19
745.181	44273.89
745.52	43918.42
745.86	44006.55
746.199	43840.91
746.538	43719.33
746.877	43730.4
747.216	43895.15
747.556	43600.24
747.895	43700.35
748.234	43253.81
748.573	43312.79
748.911	43156.86
749.25	43249.06
749.589	43092
749.928	43031.89
750.267	42923.65
750.605	42776.08
750.944	42745.8
751.283	42443.88
751.621	42567.95
751.96	42420.16
752.298	42391.91
