Data from aluminium_macbook_case_FLMS001491_070.txt Node
Date: Tue Feb 07 10:44:02 GMT 2017
User: dcchb
Spectrometer: FLMS00149
Trigger mode: 0
Integration Time (sec): 2.000000E-2
Scans to average: 10
Electric dark correction enabled: true
Nonlinearity correction enabled: false
Boxcar width: 0
XAxis mode: Wavelengths
Number of Pixels in Spectrum: 2048
>>>>>Begin Spectral Data<<<<<
341.393	-9.11
341.776	-9.11
342.16	-9.11
342.543	-64.93
342.927	-84.14
343.31	-56.79
343.693	-97.7
344.077	-63.35
344.46	-56.11
344.843	-38.94
345.226	-40.75
345.61	-17.02
345.993	-27.64
346.376	-13.18
346.759	16.2
347.142	33.83
347.525	44.45
347.908	52.36
348.291	48.74
348.674	110.89
349.057	105.01
349.44	140.94
349.823	128.97
350.206	183.65
350.588	242.63
350.971	259.81
351.354	265.01
351.737	293.26
352.119	293.26
352.502	291.22
352.884	316.31
353.267	341.84
353.65	355.4
354.032	359.24
354.414	374.38
354.797	385.23
355.179	381.84
355.562	378.45
355.944	386.81
356.326	381.61
356.709	392.01
357.091	399.69
357.473	399.92
357.855	414.61
358.238	399.24
358.62	391.11
359.002	406.92
359.384	400.37
359.766	401.95
360.148	418.22
360.53	402.4
360.912	408.73
361.294	405.12
361.676	403.08
362.057	418.68
362.439	398.79
362.821	419.58
363.203	393.82
363.584	402.86
363.966	409.64
364.348	413.93
364.729	432.46
365.111	413.7
365.493	418
365.874	444.21
366.256	419.58
366.637	421.39
367.019	418
367.4	418.22
367.781	436.98
368.163	413.25
368.544	420.03
368.925	437.43
369.306	441.73
369.688	422.74
370.069	442.86
370.45	429.07
370.831	430.43
371.212	435.17
371.593	432.23
371.974	439.47
372.355	466.58
372.736	493.93
373.117	469.97
373.498	480.14
373.879	460.71
374.26	476.98
374.641	452.57
375.021	455.96
375.402	450.76
375.783	488.73
376.163	503.87
376.544	519.69
376.925	509.07
377.305	511.33
377.686	499.58
378.066	500.48
378.447	521.72
378.827	547.03
379.208	506.81
379.588	505.45
379.968	530.31
380.349	532.57
380.729	561.72
381.109	549.52
381.489	542.29
381.87	547.94
382.25	566.69
382.63	554.04
383.01	609.4
383.39	597.43
383.77	602.17
384.15	567.37
384.53	596.3
384.91	628.61
385.29	613.47
385.67	637.2
386.049	647.6
386.429	639.23
386.809	639.23
387.189	649.18
387.568	665.45
387.948	678.56
388.328	683.98
388.707	682.62
389.087	686.47
389.466	690.98
389.846	709.52
390.225	729.4
390.605	752.23
390.984	746.35
391.363	741.83
391.743	747.71
392.122	780.93
392.501	790.19
392.881	791.77
393.26	789.97
393.639	814.15
394.018	799
394.397	805.11
394.776	805.56
395.155	848.27
395.534	841.49
395.913	851.66
396.292	871.09
396.671	872.45
397.05	878.78
397.429	871.77
397.808	902.05
398.186	913.35
398.565	944.31
398.944	904.76
399.323	959.9
399.701	946.8
400.08	973.24
400.458	972.11
400.837	997.64
401.215	1004.2
401.594	994.48
401.972	1022.05
402.351	1038.32
402.729	1051.2
403.107	1030.64
403.486	1061.82
403.864	1084.19
404.242	1089.84
404.62	1109.96
404.999	1135.27
405.377	1130.52
405.755	1142.5
406.133	1176.85
406.511	1193.12
406.889	1179.56
407.267	1183.85
407.645	1236.28
408.023	1259.56
408.401	1249.61
408.779	1279.22
409.156	1313.34
409.534	1304.75
409.912	1328.26
410.29	1346.56
410.667	1387.92
411.045	1396.95
411.422	1407.12
411.8	1432.43
412.178	1457.74
412.555	1453.22
412.933	1483.73
413.31	1538.65
413.687	1523.73
414.065	1542.26
414.442	1558.08
414.819	1557.4
415.197	1592.88
415.574	1646.44
415.951	1657.74
416.328	1659.32
416.705	1683.05
417.082	1695.03
417.46	1734.35
417.837	1742.03
418.214	1776.61
418.591	1793.78
418.967	1801.24
419.344	1811.63
419.721	1860.45
420.098	1867.45
420.475	1883.72
420.852	1905.19
421.228	1938.41
421.605	1944.96
421.982	1976.6
422.358	1989.48
422.735	2041.68
423.111	2010.72
423.488	2057.05
423.864	2071.74
424.241	2111.74
424.617	2148.8
424.994	2144.28
425.37	2196.48
425.746	2214.79
426.123	2243.03
426.499	2252.07
426.875	2274.22
427.251	2313.31
427.627	2352.86
428.003	2393.99
428.379	2463.14
428.756	2475.34
429.132	2527.09
429.507	2539.75
429.883	2582.91
430.259	2622.01
430.635	2643.25
431.011	2705.17
431.387	2717.6
431.763	2756.02
432.138	2777.71
432.514	2840.08
432.89	2832.62
433.265	2927.76
433.641	2938.16
434.016	2972.28
434.392	3014.09
434.767	3064.03
435.143	3130.24
435.518	3193.97
435.894	3229.45
436.269	3237.13
436.644	3253.63
437.02	3334.76
437.395	3325.04
437.77	3376.56
438.145	3468.09
438.52	3493.85
438.895	3526.84
439.271	3521.19
439.646	3570.46
440.021	3585.37
440.395	3631.47
440.77	3620.85
441.145	3681.19
441.52	3727.06
441.895	3810.22
442.27	3803.45
442.645	3807.06
443.019	3884.57
443.394	3913.05
443.769	3955.76
444.143	3935.42
444.518	3977.23
444.892	4013.61
445.267	4036.21
445.641	4056.32
446.016	4070.56
446.39	4113.95
446.764	4154.85
447.139	4184.68
447.513	4256.09
447.887	4252.92
448.262	4293.15
448.636	4316.43
449.01	4369.98
449.384	4432.58
449.758	4454.5
450.132	4542.86
450.506	4592.8
450.88	4582.18
451.254	4600.49
451.628	4657.43
452.002	4761.61
452.376	4786.24
452.75	4829.86
453.123	4878.22
453.497	4947.82
453.871	4996.63
454.244	5135.84
454.618	5130.87
454.992	5205.44
455.365	5168.61
455.739	5371.99
456.112	5377.64
456.486	5456.74
456.859	5465.1
457.232	5625.32
457.606	5612.89
457.979	5674.36
458.352	5823.51
458.725	5870.06
459.099	5972.65
459.472	6057.62
459.845	6108.92
460.218	6187.11
460.591	6263.49
460.964	6275.92
461.337	6401.79
461.71	6500.55
462.083	6644.05
462.456	6637.27
462.829	6617.83
463.201	6860.09
463.574	6791.16
463.947	6939.86
464.32	7091.95
464.692	7119.74
465.065	7216.69
465.438	7389.34
465.81	7498.94
466.183	7494.2
466.555	7771.93
466.928	7732.83
467.3	7796.56
467.672	7900.06
468.045	8091.02
468.417	8140.28
468.789	8175.99
469.161	8368.52
469.534	8511.12
469.906	8634.28
470.278	8733.71
470.65	8831.56
471.022	8921.73
471.394	9173.25
471.766	9252.57
472.138	9431.09
472.51	9600.81
472.882	9756.73
473.253	9845.09
473.625	10033.79
473.997	10237.17
474.369	10264.29
474.74	10415.47
475.112	10669.03
475.484	10786.76
475.855	10985.86
476.227	11120.09
476.598	11389.46
476.97	11536.8
477.341	11796
477.713	12004.13
478.084	11991.25
478.455	12403.9
478.827	12478.02
479.198	12863.09
479.569	12893.6
479.94	13232.12
480.311	13348.5
480.682	13705.11
481.053	13914.59
481.424	14281.36
481.795	14342.83
482.166	14505.99
482.537	14857.39
482.908	15152.98
483.279	15356.81
483.65	15553.64
484.021	15963.58
484.391	16127.64
484.762	16308.65
485.133	16412.83
485.503	16695.99
485.874	17039.71
486.244	17256.42
486.615	17578.9
486.985	17749.52
487.356	18073.8
487.726	18184.76
488.097	18591.98
488.467	18636.95
488.837	19132.99
489.207	19319.87
489.578	19432.86
489.948	19753.31
490.318	20065.84
490.688	20079.4
491.058	20393.07
491.428	20647.07
491.798	21018.59
492.168	21305.58
492.538	21496.77
492.908	21768.85
493.278	21996.41
493.648	22177.88
494.017	22360.02
494.387	22538.09
494.757	22791.65
495.126	23098.08
495.496	23160.45
495.866	23349.82
496.235	23700.32
496.605	23857.16
496.974	24071.39
497.344	24278.16
497.713	24396.8
498.082	24514.99
498.452	24851.25
498.821	24919.5
499.19	25007.63
499.559	25307.96
499.928	25509.99
500.298	25749.99
500.667	25846.71
501.036	26009.87
501.405	26224.78
501.774	26284.66
502.143	26380.03
502.512	26710.19
502.88	26904.31
503.249	26971.65
503.618	27118.99
503.987	27306.56
504.356	27521.01
504.724	27734.34
505.093	27916.94
505.462	27995.13
505.83	28308.56
506.199	28582.68
506.567	28897.93
506.936	28966.4
507.304	29414.07
507.672	29374.98
508.041	29680.96
508.409	29810.67
508.777	30043.21
509.145	30288.17
509.514	30380.15
509.882	30530.88
510.25	30675.06
510.618	30810.64
510.986	31009.96
511.354	31441.14
511.722	31559.78
512.09	31925.64
512.458	31902.82
512.826	32206.54
513.193	32410.38
513.561	32518.62
513.929	32703.25
514.297	33183.01
514.664	33300.3
515.032	33479.28
515.4	33778.02
515.767	33873.84
516.135	34277.22
516.502	33999.94
516.869	34874.04
517.237	34930.54
517.604	34953.81
517.972	35285.56
518.339	35740.68
518.706	35763.06
519.073	36005.08
519.44	36093.22
519.808	36685.52
520.175	36574.56
520.542	37175
520.909	37370.47
521.276	37510.36
521.643	37836.67
522.009	38214.29
522.376	38388.07
522.743	38640.72
523.11	39023.76
523.477	39234.6
523.843	39581.04
524.21	40032.78
524.577	40266.22
524.943	40334.91
525.31	40629.82
525.676	41050.15
526.043	41151.84
526.409	41460.53
526.776	41760.19
527.142	42002.67
527.508	42046.51
527.874	42450.56
528.241	42698.69
528.607	42863.44
528.973	43216.42
529.339	43328.96
529.705	43774.82
530.071	44114.25
530.437	44288.26
530.803	44659.32
531.169	44744.74
531.535	44867.22
531.901	45143.6
532.267	45285.07
532.632	45656.58
532.998	45778.84
533.364	46071.71
533.73	46076.46
534.095	46503.11
534.461	46572.94
534.826	46761.86
535.192	46987.17
535.557	47233.94
535.923	47311.68
536.288	47349.42
536.653	47527.72
537.019	47515.06
537.384	47793.02
537.749	47945.34
538.114	47970.19
538.479	47964.32
538.845	48258.77
539.21	48263.75
539.575	48364.99
539.94	48553.23
540.305	48787.8
540.67	48713.22
541.034	48909.83
541.399	49053.1
541.764	49393.66
542.129	49510.04
542.494	49621.45
542.858	49787.09
543.223	49770.15
543.587	49923.59
543.952	50000.42
544.316	50297.82
544.681	50350.47
545.045	50441.31
545.41	50739.39
545.774	50644.7
546.138	50774.87
546.503	50970.11
546.867	51111.35
547.231	51363.55
547.595	51357.68
547.959	51549.76
548.324	51573.26
548.688	51631.57
549.052	51750.21
549.416	51810.32
549.779	51910.43
550.143	51973.48
550.507	52269.29
550.871	52237.65
551.235	52243.08
551.599	52438.32
551.962	52667.25
552.326	52655.27
552.689	52895.26
553.053	52712.67
553.417	52855.26
553.78	53189.27
554.143	53075.82
554.507	53214.35
554.87	53476.04
555.234	53709.25
555.597	53528.92
555.96	53748.35
556.323	53816.59
556.686	53862.69
557.05	54199.18
557.413	54209.58
557.776	54370.7
558.139	54526.18
558.502	54592.84
558.865	54644.59
559.228	54921.88
559.59	55043.23
559.953	55079.16
560.316	55407.06
560.679	55440.51
561.041	55690.67
561.404	55762.98
561.767	55909.42
562.129	55889.08
562.492	56110.54
562.854	56145.35
563.217	56140.37
563.579	56320.03
563.941	56442.29
564.304	56548.95
564.666	56619.91
565.028	56654.71
565.39	56832.79
565.753	56936.96
566.115	57000.46
566.477	57008.83
566.839	57142.16
567.201	57303.73
567.563	57333.56
567.925	57435.71
568.287	57443.84
568.648	57557.51
569.01	57655.59
569.372	57899.42
569.734	57849.71
570.095	57959.31
570.457	58118.85
570.819	58225.52
571.18	58131.06
571.542	58303.03
571.903	58363.82
572.265	58443.36
572.626	58552.97
572.987	58577.15
573.349	58730.81
573.71	58846.29
574.071	58870.92
574.432	58958.38
574.794	59121.76
575.155	59082.9
575.516	59074.53
575.877	59202.44
576.238	59295.77
576.599	59430.23
576.96	59402.66
577.32	59419.16
577.681	59510.23
578.042	59591.81
578.403	59584.35
578.763	59634.97
579.124	59593.62
579.485	59693.73
579.845	59754.97
580.206	59651.02
580.566	59607.18
580.927	59623.9
581.287	59750
581.648	59600.4
582.008	59676.33
582.368	59677.46
582.728	59761.97
583.089	59731.01
583.449	59739.15
583.809	59782.31
584.169	59768.08
584.529	59660.51
584.889	59874.74
585.249	59806.49
585.609	59789.32
585.969	59899.82
586.329	59780.5
586.688	59815.08
587.048	59801.52
587.408	59789.32
587.768	59862.76
588.127	59853.04
588.487	59814.4
588.846	60013.04
589.206	59826.83
589.565	59914.51
589.925	59912.7
590.284	59948.64
590.643	60023.21
591.003	60043.77
591.362	60171.45
591.721	60120.16
592.08	60128.29
592.44	60149.99
592.799	60157.44
593.158	60179.36
593.517	60186.6
593.876	60156.09
594.235	60092.81
594.593	60150.89
594.952	60180.49
595.311	60094.17
595.67	60130.78
596.029	60233.6
596.387	60144.34
596.746	60233.83
597.104	60058.24
597.463	60047.16
597.822	60168.97
598.18	60097.78
598.538	60011.91
598.897	60210.55
599.255	59995.87
599.613	60369.87
599.972	60153.6
600.33	60278.12
600.688	60125.81
601.046	60227.72
601.404	60310.43
601.762	60239.93
602.12	60359.47
602.478	60380.04
602.836	60401.73
603.194	60233.6
603.552	60348.17
603.91	60306.59
604.268	60418
604.625	60375.52
604.983	60473.59
605.341	60427.04
605.698	60487.38
606.056	60591.78
606.413	60555.4
606.771	60676.07
607.128	60700.71
607.485	60605.12
607.843	60671.55
608.2	60829.97
608.557	60853.7
608.914	60829.74
609.272	60874.71
609.629	60964.65
609.986	61059.11
610.343	60924.66
610.7	61076.52
611.057	61090.75
611.414	61043.75
611.771	61006.23
612.127	61114.48
612.484	61053.24
612.841	61093.46
613.198	61005.1
613.554	61000.81
613.911	61149.51
614.267	61059.79
614.624	61036.06
614.98	61015.95
615.337	61167.36
615.693	61033.13
616.05	61068.83
616.406	61216.17
616.762	61100.47
617.118	61094.14
617.475	61140.47
617.831	61215.49
618.187	61168.94
618.543	61239
618.899	61364.42
619.255	61234.48
619.611	61256.62
619.967	61317.19
620.323	61333.68
620.678	61262.73
621.034	61302.95
621.39	61256.85
621.746	61263.63
622.101	61515.83
622.457	61341.82
622.812	61449.16
623.168	61471.99
623.523	61499.33
623.879	61556.05
624.234	61385.66
624.589	61487.8
624.945	61540.68
625.3	61546.33
625.655	61524.19
626.01	61512.44
626.365	61575.03
626.72	61640.34
627.075	61537.52
627.43	61504.98
627.785	61548.59
628.14	61510.63
628.495	61527.8
628.85	61438.31
629.205	61396.96
629.559	61449.39
629.914	61388.82
630.269	61349.5
630.623	61251.2
630.978	61251.88
631.332	61275.15
631.687	61314.93
632.041	61150.64
632.396	61217.3
632.75	61060.24
633.104	61129.17
633.459	60939.8
633.813	60964.65
634.167	60897.31
634.521	60838.33
634.875	60882.4
635.229	60890.76
635.583	60667.03
635.937	60729.63
636.291	60822.74
636.645	60677.88
636.999	60702.51
637.352	60735.51
637.706	60633.36
638.06	60654.83
638.413	60575.51
638.767	60481.73
639.121	60537.55
639.474	60392.24
639.828	60426.14
640.181	60413.03
640.534	60497.32
640.888	60406.93
641.241	60315.41
641.594	60326.48
641.947	60399.92
642.301	60330.55
642.654	60390.88
643.007	60291.23
643.36	60295.52
643.713	60314.05
644.066	60439.47
644.419	60324.44
644.771	60153.6
645.124	59894.17
645.477	59834.29
645.83	59679.26
646.182	59575.99
646.535	59522.43
646.888	59539.61
647.24	59372.83
647.593	59503.22
647.945	59357.01
648.298	59313.62
648.65	59203.34
649.002	59127.19
649.355	59213.51
649.707	59099.84
650.059	59323.12
650.411	59550
650.763	59581.19
651.115	59771.01
651.467	59660.06
651.819	59621.64
652.171	59457.12
652.523	59527.18
652.875	59468.65
653.227	59344.81
653.578	59492.6
653.93	59378.48
654.282	59237.02
654.633	59192.72
654.985	59218.26
655.337	59228.65
655.688	59144.81
656.039	59274.98
656.391	59023.91
656.742	59026.17
657.094	59071.37
657.445	59075.21
657.796	59043.35
658.147	59000.86
658.498	58921.09
658.849	59036.8
659.2	58934.88
659.551	58864.82
659.902	58906.86
660.253	58916.12
660.604	58965.16
660.955	58823.69
661.306	58950.24
661.656	58868.89
662.007	58958.38
662.358	58945.27
662.708	58995.89
663.059	59003.58
663.409	58758.38
663.76	58966.51
664.11	58951.83
664.461	59033.41
664.811	58992.28
665.161	58930.81
665.511	58904.37
665.862	58947.76
666.212	59032.28
666.562	59026.63
666.912	58903.01
667.262	58845.84
667.612	58845.84
667.962	58944.37
668.312	58816.24
668.662	58940.53
669.011	58750.93
669.361	58683.36
669.711	58683.81
670.06	58671.61
670.41	58658.95
670.76	58584.83
671.109	58593.64
671.459	58597.94
671.808	58428.68
672.157	58493.31
672.507	58321.79
672.856	58267.78
673.205	58215.35
673.554	58381.22
673.904	58228.91
674.253	58354.1
674.602	58198.85
674.951	57834.79
675.3	57729.71
675.649	58067.56
675.998	58125.41
676.346	58012.42
676.695	58163.15
677.044	57918.63
677.393	57968.8
677.741	57991.17
678.09	57941.68
678.438	57812.87
678.787	57902.59
679.135	57937.16
679.484	57748.92
679.832	57832.31
680.181	57663.27
680.529	57718.41
680.877	57655.59
681.225	57614.23
681.573	57769.94
681.922	57637.06
682.27	57619.21
682.618	57665.53
682.966	57607.45
683.314	57591.18
683.661	57520
684.009	57387.35
684.357	57369.72
684.705	57438.42
685.053	57438.42
685.4	57350.74
685.748	57314.81
686.095	57200.46
686.443	57148.94
686.79	57086.11
687.138	57199.78
687.485	57103.51
687.832	56983.97
688.18	57033.01
688.527	56855.16
688.874	56824.2
689.221	56798.21
689.568	56681.15
689.915	56639.57
690.262	56671.66
690.609	56529.97
690.956	56441.61
691.303	56406.36
691.65	56218.34
691.997	56180.83
692.344	56060.83
692.69	56016.31
693.037	56010.89
693.383	55756.66
693.73	55766.6
694.077	55634.62
694.423	55646.15
694.769	55472.37
695.116	55420.85
695.462	55354.18
695.808	55231.7
696.155	55286.61
696.501	54967.52
696.847	54978.82
697.193	54730.47
697.539	54878.94
697.885	54743.12
698.231	54478.5
698.577	54500.42
698.923	54369.8
699.269	54247.54
699.614	54119.86
699.96	54078.51
700.306	54185.4
700.651	54042.58
700.997	53867.67
701.342	53860.21
701.688	53760.78
702.033	53758.97
702.379	53685.07
702.724	53599.2
703.069	53706.31
703.415	53397.85
703.76	53462.7
704.105	53308.36
704.45	53298.41
704.795	53086.44
705.14	53096.16
705.485	53090.96
705.83	52925.54
706.175	52954.02
706.52	52823.17
706.865	52660.47
707.209	52756.28
707.554	52696.85
707.899	52853.68
708.243	52613.91
708.588	52571.2
708.932	52402.62
709.277	52373.69
709.621	52438.32
709.966	52060.48
710.31	52267.03
710.654	51905.46
710.998	52073.14
711.342	52088.28
711.687	51907.72
712.031	51757.89
712.375	51534.39
712.719	51540.27
713.063	51501.63
713.407	51597.89
713.75	51391.57
714.094	51444
714.438	51234.74
714.782	51281.74
715.125	50945.93
715.469	51042.66
715.812	50733.28
716.156	50686.73
716.499	50607.19
716.843	50593.4
717.186	50400.64
717.53	50587.3
717.873	50480.64
718.216	50283.13
718.559	50195.9
718.902	49900.99
719.246	49943.25
719.589	49800.2
719.932	49629.81
720.275	49522.92
720.617	49555.91
720.96	49338.29
721.303	49351.17
721.646	49275.92
721.989	48923.39
722.331	49073.67
722.674	48924.07
723.016	49001.8
723.359	48884.97
723.701	48847.01
724.044	48567.24
724.386	48409.5
724.729	48488.82
725.071	48430.52
725.413	48350.3
725.755	48384.42
726.097	48146.69
726.439	48057.42
726.782	48057.65
727.124	48270.75
727.465	48068.95
727.807	47974.94
728.149	47926.35
728.491	47967.26
728.833	47858.33
729.175	47811.1
729.516	47747.15
729.858	47578.57
730.199	47921.83
730.541	47635.74
730.882	47647.04
731.224	47712.12
731.565	47389.87
731.906	47489.98
732.248	47570.2
732.589	47318.01
732.93	47150.1
733.271	47282.98
733.612	47265.35
733.953	47385.58
734.294	47087.28
734.635	46909.43
734.976	47191.91
735.317	46987.39
735.658	46892.03
735.999	46900.62
736.339	46706.27
736.68	46881.18
737.021	46452.72
737.361	46407.97
737.702	46611.81
738.042	46339.95
738.383	46203.46
738.723	46354.19
739.063	46234.87
739.404	46142.44
739.744	46026.52
740.084	45808.67
740.424	45831.72
740.764	45647.54
741.104	45675.11
741.444	45410.03
741.784	45374.78
742.124	45443.25
742.464	45259.3
742.804	45140.21
743.143	45030.16
743.483	45043.26
743.823	44796.72
744.162	44748.81
744.502	44676.95
744.841	44529.61
745.181	44685.53
745.52	44462.04
745.86	44351.31
746.199	44360.57
746.538	44106.34
746.877	44253
747.216	43984.99
747.556	43866.12
747.895	43779.12
748.234	43623.19
748.573	43615.51
748.911	43525.79
749.25	43483.98
749.589	43267.72
749.928	43272.01
750.267	43275.85
750.605	43222.97
750.944	43112.69
751.283	42972.58
751.621	43046.03
751.96	42702.99
