Data from aluminium_surface_pro_back_FLMS001491_00071.txt Node
Date: Wed Feb 08 15:34:30 GMT 2017
User: dcchb
Spectrometer: FLMS00149
Trigger mode: 0
Integration Time (sec): 2.000000E-2
Scans to average: 10
Electric dark correction enabled: true
Nonlinearity correction enabled: false
Boxcar width: 0
XAxis mode: Wavelengths
Number of Pixels in Spectrum: 2048
>>>>>Begin Spectral Data<<<<<
341.393	2.84
341.776	2.84
342.16	2.84
342.543	-73.32
342.927	-49.14
343.31	-39.87
343.693	-75.58
344.077	-64.05
344.46	-61.79
344.843	-55.24
345.226	-42.36
345.61	-24.73
345.993	-30.15
346.376	3.06
346.759	23.18
347.142	25.21
347.525	22.73
347.908	41.71
348.291	68.15
348.674	116.96
349.057	92.78
349.44	126.23
349.823	147.69
350.206	159.9
350.588	230.86
350.971	243.06
351.354	248.93
351.737	258.43
352.119	265.88
352.502	304.75
352.884	297.75
353.267	316.5
353.65	324.64
354.032	334.58
354.414	328.48
354.797	337.52
355.179	359.89
355.562	349.72
355.944	350.17
356.326	358.08
356.709	371.64
357.091	336.62
357.473	384.75
357.855	369.61
358.238	380.68
358.62	402.6
359.002	389.04
359.384	377.52
359.766	357.63
360.148	381.59
360.53	383.62
360.912	371.42
361.294	379.78
361.676	351.3
362.057	357.63
362.439	362.83
362.821	366.9
363.203	377.74
363.584	361.7
363.966	366.67
364.348	384.75
364.729	377.07
365.111	393.11
365.493	375.71
365.874	352.21
366.256	341.59
366.637	356.05
367.019	374.13
367.4	355.82
367.781	369.83
368.163	364.64
368.544	364.64
368.925	365.99
369.306	372.32
369.688	358.54
370.069	368.25
370.45	384.98
370.831	382.26
371.212	379.55
371.593	373.22
371.974	401.7
372.355	365.99
372.736	389.04
373.117	377.52
373.498	400.79
373.879	410.06
374.26	389.72
374.641	389.27
375.021	388.14
375.402	406.67
375.783	394.92
376.163	406.22
376.544	418.2
376.925	405.77
377.305	408.48
377.686	422.26
378.066	435.14
378.447	424.07
378.827	420.46
379.208	418.42
379.588	441.25
379.968	435.82
380.349	430.4
380.729	449.38
381.109	464.75
381.489	468.59
381.87	452.09
382.25	452.32
382.63	483.73
383.01	463.17
383.39	478.08
383.77	480.79
384.15	476.27
384.53	493.22
384.91	493.9
385.29	495.48
385.67	511.75
386.049	488.25
386.429	485.09
386.809	516.05
387.189	518.98
387.568	526.21
387.948	540.23
388.328	550.17
388.707	535.03
389.087	536.16
389.466	552.88
389.846	552.2
390.225	567.8
390.605	583.84
390.984	591.07
391.363	584.29
391.743	597.17
392.122	607.34
392.501	603.95
392.881	598.76
393.26	623.39
393.639	624.07
394.018	636.04
394.397	628.59
394.776	632.88
395.155	661.58
395.534	656.38
395.913	664.52
396.292	658.41
396.671	681.24
397.05	682.82
397.429	693.44
397.808	687.11
398.186	723.72
398.565	716.49
398.944	711.29
399.323	715.14
399.701	747.9
400.08	738.41
400.458	728.24
400.837	732.09
401.215	754.68
401.594	774.57
401.972	739.32
402.351	794.91
402.729	805.3
403.107	779.09
403.486	828.81
403.864	844.17
404.242	817.28
404.62	833.1
404.999	853.89
405.377	860.44
405.755	856.83
406.133	893.21
406.511	899.31
406.889	898.18
407.267	956.71
407.645	904.06
408.023	942.7
408.401	943.83
408.779	956.49
409.156	982.7
409.534	1017.5
409.912	1011.4
410.29	1025.64
410.667	1032.87
411.045	1032.87
411.422	1060.44
411.8	1085.75
412.178	1091.62
412.555	1096.37
412.933	1134.79
413.31	1142.92
413.687	1149.25
414.065	1175.46
414.442	1159.42
414.819	1170.27
415.197	1207.1
415.574	1222.02
415.951	1234.22
416.328	1252.3
416.705	1256.82
417.082	1261.56
417.46	1293.88
417.837	1261.11
418.214	1306.99
418.591	1313.54
418.967	1323.48
419.344	1324.61
419.721	1337.49
420.098	1379.07
420.475	1420.65
420.852	1405.51
421.228	1425.4
421.605	1419.52
421.982	1429.69
422.358	1432.41
422.735	1453.42
423.111	1495.46
423.488	1480.77
423.864	1560.99
424.241	1540.65
424.617	1539.52
424.994	1566.64
425.37	1605.73
425.746	1600.09
426.123	1612.51
426.499	1632.85
426.875	1635.56
427.251	1699.52
427.627	1716.69
428.003	1753.3
428.379	1750.14
428.756	1764.37
429.132	1807.76
429.507	1800.98
429.883	1812.28
430.259	1885.05
430.635	1875.11
431.011	1882.11
431.387	1946.52
431.763	1976.57
432.138	1977.93
432.514	2006.4
432.89	2016.8
433.265	2088.89
433.641	2101.31
434.016	2108.09
434.392	2178.83
434.767	2182.22
435.143	2159.84
435.518	2223.57
435.894	2243.01
436.269	2269.67
436.644	2282.1
437.02	2347.41
437.395	2350.57
437.77	2388.54
438.145	2426.73
438.52	2407.3
438.895	2470.12
439.271	2453.62
439.646	2490.01
440.021	2514.19
440.395	2545.14
440.77	2497.01
441.145	2584.92
441.52	2577.91
441.895	2598.48
442.27	2644.13
442.645	2629.21
443.019	2699.27
443.394	2693.62
443.769	2740.39
444.143	2698.59
444.518	2747.17
444.892	2761.86
445.267	2770.22
445.641	2787.4
446.016	2819.26
446.39	2840.96
446.764	2872.14
447.139	2859.94
447.513	2929.09
447.887	2902.65
448.262	2934.51
448.636	2986.04
449.01	3007.28
449.384	3061.52
449.758	3042.98
450.132	3097.22
450.506	3111.91
450.88	3090.44
451.254	3145.81
451.628	3208.86
452.002	3280.94
452.376	3268.97
452.75	3292.47
453.123	3283.43
453.497	3381.06
453.871	3387.16
454.244	3447.72
454.618	3507.15
454.992	3529.75
455.365	3543.99
455.739	3657.43
456.112	3646.36
456.486	3722.97
456.859	3739.69
457.232	3834.83
457.606	3810.2
457.979	3880.25
458.352	3917.31
458.725	3955.96
459.099	4026.69
459.472	4098.32
459.845	4156.18
460.218	4186.01
460.591	4193.24
460.964	4235.5
461.337	4345.55
461.71	4370.18
462.083	4434.59
462.456	4477.98
462.829	4458.77
463.201	4592.77
463.574	4611.98
463.947	4692.21
464.32	4699.66
464.692	4823.05
465.065	4875.48
465.438	4933.78
465.81	4975.36
466.183	4960.45
466.555	5166.32
466.928	5244.06
467.3	5190.5
467.672	5247.67
468.045	5405.63
468.417	5422.13
468.789	5486.99
469.161	5560.88
469.534	5639.75
469.906	5785.96
470.278	5824.38
470.65	5929.01
471.022	5938.05
471.394	6057.82
471.766	6152.06
472.138	6199.06
472.51	6388.43
472.882	6425.72
473.253	6477.92
473.625	6616.9
473.997	6719.05
474.369	6821.19
474.74	6877.91
475.112	6992.71
475.484	7136.21
475.855	7265.47
476.227	7339.37
476.598	7577.1
476.97	7592.02
477.341	7777.78
477.713	7850.09
478.084	7890.32
478.455	8168.05
478.827	8270.19
479.198	8479.68
479.569	8588.6
479.94	8725.55
480.311	8818.2
480.682	8988.14
481.053	9210.05
481.424	9349.94
481.795	9429.71
482.166	9603.94
482.537	9761
482.908	9939.98
483.279	10050.26
483.65	10179.29
484.021	10444.82
484.391	10499.29
484.762	10711.48
485.133	10795.1
485.503	10947.18
485.874	11194.41
486.244	11240.06
486.615	11496.1
486.985	11643.89
487.356	11879.14
487.726	12046.14
488.097	12191.67
488.467	12206.81
488.837	12536.29
489.207	12618.55
489.578	12833.01
489.948	12933.12
490.318	13223.51
490.688	13234.81
491.058	13418.98
491.428	13589.15
491.798	13759.09
492.168	13953.21
492.538	14061.9
492.908	14188.91
493.278	14462.12
493.648	14484.72
494.017	14639.06
494.387	14834.77
494.757	14928.32
495.126	15143.46
495.496	15157.69
495.866	15333.06
496.235	15518.82
496.605	15597.01
496.974	15739.15
497.344	15881.52
497.713	16036.09
498.082	16080.16
498.452	16383.65
498.821	16487.38
499.19	16500.03
499.559	16729.63
499.928	16732.79
500.298	16922.62
500.667	17118.32
501.036	17104.76
501.405	17426.11
501.774	17278.99
502.143	17591.98
502.512	17680.34
502.88	17748.59
503.249	17871.3
503.618	17975.47
503.987	18021.57
504.356	18191.51
504.724	18345.41
505.093	18451.39
505.462	18473.54
505.83	18686.87
506.199	18810.71
506.567	19010.25
506.936	19000.53
507.304	19312.61
507.672	19432.61
508.041	19559.39
508.409	19697.24
508.777	19861.75
509.145	19975.2
509.514	20017.68
509.882	20119.15
510.25	20199.37
510.618	20526.37
510.986	20503.99
511.354	20766.59
511.722	20913.02
512.09	21083.41
512.458	21154.15
512.826	21413.58
513.193	21587.81
513.561	21579.67
513.929	21791.87
514.297	22054.69
514.664	22169.71
515.032	22245.87
515.4	22492.87
515.767	22583.71
516.135	22821
516.502	22743.94
516.869	23257.14
517.237	23369.46
517.604	23302.57
517.972	23649.45
518.339	23880.18
518.706	23911.14
519.073	24031.81
519.44	24221.41
519.808	24505.47
520.175	24540.5
520.542	24820.04
520.909	25005.35
521.276	24944.56
521.643	25358.33
522.009	25502.73
522.376	25652.33
522.743	25870.86
523.11	26276.27
523.477	26470.62
523.843	26544.51
524.21	26908.57
524.577	27039.19
524.943	27188.56
525.31	27365.51
525.676	27714.65
526.043	27892.28
526.409	27991.26
526.776	28385.6
527.142	28495.2
527.508	28589.21
527.874	28835.53
528.241	28894.51
528.607	29011.12
528.973	29358.9
529.339	29293.37
529.705	29607.03
530.071	29948.04
530.437	30080.69
530.803	30206.34
531.169	30460.12
531.535	30401.81
531.901	30550.06
532.267	30712.99
532.632	31005.41
532.998	30957.51
533.364	31253.09
533.73	31372.64
534.095	31616.92
534.461	31678.62
534.826	31992.28
535.192	32132.62
535.557	32304.36
535.923	32240.86
536.288	32411.7
536.653	32590.23
537.019	32606.28
537.384	32802.65
537.749	33040.39
538.114	33060.27
538.479	33199.71
538.845	33433.37
539.21	33342.98
539.575	33607.61
539.94	33702.52
540.305	33895.51
540.67	33853.02
541.034	34007.59
541.399	34169.62
541.764	34201.94
542.129	34499.11
542.494	34623.62
542.858	34586.34
543.223	34718.31
543.587	34937.74
543.952	34948.36
544.316	35060.67
544.681	34993.78
545.045	35202.59
545.41	35499.31
545.774	35633.99
546.138	35464.73
546.503	35784.72
546.867	35758.51
547.231	36102.45
547.595	35993.98
547.959	36174.32
548.324	36393.52
548.688	36491.82
549.052	36655.43
549.416	36636.68
549.779	36568.66
550.143	36817.01
550.507	37118.47
550.871	37351.24
551.235	37257
551.599	37550.33
551.962	37555.75
552.326	37742.64
552.689	37959.36
553.053	37870.54
553.417	38007.49
553.78	38486.12
554.143	38375.16
554.507	38474.37
554.87	38774.93
555.234	38979.44
555.597	38946.9
555.96	39122.26
556.323	39261.47
556.686	39461.46
557.05	39719.08
557.413	39748.23
557.776	39782.58
558.139	40094.67
558.502	40238.17
558.865	40331.95
559.228	40627.53
559.59	40793.86
559.953	40938.49
560.316	41334.86
560.679	41379.83
561.041	41686.94
561.404	41747.73
561.767	42026.37
562.129	42017.78
562.492	42397.2
562.854	42437.88
563.217	42423.87
563.579	42653.69
563.941	43094.36
564.304	43166
564.666	43388.14
565.028	43525.54
565.39	43739.54
565.753	43955.81
566.115	44115.13
566.477	44357.38
566.839	44476.47
567.201	44774.54
567.563	44840.76
567.925	45100.86
568.287	45181.31
568.648	45252.5
569.01	45566.84
569.372	45767.29
569.734	45813.84
570.095	46172.92
570.457	46176.54
570.819	46321.85
571.18	46565.46
571.542	46604.78
571.903	46884.54
572.265	47034.37
572.626	47277.98
572.987	47167.7
573.349	47331.31
573.71	47564.53
574.071	47496.05
574.432	47793.22
574.794	47944.18
575.155	47979.43
575.516	47841.36
575.877	48172.65
576.238	48234.34
576.599	48377.61
576.96	48385.3
577.32	48562.24
577.681	48592.3
578.042	48675.46
578.403	48753.87
578.763	48829.58
579.124	49067.09
579.485	49111.83
579.845	49292.84
580.206	49244.71
580.566	49337.81
580.927	49312.05
581.287	49631.82
581.648	49347.53
582.008	49589.56
582.368	49561.31
582.728	49624.13
583.089	49593.17
583.449	49636.56
583.809	49703.9
584.169	49875.43
584.529	49672.72
584.889	49955.65
585.249	49736.45
585.609	49756.11
585.969	49931.47
586.329	49816.67
586.688	49919.72
587.048	49821.42
587.408	49848.31
587.768	49739.84
588.127	49968.53
588.487	49879.04
588.846	50112.03
589.206	49734.19
589.565	49921.75
589.925	50142.09
590.284	49995.65
590.643	50013.28
591.003	50117.68
591.362	50223.21
591.721	50091.69
592.08	50140.5
592.44	50203.55
592.799	50335.98
593.158	50187.06
593.517	50183.44
593.876	50196.1
594.235	50184.34
594.593	50290.78
594.952	50339.37
595.311	50254.17
595.67	50227.06
596.029	50502.53
596.387	50509.99
596.746	50600.6
597.104	50364.23
597.463	50424.34
597.822	50529.65
598.18	50405.36
598.538	50348.41
598.897	50595.86
599.255	50361.97
599.613	50799.02
599.972	50612.81
600.33	50776.42
600.688	50674.73
601.046	50786.14
601.404	50948.17
601.762	50832.91
602.12	51008.5
602.478	51010.54
602.836	51032.91
603.194	50789.53
603.552	50933.03
603.91	50834.95
604.268	51041.04
604.625	50897.55
604.983	51127.37
605.341	50908.85
605.698	51099.8
606.056	51196.07
606.413	51200.14
606.771	51267.71
607.128	51239.01
607.485	51210.98
607.843	51137.09
608.2	51377.76
608.557	51390.87
608.914	51321.04
609.272	51541.37
609.629	51501.15
609.986	51531.43
610.343	51406.69
610.7	51714.7
611.057	51660.46
611.414	51567.36
611.771	51569.39
612.127	51646.9
612.484	51729.61
612.841	51827.92
613.198	51716.06
613.554	51657.75
613.911	51822.95
614.267	51836.28
614.624	51798.31
614.98	51772.33
615.337	51956.73
615.693	51859.1
616.05	51941.36
616.406	52061.13
616.762	51956.73
617.118	52045.31
617.475	51849.16
617.831	52062.26
618.187	52059.78
618.543	52174.35
618.899	52210.96
619.255	52159.43
619.611	52212.77
619.967	52264.97
620.323	52424.96
620.678	52295.7
621.034	52195.36
621.39	52251.86
621.746	52221.58
622.101	52543.38
622.457	52274.01
622.812	52412.76
623.168	52483.94
623.523	52460.44
623.879	52587.67
624.234	52307
624.589	52409.14
624.945	52442.14
625.3	52407.34
625.655	52413.89
626.01	52401.91
626.365	52486.2
626.72	52465.19
627.075	52424.74
627.43	52336.38
627.785	52269.71
628.14	52335.7
628.495	52422.03
628.85	52398.3
629.205	52220.22
629.559	52468.35
629.914	52253.22
630.269	52369.37
630.623	52203.95
630.978	52108.81
631.332	52361.01
631.687	52334.12
632.041	52127.34
632.396	52328.02
632.75	52134.35
633.104	52244.63
633.459	52005.31
633.813	52017.29
634.167	52003.05
634.521	52041.47
634.875	51948.37
635.229	51875.15
635.583	51730.52
635.937	51809.84
636.291	51798.77
636.645	51735.49
636.999	51641.93
637.352	51706.11
637.706	51535.04
638.06	51686.45
638.413	51620.46
638.767	51419.57
639.121	51604.87
639.474	51344.31
639.828	51317.2
640.181	51362.84
640.534	51375.5
640.888	51178.67
641.241	51027.94
641.594	51209.18
641.947	51269.51
642.301	51063.64
642.654	51126.69
643.007	51135.96
643.36	51052.34
643.713	51021.38
644.066	51169.4
644.419	50822.29
644.771	50666.59
645.124	50265.02
645.477	50218.24
645.83	49896.89
646.182	49872.94
646.535	49920.85
646.888	49804.24
647.24	49706.84
647.593	49889.66
647.945	49700.29
648.298	49478.15
648.65	49366.29
649.002	49289.68
649.355	49504.36
649.707	49449.22
650.059	49574.87
650.411	49835.43
650.763	49972.37
651.115	50270.9
651.467	50066.61
651.819	50105.93
652.171	49855.09
652.523	49945.93
652.875	49911.58
653.227	49869.32
653.578	50053.95
653.93	49961.07
654.282	49809.89
654.633	49681.08
654.985	49735.09
655.337	49794.52
655.688	49930.11
656.039	49900.74
656.391	49551.37
656.742	49631.14
657.094	49599.73
657.445	49684.92
657.796	49638.14
658.147	49487.87
658.498	49354.08
658.849	49502.1
659.2	49422.33
659.551	49263.24
659.902	49335.33
660.253	49241.32
660.604	49397.7
660.955	49121.32
661.306	49319.51
661.656	49246.97
662.007	49215.33
662.358	49152.73
662.708	49240.41
663.059	49251.71
663.409	48920.87
663.76	49312.5
664.11	49168.1
664.461	49341.43
664.811	49138.27
665.161	49112.73
665.511	49064.37
665.862	49129
666.212	49079.06
666.562	49122.45
666.912	48936.24
667.262	48862.12
667.612	48970.59
667.962	48863.7
668.312	48916.58
668.662	49015.56
669.011	48879.75
669.361	48870.93
669.711	48813.76
670.06	48741.9
670.41	48755.68
670.76	48715
671.109	48796.13
671.459	48733.99
671.808	48723.37
672.157	48757.49
672.507	48332.64
672.856	48419.87
673.205	48557.95
673.554	48621.9
673.904	48509.81
674.253	48676.14
674.602	48390.95
674.951	47969.49
675.3	47823.95
675.649	48370.61
675.998	48287.9
676.346	48189.37
676.695	48326.31
677.044	48008.81
677.393	48098.98
677.741	48125.42
678.09	48061.24
678.438	47872.99
678.787	47950.5
679.135	47914.35
679.484	47589.16
679.832	47878.42
680.181	47685.65
680.529	47764.97
680.877	47575.15
681.225	47564.53
681.573	47744.41
681.922	47379.9
682.27	47409.95
682.618	47446.34
682.966	47360.46
683.314	47160.47
683.661	47142.16
684.009	46932.9
684.357	46997.31
684.705	46960.93
685.053	46940.81
685.4	46838.9
685.748	46652.01
686.095	46514.16
686.443	46367.27
686.79	46378.57
687.138	46412.92
687.485	46423.09
687.832	46241.17
688.18	46207.73
688.527	46077.11
688.874	46044.57
689.221	45960.27
689.568	45866.94
689.915	45732.71
690.262	45627.63
690.609	45628.76
690.956	45549.66
691.303	45427.63
691.65	45255.43
691.997	45129.79
692.344	45023.12
692.69	44953.75
693.037	44933.86
693.383	44535.68
693.73	44584.72
694.077	44504.49
694.423	44445.96
694.769	44259.3
695.116	44241
695.462	44061.34
695.808	44001.68
696.155	44108.57
696.501	43539.32
696.847	43658.87
697.193	43511.75
697.539	43608.02
697.885	43299.33
698.231	43159.67
698.577	43239.22
698.923	43027.47
699.269	43033.12
699.614	42751.55
699.96	42728.04
700.306	42624.32
700.651	42363.08
700.997	42370.76
701.342	42253.71
701.688	42239.92
702.033	42019.14
702.379	42007.16
702.724	41827.73
703.069	41986.82
703.415	41455.31
703.76	41514.52
704.105	41535.76
704.45	41319.49
704.795	41014.42
705.14	40989.78
705.485	40961.08
705.83	40715.44
706.175	40810.35
706.52	40664.59
706.865	40489.01
707.209	40459.18
707.554	40298.95
707.899	40411.49
708.243	40031.84
708.588	40048.57
708.932	39910.04
709.277	39880.43
709.621	39758.18
709.966	39421.69
710.31	39742.36
710.654	39314.12
710.998	39380.79
711.342	39331.07
711.687	39199.1
712.031	39108.03
712.375	38948.93
712.719	38934.7
713.063	38934.24
713.407	39009.5
713.75	38762.05
714.094	38804.53
714.438	38611.09
714.782	38632.33
715.125	38408.61
715.469	38577.87
715.812	38290.87
716.156	38133.81
716.499	38087.94
716.843	38195.28
717.186	37897.21
717.53	38081.61
717.873	37934.72
718.216	37969.07
718.559	37692.47
718.902	37412.02
719.246	37555.52
719.589	37310.11
719.932	37315.53
720.275	37267.85
720.617	37233.72
720.96	37213.16
721.303	37062.2
721.646	37101.07
721.989	36883.9
722.331	36971.36
722.674	36820.85
723.016	36815.2
723.359	36693.17
723.701	36720.07
724.044	36523.46
724.386	36398.04
724.729	36637.13
725.071	36477.36
725.413	36428.32
725.755	36383.8
726.097	36250.93
726.439	36281.43
726.782	36217.48
727.124	36350.81
727.465	36021.55
727.807	36033.3
728.149	35849.58
728.491	35851.16
728.833	36003.25
729.175	35703.37
729.516	35691.17
729.858	35609.13
730.199	35723.03
730.541	35437.84
730.882	35377.95
731.224	35410.27
731.565	35313.32
731.906	35317.16
732.248	35311.06
732.589	35086.21
732.93	34827.23
733.271	34958.08
733.612	34969.6
733.953	34863.84
734.294	34688.48
734.635	34564.64
734.976	34707.01
735.317	34554.02
735.658	34401.48
735.999	34467.92
736.339	34199.68
736.68	34424.31
737.021	34260.02
737.361	34167.36
737.702	34231.77
738.042	34105.67
738.383	33938.9
738.723	34223.86
739.063	33957.88
739.404	33880.14
739.744	33970.53
740.084	33686.7
740.424	33779.13
740.764	33522.41
741.104	33606.48
741.444	33562.18
741.784	33434.05
742.124	33485.8
742.464	33427.5
742.804	33258.69
743.143	33258.46
743.483	33259.82
743.823	33150.89
744.162	33071.57
744.502	33123.78
744.841	32844.69
745.181	33038.81
745.52	32927.85
745.86	32863.22
746.199	32807.17
746.538	32752.26
746.877	32693.5
747.216	32645.37
747.556	32439.5
747.895	32467.3
748.234	32211.03
748.573	32211.48
748.911	32238.38
749.25	32269.34
749.589	31957.7
749.928	31969.46
750.267	32095.1
750.605	31984.82
750.944	31883.13
751.283	31713.87
751.621	31838.16
751.96	31614.66
752.298	31519.98
752.636	31484.72
