Data from aluminium_surface_pro_back_FLMS001491_00010.txt Node
Date: Wed Feb 08 15:33:30 GMT 2017
User: dcchb
Spectrometer: FLMS00149
Trigger mode: 0
Integration Time (sec): 2.000000E-2
Scans to average: 10
Electric dark correction enabled: true
Nonlinearity correction enabled: false
Boxcar width: 0
XAxis mode: Wavelengths
Number of Pixels in Spectrum: 2048
>>>>>Begin Spectral Data<<<<<
341.393	-16.86
341.776	-16.86
342.16	-16.86
342.543	-60.48
342.927	-65.45
343.31	-84.66
343.693	-74.04
344.077	-66.58
344.46	-59.8
344.843	-49.41
345.226	-36.07
345.61	-12.8
345.993	-34.26
346.376	-25
346.759	-9.18
347.142	19.29
347.525	67.65
347.908	71.95
348.291	73.98
348.674	83.02
349.057	135.9
349.44	111.49
349.823	146.97
350.206	168.67
350.588	208.44
350.971	233.07
351.354	239.85
351.737	254.09
352.119	285.27
352.502	298.16
352.884	289.79
353.267	294.99
353.65	313.52
354.032	319.62
354.414	337.93
354.797	349.68
355.179	324.14
355.562	328.89
355.944	335.9
356.326	364.59
356.709	374.76
357.091	355.33
357.473	378.61
357.855	347.65
358.238	370.02
358.62	375.89
359.002	350.13
359.384	372.28
359.766	370.92
360.148	387.42
360.53	371.83
360.912	395.55
361.294	367.08
361.676	366.4
362.057	363.92
362.439	388.78
362.821	359.85
363.203	379.74
363.584	385.61
363.966	366.63
364.348	360.98
364.729	367.31
365.111	368.66
365.493	370.7
365.874	367.98
366.256	357.14
366.637	379.51
367.019	358.95
367.4	357.82
367.781	360.75
368.163	372.05
368.544	375.44
368.925	355.33
369.306	375.89
369.688	378.38
370.069	364.82
370.45	374.31
370.831	376.12
371.212	381.77
371.593	386.52
371.974	382.45
372.355	368.44
372.736	390.81
373.117	391.26
373.498	377.25
373.879	400.3
374.26	384.48
374.641	365.95
375.021	393.52
375.402	395.55
375.783	406.63
376.163	422.9
376.544	432.62
376.925	410.92
377.305	417.7
377.686	438.27
378.066	417.93
378.447	429.9
378.827	414.31
379.208	421.77
379.588	453.18
379.968	424.03
380.349	448.89
380.729	425.16
381.109	441.43
381.489	478.94
381.87	456.34
382.25	460.19
382.63	444.82
383.01	452.95
383.39	466.51
383.77	477.13
384.15	459.28
384.53	464.71
384.91	480.07
385.29	482.56
385.67	480.75
386.049	486.63
386.429	508.32
386.809	505.38
387.189	513.07
387.568	510.13
387.948	514.2
388.328	532.73
388.707	538.38
389.087	531.14
389.466	549.45
389.846	541.77
390.225	556
390.605	564.36
390.984	554.42
391.363	571.6
391.743	593.97
392.122	577.02
392.501	593.06
392.881	622.89
393.26	622.67
393.639	592.39
394.018	636.68
394.397	633.51
394.776	615.21
395.155	652.5
395.534	645.72
395.913	640.52
396.292	639.84
396.671	657.47
397.05	663.34
397.429	672.38
397.808	677.58
398.186	687.75
398.565	718.71
398.944	695.66
399.323	702.89
399.701	731.59
400.08	727.98
400.458	718.26
400.837	732.04
401.215	749.9
401.594	742.66
401.972	763.23
402.351	754.19
402.729	760.29
403.107	776.79
403.486	818.14
403.864	797.8
404.242	816.79
404.62	801.87
404.999	837.58
405.377	852.27
405.755	862.89
406.133	864.02
406.511	865.15
406.889	914.19
407.267	903.56
407.645	913.28
408.023	916.9
408.401	925.94
408.779	942.88
409.156	966.84
409.534	991.47
409.912	971.81
410.29	1016.1
410.667	994.63
411.045	1020.17
411.422	1048.64
411.8	1017.69
412.178	1063.56
412.555	1087.29
412.933	1085.25
413.31	1104.24
413.687	1120.73
414.065	1144.91
414.442	1131.13
414.819	1132.94
415.197	1182.2
415.574	1208.41
415.951	1191.24
416.328	1215.42
416.705	1220.17
417.082	1229.66
417.46	1243.67
417.837	1291.35
418.214	1256.55
418.591	1278.7
418.967	1326.15
419.344	1308.98
419.721	1344.23
420.098	1314.4
420.475	1345.13
420.852	1358.92
421.228	1367.96
421.605	1424.68
421.982	1419.71
422.358	1421.52
422.735	1442.08
423.111	1464.9
423.488	1497.22
423.864	1502.42
424.241	1496.09
424.617	1548.29
424.994	1553.94
425.37	1535.86
425.746	1583.09
426.123	1604.34
426.499	1579.48
426.875	1601.62
427.251	1656.09
427.627	1671.91
428.003	1689.08
428.379	1689.08
428.756	1713.49
429.132	1751.68
429.507	1798.23
429.883	1801.17
430.259	1838
430.635	1831.22
431.011	1846.59
431.387	1923.65
431.763	1921.62
432.138	1926.14
432.514	1968.85
432.89	1989.64
433.265	2006.36
433.641	2061.95
434.016	2072.8
434.392	2101.95
434.767	2162.06
435.143	2143.31
435.518	2138.11
435.894	2223.53
436.269	2256.97
436.644	2277.99
437.02	2267.6
437.395	2284.09
437.77	2315.73
438.145	2380.59
438.52	2394.15
438.895	2392.79
439.271	2445.44
439.646	2481.6
440.021	2485.9
440.395	2522.96
440.77	2503.52
441.145	2513.24
441.52	2567.47
441.895	2573.58
442.27	2626.91
442.645	2629.39
443.019	2690.86
443.394	2667.13
443.769	2737.19
444.143	2706.45
444.518	2774.93
444.892	2736.51
445.267	2778.54
445.641	2823.97
446.016	2777.19
446.39	2828.94
446.764	2841.82
447.139	2827.81
447.513	2880.24
447.887	2904.19
448.262	2932.44
448.636	2934.92
449.01	2983.28
449.384	3014.02
449.758	3063.28
450.132	3098.76
450.506	3097.18
450.88	3160.68
451.254	3119.78
451.628	3185.54
452.002	3212.43
452.376	3243.16
452.75	3270.28
453.123	3334.91
453.497	3350.28
453.871	3412.2
454.244	3472.99
454.618	3446.1
454.992	3473.21
455.365	3529.03
455.739	3619.2
456.112	3647.9
456.486	3678.86
456.859	3727.44
457.232	3782.58
457.606	3809.48
457.979	3849.93
458.352	3961.34
458.725	3953.88
459.099	3984.84
459.472	4071.16
459.845	4134.44
460.218	4150.26
460.591	4222.8
460.964	4226.19
461.337	4333.98
461.71	4346.19
462.083	4503.02
462.456	4420.99
462.829	4468.67
463.201	4599.29
463.574	4638.15
463.947	4677.02
464.32	4774.87
464.692	4804.7
465.065	4826.85
465.438	4939.16
465.81	5011.48
466.183	5069.33
466.555	5169.89
466.928	5167.63
467.3	5144.58
467.672	5337.8
468.045	5422.99
468.417	5462.99
468.789	5444.24
469.161	5519.49
469.534	5633.16
469.906	5768.07
470.278	5751.57
470.65	5879.03
471.022	5955.18
471.394	6058.23
471.766	6152.47
472.138	6210.54
472.51	6341.84
472.882	6462.06
473.253	6533.47
473.625	6636.52
473.997	6746.35
474.369	6797.87
474.74	6895.04
475.112	7083.97
475.484	7133.23
475.855	7268.37
476.227	7342.26
476.598	7557.63
476.97	7621.35
477.341	7856.83
477.713	7961.68
478.084	8002.81
478.455	8251.39
478.827	8271.05
479.198	8525.51
479.569	8553.76
479.94	8778.16
480.311	8864.94
480.682	9057.7
481.053	9307.41
481.424	9375.43
481.795	9496.33
482.166	9718.25
482.537	9794.63
482.908	10023.78
483.279	10078.01
483.65	10244.34
484.021	10508.28
484.391	10508.96
484.762	10699.92
485.133	10783.53
485.503	10959.57
485.874	11207.93
486.244	11311.88
486.615	11557.29
486.985	11681.36
487.356	11840
487.726	11936.95
488.097	12296.71
488.467	12279.08
488.837	12545.74
489.207	12683.59
489.578	12847.43
489.948	12993.87
490.318	13198.38
490.688	13240.64
491.058	13453.74
491.428	13591.14
491.798	13832.94
492.168	14163.78
492.538	14138.24
492.908	14288.97
493.278	14473.83
493.648	14497.78
494.017	14722.41
494.387	14828.62
494.757	14985.68
495.126	15254.6
495.496	15178.67
495.866	15342.96
496.235	15549.28
496.605	15691.65
496.974	15771.42
497.344	15901.14
497.713	16021.13
498.082	16171.18
498.452	16398.3
498.821	16480.56
499.19	16517.84
499.559	16778.85
499.928	16826.99
500.298	16958.73
500.667	17115.34
501.036	17131.84
501.405	17290.48
501.774	17377.93
502.143	17565.72
502.512	17665.16
502.88	17683.91
503.249	17769.34
503.618	17888.2
503.987	18037.8
504.356	18187.63
504.724	18288.87
505.093	18336.33
505.462	18511.91
505.83	18641.85
506.199	18900.6
506.567	19028.74
506.936	19104.44
507.304	19327.03
507.672	19501.49
508.041	19439.8
508.409	19654.48
508.777	19868.71
509.145	20044.08
509.514	20079.56
509.882	20281.59
510.25	20423.5
510.618	20576.27
510.986	20584.4
511.354	20846.77
511.722	21076.82
512.09	21275.01
512.458	21225.97
512.826	21427.54
513.193	21608.78
513.561	21709.12
513.929	21914.54
514.297	22091.48
514.664	22175.55
515.032	22289.44
515.4	22473.39
515.767	22625.93
516.135	22837
516.502	22635.65
516.869	23140.95
517.237	23248.29
517.604	23180.27
517.972	23530.09
518.339	23593.81
518.706	23701.16
519.073	23842.62
519.44	24113.58
519.808	24412.78
520.175	24405.77
520.542	24770.96
520.909	25024.06
521.276	24919.88
521.643	25244.62
522.009	25473.09
522.376	25565.97
522.743	25739.07
523.11	26052.06
523.477	26324.82
523.843	26428.09
524.21	26725.94
524.577	26915.99
524.943	27076.66
525.31	27236.88
525.676	27521.17
526.043	27711.45
526.409	27958.9
526.776	28214.71
527.142	28318.66
527.508	28387.59
527.874	28687.47
528.241	28858.53
528.607	29051.3
528.973	29314.79
529.339	29307.56
529.705	29696.93
530.071	29882.46
530.437	30056.02
530.803	30281.77
531.169	30336.91
531.535	30433.18
531.901	30463.24
532.267	30732.84
532.632	30900.06
532.998	31047.86
533.364	31175.08
533.73	31321.3
534.095	31629.31
534.461	31613.94
534.826	31910.43
535.192	31954.72
535.557	32235.4
535.923	32277.65
536.288	32338.44
536.653	32531.43
537.019	32617.08
537.384	32742.05
537.749	32817.07
538.114	33098.42
538.479	33175.26
538.845	33332.99
539.21	33332.32
539.575	33438.98
539.94	33648.69
540.305	33812.53
540.67	33807.56
541.034	33965.52
541.399	34062.24
541.764	34066.99
542.129	34335.68
542.494	34318.73
542.858	34608.21
543.223	34615.22
543.587	34727.31
543.952	34749.23
544.316	35036.9
544.681	34900.41
545.045	35260.63
545.41	35443.67
545.774	35446.38
546.138	35720.28
546.503	35581.75
546.867	35638.7
547.231	35918.46
547.595	36125.01
547.959	36083.88
548.324	36317.1
548.688	36430.09
549.052	36631.44
549.416	36494.27
549.779	36687.93
550.143	36764.77
550.507	37042.5
550.871	37098.09
551.235	37080.92
551.599	37491.08
551.962	37438.2
552.326	37605.42
552.689	37769.04
553.053	37489.95
553.417	37894.23
553.78	38101.23
554.143	38201.11
554.507	38473.88
554.87	38566.98
555.234	38873.41
555.597	38862.34
555.96	38892.17
556.323	39175.1
556.686	39110.92
557.05	39463.68
557.413	39618.93
557.776	39718.14
558.139	39902.76
558.502	40028.86
558.865	40139.37
559.228	40565.57
559.59	40443.54
559.953	40769.86
560.316	41201.49
560.679	41200.81
561.041	41434.25
561.404	41655.03
561.767	41881.02
562.129	41826.56
562.492	42220.67
562.854	42353.1
563.217	42289.37
563.579	42470.15
563.941	42787.89
564.304	43101.55
564.666	43369.79
565.028	43404.37
565.39	43596.23
565.753	43862.66
566.115	44023.11
566.477	44282.31
566.839	44285.93
567.201	44527.05
567.563	44574.96
567.925	44939.47
568.287	44861.73
568.648	44924.33
569.01	45244.54
569.372	45552.56
569.734	45392.34
570.095	45666.68
570.457	45813.34
570.819	45934.47
571.18	46029.61
571.542	46445.42
571.903	46358.64
572.265	46597.73
572.626	46708.24
572.987	46975.57
573.349	46960.43
573.71	47177.83
574.071	47394.09
574.432	47415.79
574.794	47642
575.155	47711.37
575.516	47609.45
575.877	47828.88
576.238	47806.51
576.599	48213.96
576.96	48211.25
577.32	48184.81
577.681	48286.5
578.042	48412.37
578.403	48497.34
578.763	48405.37
579.124	48574.17
579.485	48756.54
579.845	48882.64
580.206	48887.39
580.566	48902.98
580.927	49072.69
581.287	49168.74
581.648	49083.54
582.008	49158.11
582.368	49126.7
582.728	49229.07
583.089	49190.2
583.449	49278.11
583.809	49297.55
584.169	49401.05
584.529	49340.48
584.889	49617.76
585.249	49419.8
585.609	49267.72
585.969	49545.9
586.329	49425.9
586.688	49486.69
587.048	49411.67
587.408	49293.03
587.768	49371.44
588.127	49459.58
588.487	49446.47
588.846	49773.47
589.206	49501.38
589.565	49447.15
589.925	49672.9
590.284	49629.97
590.643	49677.87
591.003	49740.7
591.362	49923.29
591.721	49675.39
592.08	49850.3
592.44	49994.7
592.799	49922.61
593.158	49838.55
593.517	49763.3
593.876	49893.01
594.235	49764.88
594.593	49936.62
594.952	50001.03
595.311	49890.3
595.67	49924.65
596.029	50052.55
596.387	50170.74
596.746	50088.03
597.104	49960.58
597.463	49958.77
597.822	50203.28
598.18	50027.92
598.538	50122.83
598.897	50264.07
599.255	50042.16
599.613	50507.01
599.972	50295.94
600.33	50325.99
600.688	50308.37
601.046	50294.81
601.404	50476.95
601.762	50485.31
602.12	50672.2
602.478	50583.39
602.836	50618.41
603.194	50503.39
603.552	50584.29
603.91	50431.3
604.268	50602.37
604.625	50532.77
604.983	50758.3
605.341	50523.05
605.698	50793.78
606.056	50831.74
606.413	50780.22
606.771	50880.33
607.128	50833.32
607.485	50747.22
607.843	50759.65
608.2	50998.97
608.557	51057.95
608.914	50995.13
609.272	51100.66
609.629	51156.48
609.986	51322.13
610.343	51173.2
610.7	51333.2
611.057	51268.57
611.414	51249.36
611.771	51157.16
612.127	51334.78
612.484	51342.92
612.841	51458.39
613.198	51338.17
613.554	51430.37
613.911	51588.11
614.267	51593.76
614.624	51563.25
614.98	51596.69
615.337	51690.93
615.693	51742.45
616.05	51651.83
616.406	51878.72
616.762	51778.61
617.118	51821.1
617.475	51738.39
617.831	51893.64
618.187	51847.54
618.543	51889.79
618.899	52049.11
619.255	52066.29
619.611	52004.82
619.967	52129.11
620.323	52188.09
620.678	51904.03
621.034	51911.26
621.39	51975.89
621.746	51887.08
622.101	52213.63
622.457	51950.36
622.812	52026.29
623.168	52021.32
623.523	52023.35
623.879	52123.46
624.234	51935.67
624.589	52164.14
624.945	52110.13
625.3	52222.67
625.655	51975.89
626.01	52100.64
626.365	52065.16
626.72	51985.16
627.075	51885.73
627.43	51945.61
627.785	51875.78
628.14	51979.96
628.495	51995.1
628.85	51987.87
629.205	51809.57
629.559	52034.65
629.914	51897.93
630.269	51944.26
630.623	51926.85
630.978	51902.67
631.332	51968.21
631.687	51898.83
632.041	51895.44
632.396	51859.74
632.75	51696.58
633.104	51836.91
633.459	51640.99
633.813	51547.2
634.167	51651.83
634.521	51559.63
634.875	51592.17
635.229	51474.66
635.583	51239.42
635.937	51266.31
636.291	51309.7
636.645	51377.26
636.999	51188.8
637.352	51374.33
637.706	51117.84
638.06	51248.91
638.413	51204.84
638.767	51017.27
639.121	51124.16
639.474	50910.84
639.828	51031.06
640.181	50891.85
640.534	50940.89
640.888	50833.78
641.241	50727.34
641.594	50671.97
641.947	50844.17
642.301	50643.72
642.654	50710.39
643.007	50649.6
643.36	50598.75
643.713	50604.86
644.066	50603.05
644.419	50357.63
644.771	50229.05
645.124	49915.61
645.477	49893.91
645.83	49643.07
646.182	49580.7
646.535	49423.64
646.888	49473.13
647.24	49312.91
647.593	49382.52
647.945	49244.89
648.298	49124.44
648.65	49054.84
649.002	48973.26
649.355	49122.86
649.707	49111.11
650.059	49211.45
650.411	49711.32
650.763	49785.67
651.115	50091.2
651.467	49921.26
651.819	49881.26
652.171	49773.92
652.523	49763.97
652.875	49869.96
653.227	49552.23
653.578	49809.17
653.93	49735.27
654.282	49457.09
654.633	49308.17
654.985	49407.37
655.337	49286.47
655.688	49379.58
656.039	49447.37
656.391	49159.92
656.742	49224.55
657.094	49220.26
657.445	49251.9
657.796	49117.89
658.147	49184.33
658.498	49071.11
658.849	49094.61
659.2	49105.91
659.551	48988.85
659.902	49124.67
660.253	49046.48
660.604	49104.78
660.955	48883.09
661.306	49074.5
661.656	48895.52
662.007	48973.03
662.358	48816.2
662.708	48899.82
663.059	48827.5
663.409	48582.76
663.76	48775.98
664.11	48713.83
664.461	48822.3
664.811	48753.83
665.161	48786.82
665.511	48505.93
665.862	48587.96
666.212	48579.6
666.562	48659.82
666.912	48450.56
667.262	48437.68
667.612	48417.12
667.962	48498.02
668.312	48337.57
668.662	48533.72
669.011	48444.46
669.361	48390.22
669.711	48238.82
670.06	48316.33
670.41	48329.89
670.76	48169.67
671.109	48413.5
671.459	48270.45
671.808	48189.33
672.157	48327.4
672.507	48100.97
672.856	48134.19
673.205	48110.01
673.554	48161.53
673.904	48041.53
674.253	48259.83
674.602	48198.14
674.951	47598.38
675.3	47482.23
675.649	48068.88
675.998	47870.69
676.346	47913.4
676.695	48041.53
677.044	47663.69
677.393	47621.21
677.741	47706.63
678.09	47598.16
678.438	47497.14
678.787	47467.76
679.135	47634.31
679.484	47421.44
679.832	47390.7
680.181	47267.09
680.529	47350.25
680.877	47164.04
681.225	47130.14
681.573	47491.27
681.922	47059.86
682.27	47147.77
682.618	47034.55
682.966	47034.1
683.314	47116.59
683.661	46813.54
684.009	46696.71
684.357	46533.78
684.705	46628.92
685.053	46641.34
685.4	46488.35
685.748	46290.39
686.095	46161.36
686.443	46176.72
686.79	46065.77
687.138	46202.49
687.485	46031.64
687.832	45986.9
688.18	45986.45
688.527	45807.47
688.874	45746.23
689.221	45657.64
689.568	45325.22
689.915	45489.06
690.262	45458.55
690.609	45234.6
690.956	45226.47
691.303	45153.7
691.65	44992.57
691.997	44964.55
692.344	44640.04
692.69	44755.29
693.037	44773.82
693.383	44343.78
693.73	44504.68
694.077	44221.52
694.423	44139.04
694.769	44108.76
695.116	44003.45
695.462	44026.27
695.808	43737.69
696.155	43801.87
696.501	43548.09
696.847	43399.4
697.193	43177.25
697.539	43318.27
697.885	43021.1
698.231	42834.89
698.577	42958.96
698.923	42906.75
699.269	42556.93
699.614	42490.04
699.96	42490.49
700.306	42398.97
700.651	42070.84
700.997	41965.31
701.342	41971.18
701.688	41930.73
702.033	41805.54
702.379	41657.29
702.724	41606.45
703.069	41805.77
703.415	41262.28
703.76	41294.82
704.105	41244.65
704.45	41166.23
704.795	40821.16
705.14	40854.83
705.485	40750.65
705.83	40382.53
706.175	40584.78
706.52	40554.05
706.865	40391.79
707.209	40117.22
707.554	39994.51
707.899	40216.2
708.243	39907.51
708.588	39897.34
708.932	39495.32
709.277	39597.69
709.621	39561.76
709.966	39223.23
710.31	39441.53
710.654	39045.16
710.998	39175.1
711.342	39093.52
711.687	38994.09
712.031	38786.64
712.375	38624.15
712.719	38691.27
713.063	38559.3
713.407	38685.85
713.75	38442.24
714.094	38531.05
714.438	38411.96
714.782	38268.68
715.125	38149.14
715.469	38236.59
715.812	37958.41
716.156	37916.83
716.499	37971.97
716.843	37978.52
717.186	37638.64
717.53	37808.81
717.873	37866.43
718.216	37631.19
718.559	37444.75
718.902	37252.44
719.246	37315.26
719.589	37141.03
719.932	36968.83
720.275	37021.94
720.617	36968.15
720.96	36962.5
721.303	36983.52
721.646	36859.91
721.989	36592.12
722.331	36719.57
722.674	36572.68
723.016	36521.16
723.359	36509.18
723.701	36422.63
724.044	36219.47
724.386	36212.24
724.729	36334.27
725.071	36174.5
725.413	36052.47
725.755	36110.55
726.097	36059.93
726.439	35609.32
726.782	35769.99
727.124	35971.57
727.465	35757.11
727.807	35674.17
728.149	35622.88
728.491	35464.91
728.833	35465.82
729.175	35480.06
729.516	35234.19
729.858	35242.1
730.199	35302.43
730.541	35266.95
730.882	35113.96
731.224	35177.92
731.565	34888.43
731.906	34903.12
732.248	34917.36
732.589	34676.01
732.93	34484.83
733.271	34540.65
733.612	34588.78
733.953	34707.19
734.294	34404.83
734.635	34334.32
734.976	34364.38
735.317	34259.52
735.658	34132.75
735.999	34240.31
736.339	33898.4
736.68	34074.67
737.021	34016.14
737.361	33776.82
737.702	33977.04
738.042	33962.81
738.383	33744.51
738.723	33843.94
739.063	33754.45
739.404	33731.85
739.744	33579.99
740.084	33400.34
740.424	33471.07
740.764	33317.4
741.104	33382.71
741.444	33417.96
741.784	33095.49
742.124	33322.6
742.464	33218.42
742.804	33138.42
743.143	33120.12
743.483	33104.98
743.823	32892.33
744.162	32886.68
744.502	32683.52
744.841	32697.08
745.181	32853.91
745.52	32641.03
745.86	32605.1
746.199	32544.09
746.538	32438.55
746.877	32463.41
747.216	32431.77
747.556	32344.77
747.895	32214.83
748.234	32152.91
748.573	32096.42
748.911	31904.56
749.25	32123.53
749.589	31815.29
749.928	31796.54
750.267	31883.54
750.605	31733.49
750.944	31663.88
751.283	31359.03
751.621	31539.82
751.96	31383.44
752.298	31389.99
752.636	31245.59
