Data from aluminium_surface_pro_back_FLMS001491_00057.txt Node
Date: Wed Feb 08 15:34:15 GMT 2017
User: dcchb
Spectrometer: FLMS00149
Trigger mode: 0
Integration Time (sec): 2.000000E-2
Scans to average: 10
Electric dark correction enabled: true
Nonlinearity correction enabled: false
Boxcar width: 0
XAxis mode: Wavelengths
Number of Pixels in Spectrum: 2048
>>>>>Begin Spectral Data<<<<<
341.393	-15.56
341.776	-15.56
342.16	-15.56
342.543	-47.65
342.927	-50.82
343.31	-79.07
343.693	-66.64
344.077	-47.43
344.46	-50.37
344.843	-54.21
345.226	-27.99
345.61	-41.78
345.993	-25.06
346.376	2.97
346.759	-1.78
347.142	21.27
347.525	31.21
347.908	59.01
348.291	69.18
348.674	106.47
349.057	104.21
349.44	122.06
349.823	128.61
350.206	166.13
350.588	237.08
350.971	233.92
351.354	261.94
351.737	260.36
352.119	270.53
352.502	304.2
352.884	300.13
353.267	304.65
353.65	321.6
354.032	319.79
354.414	322.73
354.797	325.44
355.179	358.89
355.562	356.18
355.944	371.09
356.326	382.39
356.709	364.99
357.091	360.24
357.473	360.92
357.855	379.91
358.238	378.1
358.62	363.18
359.002	364.31
359.384	412.9
359.766	383.97
360.148	362.96
360.53	383.97
360.912	376.97
361.294	369.96
361.676	368.83
362.057	367.48
362.439	365.67
362.821	370.87
363.203	359.79
363.584	373.35
363.966	373.13
364.348	387.59
364.729	363.18
365.111	381.49
365.493	366.8
365.874	368.83
366.256	348.27
366.637	376.97
367.019	352.34
367.4	359.34
367.781	389.4
368.163	394.82
368.544	378.1
368.925	355.5
369.306	387.81
369.688	357.53
370.069	365.22
370.45	376.74
370.831	373.35
371.212	383.3
371.593	379.91
371.974	383.97
372.355	368.15
372.736	379.23
373.117	386.01
373.498	375.61
373.879	396.63
374.26	390.07
374.641	370.64
375.021	389.17
375.402	395.95
375.783	402.28
376.163	433.01
376.544	411.99
376.925	417.64
377.305	402.05
377.686	410.41
378.066	437.53
378.447	419.9
378.827	423.07
379.208	411.09
379.588	442.28
379.968	424.2
380.349	445.67
380.729	428.94
381.109	424.42
381.489	441.6
381.87	428.04
382.25	445.67
382.63	442.28
383.01	457.19
383.39	450.19
383.77	463.07
384.15	474.37
384.53	467.59
384.91	477.3
385.29	480.69
385.67	483.18
386.049	513.01
386.429	500.58
386.809	508.04
387.189	518.21
387.568	520.69
387.948	516.17
388.328	535.16
388.707	526.57
389.087	505.78
389.466	528.38
389.846	546.68
390.225	536.74
390.605	553.01
390.984	548.26
391.363	561.82
391.743	570.63
392.122	601.82
392.501	579.22
392.881	606.57
393.26	634.14
393.639	601.82
394.018	593.46
394.397	604.53
394.776	634.81
395.155	632.1
395.534	629.16
395.913	624.19
396.292	650.18
396.671	637.3
397.05	634.36
397.429	665.1
397.808	676.85
398.186	679.78
398.565	694.25
398.944	668.49
399.323	699.22
399.701	704.64
400.08	712.55
400.458	712.33
400.837	737.18
401.215	738.99
401.594	763.4
401.972	756.39
402.351	728.37
402.729	777.86
403.107	813.34
403.486	772.44
403.864	804.53
404.242	803.62
404.62	814.7
404.999	838.2
405.377	842.94
405.755	820.12
406.133	872.32
406.511	873.68
406.889	889.95
407.267	885.43
407.645	884.75
408.023	904.19
408.401	939.66
408.779	940.34
409.156	953
409.534	958.2
409.912	976.05
410.29	1023.73
410.667	983.96
411.045	988.25
411.422	1002.26
411.8	1030.96
412.178	1063.28
412.555	1081.58
412.933	1104.18
413.31	1101.02
413.687	1098.08
414.065	1141.02
414.442	1126.78
414.819	1178.53
415.197	1176.04
415.574	1217.85
415.951	1213.1
416.328	1218.98
416.705	1196.61
417.082	1215.59
417.46	1247.23
417.837	1252.65
418.214	1264.85
418.591	1281.8
418.967	1273.44
419.344	1299.2
419.721	1328.81
420.098	1317.73
420.475	1325.87
420.852	1343.72
421.228	1378.75
421.605	1422.82
421.982	1405.19
422.358	1400.22
422.735	1455.58
423.111	1429.82
423.488	1494.68
423.864	1475.7
424.241	1473.89
424.617	1498.52
424.994	1527.9
425.37	1555.24
425.746	1557.05
426.123	1594.34
426.499	1573.55
426.875	1614.45
427.251	1619.65
427.627	1687.44
428.003	1691.96
428.379	1695.12
428.756	1715.01
429.132	1747.1
429.507	1752.98
429.883	1774.44
430.259	1809.47
430.635	1821.9
431.011	1820.55
431.387	1880.2
431.763	1945.51
432.138	1947.55
432.514	1968.34
432.89	1953.88
433.265	2035.23
433.641	2047.21
434.016	2079.97
434.392	2109.58
434.767	2132.4
435.143	2147.54
435.518	2161.55
435.894	2190.48
436.269	2215.56
436.644	2260.08
437.02	2283.13
437.395	2265.51
437.77	2279.06
438.145	2353.41
438.52	2364.49
438.895	2383.24
439.271	2377.14
439.646	2461.43
440.021	2494.43
440.395	2479.29
440.77	2458.04
441.145	2509.34
441.52	2511.83
441.895	2545.95
442.27	2596.34
442.645	2587.53
443.019	2658.94
443.394	2634.54
443.769	2678.15
444.143	2652.16
444.518	2712.73
444.892	2693.06
445.267	2749.56
445.641	2731.26
446.016	2773.06
446.39	2799.5
446.764	2815.55
447.139	2810.35
447.513	2888.99
447.887	2874.53
448.262	2831.82
448.636	2914.08
449.01	2962.21
449.384	2989.55
449.758	2989.55
450.132	3030.01
450.506	3070.23
450.88	3061.19
451.254	3072.72
451.628	3100.96
452.002	3166.05
452.376	3192.03
452.75	3230
453.123	3247.63
453.497	3293.95
453.871	3330.34
454.244	3359.26
454.618	3427.73
454.992	3481.97
455.365	3473.84
455.739	3600.61
456.112	3609.88
456.486	3646.49
456.859	3675.41
457.232	3754.28
457.606	3718.12
457.979	3787.27
458.352	3897.1
458.725	3907.27
459.099	3918.57
459.472	4025.23
459.845	4046.25
460.218	4059.81
460.591	4134.38
460.964	4169.41
461.337	4262.52
461.71	4323.98
462.083	4347.26
462.456	4410.08
462.829	4451.21
463.201	4497.09
463.574	4551.77
463.947	4582.51
464.32	4702.5
464.692	4718.77
465.065	4765.1
465.438	4864.99
465.81	4913.35
466.183	4999.67
466.555	5046.9
466.928	5149.27
467.3	5145.2
467.672	5201.7
468.045	5314.69
468.417	5378.42
468.789	5376.61
469.161	5506.32
469.534	5572.31
469.906	5651.86
470.278	5723.27
470.65	5731.4
471.022	5930.27
471.394	6006.2
471.766	6071.73
472.138	6147.21
472.51	6270.6
472.882	6309.01
473.253	6373.42
473.625	6544.04
473.997	6658.84
474.369	6691.6
474.74	6734.77
475.112	6934.31
475.484	7044.59
475.855	7141.54
476.227	7208.65
476.598	7445.48
476.97	7468.53
477.341	7662.88
477.713	7774.51
478.084	7862.65
478.455	8059.7
478.827	8126.14
479.198	8405.46
479.569	8399.58
479.94	8639.12
480.311	8701.04
480.682	8886.35
481.053	9100.13
481.424	9272.55
481.795	9296.28
482.166	9487.46
482.537	9625.76
482.908	9861.69
483.279	9844.29
483.65	10108.91
484.021	10297.84
484.391	10429.81
484.762	10553.65
485.133	10626.19
485.503	10790.48
485.874	10947.31
486.244	11143.01
486.615	11298.94
486.985	11406.06
487.356	11657.35
487.726	11730.12
488.097	12071.35
488.467	12051.91
488.837	12341.62
489.207	12483.99
489.578	12626.59
489.948	12867.26
490.318	12969.4
490.688	12970.08
491.058	13224.31
491.428	13422.05
491.798	13583.17
492.168	13852.55
492.538	13881.25
492.908	14126.44
493.278	14255.47
493.648	14334.34
494.017	14591.51
494.387	14702.92
494.757	14883.03
495.126	14953.99
495.496	15135.22
495.866	15163.25
496.235	15313.3
496.605	15550.58
496.974	15586.74
497.344	15812.72
497.713	15861.31
498.082	16033.73
498.452	16134.52
498.821	16292.26
499.19	16401.18
499.559	16545.13
499.928	16686.6
500.298	16828.29
500.667	17019.02
501.036	16924.1
501.405	17081.61
501.774	17144.89
502.143	17329.06
502.512	17392.34
502.88	17578.1
503.249	17615.16
503.618	17874.81
503.987	17864.19
504.356	17980.8
504.724	18108.25
505.093	18270.51
505.462	18234.35
505.83	18459.66
506.199	18552.99
506.567	18924.05
506.936	18748.01
507.304	19009.02
507.672	19139.86
508.041	19269.58
508.409	19434.77
508.777	19648.33
509.145	19735.55
509.514	19799.73
509.882	19968.77
510.25	20019.61
510.618	20249.44
510.986	20299.61
511.354	20536.66
511.722	20806.71
512.09	20987.72
512.458	20948.86
512.826	21109.53
513.193	21292.8
513.561	21409.41
513.929	21596.3
514.297	21799
514.664	21922.84
515.032	21972.11
515.4	22290.74
515.767	22406.67
516.135	22413.22
516.502	22458.87
516.869	22844.85
517.237	22997.16
517.604	22969.37
517.972	23295.01
518.339	23543.36
518.706	23549.47
519.073	23503.37
519.44	23785.84
519.808	24006.4
520.175	24076.68
520.542	24410.46
520.909	24571.81
521.276	24603
521.643	24993.04
522.009	25100.61
522.376	25321.62
522.743	25502.41
523.11	25756.19
523.477	26101.71
523.843	26172.45
524.21	26490.41
524.577	26663.06
524.943	26877.97
525.31	27070.28
525.676	27313.66
526.043	27492.41
526.409	27548.68
526.776	27908
527.142	28012.63
527.508	28173.75
527.874	28374.2
528.241	28604.47
528.607	28716.34
528.973	28999.72
529.339	28928.53
529.705	29349.54
530.071	29500.04
530.437	29684.45
530.803	29827.72
531.169	30147.48
531.535	30015.28
531.901	30222.06
532.267	30372.11
532.632	30456.4
532.998	30597.87
533.364	30830.18
533.73	30961.02
534.095	31126.44
534.461	31292.76
534.826	31425.87
535.192	31565.07
535.557	31756.26
535.923	31680.1
536.288	32000.99
536.653	32123.48
537.019	32063.59
537.384	32239.41
537.749	32486.18
538.114	32553.52
538.479	32607.98
538.845	32862.67
539.21	32739.05
539.575	33069.22
539.94	33055.88
540.305	33314.18
540.67	33268.98
541.034	33393.05
541.399	33564.8
541.764	33788.52
542.129	33880.72
542.494	33926.82
542.858	34178.11
543.223	33995.97
543.587	34439.35
543.952	34212.46
544.316	34515.28
544.681	34479.12
545.045	34701.94
545.41	34828.94
545.774	34967.24
546.138	35055.15
546.503	35067.13
546.867	35150.97
547.231	35448.14
547.595	35457.18
547.959	35727.45
548.324	35675.02
548.688	35792.31
549.052	35865.53
549.416	35976.94
549.779	35924.96
550.143	36145.74
550.507	36373.54
550.871	36486.98
551.235	36479.3
551.599	36941.2
551.962	36963.35
552.326	37039.28
552.689	37359.27
553.053	37142.33
553.417	37250.8
553.78	37865.47
554.143	37667.29
554.507	37920.61
554.87	38066.37
555.234	38309.08
555.597	38298.91
555.96	38486.25
556.323	38711.55
556.686	38706.81
557.05	39061.6
557.413	39125.1
557.776	39303.4
558.139	39622.26
558.502	39613
558.865	39641.47
559.228	40020.44
559.59	40035.36
559.953	40215.24
560.316	40650.94
560.679	40563.26
561.041	40885.51
561.404	41064.94
561.767	41221.32
562.129	41287.08
562.492	41666.05
562.854	41557.81
563.217	41771.36
563.579	41994.63
563.941	42225.13
564.304	42254.74
564.666	42605.01
565.028	42843.87
565.39	42962.74
565.753	43162.96
566.115	43397.31
566.477	43465.1
566.839	43692.21
567.201	43908.25
567.563	43994.8
567.925	44337.85
568.287	44364.74
568.648	44440.22
569.01	44720.89
569.372	45167.88
569.734	44948.68
570.095	45351.6
570.457	45379.85
570.819	45428.89
571.18	45700.52
571.542	45928.54
571.903	45986.62
572.265	46031.81
572.626	46281.75
572.987	46410.33
573.349	46578.24
573.71	46695.75
574.071	46948.4
574.432	47069.07
574.794	47232.46
575.155	47319.01
575.516	47180.03
575.877	47433.36
576.238	47472.9
576.599	47641.71
576.96	47689.17
577.32	47725.55
577.681	47705.67
578.042	47892.1
578.403	47950.63
578.763	48062.04
579.124	48276.05
579.485	48370.51
579.845	48653.89
580.206	48473.56
580.566	48628.81
580.927	48594
581.287	48694.12
581.648	48713.1
582.008	48789.25
582.368	48799.88
582.728	48807.33
583.089	48827.44
583.449	48816.82
583.809	48857.95
584.169	48921.23
584.529	48914
584.889	49173.65
585.249	48917.84
585.609	48934.33
585.969	49094.1
586.329	49175.01
586.688	49095.23
587.048	49053.2
587.408	49103.6
587.768	49082.58
588.127	49135.23
588.487	49155.8
588.846	49306.75
589.206	49062.92
589.565	49155.35
589.925	49315.57
590.284	49120.32
590.643	49359.18
591.003	49308.56
591.362	49509.23
591.721	49375.23
592.08	49381.33
592.44	49412.74
592.799	49497.03
593.158	49346.98
593.517	49419.52
593.876	49538.84
594.235	49439.86
594.593	49454.77
594.952	49583.36
595.311	49526.64
595.67	49541.55
596.029	49825.61
596.387	49835.1
596.746	49837.59
597.104	49663.58
597.463	49706.97
597.822	49757.36
598.18	49622.45
598.538	49622.9
598.897	49831.94
599.255	49615.9
599.613	50031.26
599.972	49912.61
600.33	49925.5
600.688	49757.82
601.046	49956.45
601.404	50061.31
601.762	50061.99
602.12	50154.19
602.478	50073.51
602.836	50153.29
603.194	49938.83
603.552	50033.29
603.91	49993.97
604.268	50096.34
604.625	50067.19
604.983	50286.62
605.341	50233.74
605.698	50400.96
606.056	50430.11
606.413	50426.05
606.771	50531.35
607.128	50412.71
607.485	50320.97
607.843	50385.14
608.2	50654.74
608.557	50696.32
608.914	50560.73
609.272	50719.6
609.629	50669.66
609.986	50807.73
610.343	50598.25
610.7	50894.74
611.057	50891.8
611.414	50890.22
611.771	50814.06
612.127	50891.8
612.484	50968.86
612.841	51087.95
613.198	50890.67
613.554	50976.77
613.911	51237.55
614.267	51115.97
614.624	51078.01
614.98	51265.12
615.337	51342.41
615.693	51417.89
616.05	51275.97
616.406	51495.62
616.762	51375.4
617.118	51375.85
617.475	51360.26
617.831	51514.61
618.187	51581.04
618.543	51555.96
618.899	51623.76
619.255	51701.04
619.611	51483.87
619.967	51691.55
620.323	51716.41
620.678	51686.58
621.034	51507.37
621.39	51573.81
621.746	51548.73
622.101	51857.65
622.457	51589.86
622.812	51726.35
623.168	51834.37
623.523	51835.73
623.879	51849.74
624.234	51686.58
624.589	51792.79
624.945	51850.64
625.3	51847.25
625.655	51799.12
626.01	51872.79
626.365	51855.16
626.72	51811.1
627.075	51795.28
627.43	51896.97
627.785	51708.73
628.14	51754.37
628.495	51888.38
628.85	51770.42
629.205	51545.79
629.559	51739.01
629.914	51541.5
630.269	51545.34
630.623	51447.04
630.978	51470.31
631.332	51567.71
631.687	51489.97
632.041	51385.12
632.396	51350.77
632.75	51335.85
633.104	51432.35
633.459	51227.83
633.813	51160.04
634.167	51183.32
634.521	50985.81
634.875	51226.25
635.229	51078.01
635.583	50902.64
635.937	51020.16
636.291	50945.36
636.645	50852.02
636.999	50878.24
637.352	50935.19
637.706	50655.87
638.06	50882.98
638.413	50696.77
638.767	50595.31
639.121	50697.9
639.474	50446.84
639.828	50460.17
640.181	50664.68
640.534	50559.83
640.888	50464.69
641.241	50312.6
641.594	50426.95
641.947	50369.1
642.301	50440.28
642.654	50387.86
643.007	50418.82
643.36	50309.44
643.713	50128.65
644.066	50232.83
644.419	49951.03
644.771	49815.44
645.124	49237.15
645.477	49310.14
645.83	49153.54
646.182	48956.93
646.535	48886.2
646.888	48927.1
647.24	48784.96
647.593	48896.6
647.945	48666.32
648.298	48626.77
648.65	48620.9
649.002	48409.83
649.355	48624.06
649.707	48549.71
650.059	48764.4
650.411	49149.92
650.763	49106.76
651.115	49599.18
651.467	49322.57
651.819	49264.27
652.171	49270.37
652.523	49207.1
652.875	49130.26
653.227	48963.49
653.578	49162.58
653.93	48999.64
654.282	48810.72
654.633	48548.13
654.985	48849.82
655.337	48778.18
655.688	48636.72
656.039	48785.41
656.391	48381.81
656.742	48467.45
657.094	48474.01
657.445	48612.54
657.796	48448.92
658.147	48369.38
658.498	48391.98
658.849	48432.88
659.2	48320.34
659.551	48346.33
659.902	48434.91
660.253	48339.55
660.604	48427.23
660.955	48314.01
661.306	48376.16
661.656	48314.01
662.007	48351.53
662.358	48284.41
662.708	48307.01
663.059	48352.88
663.409	48006.22
663.76	48300.23
664.11	48330.28
664.461	48309.27
664.811	48313.56
665.161	48142.49
665.511	48074.92
665.862	48136.62
666.212	48119.21
666.562	48222.94
666.912	48086
667.262	48049.61
667.612	47966.22
667.962	48074.7
668.312	48007.58
668.662	48161.93
669.011	48040.57
669.361	48114.02
669.711	47984.08
670.06	47971.87
670.41	47833.35
670.76	47763.52
671.109	48057.52
671.459	47891.42
671.808	47914.02
672.157	47989.73
672.507	47648.04
672.856	47666.12
673.205	47949.05
673.554	47870.86
673.904	47744.76
674.253	47875.38
674.602	47834.48
674.951	47032.24
675.3	46929.19
675.649	47539.8
675.998	47493.24
676.346	47559.68
676.695	47609.62
677.044	47134.16
677.393	47405.79
677.741	47368.05
678.09	47277.66
678.438	47225.68
678.787	47363.75
679.135	47246.24
679.484	47095.06
679.832	47015.06
680.181	46925.8
680.529	46948.4
680.877	46902.98
681.225	46819.36
681.573	47100.48
681.922	46592.48
682.27	46504.57
682.618	46656.88
682.966	46597.22
683.314	46490.33
683.661	46512.48
684.009	46306.38
684.357	46156.1
684.705	46063.45
685.053	46117.69
685.4	46078.82
685.748	45868.65
686.095	45803.57
686.443	45696
686.79	45494.43
687.138	45641.54
687.485	45542.79
687.832	45487.42
688.18	45405.39
688.527	45294.43
688.874	45221.89
689.221	45140.08
689.568	44897.6
689.915	44914.55
690.262	44939.86
690.609	44781.22
690.956	44622.58
691.303	44691.28
691.65	44435.47
691.997	44394.34
692.344	44273.67
692.69	44143.5
693.037	44186.66
693.383	43826.9
693.73	44025.76
694.077	43621.25
694.423	43764.98
694.769	43702.38
695.116	43442.28
695.462	43437.98
695.808	43298.32
696.155	43296.06
696.501	42974.72
696.847	42941.5
697.193	42725.01
697.539	42781.95
697.885	42636.87
698.231	42327.95
698.577	42480.49
698.923	42286.15
699.269	42232.82
699.614	41946.27
699.96	41823.34
700.306	41847.29
700.651	41674.86
700.997	41542.44
701.342	41394.19
701.688	41594.19
702.033	41254.76
702.379	41314.65
702.724	41049.57
703.069	41200.3
703.415	40737.26
703.76	40861.78
704.105	40726.87
704.45	40566.65
704.795	40442.81
705.14	40294.11
705.485	40167.33
705.83	40035.59
706.175	40222.47
706.52	40068.81
706.865	39661.36
707.209	39801.24
707.554	39628.59
707.899	39541.36
708.243	39274.48
708.588	39438.99
708.932	39105.89
709.277	39081.03
709.621	39085.1
709.966	38703.87
710.31	38923.52
710.654	38630.42
710.998	38697.32
711.342	38627.71
711.687	38450.99
712.031	38373.26
712.375	38146.6
712.719	38167.61
713.063	38178.01
713.407	38283.09
713.75	38078.58
714.094	38133.49
714.438	37792.71
714.782	37982.08
715.125	37591.13
715.469	37765.36
715.812	37607.18
716.156	37326.05
716.499	37423.68
716.843	37418.93
717.186	37298.71
717.53	37294.87
717.873	37368.54
718.216	37067.3
718.559	37015.1
718.902	36763.81
719.246	36867.53
719.589	36641.55
719.932	36527.88
720.275	36679.06
720.617	36544.83
720.96	36449.47
721.303	36413.31
721.646	36493.53
721.989	36104.16
722.331	36296.02
722.674	36000.21
723.016	36055.58
723.359	35951.17
723.701	35909.59
724.044	35723.16
724.386	35566.1
724.729	35722.03
725.071	35591.63
725.413	35616.27
725.755	35497.17
726.097	35375.14
726.439	35231.87
726.782	35236.39
727.124	35419.66
727.465	35026.23
727.807	34997.3
728.149	35121.14
728.491	34890.41
728.833	35028.94
729.175	34869.17
729.516	34713.92
729.858	34652.68
730.199	34601.15
730.541	34684.31
730.882	34604.99
731.224	34585.33
731.565	34558.22
731.906	34437.77
732.248	34453.59
732.589	34350.09
732.93	34203.2
733.271	34230.99
733.612	34237.09
733.953	34207.04
734.294	34089.3
734.635	34069.64
734.976	33934.73
735.317	33701.06
735.658	33755.07
735.999	33821.51
736.339	33646.38
736.68	33645.25
737.021	33683.21
737.361	33393.95
737.702	33623.32
738.042	33436.89
738.383	33388.98
738.723	33424.46
739.063	33127.07
739.404	33237.35
739.744	33209.1
740.084	32985.83
740.424	32923.68
740.764	32886.4
741.104	32964.81
741.444	32840.29
741.784	32861.99
742.124	32776.12
742.464	32616.57
742.804	32495.67
743.143	32509.68
743.483	32459.74
743.823	32376.35
744.162	32304.94
744.502	32261.55
744.841	32161.89
745.181	32179.52
745.52	32007.1
745.86	32083.93
746.199	31944.73
746.538	31941.79
746.877	31989.24
747.216	31841.45
747.556	31852.75
747.895	31823.6
748.234	31673.55
748.573	31651.17
748.911	31522.82
749.25	31579.99
749.589	31444.17
749.928	31434
750.267	31395.36
750.605	31351.52
750.944	31139.32
751.283	31230.17
751.621	31083.28
751.96	31039.21
752.298	31050.96
752.636	30955.15
752.975	30773.23
