Data from aluminium_macbook_case_FLMS001491_039.txt Node
Date: Tue Feb 07 10:43:32 GMT 2017
User: dcchb
Spectrometer: FLMS00149
Trigger mode: 0
Integration Time (sec): 2.000000E-2
Scans to average: 10
Electric dark correction enabled: true
Nonlinearity correction enabled: false
Boxcar width: 0
XAxis mode: Wavelengths
Number of Pixels in Spectrum: 2048
>>>>>Begin Spectral Data<<<<<
341.393	-6.12
341.776	-6.12
342.16	-6.12
342.543	-64.19
342.927	-75.49
343.31	-78.88
343.693	-52.22
344.077	-75.04
344.46	-59.67
344.843	-56.06
345.226	-41.82
345.61	-37.3
345.993	-29.62
346.376	0.44
346.759	32.98
347.142	12.19
347.525	44.5
347.908	52.87
348.291	80.66
348.674	94.67
349.057	112.3
349.44	144.16
349.823	143.26
350.206	192.3
350.588	246.53
350.971	261.45
351.354	292.41
351.737	282.46
352.119	292.18
352.502	304.16
352.884	299.41
353.267	326.53
353.65	334.21
354.032	342.8
354.414	374.44
354.797	364.04
355.179	356.36
355.562	377.15
355.944	389.35
356.326	396.81
356.709	403.37
357.091	398.17
357.473	403.37
357.855	403.37
358.238	412.4
358.62	422.57
359.002	413.76
359.384	402.91
359.766	412.4
360.148	432.74
360.53	389.13
360.912	397.72
361.294	424.16
361.676	419.86
362.057	421.9
362.439	398.17
362.821	420.77
363.203	403.59
363.584	409.92
363.966	424.38
364.348	402.24
364.729	421.9
365.111	414.44
365.493	426.42
365.874	433.65
366.256	414.44
366.637	443.14
367.019	416.92
367.4	435.68
367.781	427.55
368.163	414.21
368.544	418.96
368.925	426.42
369.306	453.53
369.688	443.36
370.069	436.58
370.45	416.02
370.831	440.88
371.212	447.43
371.593	447.21
371.974	430.71
372.355	453.31
372.736	452.86
373.117	468.9
373.498	456.47
373.879	457.6
374.26	467.77
374.641	467.77
375.021	458.28
375.402	474.1
375.783	493.08
376.163	532.63
376.544	506.64
376.925	532.4
377.305	489.69
377.686	521.55
378.066	523.81
378.447	515.45
378.827	525.17
379.208	529.01
379.588	541.44
379.968	522.01
380.349	515.45
380.729	550.48
381.109	548.9
381.489	569.69
381.87	564.94
382.25	568.33
382.63	564.26
383.01	570.37
383.39	583.25
383.77	583.93
384.15	592.96
384.53	612.17
384.91	638.16
385.29	618.27
385.67	623.7
386.049	635
386.429	644.49
386.809	639.97
387.189	630.48
387.568	639.29
387.948	656.92
388.328	697.82
388.707	663.92
389.087	668.44
389.466	694.88
389.846	723.13
390.225	726.75
390.605	735.79
390.984	737.14
391.363	746.63
391.743	756.58
392.122	743.24
392.501	761.1
392.881	781.89
393.26	800.87
393.639	789.57
394.018	783.92
394.397	816.24
394.776	812.62
395.155	838.38
395.534	807.65
395.913	828.66
396.292	853.07
396.671	893.07
397.05	900.08
397.429	876.12
397.808	889.68
398.186	883.13
398.565	884.93
398.944	919.51
399.323	931.49
399.701	946.4
400.08	938.27
400.458	943.92
400.837	978.49
401.215	999.73
401.594	976.91
401.972	996.12
402.351	1011.26
402.729	1016.91
403.107	1050.81
403.486	1034.31
403.864	1039.96
404.242	1066.4
404.62	1117.47
404.999	1114.08
405.377	1121.31
405.755	1114.53
406.133	1114.76
406.511	1141.88
406.889	1190.69
407.267	1204.02
407.645	1230.69
408.023	1255.55
408.401	1225.94
408.779	1247.64
409.156	1294.87
409.534	1279.95
409.912	1314.3
410.29	1339.16
410.667	1338.03
411.045	1367.41
411.422	1391.14
411.8	1413.73
412.178	1435.43
412.555	1451.93
412.933	1475.65
413.31	1498.25
413.687	1518.36
414.065	1541.41
414.442	1540.51
414.819	1581.64
415.197	1571.7
415.574	1601.98
415.951	1643.11
416.328	1646.27
416.705	1639.04
417.082	1687.85
417.46	1684.01
417.837	1705.48
418.214	1741.18
418.591	1758.58
418.967	1752.03
419.344	1807.17
419.721	1826.83
420.098	1819.37
420.475	1855.53
420.852	1879.03
421.228	1888.3
421.605	1895.08
421.982	1947.51
422.358	1950.9
422.735	1969.88
423.111	1965.13
423.488	2022.98
423.864	2040.61
424.241	2072.7
424.617	2083.55
424.994	2072.7
425.37	2152.7
425.746	2143.88
426.123	2165.8
426.499	2226.82
426.875	2203.77
427.251	2278.8
427.627	2291
428.003	2343.88
428.379	2405.35
428.756	2403.54
429.132	2477.89
429.507	2469.3
429.883	2514.95
430.259	2562.86
430.635	2568.73
431.011	2591.33
431.387	2669.29
431.763	2718.33
432.138	2772.57
432.514	2787.26
432.89	2793.58
433.265	2842.85
433.641	2920.14
434.016	2932.11
434.392	2987.48
434.767	3057.98
435.143	3002.17
435.518	3103.63
435.894	3108.15
436.269	3179.11
436.644	3175.04
437.02	3251.88
437.395	3263.4
437.77	3325.32
438.145	3369.16
438.52	3412.33
438.895	3416.85
439.271	3446.22
439.646	3494.36
440.021	3595.82
440.395	3587.69
440.77	3537.52
441.145	3588.37
441.52	3655.26
441.895	3656.39
442.27	3697.29
442.645	3697.97
443.019	3791.98
443.394	3783.39
443.769	3852.54
444.143	3827.23
444.518	3928.24
444.892	3937.51
445.267	3947.9
445.641	3977.06
446.016	4020.45
446.39	4072.42
446.764	4077.39
447.139	4091.4
447.513	4099.09
447.887	4178.63
448.262	4188.35
448.636	4253.89
449.01	4298.86
449.384	4367.1
449.758	4306.09
450.132	4428.34
450.506	4437.84
450.88	4462.02
451.254	4519.64
451.628	4552.41
452.002	4616.36
452.376	4706.3
452.75	4688.9
453.123	4749.69
453.497	4841.89
453.871	4906.52
454.244	5003.47
454.618	5039.18
454.992	5123.47
455.365	5163.24
455.739	5272.16
456.112	5294.31
456.486	5323.91
456.859	5402.1
457.232	5520.29
457.606	5480.29
457.979	5610.91
458.352	5748.76
458.725	5736.11
459.099	5798.25
459.472	5969.09
459.845	5984.24
460.218	6014.52
460.591	6064.46
460.964	6131.35
461.337	6287.73
461.71	6389.42
462.083	6504.45
462.456	6502.19
462.829	6551.45
463.201	6693.14
463.574	6724.1
463.947	6796.42
464.32	6981.5
464.692	7049.52
465.065	7116.86
465.438	7234.6
465.81	7315.05
466.183	7474.14
466.555	7611.76
466.928	7600.24
467.3	7645.66
467.672	7753.23
468.045	7985.31
468.417	7929.49
468.789	8084.75
469.161	8148.25
469.534	8304.17
469.906	8461.23
470.278	8486.77
470.65	8610.15
471.022	8833.43
471.394	8987.55
471.766	9041.56
472.138	9220.08
472.51	9384.15
472.882	9548.66
473.253	9690.13
473.625	9874.53
473.997	10081.3
474.369	10195.65
474.74	10298.25
475.112	10453.04
475.484	10594.74
475.855	10810.1
476.227	10892.81
476.598	11240.82
476.97	11273.14
477.341	11552.9
477.713	11721.71
478.084	11751.99
478.455	12140.68
478.827	12271.3
479.198	12601.46
479.569	12631.52
479.94	12993.77
480.311	13115.8
480.682	13418.62
481.053	13719.85
481.424	13962.56
481.795	14143.79
482.166	14330.68
482.537	14552.15
482.908	14941.74
483.279	15113.03
483.65	15396.19
484.021	15732.23
484.391	15824.2
484.762	15994.37
485.133	16185.55
485.503	16440.91
485.874	16734.46
486.244	16948.92
486.615	17279.76
486.985	17348.23
487.356	17681.55
487.726	17900.08
488.097	18244.7
488.467	18304.14
488.837	18645.6
489.207	18864.8
489.578	19212.36
489.948	19398.12
490.318	19587.04
490.688	19701.84
491.058	20123.98
491.428	20356.06
491.798	20527.13
492.168	21025.87
492.538	21033.78
492.908	21389.93
493.278	21661.79
493.648	21690.49
494.017	22051.61
494.387	22355.56
494.757	22628.54
495.126	22868.09
495.496	22786.73
495.866	22982.66
496.235	23377.22
496.605	23533.15
496.974	23637.1
497.344	23883.65
497.713	23926.36
498.082	24176.53
498.452	24496.52
498.821	24618.1
499.19	24642.05
499.559	24837.98
499.928	25083.17
500.298	25210.85
500.667	25367.23
501.036	25420.33
501.405	25691.97
501.774	25823.94
502.143	26051.28
502.512	26272.29
502.88	26514.32
503.249	26574.43
503.618	26889.67
503.987	26889
504.356	27187.29
504.724	27361.3
505.093	27590.67
505.462	27756.32
505.83	28016.42
506.199	28272.46
506.567	28534.83
506.936	28550.42
507.304	28917.19
507.672	28961.71
508.041	29034.25
508.409	29357.18
508.777	29584.29
509.145	29837.39
509.514	29791.07
509.882	30187.44
510.25	30169.59
510.618	30433.99
510.986	30623.59
511.354	30744.26
511.722	31068.1
512.09	31461.31
512.458	31329.33
512.826	31722.32
513.193	31883.67
513.561	31962.08
513.929	32360.04
514.297	32615.85
514.664	32833.7
515.032	33094.48
515.4	33440.69
515.767	33621.47
516.135	33813.11
516.502	33719.55
516.869	34424.62
517.237	34494.45
517.604	34499.42
517.972	35053.75
518.339	35199.96
518.706	35376
519.073	35559.73
519.44	35800.4
519.808	36167.17
520.175	36053.5
520.542	36713.82
520.909	36905
521.276	36857.55
521.643	37323.75
522.009	37448.49
522.376	37836.28
522.743	37987.46
523.11	38357.85
523.477	38626.31
523.843	38727.1
524.21	39276.69
524.577	39477.37
524.943	39692.05
525.31	39903.8
525.676	40359.38
526.043	40623.1
526.409	40754.62
526.776	41378.56
527.142	41404.32
527.508	41739.68
527.874	42068.26
528.241	42301.92
528.607	42454.91
528.973	43007.44
529.339	42989.59
529.705	43450.37
530.071	43878.83
530.437	43851.26
530.803	44173.97
531.169	44390.23
531.535	44329.22
531.901	44678.36
532.267	44797.45
532.632	44899.6
532.998	45060.5
533.364	45307.5
533.73	45442.63
534.095	45680.59
534.461	45866.12
534.826	46024.54
535.192	46250.75
535.557	46506.11
535.923	46448.93
536.288	46796.5
536.653	46915.14
537.019	46812.31
537.384	47020.44
537.749	47235.58
538.114	47374.11
538.479	47508.12
538.845	47692.29
539.21	47784.27
539.575	48003.92
539.94	48155.56
540.305	48414.98
540.67	48429.9
541.034	48570.69
541.399	48781.75
541.764	48908.76
542.129	49124.12
542.494	49251.57
542.858	49466.93
543.223	49405.01
543.587	49737.89
543.952	49665.12
544.316	49891.33
544.681	49795.74
545.045	49894.72
545.41	50143.98
545.774	50293.8
546.138	50251.77
546.503	50343.07
546.867	50368.6
547.231	50621.25
547.595	50603.85
547.959	50743.06
548.324	50917.74
548.688	50840.91
549.052	51041.58
549.416	51112.54
549.779	51221.92
550.143	51270.73
550.507	51552.75
550.871	51674.56
551.235	51631.85
551.599	51914.55
551.962	51952.74
552.326	52222.34
552.689	52314.99
553.053	52297.37
553.417	52371.04
553.78	52821.2
554.143	52741.65
554.507	52874.75
554.87	53061.42
555.234	53357.9
555.597	53249.21
555.96	53469.09
556.323	53568.75
556.686	53690.1
557.05	53897.1
557.413	53857.1
557.776	54008.51
558.139	54210.09
558.502	54231.33
558.865	54215.28
559.228	54450.08
559.59	54456.63
559.953	54602.62
560.316	54850.75
560.679	54804.87
561.041	55012.55
561.404	55124.86
561.767	55179.1
562.129	55203.05
562.492	55509.26
562.854	55545.42
563.217	55595.13
563.579	55710.39
563.941	55874.67
564.304	55948.57
564.666	56154.67
565.028	56213.65
565.39	56397.6
565.753	56527.09
566.115	56564.6
566.477	56692.28
566.839	56743.13
567.201	56973.86
567.563	56997.13
567.925	57127.98
568.287	57200.06
568.648	57195.09
569.01	57353.05
569.372	57522.32
569.734	57521.19
570.095	57659.26
570.457	57856.32
570.819	57894.28
571.18	57927.28
571.542	58031
571.903	58075.52
572.265	58134.5
572.626	58181.51
572.987	58241.17
573.349	58339.47
573.71	58359.13
574.071	58403.65
574.432	58459.92
574.794	58624.89
575.155	58601.61
575.516	58505.79
575.877	58666.69
576.238	58692.91
576.599	58716.18
576.96	58814.26
577.32	58796.18
577.681	58894.48
578.042	58945.55
578.403	58910.98
578.763	59015.16
579.124	59031.65
579.485	59101.03
579.845	59151.42
580.206	59131.31
580.566	59138.32
580.927	59263.29
581.287	59362.72
581.648	59225.1
582.008	59333.79
582.368	59345.54
582.728	59419.89
583.089	59368.37
583.449	59480.68
583.809	59467.12
584.169	59513
584.529	59418.31
584.889	59683.61
585.249	59501.47
585.609	59457.63
585.969	59568.82
586.329	59512.09
586.688	59565.43
587.048	59613.11
587.408	59538.08
587.768	59462.6
588.127	59460.8
588.487	59475.26
588.846	59630.73
589.206	59438.42
589.565	59447.46
589.925	59488.14
590.284	59391.87
590.643	59492.21
591.003	59506.9
591.362	59482.26
591.721	59476.61
592.08	59402.72
592.44	59493.56
592.799	59473.68
593.158	59459.44
593.517	59442.94
593.876	59563.17
594.235	59491.98
594.593	59547.57
594.952	59583.5
595.311	59542.15
595.67	59606.33
596.029	59703.27
596.387	59676.61
596.746	59744.86
597.104	59580.11
597.463	59692.2
597.822	59777.62
598.18	59755.25
598.538	59752.99
598.897	59909.6
599.255	59711.86
599.613	60014
599.972	59882.03
600.33	60032.31
600.688	59882.93
601.046	59956.6
601.404	60176.48
601.762	60036.83
602.12	60088.8
602.478	60182.58
602.836	60130.38
603.194	60010.16
603.552	60091.97
603.91	59952.31
604.268	60095.35
604.625	60027.56
604.983	60131.51
605.341	60011.29
605.698	60113.43
606.056	60123.38
606.413	60012.19
606.771	60138.52
607.128	60125.86
607.485	60071.85
607.843	60053.55
608.2	60179.19
608.557	60204.96
608.914	60152.98
609.272	60246.99
609.629	60234.56
609.986	60325.41
610.343	60261.23
610.7	60421.9
611.057	60368.12
611.414	60412.18
611.771	60396.59
612.127	60483.14
612.484	60548.22
612.841	60597.94
613.198	60536.25
613.554	60587.32
613.911	60761.33
614.267	60675.45
614.624	60720.42
614.98	60811.72
615.337	60854.43
615.693	60822.79
616.05	60825.51
616.406	60924.26
616.762	60859.85
617.118	60870.25
617.475	60918.84
617.831	60976.69
618.187	60977.14
618.543	61032.28
618.899	61100.98
619.255	61046.06
619.611	60997.7
619.967	61055.78
620.323	61091.26
620.678	60939.63
621.034	60954.99
621.39	60954.54
621.746	60951.38
622.101	61079.96
622.457	60928.78
622.812	60953.64
623.168	60943.47
623.523	60948.67
623.879	61021.43
624.234	60807.2
624.589	60873.87
624.945	60874.77
625.3	60864.83
625.655	60867.76
626.01	60808.1
626.365	60806.07
626.72	60753.19
627.075	60795
627.43	60757.48
627.785	60646.07
628.14	60726.52
628.495	60828.89
628.85	60773.98
629.205	60713.64
629.559	60875.67
629.914	60729.46
630.269	60718.84
630.623	60775.79
630.978	60672.74
631.332	60755
631.687	60863.47
632.041	60759.74
632.396	60803.13
632.75	60703.7
633.104	60772.4
633.459	60647.66
633.813	60698.28
634.167	60694.44
634.521	60651.72
634.875	60701.21
635.229	60589.81
635.583	60549.35
635.937	60506.64
636.291	60455.35
636.645	60494.21
636.999	60376.48
637.352	60492.63
637.706	60361.56
638.06	60415.8
638.413	60333.77
638.767	60281.11
639.121	60304.39
639.474	60067.11
639.828	60145.52
640.181	60155.47
640.534	60109.37
640.888	59957.73
641.241	59818.07
641.594	59850.62
641.947	59880.22
642.301	59829.37
642.654	59776.72
643.007	59748.7
643.36	59689.94
643.713	59595.48
644.066	59681.81
644.419	59488.14
644.771	59340.35
645.124	59143.97
645.477	59067.13
645.83	58847.7
646.182	58747.59
646.535	58705.79
646.888	58721.83
647.24	58605.9
647.593	58794.82
647.945	58650.42
648.298	58562.74
648.65	58499.01
649.002	58429.41
649.355	58697.43
649.707	58617.88
650.059	58711.21
650.411	58996.63
650.763	59071.88
651.115	59291.76
651.467	59189.84
651.819	59178.54
652.171	59068.94
652.523	59164.76
652.875	59208.37
653.227	59035.04
653.578	59207.02
653.93	59148.71
654.282	59004.31
654.633	58954.59
654.985	59007.93
655.337	58946.23
655.688	59027.59
656.039	59006.57
656.391	58779.23
656.742	58814.71
657.094	58829.17
657.445	58923.18
657.796	58888.61
658.147	58764.09
658.498	58732.68
658.849	58809.06
659.2	58635.51
659.551	58575.17
659.902	58626.24
660.253	58536.53
660.604	58581.04
660.955	58352.8
661.306	58434.83
661.656	58392.12
662.007	58294.95
662.358	58282.97
662.708	58342.18
663.059	58261.73
663.409	57986.94
663.76	58186.93
664.11	58215.63
664.461	58236.65
664.811	58129.76
665.161	58131.11
665.511	58071.45
665.862	58059.02
666.212	58186.7
666.562	58168.4
666.912	58056.09
667.262	58091.34
667.612	58103.09
667.962	58160.72
668.312	58145.35
668.662	58261.96
669.011	58162.52
669.361	58140.83
669.711	58116.88
670.06	58164.78
670.41	58123.43
670.76	58000.04
671.109	58197.78
671.459	58110.77
671.808	58128.63
672.157	58124.79
672.507	57975.18
672.856	57975.86
673.205	58006.82
673.554	58051.57
673.904	57957.78
674.253	58105.35
674.602	58024.9
674.951	57638.7
675.3	57455.42
675.649	57907.84
675.998	57886.15
676.346	57890.22
676.695	57961.85
677.044	57715.98
677.393	57832.14
677.741	57721.41
678.09	57715.76
678.438	57625.36
678.787	57695.64
679.135	57544.24
679.484	57407.06
679.832	57485.71
680.181	57292.49
680.529	57337.24
680.877	57271.7
681.225	57163.68
681.573	57319.16
681.922	57090.46
682.27	56960.75
682.618	56999.62
682.966	56953.06
683.314	56946.29
683.661	56793.75
684.009	56720.3
684.357	56627.42
684.705	56565.05
685.053	56612.06
685.4	56468.56
685.748	56413.19
686.095	56440.31
686.443	56285.06
686.79	56292.97
687.138	56320.76
687.485	56324.61
687.832	56184.27
688.18	56233.31
688.527	55946.31
688.874	56118.28
689.221	56007.55
689.568	55971.4
689.915	55893.66
690.262	55967.78
690.609	55877.39
690.956	55824.96
691.303	55769.59
691.65	55625.19
691.997	55636.26
692.344	55449.38
692.69	55461.35
693.037	55556.27
693.383	55255.03
693.73	55414.12
694.077	55094.13
694.423	55142.04
694.769	55144.98
695.116	55086.67
695.462	55003.06
695.808	54975.49
696.155	55008.71
696.501	54807.58
696.847	54737.76
697.193	54539.34
697.539	54653.01
697.885	54433.36
698.231	54269.29
698.577	54251.21
698.923	54234.72
699.269	54060.49
699.614	53893.03
699.96	53860.94
700.306	53795.86
700.651	53681.74
700.997	53485.59
701.342	53509.31
701.688	53492.14
702.033	53371.69
702.379	53262.09
702.724	53186.61
703.069	53200.62
703.415	52839.73
703.76	52891.02
704.105	52669.11
704.45	52638.15
704.795	52430.92
705.14	52340.3
705.485	52249.23
705.83	52158.84
706.175	52133.76
706.52	52016.02
706.865	51854.44
707.209	51796.82
707.554	51675.92
707.899	51663.94
708.243	51527.9
708.588	51490.84
708.932	51235.7
709.277	51202.03
709.621	51209.49
709.966	51107.79
710.31	51102.37
710.654	50918.65
710.998	50881.13
711.342	50896.27
711.687	50828.48
712.031	50700.57
712.375	50665.32
712.719	50766.33
713.063	50551.65
713.407	50681.14
713.75	50376.51
714.094	50506.68
714.438	50361.83
714.782	50459.45
715.125	50210.87
715.469	50274.6
715.812	50158.67
716.156	50014.26
716.499	50003.42
716.843	50052.46
717.186	49882.29
717.53	50007.71
717.873	49937.43
718.216	49761.16
718.559	49637.32
718.902	49324.79
719.246	49539.25
719.589	49474.62
719.932	49282.31
720.275	49257.67
720.617	49160.05
720.96	49121.86
721.303	49032.59
721.646	49046.15
721.989	48786.27
722.331	48894.75
722.674	48704.02
723.016	48786.5
723.359	48579.73
723.701	48624.24
724.044	48337.25
724.386	48009.12
724.729	48302.44
725.071	48049.57
725.413	48061.32
725.755	48004.15
726.097	47801.44
726.439	47576.81
726.782	47446.87
727.124	47706.3
727.465	47551.28
727.807	47375.92
728.149	47239.87
728.491	47154.45
728.833	47198.74
729.175	47018.41
729.516	46925.53
729.858	46877.85
730.199	46883.72
730.541	46705.88
730.882	46504.07
731.224	46611.42
731.565	46249.62
731.906	46378.2
732.248	46369.39
732.589	46185.66
732.93	45937.99
733.271	46131.65
733.612	46127.13
733.953	46149.28
734.294	45855.05
734.635	45862.51
734.976	45829.52
735.317	45707.26
735.658	45690.54
735.999	45574.83
736.339	45477.66
736.68	45765.56
737.021	45521.27
737.361	45332.58
737.702	45431.56
738.042	45344.33
738.383	45427.04
738.723	45404.67
739.063	45311.11
739.404	45367.61
739.744	45072.02
740.084	45062.53
740.424	44976.43
740.764	44980.5
741.104	44925.13
741.444	44694.63
741.784	44519.95
742.124	44708.64
742.464	44672.03
742.804	44501.87
743.143	44548.19
743.483	44593.39
743.823	44285.83
744.162	44154.76
744.502	44373.73
744.841	44060.75
745.181	44229.78
745.52	44156.34
745.86	44034.53
746.199	43823.24
746.538	43759.97
746.877	43806.52
747.216	43757.03
747.556	43663.02
747.895	43564.26
748.234	43468.9
748.573	43274.33
748.911	43192.75
749.25	43177.61
749.589	43089.47
749.928	43100.77
750.267	43007.67
750.605	42826.43
750.944	42678.19
751.283	42416.05
751.621	42560.9
751.96	42381.7
752.298	42393.9
