Data from aluminium_macbook_case_FLMS001491_034.txt Node
Date: Tue Feb 07 10:43:31 GMT 2017
User: dcchb
Spectrometer: FLMS00149
Trigger mode: 0
Integration Time (sec): 2.000000E-2
Scans to average: 10
Electric dark correction enabled: true
Nonlinearity correction enabled: false
Boxcar width: 0
XAxis mode: Wavelengths
Number of Pixels in Spectrum: 2048
>>>>>Begin Spectral Data<<<<<
341.393	-3.39
341.776	-3.39
342.16	-3.39
342.543	-54.01
342.927	-57.17
343.31	-71.86
343.693	-83.61
344.077	-64.86
344.46	-57.4
344.843	-32.32
345.226	-29.6
345.61	-30.73
345.993	-23.73
346.376	2.94
346.759	-9.94
347.142	18.53
347.525	44.74
347.908	73.22
348.291	54.46
348.674	97.17
349.057	112.99
349.44	123.16
349.823	138.3
350.206	189.15
350.588	233.89
350.971	255.59
351.354	261.24
351.737	291.52
352.119	304.62
352.502	313.44
352.884	326.55
353.267	348.92
353.65	348.69
354.032	367.67
354.414	364.51
354.797	367.22
355.179	377.17
355.562	374.23
355.944	382.81
356.326	391.63
356.709	401.35
357.091	388.92
357.473	399.76
357.855	420.55
358.238	414.23
358.62	436.15
359.002	408.8
359.384	404.96
359.766	421.68
360.148	413.55
360.53	427.11
360.912	415.36
361.294	398.18
361.676	425.98
362.057	426.88
362.439	437.28
362.821	421.68
363.203	406.99
363.584	413.77
363.966	404.06
364.348	420.33
364.729	441.34
365.111	421.46
365.493	437.5
365.874	414.68
366.256	427.11
366.637	444.06
367.019	419.42
367.4	422.36
367.781	437.95
368.163	431.85
368.544	436.6
368.925	403.83
369.306	428.24
369.688	412.87
370.069	430.72
370.45	447.45
370.831	437.05
371.212	424.4
371.593	438.63
371.974	470.72
372.355	467.11
372.736	457.39
373.117	462.13
373.498	470.5
373.879	467.11
374.26	454.45
374.641	449.25
375.021	467.78
375.402	457.39
375.783	499.87
376.163	544.17
376.544	517.5
376.925	484.06
377.305	500.78
377.686	504.17
378.066	527.9
378.447	508.01
378.827	490.83
379.208	537.84
379.588	556.14
379.968	532.42
380.349	537.39
380.729	546.88
381.109	545.97
381.489	566.99
381.87	551.4
382.25	578.06
382.63	575.13
383.01	588.69
383.39	580.32
383.77	601.11
384.15	595.01
384.53	608.12
384.91	598.63
385.29	626.2
385.67	590.94
386.049	619.19
386.429	648.8
386.809	637.95
387.189	652.64
387.568	656.03
387.948	668.91
388.328	660.55
388.707	674.11
389.087	669.36
389.466	681.79
389.846	708.23
390.225	715.24
390.605	717.5
390.984	736.03
391.363	709.13
391.743	754.56
392.122	753.88
392.501	750.49
392.881	751.17
393.26	785.06
393.639	806.08
394.018	800.2
394.397	804.05
394.776	808.34
395.155	819.64
395.534	865.29
395.913	842.69
396.292	837.49
396.671	862.8
397.05	898.28
397.429	917.72
397.808	892.41
398.186	901.22
398.565	918.39
398.944	930.37
399.323	916.59
399.701	920.2
400.08	936.7
400.458	959.07
400.837	975.79
401.215	980.31
401.594	982.8
401.972	1016.24
402.351	1021.44
402.729	1006.3
403.107	1031.61
403.486	1047.88
403.864	1067.54
404.242	1058.28
404.62	1114.09
404.999	1116.35
405.377	1125.62
405.755	1117.71
406.133	1128.56
406.511	1132.17
406.889	1198.61
407.267	1213.3
407.645	1190.7
408.023	1247.2
408.401	1206.07
408.779	1272.06
409.156	1282
409.534	1283.13
409.912	1304.37
410.29	1337.82
410.667	1316.8
411.045	1353.86
411.422	1385.95
411.8	1391.6
412.178	1453.07
412.555	1453.75
412.933	1467.53
413.31	1507.98
413.687	1528.77
414.065	1546.85
414.442	1536
414.819	1571.94
415.197	1580.3
415.574	1617.58
415.951	1632.95
416.328	1651.03
416.705	1662.56
417.082	1663.46
417.46	1671.59
417.837	1722.89
418.214	1731.03
418.591	1754.53
418.967	1730.12
419.344	1778.03
419.721	1815.55
420.098	1797.47
420.475	1857.13
420.852	1864.13
421.228	1877.24
421.605	1932.15
421.982	1919.27
422.358	1978.71
422.735	1985.71
423.111	1983.22
423.488	2054.41
423.864	2038.36
424.241	2058.02
424.617	2099.38
424.994	2160.85
425.37	2129.66
425.746	2124.69
426.123	2180.28
426.499	2180.73
426.875	2218.7
427.251	2297.57
427.627	2311.13
428.003	2353.61
428.379	2386.15
428.756	2410.56
429.132	2429.77
429.507	2512.93
429.883	2527.62
430.259	2560.61
430.635	2575.75
431.011	2602.42
431.387	2684.22
431.763	2695.52
432.138	2739.36
432.514	2770.55
432.89	2788.18
433.265	2895.97
433.641	2869.98
434.016	2937.1
434.392	2955.63
434.767	3027.94
435.143	3008.51
435.518	3063.42
435.894	3106.36
436.269	3181.84
436.644	3199.24
437.02	3260.25
437.395	3269.07
437.77	3331.89
438.145	3382.28
438.52	3395.16
438.895	3430.64
439.271	3446.69
439.646	3530.3
440.021	3519.23
440.395	3592
440.77	3543.64
441.145	3570.75
441.52	3636.97
441.895	3671.09
442.27	3736.85
442.645	3729.39
443.019	3771.65
443.394	3802.61
443.769	3816.85
444.143	3806
444.518	3925.77
444.892	3924.42
445.267	3980.01
445.641	3977.52
446.016	4031.98
446.39	4038.09
446.764	4068.37
447.139	4076.73
447.513	4125.09
447.887	4154.24
448.262	4233.34
448.636	4248.02
449.01	4314.91
449.384	4345.87
449.758	4388.59
450.132	4447.57
450.506	4460.45
450.88	4409.38
451.254	4513.33
451.628	4558.98
452.002	4616.83
452.376	4655.02
452.75	4699.54
453.123	4740.44
453.497	4800.55
453.871	4886.2
454.244	5017.95
454.618	5039.42
454.992	5123.71
455.365	5073.09
455.739	5255.91
456.112	5292.74
456.486	5384.72
456.859	5424.26
457.232	5515.34
457.606	5511.04
457.979	5606.86
458.352	5698.83
458.725	5766.63
459.099	5803.92
459.472	5932.05
459.845	5986.96
460.218	6025.83
460.591	6082.55
460.964	6128.88
461.337	6279.61
461.71	6402.32
462.083	6468.3
462.456	6533.39
462.829	6557.12
463.201	6767.28
463.574	6734.06
463.947	6797.79
464.32	7027.39
464.692	7045.24
465.065	7076.88
465.438	7173.14
465.81	7357.55
466.183	7466.24
466.555	7592.79
466.928	7609.74
467.3	7607.71
467.672	7765.9
468.045	8012.9
468.417	7975.61
468.789	8015.38
469.161	8189.39
469.534	8361.36
469.906	8461.25
470.278	8581.24
470.65	8665.53
471.022	8836.83
471.394	9029.37
471.766	9083.38
472.138	9166.31
472.51	9417.15
472.882	9570.82
473.253	9762
473.625	9869.57
473.997	10043.35
474.369	10177.81
474.74	10259.62
475.112	10473.17
475.484	10597.91
475.855	10816.21
476.227	10885.82
476.598	11260.04
476.97	11347.27
477.341	11615.06
477.713	11709.07
478.084	11818.45
478.455	12155.84
478.827	12173.92
479.198	12548.14
479.569	12558.77
479.94	13029.26
480.311	13115.81
480.682	13414.11
481.053	13771.84
481.424	14006.19
481.795	14063.13
482.166	14332.73
482.537	14599.62
482.908	14897.91
483.279	15070.11
483.65	15311.24
484.021	15687.27
484.391	15916.64
484.762	16010.65
485.133	16204.55
485.503	16428.49
485.874	16778.77
486.244	16972.21
486.615	17248.81
486.985	17465.76
487.356	17722.92
487.726	17959.3
488.097	18224.15
488.467	18374.43
488.837	18741.65
489.207	18952.95
489.578	19230.45
489.948	19398.13
490.318	19755.64
490.688	19752.02
491.058	20095.06
491.428	20399.46
491.798	20543.19
492.168	21003.29
492.538	21080.8
492.908	21308.82
493.278	21722.37
493.648	21744.96
494.017	22100.21
494.387	22282.35
494.757	22579.52
495.126	22862
495.496	22845.73
495.866	22982.22
496.235	23359.61
496.605	23444.81
496.974	23634.41
497.344	23861.97
497.713	24006.83
498.082	24211.34
498.452	24423.99
498.821	24585.79
499.19	24565.46
499.559	24822.4
499.928	24968.38
500.298	25135.61
500.667	25477.3
501.036	25339.67
501.405	25729.72
501.774	25849.72
502.143	26109.37
502.512	26271.63
502.88	26568.34
503.249	26530.38
503.618	26844.04
503.987	27011.49
504.356	27202.22
504.724	27333.97
505.093	27580.07
505.462	27680.63
505.83	27949.55
506.199	28231.57
506.567	28522.64
506.936	28560.83
507.304	28914.95
507.672	28970.54
508.041	29099.35
508.409	29296.4
508.777	29648.26
509.145	29854.58
509.514	29799.44
509.882	30040.57
510.25	30206.89
510.618	30361.46
510.986	30585.18
511.354	30908.57
511.722	31141.33
512.09	31380.87
512.458	31437.37
512.826	31799.16
513.193	31880.07
513.561	32036.67
513.929	32409.77
514.297	32627.39
514.664	32842.3
515.032	33062.63
515.4	33392.34
515.767	33706.91
516.135	33883.4
516.502	33804.99
516.869	34356.16
517.237	34416.95
517.604	34534.01
517.972	34961.11
518.339	35285.85
518.706	35381.22
519.073	35587.99
519.44	35806.52
519.808	36240.85
520.175	36168.54
520.542	36721.52
520.909	36771.01
521.276	36835.19
521.643	37296.87
522.009	37466.81
522.376	37610.31
522.743	37947.02
523.11	38311.76
523.477	38571.19
523.843	38859.77
524.21	39228.12
524.577	39519.19
524.943	39565.06
525.31	39965.5
525.676	40316.45
526.043	40728.42
526.409	40822.88
526.776	41305.13
527.142	41403.43
527.508	41814.72
527.874	42206.57
528.241	42316.18
528.607	42557.53
528.973	42945.54
529.339	43030.96
529.705	43570.61
530.071	43807.21
530.437	43887.89
530.803	44160.65
531.169	44439.06
531.535	44319.51
531.901	44466.18
532.267	44749.11
532.632	44970.57
532.998	44979.16
533.364	45347.96
533.73	45442.19
534.095	45843.09
534.461	45765.35
534.826	46031.78
535.192	46262.29
535.557	46485.56
535.923	46555.61
536.288	46788.83
536.653	46910.86
537.019	46916.05
537.384	47055.49
537.749	47223.17
538.114	47415.7
538.479	47370.28
538.845	47762.81
539.21	47799.2
539.575	47977.72
539.94	48132.75
540.305	48407.09
540.67	48415.45
541.034	48604.6
541.399	48874.42
541.764	49021.99
542.129	49172.49
542.494	49309.44
542.858	49408.87
543.223	49426.95
543.587	49718.47
543.952	49642.76
544.316	49770.22
544.681	49822.19
545.045	50055.18
545.41	50045.92
545.774	50232.13
546.138	50202.07
546.503	50376.98
546.867	50338.34
547.231	50594.83
547.595	50649.74
547.959	50761.15
548.324	50786.24
548.688	50983.07
549.052	51099.45
549.416	51029.39
549.779	51170.41
550.143	51235.26
550.507	51557.51
550.871	51621.47
551.235	51574.92
551.599	51978.07
551.962	52069.14
552.326	52171.74
552.689	52364.27
553.053	52167.67
553.417	52405.18
553.78	52812.85
554.143	52737.37
554.507	52977.14
554.87	53111.15
555.234	53375.55
555.597	53190.92
555.96	53438.59
556.323	53639.72
556.686	53660.06
557.05	53865.7
557.413	53866.83
557.776	53970.11
558.139	54153.15
558.502	54179.37
558.865	54202.64
559.228	54447.83
559.59	54554.95
559.953	54526.93
560.316	54898.44
560.679	54852.79
561.041	54920.82
561.404	55133.92
561.767	55341.37
562.129	55103.18
562.492	55630.18
562.854	55526.9
563.217	55562.61
563.579	55706.78
563.941	55810.06
564.304	55992.2
564.666	56172.76
565.028	56199.43
565.39	56259.31
565.753	56484.16
566.115	56536.59
566.477	56705.85
566.839	56796.25
567.201	56923.48
567.563	56919.41
567.925	57131.15
568.287	57159.85
568.648	57266.06
569.01	57365.27
569.372	57507.41
569.734	57499.73
570.095	57692.95
570.457	57885.26
570.819	57856.11
571.18	57915.31
571.542	58102.43
571.903	58092.48
572.265	58091.13
572.626	58176.78
572.987	58296.32
573.349	58294.74
573.71	58392.36
574.071	58422.19
574.432	58498.12
574.794	58673.26
575.155	58608.4
575.516	58506.48
575.877	58616.09
576.238	58654.05
576.599	58806.82
576.96	58801.39
577.32	58831.67
577.681	58892.69
578.042	58899.47
578.403	58948.28
578.763	58994.61
579.124	59051.78
579.485	59089.97
579.845	59084.77
580.206	59155.73
580.566	59136.98
580.927	59194.15
581.287	59434.82
581.648	59214.04
582.008	59396.4
582.368	59341.94
582.728	59428.49
583.089	59385.78
583.449	59430.75
583.809	59453.35
584.169	59628.94
584.529	59518.89
584.889	59615.38
585.249	59498.77
585.609	59489.74
585.969	59617.19
586.329	59509.17
586.688	59550.52
587.048	59585.55
587.408	59508.04
587.768	59552.78
588.127	59506.91
588.487	59467.59
588.846	59615.38
589.206	59408.16
589.565	59427.59
589.925	59468.72
590.284	59410.87
590.643	59501.71
591.003	59498.55
591.362	59502.62
591.721	59453.13
592.08	59440.47
592.44	59503.29
592.799	59480.02
593.158	59457.65
593.517	59495.84
593.876	59513.69
594.235	59449.51
594.593	59511.2
594.952	59590.98
595.311	59485.44
595.67	59539
596.029	59680.01
596.387	59699.67
596.746	59795.49
597.104	59635.95
597.463	59635.04
597.822	59724.53
598.18	59758.2
598.538	59708.49
598.897	59875.71
599.255	59662.84
599.613	59997.52
599.972	59875.49
600.33	59972.21
600.688	59949.16
601.046	60013.11
601.404	60067.57
601.762	60019.21
602.12	60083.62
602.478	60145.09
602.836	60146.44
603.194	60034.58
603.552	60051.3
603.91	60014.92
604.268	60126.1
604.625	60010.63
604.983	60161.58
605.341	60011.3
605.698	60036.61
606.056	60073.45
606.413	60079.78
606.771	60107.8
607.128	60152.77
607.485	59982.6
607.843	60003.85
608.2	60241.58
608.557	60206.1
608.914	60126.78
609.272	60256.27
609.629	60257.17
609.986	60341.24
610.343	60245.65
610.7	60420.56
611.057	60412.42
611.414	60354.57
611.771	60395.02
612.127	60452.2
612.484	60492.65
612.841	60646.99
613.198	60475.47
613.554	60540.33
613.911	60703.26
614.267	60684.05
614.624	60613.1
614.98	60750.04
615.337	60923.37
615.693	60835.69
616.05	60811.96
616.406	60983.26
616.762	60812.64
617.118	60835.91
617.475	60901.68
617.831	60947.1
618.187	60986.42
618.543	61020.32
618.899	61093.53
619.255	61069.81
619.611	60975.57
619.967	61119.97
620.323	61110.71
620.678	61023.48
621.034	60944.84
621.39	60915.91
621.746	60892.86
622.101	61122.01
622.457	60898.96
622.812	60940.77
623.168	60960.21
623.523	60938.06
623.879	60941
624.234	60804.73
624.589	60879.08
624.945	60855.12
625.3	60885.18
625.655	60847.21
626.01	60828.01
626.365	60857.61
626.72	60831.17
627.075	60774.9
627.43	60765.18
627.785	60685.86
628.14	60714.79
628.495	60819.42
628.85	60778.51
629.205	60689.25
629.559	60867.78
629.914	60671.17
630.269	60712.98
630.623	60703.71
630.978	60667.11
631.332	60805.18
631.687	60867.55
632.041	60758.4
632.396	60842.24
632.75	60700.55
633.104	60761.11
633.459	60595.02
633.813	60654.45
634.167	60636.82
634.521	60638.86
634.875	60671.4
635.229	60564.28
635.583	60440.9
635.937	60542.36
636.291	60479.99
636.645	60487.22
636.999	60426.89
637.352	60505.75
637.706	60353.67
638.06	60411.07
638.413	60340.33
638.767	60229.6
639.121	60260.79
639.474	60041.36
639.828	60099.44
640.181	60114.35
640.534	60085.65
640.888	59955.71
641.241	59823.29
641.594	59844.53
641.947	59854.47
642.301	59720.69
642.654	59739.45
643.007	59744.42
643.36	59716.17
643.713	59641.37
644.066	59737.19
644.419	59492.67
644.771	59267.14
645.124	59077.54
645.477	59094.04
645.83	58935.63
646.182	58823.09
646.535	58701.73
646.888	58758.68
647.24	58520.95
647.593	58749.87
647.945	58612.92
648.298	58524.34
648.65	58571.79
649.002	58472.36
649.355	58646.59
649.707	58601.62
650.059	58727.72
650.411	58991.44
650.763	59033.02
651.115	59317.54
651.467	59204.09
651.819	59140.82
652.171	59135.62
652.523	59171.1
652.875	59174.49
653.227	59070.31
653.578	59169.52
653.93	59087.03
654.282	59051.33
654.633	58952.12
654.985	59053.36
655.337	58985.12
655.688	58944.89
656.039	59029.41
656.391	58831.22
656.742	58871.45
657.094	58837.77
657.445	58908.96
657.796	58797.32
658.147	58807.27
658.498	58727.04
658.849	58794.61
659.2	58595.07
659.551	58638.01
659.902	58653.83
660.253	58607.5
660.604	58500.16
660.955	58386.71
661.306	58449.08
661.656	58297.22
662.007	58394.17
662.358	58305.13
662.708	58339.26
663.059	58200.5
663.409	58033.95
663.76	58177.23
664.11	58136.32
664.461	58222.2
664.811	58151.92
665.161	58153.27
665.511	58024.91
665.862	58078.92
666.212	58161.18
666.562	58195.76
666.912	58115.53
667.262	58075.99
667.612	58106.95
667.962	58155.31
668.312	58118.02
668.662	58238.69
669.011	58148.08
669.361	58105.36
669.711	58172.93
670.06	58149.43
670.41	58036.21
670.76	58039.15
671.109	58248.64
671.459	58137.68
671.808	58080.05
672.157	58146.27
672.507	57976.1
672.856	58044.58
673.205	57969.55
673.554	58064.01
673.904	57883.68
674.253	58055.65
674.602	58023.56
674.951	57739.05
675.3	57430.35
675.649	57887.97
675.998	57854.07
676.346	57864.24
676.695	57964.35
677.044	57704.92
677.393	57799.16
677.741	57747.86
678.09	57729.33
678.438	57635.32
678.787	57588.99
679.135	57553.74
679.484	57353.52
679.832	57446.63
680.181	57326.85
680.529	57329.57
680.877	57217.25
681.225	57210.7
681.573	57270.58
681.922	57119.4
682.27	56993.3
682.618	56959.18
682.966	56934.1
683.314	56968.22
683.661	56854.1
684.009	56592.64
684.357	56677.15
684.705	56558.74
685.053	56569.59
685.4	56556.03
685.748	56331.85
686.095	56426.09
686.443	56316.71
686.79	56332.08
687.138	56290.95
687.485	56276.71
687.832	56181.8
688.18	56183.61
688.527	56048.7
688.874	56018.64
689.221	55907.23
689.568	55987.68
689.915	55866.78
690.262	55947.23
690.609	55781.36
690.956	55834.46
691.303	55711.53
691.65	55621.14
691.997	55610.97
692.344	55506.79
692.69	55469.05
693.037	55490.74
693.383	55218.66
693.73	55353.57
694.077	55131.21
694.423	55229.28
694.769	55152.22
695.116	55021.83
695.462	55045.33
695.808	54908.84
696.155	54978.89
696.501	54814.15
696.847	54757.43
697.193	54449.42
697.539	54678.56
697.885	54451.45
698.231	54280.15
698.577	54351.57
698.923	54262.98
699.269	54003.1
699.614	53907.28
699.96	53890.33
700.306	53791.13
700.651	53643.56
700.997	53507.75
701.342	53476.56
701.688	53373.06
702.033	53324.25
702.379	53293.06
702.724	53192.5
703.069	53226.85
703.415	52804.04
703.76	52848.1
704.105	52733.08
704.45	52648.33
704.795	52406.31
705.14	52342.8
705.485	52202.24
705.83	52134.22
706.175	52218.74
706.52	52037.28
706.865	51859.2
707.209	51806.77
707.554	51660.56
707.899	51656.72
708.243	51475.26
708.588	51492.43
708.932	51216.05
709.277	51279.1
709.621	51198.88
709.966	51052.89
710.31	51174.7
710.654	50805.44
710.998	50986.91
711.342	50934.93
711.687	50860.13
712.031	50666.69
712.375	50612.91
712.719	50660.81
713.063	50647.93
713.407	50705.33
713.75	50516.64
714.094	50569.29
714.438	50296.98
714.782	50332.69
715.125	50209.3
715.469	50346.02
715.812	50172.24
716.156	49949.65
716.499	50129.08
716.843	50110.09
717.186	49885.69
717.53	50029.64
717.873	50007.5
718.216	49873.94
718.559	49645.47
718.902	49347.4
719.246	49487.29
719.589	49482.99
719.932	49273.73
720.275	49252.26
720.617	49125.49
720.96	49087.97
721.303	49057.47
721.646	49020.41
721.989	48794.65
722.331	48805.72
722.674	48709.23
723.016	48805.95
723.359	48555.33
723.701	48565.5
724.044	48310.37
724.386	48113.09
724.729	48249.58
725.071	48270.14
725.413	48203.25
725.755	48083.48
726.097	47801.91
726.439	47570.73
726.782	47561.24
727.124	47650.72
727.465	47434.01
727.807	47316.04
728.149	47294.8
728.491	47108.14
728.833	47267.23
729.175	46957.86
729.516	46839.22
729.858	46749.73
730.199	46754.02
730.541	46638.55
730.882	46612.79
731.224	46661.6
731.565	46277.65
731.906	46472.45
732.248	46333.92
732.589	46227.71
732.93	46027.26
733.271	46131.22
733.612	46044.67
733.953	46131.22
734.294	45940.03
734.635	45820.72
734.976	45842.41
735.317	45602.42
735.658	45612.36
735.999	45604
736.339	45530.78
736.68	45598.8
737.021	45562.42
737.361	45321.52
737.702	45510.89
738.042	45421.4
738.383	45349.99
738.723	45355.19
739.063	45171.69
739.404	45197.91
739.744	45243.78
740.084	45106.16
740.424	45076.55
740.764	44960.63
741.104	45025.03
741.444	44747.98
741.784	44616
742.124	44727.86
742.464	44558.15
742.804	44438.83
743.143	44528.77
743.483	44417.82
743.823	44239.74
744.162	44153.19
744.502	44394.99
744.841	44018.96
745.181	44227.09
745.52	43900.54
745.86	44045.62
746.199	43957.26
746.538	43907.55
746.877	43836.14
747.216	43810.37
747.556	43574.22
747.895	43545.52
748.234	43379.2
748.573	43179.43
748.911	43223.95
749.25	43219.65
749.589	42954.8
749.928	43140.33
750.267	42982.6
750.605	42807.91
750.944	42592.33
751.283	42513.23
751.621	42562.27
751.96	42407.92
