Data from aluminium_macbook_case_FLMS001491_056.txt Node
Date: Tue Feb 07 10:43:50 GMT 2017
User: dcchb
Spectrometer: FLMS00149
Trigger mode: 0
Integration Time (sec): 2.000000E-2
Scans to average: 10
Electric dark correction enabled: true
Nonlinearity correction enabled: false
Boxcar width: 0
XAxis mode: Wavelengths
Number of Pixels in Spectrum: 2048
>>>>>Begin Spectral Data<<<<<
341.393	-14.46
341.776	-14.46
342.16	-14.46
342.543	-58.98
342.927	-70.28
343.31	-58.3
343.693	-76.61
344.077	-45.87
344.46	-78.42
344.843	-76.61
345.226	-51.07
345.61	-22.82
345.993	-19.21
346.376	4.75
346.759	17.4
347.142	17.63
347.525	34.8
347.908	53.56
348.291	82.94
348.674	100.34
349.057	117.51
349.44	140.34
349.823	160.9
350.206	177.17
350.588	244.29
350.971	252.2
351.354	283.16
351.737	263.5
352.119	305.75
352.502	307.11
352.884	330.84
353.267	328.8
353.65	341.23
354.032	361.8
354.414	359.09
354.797	385.98
355.179	394.79
355.562	363.83
355.944	395.47
356.326	408.35
356.709	402.25
357.091	409.71
357.473	404.06
357.855	401.12
358.238	405.19
358.62	407.45
359.002	416.49
359.384	423.72
359.766	412.19
360.148	419.42
360.53	424.4
360.912	423.72
361.294	416.49
361.676	424.17
362.057	432.98
362.439	442.93
362.821	432.76
363.203	429.59
363.584	448.12
363.966	414.9
364.348	423.72
364.729	413.77
365.111	423.27
365.493	426.2
365.874	419.42
366.256	427.56
366.637	428.69
367.019	420.33
367.4	453.1
367.781	455.36
368.163	436.15
368.544	446.09
368.925	461
369.306	456.49
369.688	440.21
370.069	427.56
370.45	470.5
370.831	447.9
371.212	443.15
371.593	462.36
371.974	490.38
372.355	483.15
372.736	468.91
373.117	485.18
373.498	472.76
373.879	482.25
374.26	470.5
374.641	463.26
375.021	465.52
375.402	479.76
375.783	501.23
376.163	544.39
376.544	533.55
376.925	506.65
377.305	508.91
377.686	520.44
378.066	528.12
378.447	535.81
378.827	543.94
379.208	581.91
379.588	560.44
379.968	574.22
380.349	549.36
380.729	575.35
381.109	592.53
381.489	577.16
381.87	609.48
382.25	578.06
382.63	600.21
383.01	616.71
383.39	586.43
383.77	627.78
384.15	614.45
384.53	627.78
384.91	627.1
385.29	665.52
385.67	675.69
386.049	670.49
386.429	654.45
386.809	688.34
387.189	679.08
387.568	694.45
387.948	689.25
388.328	717.5
388.707	696.7
389.087	733.31
389.466	735.8
389.846	740.32
390.225	745.29
390.605	758.17
390.984	794.33
391.363	786.19
391.743	786.87
392.122	817.83
392.501	840.43
392.881	797.72
393.26	831.16
393.639	835.01
394.018	856.7
394.397	862.58
394.776	877.27
395.155	882.91
395.534	914.1
395.913	893.08
396.292	909.58
396.671	908.68
397.05	923.59
397.429	973.99
397.808	955.46
398.186	952.29
398.565	969.01
398.944	967.66
399.323	982.57
399.701	971.73
400.08	1024.15
400.458	1031.16
400.837	1024.38
401.215	1050.14
401.594	1074.77
401.972	1075.45
402.351	1087.43
402.729	1118.61
403.107	1125.39
403.486	1123.36
403.864	1129.24
404.242	1132.4
404.62	1171.72
404.999	1177.6
405.377	1180.08
405.755	1203.58
406.133	1251.49
406.511	1242
406.889	1266.63
407.267	1290.14
407.645	1307.76
408.023	1320.87
408.401	1349.8
408.779	1331.49
409.156	1366.29
409.534	1393.86
409.912	1424.6
410.29	1428.44
410.667	1474.31
411.045	1470.92
411.422	1504.59
411.8	1524.48
412.178	1540.3
412.555	1586.85
412.933	1583.91
413.31	1621.88
413.687	1633.86
414.065	1625.72
414.442	1703.46
414.819	1732.61
415.197	1754.53
415.574	1779.84
415.951	1806.96
416.328	1768.77
416.705	1806.28
417.082	1822.78
417.46	1839.5
417.837	1900.52
418.214	1869.1
418.591	1881.08
418.967	1920.18
419.344	1929.89
419.721	1985.48
420.098	1960.4
420.475	2073.62
420.852	2043.56
421.228	2075.43
421.605	2088.98
421.982	2145.25
422.358	2153.16
422.735	2150
423.111	2174.41
423.488	2227.96
423.864	2207.63
424.241	2270.22
424.617	2307.28
424.994	2342.54
425.37	2352.25
425.746	2373.27
426.123	2369.66
426.499	2385.47
426.875	2439.94
427.251	2516.54
427.627	2547.28
428.003	2543.44
428.379	2625.24
428.756	2636.99
429.132	2691.45
429.507	2723.09
429.883	2771.68
430.259	2797.89
430.635	2842.19
431.011	2832.69
431.387	2926.93
431.763	3024.55
432.138	3013.25
432.514	3049.64
432.89	3100.03
433.265	3165.11
433.641	3232.91
434.016	3264.32
434.392	3263.87
434.767	3341.83
435.143	3336.86
435.518	3408.5
435.894	3443.75
436.269	3470.87
436.644	3519.91
437.02	3555.16
437.395	3583.18
437.77	3618.89
438.145	3710.41
438.52	3740.47
438.895	3782.5
439.271	3775.95
439.646	3903.17
440.021	3923.51
440.395	3950.18
440.77	3929.84
441.145	3973
441.52	4037.63
441.895	4089.38
442.27	4125.99
442.645	4116.05
443.019	4179.55
443.394	4173
443.769	4269.04
444.143	4216.84
444.518	4357.4
444.892	4319.43
445.267	4375.48
445.641	4382.26
446.016	4430.39
446.39	4491.18
446.764	4546.1
447.139	4508.13
447.513	4551.52
447.887	4619.77
448.262	4631.97
448.636	4690.05
449.01	4742.25
449.384	4773.66
449.758	4842.36
450.132	4950.6
450.506	4929.14
450.88	4968.46
451.254	4983.82
451.628	5068.12
452.002	5081
452.376	5142.46
452.75	5213.65
453.123	5224.72
453.497	5361.89
453.871	5388.56
454.244	5543.81
454.618	5530.02
454.992	5598.5
455.365	5599.17
455.739	5768.89
456.112	5842.33
456.486	5911.48
456.859	5959.62
457.232	6143.79
457.606	6109.67
457.979	6207.97
458.352	6344.01
458.725	6424.92
459.099	6512.15
459.472	6553.5
459.845	6642.09
460.218	6729.09
460.591	6765.7
460.964	6837.11
461.337	7039.14
461.71	7119.36
462.083	7153.03
462.456	7242.97
462.829	7239.81
463.201	7400.03
463.574	7395.06
463.947	7600.7
464.32	7768.84
464.692	7820.59
465.065	7905.1
465.438	7982.84
465.81	8137.64
466.183	8176.06
466.555	8467.35
466.928	8495.14
467.3	8498.99
467.672	8648.81
468.045	8912.31
468.417	8892.65
468.789	8986.88
469.161	9078.63
469.534	9260.55
469.906	9465.97
470.278	9478.85
470.65	9653.76
471.022	9828.44
471.394	10038.61
471.766	10129.45
472.138	10211.71
472.51	10426.62
472.882	10655.99
473.253	10729.66
473.625	10928.53
473.997	11180.27
474.369	11225.47
474.74	11381.62
475.112	11571.9
475.484	11769.18
475.855	11961.72
476.227	12080.81
476.598	12497.07
476.97	12613.68
477.341	12883.5
477.713	13127.11
478.084	13242.36
478.455	13617.72
478.827	13698.85
479.198	14088.9
479.569	14141.1
479.94	14518.04
480.311	14640.74
480.682	14951.92
481.053	15293.38
481.424	15607.95
481.795	15720.72
482.166	16034.61
482.537	16211.33
482.908	16548.27
483.279	16731.76
483.65	17150.06
484.021	17383.95
484.391	17547.79
484.762	17747.78
485.133	17919.08
485.503	18260.99
485.874	18603.13
486.244	18882.44
486.615	19179.61
486.985	19442.43
487.356	19862.75
487.726	19999.7
488.097	20411.67
488.467	20467.03
488.837	20973.69
489.207	21158.77
489.578	21470.4
489.948	21655.25
490.318	21991.06
490.688	22085.52
491.058	22411.39
491.428	22770.93
491.798	22914.43
492.168	23332.49
492.538	23436.22
492.908	23708.3
493.278	24127.5
493.648	24103.55
494.017	24501.5
494.387	24689.07
494.757	24914.15
495.126	25181.94
495.496	25317.07
495.866	25599.33
496.235	25932.43
496.605	26181.23
496.974	26357.5
497.344	26577.61
497.713	26646.76
498.082	27008.33
498.452	27209.68
498.821	27355.44
499.19	27603.57
499.559	27814.41
499.928	27996.78
500.298	28106.61
500.667	28581.62
501.036	28535.29
501.405	28787.72
501.774	28819.13
502.143	29193.13
502.512	29169.85
502.88	29532.33
503.249	29659.79
503.618	29790.4
503.987	29970.96
504.356	30151.52
504.724	30309.03
505.093	30425.87
505.462	30621.57
505.83	30829.7
506.199	31237.82
506.567	31695.89
506.936	31609.34
507.304	32070.34
507.672	32228.08
508.041	32445.02
508.409	32636.2
508.777	32925.24
509.145	33140.37
509.514	33412.68
509.882	33554.82
510.25	33783.97
510.618	33869.84
510.986	33945.55
511.354	34452.43
511.722	34693.55
512.09	35049.02
512.458	35050.15
512.826	35318.39
513.193	35655.56
513.561	35742.11
513.929	36031.82
514.297	36396.78
514.664	36674.52
515.032	36724.23
515.4	37080.83
515.767	37326.93
516.135	37382.29
516.502	37277.89
516.869	37894.6
517.237	38140.47
517.604	38142.5
517.972	38548.36
518.339	38660.45
518.706	38892.99
519.073	39305.18
519.44	39613.65
519.808	39831.27
520.175	40067.2
520.542	40539.5
520.909	40875.76
521.276	40833.05
521.643	41374.51
522.009	41661.73
522.376	41875.74
522.743	42259.91
523.11	42612.44
523.477	42890.62
523.843	43184.4
524.21	43564.73
524.577	43995
524.943	44012.63
525.31	44420.53
525.676	44754.3
526.043	44809.67
526.409	45259.37
526.776	45555.41
527.142	45658.01
527.508	45947.04
527.874	46223.64
528.241	46382.74
528.607	46576.4
528.973	47034.02
529.339	46895.49
529.705	47329.83
530.071	47821.79
530.437	47758.97
530.803	48044.16
531.169	48392.4
531.535	48338.62
531.901	48631.49
532.267	48865.83
532.632	49188.31
532.998	49168.42
533.364	49470.79
533.73	49575.87
534.095	49952.13
534.461	49980.38
534.826	50297.89
535.192	50436.41
535.557	50638.67
535.923	50645
536.288	50839.79
536.653	51002.5
537.019	51011.31
537.384	51160.69
537.749	51338.09
538.114	51400.91
538.479	51420.12
538.845	51686.78
539.21	51647
539.575	51803.38
539.94	51888.81
540.305	52023.04
540.67	52046.77
541.034	52143.94
541.399	52334.44
541.764	52400.43
542.129	52525.4
542.494	52604.27
542.858	52703.7
543.223	52830.25
543.587	53001.54
543.952	53026.18
544.316	53259.16
544.681	53201.99
545.045	53389.78
545.41	53495.77
545.774	53627.06
546.138	53652.6
546.503	53833.84
546.867	53878.81
547.231	54248.07
547.595	54252.36
547.959	54253.71
548.324	54303.88
548.688	54396.31
549.052	54625.91
549.416	54662.74
549.779	54648.96
550.143	54822.74
550.507	55001.27
550.871	55110.64
551.235	55082.85
551.599	55291.43
551.962	55393.35
552.326	55399.9
552.689	55598.09
553.053	55517.18
553.417	55748.14
553.78	55939.77
554.143	55799.66
554.507	55928.25
554.87	56000.11
555.234	56331.63
555.597	56152.87
555.96	56275.58
556.323	56459.98
556.686	56449.14
557.05	56608.23
557.413	56711.05
557.776	56753.54
558.139	56998.28
558.502	57044.15
558.865	57134.32
559.228	57351.71
559.59	57407.53
559.953	57513.52
560.316	57737.69
560.679	57781.08
561.041	57902.88
561.404	58024.24
561.767	58211.58
562.129	58130.67
562.492	58330.67
562.854	58409.76
563.217	58430.33
563.579	58616.54
563.941	58749.19
564.304	58851.11
564.666	58920.03
565.028	59021.95
565.39	59190.31
565.753	59315.5
566.115	59417.87
566.477	59516.4
566.839	59536.51
567.201	59725.66
567.563	59747.81
567.925	59872.55
568.287	59845.88
568.648	59928.82
569.01	60031.42
569.372	60157.74
569.734	60073.9
570.095	60217.85
570.457	60316.83
570.819	60420.11
571.18	60446.55
571.542	60524.51
571.903	60546.43
572.265	60697.39
572.626	60759.98
572.987	60788.46
573.349	60838.17
573.71	60933.77
574.071	61058.51
574.432	61092.18
574.794	61244.72
575.155	61260.08
575.516	61215.34
575.877	61377.82
576.238	61392.96
576.599	61478.16
576.96	61483.58
577.32	61472.96
577.681	61609
578.042	61653.52
578.403	61693.97
578.763	61715.67
579.124	61716.12
579.485	61832.5
579.845	61917.92
580.206	61833.63
580.566	61821.88
580.927	61855.1
581.287	61961.31
581.648	61867.75
582.008	62002.89
582.368	61944.36
582.728	61985.94
583.089	61962.44
583.449	61952.72
583.809	61983.91
584.169	62021.19
584.529	61973.51
584.889	62150.46
585.249	61953.4
585.609	61930.58
585.969	61975.55
586.329	61994.98
586.688	61969.67
587.048	62026.84
587.408	61947.3
587.768	61970.8
588.127	61976
588.487	61884.47
588.846	62027.97
589.206	61937.81
589.565	61977.13
589.925	62138.71
590.284	62075.2
590.643	62060.74
591.003	62174.18
591.362	62220.28
591.721	62182.77
592.08	62214.18
592.44	62223.67
592.799	62141.64
593.158	62139.61
593.517	62167.63
593.876	62252.15
594.235	62156.33
594.593	62258.7
594.952	62276.33
595.311	62167.86
595.67	62262.77
596.029	62391.13
596.387	62372.37
596.746	62348.19
597.104	62260.06
597.463	62328.98
597.822	62423.9
598.18	62338.93
598.538	62300.06
598.897	62467.06
599.255	62246.27
599.613	62558.58
599.972	62377.12
600.33	62463.44
600.688	62374.63
601.046	62466.38
601.404	62564
601.762	62462.09
602.12	62523.33
602.478	62530.79
602.836	62543.44
603.194	62425.48
603.552	62466.38
603.91	62437
604.268	62515.42
604.625	62417.12
604.983	62548.64
605.341	62449.21
605.698	62591.8
606.056	62712.48
606.413	62650.78
606.771	62787.05
607.128	62782.76
607.485	62639.93
607.843	62697.79
608.2	62840.83
608.557	62902.07
608.914	62855.75
609.272	62898.23
609.629	62940.27
609.986	63038.57
610.343	62975.52
610.7	63095.74
611.057	63027.04
611.414	63109.3
611.771	63101.17
612.127	63162.86
612.484	63119.02
612.841	63175.51
613.198	63114.72
613.554	63156.08
613.911	63191.33
614.267	63182.97
614.624	63185.01
614.98	63190.65
615.337	63191.33
615.693	63191.33
616.05	63191.33
616.406	63191.33
616.762	63191.33
617.118	63191.33
617.475	63184.33
617.831	63191.33
618.187	63191.33
618.543	63190.43
618.899	63191.33
619.255	63191.33
619.611	63191.33
619.967	63191.33
620.323	63191.33
620.678	63191.33
621.034	63191.33
621.39	63191.33
621.746	63191.33
622.101	63191.33
622.457	63191.33
622.812	63191.33
623.168	63191.33
623.523	63191.33
623.879	63191.33
624.234	63191.33
624.589	63191.33
624.945	63191.33
625.3	63191.33
625.655	63191.33
626.01	63191.33
626.365	63191.33
626.72	63191.33
627.075	63191.33
627.43	63191.33
627.785	63191.33
628.14	63191.33
628.495	63191.33
628.85	63191.33
629.205	63191.33
629.559	63191.33
629.914	63191.33
630.269	63191.33
630.623	63191.33
630.978	63187.04
631.332	63191.33
631.687	63191.33
632.041	63191.33
632.396	63190.88
632.75	63166.25
633.104	63191.33
633.459	63156.08
633.813	63173.03
634.167	63096.19
634.521	63080.6
634.875	63072.01
635.229	63002.41
635.583	62920.15
635.937	62973.71
636.291	62865.92
636.645	62939.59
636.999	62826.37
637.352	62890.32
637.706	62658.01
638.06	62784.56
638.413	62686.71
638.767	62656.88
639.121	62693.27
639.474	62579.6
639.828	62525.81
640.181	62597.22
640.534	62596.32
640.888	62482.42
641.241	62424.57
641.594	62526.04
641.947	62526.04
642.301	62382.31
642.654	62503.67
643.007	62421.86
643.36	62424.8
643.713	62404.69
644.066	62493.95
644.419	62336.21
644.771	62175.77
645.124	61976.45
645.477	61926.28
645.83	61766.96
646.182	61697.36
646.535	61619.17
646.888	61616.68
647.24	61399.74
647.593	61577.36
647.945	61496.24
648.298	61416.01
648.65	61340.08
649.002	61314.32
649.355	61411.72
649.707	61364.71
650.059	61446.52
650.411	61791.37
650.763	61771.94
651.115	61957.47
651.467	61883.8
651.819	61823.01
652.171	61743.24
652.523	61676.57
652.875	61736
653.227	61612.17
653.578	61712.73
653.93	61703.24
654.282	61522.45
654.633	61493.98
654.985	61515.67
655.337	61464.15
655.688	61417.59
656.039	61461.66
656.391	61221.67
656.742	61300.54
657.094	61300.99
657.445	61361.55
657.796	61248.56
658.147	61188.22
658.498	61255.11
658.849	61222.8
659.2	61174.89
659.551	61141.22
659.902	61265.51
660.253	61198.39
660.604	61185.74
660.955	61091.95
661.306	61172.85
661.656	61170.82
662.007	61155.91
662.358	61213.08
662.708	61111.39
663.059	61138.51
663.409	61006.98
663.76	61175.34
664.11	61199.75
664.461	61133.99
664.811	61174.44
665.161	61089.02
665.511	61001.56
665.862	61036.59
666.212	61117.49
666.562	61152.06
666.912	61055.57
667.262	60964.95
667.612	60994.1
667.962	60990.71
668.312	60971.05
668.662	61050.82
669.011	60967.44
669.361	60879.08
669.711	60835.46
670.06	60886.31
670.41	60858.51
670.76	60835.46
671.109	60812.64
671.459	60757.72
671.808	60783.49
672.157	60842.92
672.507	60658.07
672.856	60666.2
673.205	60675.69
673.554	60740.78
673.904	60564.51
674.253	60715.47
674.602	60690.16
674.951	60192.32
675.3	60092.88
675.649	60371.29
675.998	60398.41
676.346	60352.31
676.695	60459.88
677.044	60223.05
677.393	60286.32
677.741	60326.55
678.09	60223.5
678.438	60129.72
678.787	60208.81
679.135	60248.59
679.484	60065.99
679.832	60185.31
680.181	60037.74
680.529	60102.83
680.877	60125.65
681.225	60008.59
681.573	60154.12
681.922	60006.33
682.27	59932.21
682.618	59956.84
682.966	59931.08
683.314	59991.64
683.661	59803.4
684.009	59733.34
684.357	59681.37
684.705	59701.26
685.053	59739.67
685.4	59718.43
685.748	59606.34
686.095	59547.36
686.443	59474.59
686.79	59400.02
687.138	59503.29
687.485	59498.77
687.832	59273.92
688.18	59358.44
688.527	59206.8
688.874	59175.85
689.221	59176.75
689.568	59125.9
689.915	58961.39
690.262	58955.29
690.609	58986.02
690.956	58852.69
691.303	58800.26
691.65	58660.15
691.997	58647.95
692.344	58487.73
692.69	58387.39
693.037	58445.24
693.383	58174.52
693.73	58299.03
694.077	58068.98
694.423	58163.89
694.769	58018.36
695.116	57905.37
695.462	57826.95
695.808	57708.31
696.155	57759.16
696.501	57501.09
696.847	57531.82
697.193	57367.31
697.539	57362.56
697.885	57207.76
698.231	57104.04
698.577	57090.93
698.923	57082.57
699.269	56920.76
699.614	56781.11
699.96	56754.21
700.306	56817.49
700.651	56642.58
700.997	56558.74
701.342	56525.07
701.688	56493.43
702.033	56387.67
702.379	56406.88
702.724	56389.7
703.069	56399.42
703.415	56109.49
703.76	56094.8
704.105	56104.97
704.45	55979.09
704.795	55927.79
705.14	55888.7
705.485	55869.04
705.83	55725.09
706.175	55655.26
706.52	55704.07
706.865	55614.81
707.209	55607.58
707.554	55502.27
707.899	55515.38
708.243	55356.28
708.588	55347.25
708.932	55128.72
709.277	55035.16
709.621	55151.54
709.966	54851.89
710.31	54973.47
710.654	54777.54
710.998	54736.41
711.342	54777.77
711.687	54722.18
712.031	54601.5
712.375	54473.14
712.719	54473.6
713.063	54423.88
713.407	54561.28
713.75	54251.23
714.094	54310.21
714.438	54127.16
714.782	54100.27
715.125	53877.91
715.469	54044
715.812	53853.27
716.156	53646.27
716.499	53692.15
716.843	53688.53
717.186	53524.69
717.53	53610.34
717.873	53474.75
718.216	53433.17
718.559	53251.93
718.902	52985.5
719.246	53071.15
719.589	53054.42
719.932	52799.74
720.275	52764.04
720.617	52829.57
720.96	52627.99
721.303	52693.98
721.646	52607.88
721.989	52307.78
722.331	52501.44
722.674	52389.13
723.016	52392.52
723.359	52296.93
723.701	52274.33
724.044	52133.77
724.386	51977.84
724.729	52099.2
725.071	51975.36
725.413	51912.53
725.755	51890.61
726.097	51780.11
726.439	51668.25
726.782	51720.9
727.124	51799.09
727.465	51665.31
727.807	51634.8
728.149	51634.8
728.491	51591.64
728.833	51681.58
729.175	51423.28
729.516	51365.88
729.858	51201.59
730.199	51362.49
730.541	51141.71
730.882	51186.45
731.224	51254.92
731.565	51133.12
731.906	51082.27
732.248	51079.79
732.589	50862.39
732.93	50772
733.271	50873.24
733.612	50868.94
733.953	50814.48
734.294	50652.23
734.635	50466.7
734.976	50719.12
735.317	50532
735.658	50467.83
735.999	50434.15
736.339	50300.15
736.68	50331.11
737.021	50197.55
737.361	50024.67
737.702	50208.4
738.042	50013.37
738.383	49863.1
738.723	49997.56
739.063	49748.07
739.404	49745.58
739.744	49485.25
740.084	49508.08
740.424	49553.05
740.764	49405.03
741.104	49559.37
741.444	49193.96
741.784	49146.5
742.124	49138.82
742.464	49027.64
742.804	48890.69
743.143	48706.06
743.483	48797.81
743.823	48608.21
744.162	48525.73
744.502	48554.66
744.841	48241.44
745.181	48574.09
745.52	48200.77
745.86	48349.46
746.199	48076.02
746.538	47964.16
746.877	47990.38
747.216	48051.62
747.556	47780.21
747.895	47798.29
748.234	47702.7
748.573	47520.11
748.911	47545.42
749.25	47521.69
749.589	47401.24
749.928	47429.94
750.267	47449.37
750.605	47318.53
750.944	47220.91
751.283	46984.75
751.621	47202.6
751.96	46928.71
752.298	46953.34
