Data from aluminium_macbook_case_FLMS001491_072.txt Node
Date: Tue Feb 07 10:44:11 GMT 2017
User: dcchb
Spectrometer: FLMS00149
Trigger mode: 0
Integration Time (sec): 2.000000E-2
Scans to average: 10
Electric dark correction enabled: true
Nonlinearity correction enabled: false
Boxcar width: 0
XAxis mode: Wavelengths
Number of Pixels in Spectrum: 2048
>>>>>Begin Spectral Data<<<<<
341.393	-25.48
341.776	-25.48
342.16	-25.48
342.543	-61.64
342.927	-55.54
343.31	-60.28
343.693	-86.95
344.077	-72.48
344.46	-72.48
344.843	-60.96
345.226	-50.34
345.61	-33.84
345.993	-15.31
346.376	-2.2
346.759	14.97
347.142	27.17
347.525	38.93
347.908	67.85
348.291	86.16
348.674	98.13
349.057	121.64
349.44	108.3
349.823	132.71
350.206	198.02
350.588	243.67
350.971	255.19
351.354	321.86
351.737	280.28
352.119	307.17
352.502	334.51
352.884	323.89
353.267	343.55
353.65	349.2
354.032	356.21
354.414	367.73
354.797	385.58
355.179	376.32
355.562	402.08
355.944	378.58
356.326	398.46
356.709	396.43
357.091	400.72
357.473	404.79
357.855	432.36
358.238	429.88
358.62	433.72
359.002	409.54
359.384	416.54
359.766	424.68
360.148	421.06
360.53	422.87
360.912	426.49
361.294	422.19
361.676	437.56
362.057	425.36
362.439	447.95
362.821	440.72
363.203	451.12
363.584	419.93
363.966	436.88
364.348	425.36
364.729	425.58
365.111	434.85
365.493	418.35
365.874	427.84
366.256	432.59
366.637	451.57
367.019	441.4
367.4	442.98
367.781	442.53
368.163	447.73
368.544	457.45
368.925	465.35
369.306	475.3
369.688	480.5
370.069	472.36
370.45	438.92
370.831	452.25
371.212	464.9
371.593	447.28
371.974	471.68
372.355	471.46
372.736	482.98
373.117	488.18
373.498	470.55
373.879	472.36
374.26	463.1
374.641	477.56
375.021	475.98
375.402	488.41
375.783	514.17
376.163	539.03
376.544	517.33
376.925	540.83
377.305	550.55
377.686	528.18
378.066	541.74
378.447	527.05
378.827	538.35
379.208	555.52
379.588	547.39
379.968	558.23
380.349	548.06
380.729	571.79
381.109	580.61
381.489	585.35
381.87	573.83
382.25	605.69
382.63	583.54
383.01	619.7
383.39	609.08
383.77	618.12
384.15	630.32
384.53	628.29
384.91	657.89
385.29	652.92
385.67	652.69
386.049	662.86
386.429	654.73
386.809	652.47
387.189	684.33
387.568	682.07
387.948	702.18
388.328	713.94
388.707	711.45
389.087	736.99
389.466	736.76
389.846	759.36
390.225	735.86
390.605	744.9
390.984	765.46
391.363	786.02
391.743	794.61
392.122	814.5
392.501	814.05
392.881	829.87
393.26	837.32
393.639	837.77
394.018	859.92
394.397	849.98
394.776	897.43
395.155	846.59
395.534	849.3
395.913	884.55
396.292	901.95
396.671	900.37
397.05	896.98
397.429	920.03
397.808	950.54
398.186	933.14
398.565	992.57
398.944	952.57
399.323	968.62
399.701	993.7
400.08	992.8
400.458	993.48
400.837	1019.46
401.215	1055.17
401.594	1071.21
401.972	1073.02
402.351	1069.86
402.729	1099.46
403.107	1097.2
403.486	1114.6
403.864	1121.38
404.242	1132.23
404.62	1148.05
404.999	1150.99
405.377	1159.35
405.755	1192.12
406.133	1219.69
406.511	1222.85
406.889	1253.36
407.267	1274.6
407.645	1262.4
408.023	1278.21
408.401	1331.77
408.779	1342.62
409.156	1348.04
409.534	1381.94
409.912	1399.57
410.29	1422.84
410.667	1436.85
411.045	1472.11
411.422	1489.28
411.8	1483.63
412.178	1510.53
412.555	1542.61
412.933	1547.81
413.31	1609.96
413.687	1631.43
414.065	1626.23
414.442	1658.54
414.819	1673.23
415.197	1692.67
415.574	1731.99
415.951	1740.12
416.328	1743.97
416.705	1781.7
417.082	1813.34
417.46	1800.24
417.837	1829.84
418.214	1870.52
418.591	1853.57
418.967	1854.47
419.344	1895.6
419.721	1948.25
420.098	1931.31
420.475	1972.21
420.852	1988.93
421.228	1992.55
421.605	2015.14
421.982	2048.82
422.358	2092.66
422.735	2099.89
423.111	2109.38
423.488	2167.91
423.864	2202.48
424.241	2218.08
424.617	2244.07
424.994	2277.28
425.37	2292.65
425.746	2301.46
426.123	2337.17
426.499	2332.2
426.875	2377.62
427.251	2381.91
427.627	2471.4
428.003	2498.52
428.379	2532.19
428.756	2575.81
429.132	2590.04
429.507	2641.79
429.883	2654.22
430.259	2729.93
430.635	2757.5
431.011	2765.63
431.387	2850.83
431.763	2895.8
432.138	2891.96
432.514	2966.76
432.89	2958.62
433.265	3075.23
433.641	3100.31
434.016	3155.45
434.392	3157.49
434.767	3212.63
435.143	3232.06
435.518	3281.1
435.894	3292.4
436.269	3327.43
436.644	3406.52
437.02	3458.72
437.395	3453.98
437.77	3554.77
438.145	3589.57
438.52	3616.23
438.895	3630.02
439.271	3643.8
439.646	3758.6
440.021	3807.19
440.395	3811.48
440.77	3774.87
441.145	3828.43
441.52	3930.35
441.895	3922.21
442.27	3987.3
442.645	3961.76
443.019	4061.87
443.394	4013.96
443.769	4071.36
444.143	4078.59
444.518	4161.08
444.892	4164.47
445.267	4126.73
445.641	4201.75
446.016	4220.28
446.39	4286.95
446.764	4336.44
447.139	4324.91
447.513	4373.05
447.887	4416.44
448.262	4497.34
448.636	4463.44
449.01	4546.6
449.384	4619.37
449.758	4603.1
450.132	4712.47
450.506	4733.49
450.88	4750.67
451.254	4797.44
451.628	4867.05
452.002	4941.4
452.376	4900.49
452.75	5003.77
453.123	5055.06
453.497	5125.35
453.871	5229.52
454.244	5244.66
454.618	5285.79
454.992	5385.9
455.365	5358.56
455.739	5555.16
456.112	5601.04
456.486	5645.56
456.859	5662.05
457.232	5855.5
457.606	5826.57
457.979	5916.96
458.352	6091.42
458.725	6150.86
459.099	6200.57
459.472	6328.25
459.845	6396.72
460.218	6485.08
460.591	6442.6
460.964	6524.63
461.337	6673.78
461.71	6740.67
462.083	6925.52
462.456	6882.59
462.829	6913.55
463.201	7029.7
463.574	7090.72
463.947	7224.95
464.32	7376.81
464.692	7439.63
465.065	7475.57
465.438	7630.36
465.81	7823.58
466.183	7822.45
466.555	7981.54
466.928	8042.33
467.3	8083.46
467.672	8225.6
468.045	8470.12
468.417	8457.69
468.789	8581.3
469.161	8655.87
469.534	8775.87
469.906	9028.07
470.278	9098.35
470.65	9146.71
471.022	9328.17
471.394	9567.26
471.766	9641.38
472.138	9730.2
472.51	9982.39
472.882	10066.91
473.253	10276.85
473.625	10362.04
473.997	10565.65
474.369	10660.12
474.74	10830.28
475.112	11011.52
475.484	11263.94
475.855	11373.09
476.227	11520.21
476.598	11857.15
476.97	11966.97
477.341	12363.8
477.713	12434.76
478.084	12577.8
478.455	12853.28
478.827	12989.09
479.198	13420.49
479.569	13363.32
479.94	13830.2
480.311	13957.2
480.682	14259.57
481.053	14529.84
481.424	14733.68
481.795	14903.39
482.166	15171.18
482.537	15377.51
482.908	15681.68
483.279	15937.72
483.65	16211.83
484.021	16472.62
484.391	16612.5
484.762	16832.16
485.133	17026.73
485.503	17247.06
485.874	17693.83
486.244	17835.07
486.615	18132.24
486.985	18501.72
487.356	18765.21
487.726	18912.1
488.097	19359.77
488.467	19382.6
488.837	19855.13
489.207	20119.98
489.578	20430.03
489.948	20629.12
490.318	20820.07
490.688	20933.74
491.058	21253.06
491.428	21559.04
491.798	21766.49
492.168	22253.26
492.538	22276.76
492.908	22516.07
493.278	22771.21
493.648	22801.04
494.017	23276.73
494.387	23376.62
494.757	23536.61
495.126	23879.2
495.496	23845.08
495.866	24102.47
496.235	24386.76
496.605	24677.15
496.974	24869.91
497.344	25112.84
497.713	25181.77
498.082	25461.08
498.452	25749.66
498.821	25979.94
499.19	26055.87
499.559	26423.99
499.928	26594.16
500.298	26701.95
500.667	27027.82
501.036	26908.73
501.405	27172
501.774	27300.36
502.143	27581.93
502.512	27671.65
502.88	28044.52
503.249	28056.95
503.618	28260.56
503.987	28269.37
504.356	28538.29
504.724	28735.8
505.093	28828.9
505.462	29065.05
505.83	29363.8
506.199	29438.15
506.567	29828.2
506.936	29778.03
507.304	30136.89
507.672	30352.93
508.041	30528.75
508.409	30798.34
508.777	31088.28
509.145	31216.18
509.514	31290.31
509.882	31642.84
510.25	31835.6
510.618	32052.55
510.986	32245.54
511.354	32532.76
511.722	32938.17
512.09	33170.26
512.458	33193.99
512.826	33468.1
513.193	33471.04
513.561	33774.54
513.929	34156.45
514.297	34438.7
514.664	34594.4
515.032	34773.38
515.4	35095.4
515.767	35184.89
516.135	35419.92
516.502	35265.12
516.869	35875.5
517.237	35991.65
517.604	35943.07
517.972	36502.37
518.339	36791.41
518.706	36796.83
519.073	37072.08
519.44	37315.69
519.808	37708.9
520.175	37862.34
520.542	38314.3
520.909	38565.37
521.276	38728.98
521.643	39051.69
522.009	39347.04
522.376	39725.34
522.743	40014.6
523.11	40411.42
523.477	40740.45
523.843	40995.59
524.21	41339.53
524.577	41655.01
524.943	41725.74
525.31	42023.58
525.676	42432.61
526.043	42574.08
526.409	42873.96
526.776	43206.83
527.142	43347.62
527.508	43660.15
527.874	43911.9
528.241	44271.89
528.607	44366.35
528.973	44775.15
529.339	44748.71
529.705	45189.38
530.071	45407.22
530.437	45591.17
530.803	45876.82
531.169	46103.93
531.535	45913.2
531.901	46345.5
532.267	46381.66
532.632	46817.36
532.998	46978.71
533.364	47030.68
533.73	47303.22
534.095	47769.87
534.461	47790.44
534.826	48103.42
535.192	48301.16
535.557	48434.04
535.923	48644.88
536.288	48800.81
536.653	48940.69
537.019	48918.32
537.384	49141.14
537.749	49333.67
538.114	49381.81
538.479	49524.4
538.845	49751.29
539.21	49631.75
539.575	49750.61
539.94	49962.81
540.305	50118.51
540.67	50013.66
541.034	50323.93
541.399	50396.25
541.764	50564.83
542.129	50698.84
542.494	50824.26
542.858	50848.44
543.223	50944.71
543.587	51104.48
543.952	51141.08
544.316	51247.52
544.681	51264.02
545.045	51503.11
545.41	51722.31
545.774	51832.37
546.138	51870.33
546.503	52042.3
546.867	52035.52
547.231	52406.59
547.595	52296.99
547.959	52426.93
548.324	52489.75
548.688	52610.88
549.052	52809.74
549.416	52933.81
549.779	52979.91
550.143	53082.5
550.507	53214.7
550.871	53325.21
551.235	53374.7
551.599	53670.74
551.962	53717.51
552.326	53746.21
552.689	53952.31
553.053	53784.18
553.417	53991.41
553.78	54305.97
554.143	54124.74
554.507	54366.76
554.87	54469.58
555.234	54791.38
555.597	54542.8
555.96	54679.97
556.323	54823.7
556.686	54943.24
557.05	55084.03
557.413	55120.42
557.776	55293.97
558.139	55436.79
558.502	55501.87
558.865	55608.76
559.228	55771.7
559.59	55855.99
559.953	55859.15
560.316	56175.53
560.679	56193.61
561.041	56406.71
561.404	56538.23
561.767	56691
562.129	56639.92
562.492	56972.57
562.854	56962.4
563.217	57059.12
563.579	57162.85
563.941	57293.92
564.304	57341.83
564.666	57500.24
565.028	57607.36
565.39	57651.42
565.753	57783.62
566.115	57962.83
566.477	57991.98
566.839	58052.77
567.201	58268.58
567.563	58234.91
567.925	58498.63
568.287	58439.65
568.648	58443.49
569.01	58668.8
569.372	58736.14
569.734	58652.07
570.095	58860.2
570.457	58994.89
570.819	59020.43
571.18	58916.47
571.542	59146.75
571.903	59155.56
572.265	59296.58
572.626	59295.22
572.987	59410.92
573.349	59505.16
573.71	59560.3
574.071	59637.36
574.432	59673.52
574.794	59832.16
575.155	59859.27
575.516	59791.48
575.877	59902.66
576.238	59957.35
576.599	60064.92
576.96	60040.96
577.32	60115.76
577.681	60327.06
578.042	60349.2
578.403	60284.12
578.763	60342.65
579.124	60369.54
579.485	60442.08
579.845	60476.88
580.206	60420.84
580.566	60482.08
580.927	60552.81
581.287	60585.13
581.648	60505.13
582.008	60662.64
582.368	60560.27
582.728	60655.18
583.089	60599.37
583.449	60562.76
583.809	60603.89
584.169	60631.46
584.529	60554.17
584.889	60795.97
585.249	60562.98
585.609	60545.58
585.969	60676.2
586.329	60604.56
586.688	60652.02
587.048	60612.93
587.408	60633.49
587.768	60641.4
588.127	60629.87
588.487	60563.89
588.846	60764.79
589.206	60614.96
589.565	60654.51
589.925	60799.14
590.284	60671.23
590.643	60733.15
591.003	60743.09
591.362	60859.93
591.721	60785.8
592.08	60834.39
592.44	60807.72
592.799	60873.26
593.158	60842.3
593.517	60859.7
593.876	60919.81
594.235	60808.18
594.593	60937.21
594.952	60899.47
595.311	60834.84
595.67	60845.91
596.029	61040.26
596.387	61019.24
596.746	60987.15
597.104	60901.28
597.463	60883.43
597.822	60983.09
598.18	60858.57
598.538	60874.16
598.897	61025.12
599.255	60844.56
599.613	61086.36
599.972	60961.39
600.33	61013.59
600.688	60964.33
601.046	61026.7
601.404	61109.18
601.762	61021.05
602.12	61179.01
602.478	61121.16
602.836	61164.78
603.194	61027.38
603.552	61111.44
603.91	61049.75
604.268	61205.9
604.625	61124.33
604.983	61297.88
605.341	61145.57
605.698	61300.82
606.056	61324.55
606.413	61318.67
606.771	61386.24
607.128	61444.99
607.485	61339.91
607.843	61421.04
608.2	61534.48
608.557	61585.1
608.914	61546.46
609.272	61607.93
609.629	61648.15
609.986	61750.98
610.343	61609.74
610.7	61836.4
611.057	61754.36
611.414	61726.34
611.771	61762.05
612.127	61799.79
612.484	61796.4
612.841	61803.4
613.198	61803.63
613.554	61796.85
613.911	61852.67
614.267	61905.55
614.624	61866.68
614.98	61839.79
615.337	61927.69
615.693	61930.41
616.05	61831.88
616.406	62021.93
616.762	61931.54
617.118	61968.14
617.475	61920.69
617.831	61960.01
618.187	61979.22
618.543	61990.29
618.899	62131.76
619.255	62011.76
619.611	62059.89
619.967	62101.47
620.323	62121.13
620.678	62091.53
621.034	62011.08
621.39	62100.8
621.746	62048.37
622.101	62292.66
622.457	62093.79
622.812	62135.37
623.168	62228.7
623.523	62169.5
623.879	62233.9
624.234	62058.09
624.589	62209.04
624.945	62228.93
625.3	62302.83
625.655	62260.79
626.01	62234.8
626.365	62256.72
626.72	62205.65
627.075	62229.61
627.43	62257.18
627.785	62132.89
628.14	62213.34
628.495	62220.57
628.85	62220.57
629.205	62122.04
629.559	62246.1
629.914	62094.02
630.269	62112.77
630.623	61995.26
630.978	61924.3
631.332	62030.06
631.687	62093.57
632.041	61956.85
632.396	61983.51
632.75	61892.89
633.104	61872.78
633.459	61727.7
633.813	61788.04
634.167	61736.06
634.521	61672.33
634.875	61664.88
635.229	61691.77
635.583	61544.88
635.937	61566.57
636.291	61508.27
636.645	61487.48
636.999	61422.4
637.352	61549.62
637.706	61357.77
638.06	61463.3
638.413	61358.22
638.767	61301.95
639.121	61403.87
639.474	61235.06
639.828	61233.93
640.181	61303.08
640.534	61282.74
640.888	61225.34
641.241	61034.61
641.594	61158.9
641.947	61216.53
642.301	61141.5
642.654	61128.84
643.007	61101.5
643.36	61111.44
643.713	61062.41
644.066	61110.54
644.419	60938.34
644.771	60850.66
645.124	60605.47
645.477	60615.64
645.83	60406.6
646.182	60329.32
646.535	60233.95
646.888	60272.37
647.24	60122.32
647.593	60256.55
647.945	60247.74
648.298	60048.65
648.65	60045.71
649.002	59942.66
649.355	59937.24
649.707	59922.1
650.059	60002.09
650.411	60327.06
650.763	60310.79
651.115	60528.18
651.467	60367.96
651.819	60405.47
652.171	60295.65
652.523	60248.87
652.875	60261.52
653.227	60162.32
653.578	60283.67
653.93	60181.3
654.282	60094.3
654.633	60038.48
654.985	59995.54
655.337	60036.67
655.688	60016.11
656.039	60094.07
656.391	59937.46
656.742	59930.46
657.094	59825.38
657.445	59955.54
657.796	59919.84
658.147	59808.65
658.498	59853.62
658.849	59901.08
659.2	59856.56
659.551	59855.21
659.902	59942.44
660.253	59883.68
660.604	59860.63
660.955	59755.1
661.306	59904.7
661.656	59782.89
662.007	59825.38
662.358	59794.64
662.708	59769.11
663.059	59819.5
663.409	59694.31
663.76	59849.1
664.11	59760.29
664.461	59778.37
664.811	59806.39
665.161	59786.73
665.511	59670.8
665.862	59721.65
666.212	59714.19
666.562	59751.71
666.912	59675.55
667.262	59574.99
667.612	59608.88
667.962	59541.32
668.312	59487.98
668.662	59626.96
669.011	59553.74
669.361	59496.12
669.711	59472.84
670.06	59457.02
670.41	59414.99
670.76	59323.92
671.109	59365.95
671.459	59360.08
671.808	59327.99
672.157	59337.03
672.507	59154.21
672.856	59175.45
673.205	59193.3
673.554	59279.4
673.904	59125.73
674.253	59227.65
674.602	59149.91
674.951	58741.34
675.3	58619.31
675.649	59012.52
675.998	58991.5
676.346	58941.11
676.695	59010.93
677.044	58809.58
677.393	58926.19
677.741	58937.49
678.09	58892.97
678.438	58793.09
678.787	58826.98
679.135	58855.01
679.484	58725.07
679.832	58791.05
680.181	58705.86
680.529	58783.6
680.877	58691.17
681.225	58675.8
681.573	58775.23
681.922	58578.18
682.27	58593.32
682.618	58574.34
682.966	58481.46
683.314	58587.67
683.661	58450.05
684.009	58399.65
684.357	58264.29
684.705	58303.61
685.053	58245.98
685.4	58211.41
685.748	58096.16
686.095	58117.85
686.443	58061.35
686.79	58042.15
687.138	58057.29
687.485	57989.49
687.832	57877.18
688.18	57949.27
688.527	57715.38
688.874	57766.67
689.221	57647.35
689.568	57523.29
689.915	57509.05
690.262	57445.78
690.609	57388.6
690.956	57316.52
691.303	57304.09
691.65	57123.3
691.997	57039.01
692.344	56924.44
692.69	56861.61
693.037	56763.99
693.383	56616.19
693.73	56725.34
694.077	56528.97
694.423	56404.45
694.769	56358.57
695.116	56353.15
695.462	56207.62
695.808	56180.05
696.155	56220.05
696.501	55994.06
696.847	55970.34
697.193	55767.86
697.539	55922.88
697.885	55663.9
698.231	55592.49
698.577	55645.82
698.923	55542.55
699.269	55347.53
699.614	55156.35
699.96	55147.31
700.306	55290.58
700.651	55046.74
700.997	55037.03
701.342	54977.59
701.688	54972.85
702.033	54928.33
702.379	54876.81
702.724	54740.99
703.069	54891.27
703.415	54585.06
703.76	54562.24
704.105	54629.13
704.45	54444.05
704.795	54391.85
705.14	54161.8
705.485	54267.78
705.83	54114.57
706.175	54195.47
706.52	54116.15
706.865	53959.09
707.209	53871.41
707.554	53809.26
707.899	53927
708.243	53740.56
708.588	53688.81
708.932	53489.27
709.277	53471.19
709.621	53435.04
709.966	53257.19
710.31	53319.11
710.654	52987.36
710.998	53068.94
711.342	52918.44
711.687	52849.06
712.031	52732.46
712.375	52619.01
712.719	52682.29
713.063	52656.53
713.407	52588.05
713.75	52412.69
714.094	52284.78
714.438	52204.11
714.782	52261.96
715.125	52057.67
715.469	51996.66
715.812	51830.11
716.156	51689.09
716.499	51676.89
716.843	51619.26
717.186	51489.78
717.53	51611.81
717.873	51554.86
718.216	51447.29
718.559	51321.19
718.902	50988.09
719.246	51221.53
719.589	50983.57
719.932	50808.66
720.275	50829.68
720.617	50730.25
720.96	50713.75
721.303	50725.95
721.646	50570.48
721.989	50450.26
722.331	50606.18
722.674	50382.91
723.016	50444.61
723.359	50277.6
723.701	50378.39
724.044	50087.78
724.386	50034
724.729	50153.54
725.071	50034.22
725.413	50048.91
725.755	50043.71
726.097	49954.68
726.439	49668.58
726.782	49723.04
727.124	49923.94
727.465	49756.26
727.807	49742.7
728.149	49601.92
728.491	49581.8
728.833	49681.91
729.175	49502.48
729.516	49457.51
729.858	49255.94
730.199	49332.32
730.541	49325.31
730.882	49182.27
731.224	49250.96
731.565	49139.1
731.906	49023.63
732.248	49087.13
732.589	48702.5
732.93	48726.23
733.271	48639
733.612	48694.14
733.953	48613.02
734.294	48384.32
734.635	48436.07
734.976	48296.41
735.317	48195.85
735.658	48255.51
735.999	48074.5
736.339	47968.96
736.68	47965.12
737.021	47690.78
737.361	47727.62
737.702	47858.23
738.042	47729.42
738.383	47381.18
738.723	47455.31
739.063	47362.2
739.404	47380.73
739.744	47149.1
740.084	46964.02
740.424	46970.8
740.764	46942.1
741.104	46919.95
741.444	46695.33
741.784	46704.37
742.124	46754.76
742.464	46552.05
742.804	46616.91
743.143	46447.2
743.483	46504.37
743.823	46132.85
744.162	46008.34
744.502	46142.8
744.841	45978.73
745.181	46136.24
745.52	45840.66
745.86	45882.24
746.199	45705.97
746.538	45696.03
746.877	45689.02
747.216	45545.53
747.556	45416.49
747.895	45519.54
748.234	45493.78
748.573	45372.87
748.911	45202.03
749.25	45161.58
749.589	44933.11
749.928	45094.24
750.267	45065.09
750.605	44994.13
750.944	44932.21
751.283	44765.21
751.621	44909.38
751.96	44680.69
752.298	44513.91
