Data from aluminium_surface_pro_back_FLMS001491_00078.txt Node
Date: Wed Feb 08 15:34:32 GMT 2017
User: dcchb
Spectrometer: FLMS00149
Trigger mode: 0
Integration Time (sec): 2.000000E-2
Scans to average: 10
Electric dark correction enabled: true
Nonlinearity correction enabled: false
Boxcar width: 0
XAxis mode: Wavelengths
Number of Pixels in Spectrum: 2048
>>>>>Begin Spectral Data<<<<<
341.393	-14.89
341.776	-14.89
342.16	-14.89
342.543	-51.04
342.927	-72.29
343.31	-80.87
343.693	-76.35
344.077	-56.24
344.46	-61.67
344.843	-45.17
345.226	-35.68
345.61	-43.36
345.993	-11.27
346.376	-3.14
346.759	5.68
347.142	31.89
347.525	50.65
347.908	64.66
348.291	70.08
348.674	87.71
349.057	103.08
349.44	134.49
349.823	145.79
350.206	161.61
350.588	215.16
350.971	254.26
351.354	251.55
351.737	278.89
352.119	274.15
352.502	290.64
352.884	299.23
353.267	299.91
353.65	336.29
354.032	333.58
354.414	350.08
354.797	355.95
355.179	348.95
355.562	357.08
355.944	353.69
356.326	375.16
356.709	351.66
357.091	364.54
357.473	392.56
357.855	366.12
358.238	377.42
358.62	382.39
359.002	363.41
359.384	393.92
359.766	374.48
360.148	379.91
360.53	380.36
360.912	371.09
361.294	387.14
361.676	384.88
362.057	383.52
362.439	381.26
362.821	372.67
363.203	362.05
363.584	362.28
363.966	372.45
364.348	369.96
364.729	369.06
365.111	375.39
365.493	365.89
365.874	398.21
366.256	380.81
366.637	364.31
367.019	376.06
367.4	373.13
367.781	383.3
368.163	380.13
368.544	388.27
368.925	370.41
369.306	399.57
369.688	378.55
370.069	374.03
370.45	372
370.831	386.68
371.212	362.28
371.593	359.79
371.974	391.2
372.355	386.91
372.736	390.07
373.117	414.25
373.498	400.47
373.879	387.14
374.26	393.24
374.641	399.34
375.021	400.92
375.402	403.41
375.783	411.09
376.163	422.39
376.544	417.87
376.925	426.23
377.305	419.9
377.686	435.95
378.066	436.63
378.447	435.5
378.827	411.54
379.208	431.88
379.588	440.02
379.968	426.46
380.349	448.15
380.729	442.5
381.109	453.58
381.489	445.89
381.87	452.22
382.25	467.36
382.63	469.62
383.01	467.36
383.39	473.24
383.77	487.25
384.15	471.2
384.53	480.02
384.91	491.54
385.29	488.15
385.67	492.22
386.049	508.26
386.429	519.11
386.809	527.02
387.189	509.62
387.568	517.53
387.948	533.12
388.328	531.77
388.707	524.99
389.087	547.36
389.466	535.38
389.846	555.27
390.225	549.62
390.605	554.14
390.984	563.63
391.363	582.61
391.743	567.92
392.122	599.11
392.501	616.96
392.881	602.72
393.26	614.7
393.639	625.1
394.018	622.61
394.397	624.42
394.776	640.01
395.155	655.6
395.534	643.4
395.913	659.45
396.292	658.09
396.671	659.22
397.05	689.28
397.429	689.73
397.808	689.95
398.186	690.41
398.565	718.88
398.944	700.57
399.323	727.69
399.701	725.66
400.08	745.32
400.458	753.45
400.837	760.46
401.215	761.82
401.594	763.85
401.972	793
402.351	786.67
402.729	768.37
403.107	811.98
403.486	815.6
403.864	826
404.242	821.93
404.62	847.01
404.999	836.39
405.377	872.1
405.755	889.72
406.133	883.85
406.511	890.4
406.889	916.16
407.267	920.23
407.645	951.42
408.023	954.81
408.401	985.54
408.779	972.88
409.156	994.13
409.534	986.22
409.912	1016.72
410.29	1025.76
410.667	1014.01
411.045	1042.03
411.422	1083.16
411.8	1090.4
412.178	1102.37
412.555	1098.53
412.933	1122.26
413.31	1111.19
413.687	1159.55
414.065	1163.84
414.442	1166.33
414.819	1195.03
415.197	1209.04
415.574	1224.4
415.951	1238.64
416.328	1228.47
416.705	1252.42
417.082	1268.24
417.46	1302.82
417.837	1289.49
418.214	1293.33
418.591	1299.66
418.967	1317.51
419.344	1367.9
419.721	1346.21
420.098	1362.93
420.475	1376.26
420.852	1413.1
421.228	1410.16
421.605	1440.44
421.982	1456.49
422.358	1446.09
422.735	1465.98
423.111	1478.86
423.488	1526.99
423.864	1540.33
424.241	1574.68
424.617	1574.45
424.994	1551.85
425.37	1567.44
425.746	1590.95
426.123	1585.75
426.499	1614.9
426.875	1670.72
427.251	1671.62
427.627	1690.15
428.003	1713.66
428.379	1762.69
428.756	1768.12
429.132	1780.09
429.507	1799.3
429.883	1824.39
430.259	1850.15
430.635	1882.46
431.011	1902.8
431.387	1958.39
431.763	1976.25
432.138	1988.68
432.514	2050.82
432.89	2015.57
433.265	2072.29
433.641	2089.24
434.016	2093.08
434.392	2138.5
434.767	2184.15
435.143	2215.11
435.518	2216.24
435.894	2250.36
436.269	2277.26
436.644	2284.71
437.02	2326.75
437.395	2331.49
437.77	2382.11
438.145	2436.57
438.52	2412.39
438.895	2448.55
439.271	2441.55
439.646	2505.73
440.021	2543.24
440.395	2552.05
440.77	2553.18
441.145	2559.28
441.52	2619.39
441.895	2612.61
442.27	2626.85
442.645	2664.36
443.019	2698.94
443.394	2679.51
443.769	2736.45
444.143	2724.02
444.518	2779.16
444.892	2720.41
445.267	2774.87
445.641	2838.15
446.016	2834.76
446.39	2850.35
446.764	2874.3
447.139	2880.63
447.513	2948.43
447.887	2919.73
448.262	2931.93
448.636	2938.26
449.01	3005.37
449.384	3030.46
449.758	3046.95
450.132	3128.08
450.506	3049.89
450.88	3124.47
451.254	3156.78
451.628	3179.15
452.002	3249.21
452.376	3220.28
452.75	3310.22
453.123	3269.55
453.497	3377.57
453.871	3445.36
454.244	3483.55
454.618	3464.12
454.992	3522.87
455.365	3523.1
455.739	3655.75
456.112	3675.41
456.486	3665.47
456.859	3720.16
457.232	3776.2
457.606	3803.54
457.979	3843.99
458.352	3931.22
458.725	3990.66
459.099	3987.27
459.472	4112.91
459.845	4132.57
460.218	4139.35
460.591	4201.05
460.964	4224.78
461.337	4345.45
461.71	4382.96
462.083	4454.83
462.456	4419.35
462.829	4485.79
463.201	4572.56
463.574	4608.72
463.947	4675.84
464.32	4805.33
464.692	4813.69
465.065	4857.75
465.438	4937.07
465.81	4976.17
466.183	5043.29
466.555	5104.75
466.928	5167.12
467.3	5186.56
467.672	5253.9
468.045	5389.94
468.417	5413.22
468.789	5461.35
469.161	5525.53
469.534	5651.18
469.906	5735.47
470.278	5770.05
470.65	5819.54
471.022	5991.28
471.394	6127.32
471.766	6099.53
472.138	6187.89
472.51	6322.35
472.882	6472.17
473.253	6526.86
473.625	6610.48
473.997	6735.67
474.369	6812.5
474.74	6876.01
475.112	6998.71
475.484	7150.35
475.855	7232.61
476.227	7285.03
476.598	7438.48
476.97	7548.98
477.341	7762.76
477.713	7938.8
478.084	7998.01
478.455	8135.63
478.827	8256.99
479.198	8475.51
479.569	8516.87
479.94	8731.55
480.311	8770.65
480.682	9011.32
481.053	9277.52
481.424	9402.94
481.795	9430.29
482.166	9587.35
482.537	9682.26
482.908	9980.78
483.279	10014.91
483.65	10221.68
484.021	10462.35
484.391	10595
484.762	10662.35
485.133	10810.37
485.503	10968.1
485.874	11175.1
486.244	11287.42
486.615	11521.31
486.985	11658.25
487.356	11833.84
487.726	11940.96
488.097	12175.75
488.467	12300.04
488.837	12514.28
489.207	12686.47
489.578	12848.73
489.948	12972.12
490.318	13126.01
490.688	13158.33
491.058	13524.42
491.428	13528.94
491.798	13676.96
492.168	13971.64
492.538	14109.04
492.908	14267.9
493.278	14381.35
493.648	14439.42
494.017	14607.1
494.387	14804.16
494.757	14947.66
495.126	15077.37
495.496	15131.61
495.866	15320.3
496.235	15449.79
496.605	15647.07
496.974	15785.38
497.344	15924.36
497.713	15918.48
498.082	16092.49
498.452	16353.95
498.821	16385.81
499.19	16512.36
499.559	16657.67
499.928	16788.29
500.298	16929.75
500.667	17028.73
501.036	17114.61
501.405	17373.13
501.774	17295.17
502.143	17544.43
502.512	17602.73
502.88	17686.79
503.249	17807.47
503.618	17860.8
503.987	18023.51
504.356	18184.18
504.724	18315.48
505.093	18447.68
505.462	18468.92
505.83	18658.52
506.199	18802.25
506.567	19018.74
506.936	19061.45
507.304	19272.52
507.672	19332.18
508.041	19464.38
508.409	19650.13
508.777	19857.81
509.145	20019.61
509.514	19912.05
509.882	20204.69
510.25	20359.49
510.618	20489.66
510.986	20546.83
511.354	20803.32
511.722	20962.87
512.09	21086.25
512.458	21084.22
512.826	21388.17
513.193	21477.43
513.561	21629.97
513.929	21844.65
514.297	22120.58
514.664	22175.26
515.032	22246.22
515.4	22448.7
515.767	22643.5
516.135	22783.16
516.502	22722.14
516.869	23206.88
517.237	23291.62
517.604	23334.1
517.972	23604.38
518.339	23756.92
518.706	23905.16
519.073	24067.42
519.44	24184.03
519.808	24567.74
520.175	24451.36
520.542	24833.73
520.909	25048.64
521.276	25051.57
521.643	25282.53
522.009	25490.66
522.376	25667.83
522.743	25905.34
523.11	26153.46
523.477	26404.98
523.843	26491.31
524.21	26882.26
524.577	27030.05
524.943	27289.25
525.31	27338.29
525.676	27760.88
526.043	27824.38
526.409	28004.26
526.776	28308.44
527.142	28357.25
527.508	28614.19
527.874	28831.13
528.241	28917.23
528.607	29061.41
528.973	29293.04
529.339	29263.67
529.705	29566.48
530.071	29880.15
530.437	30015.96
530.803	30170.76
531.169	30272.68
531.535	30398.55
531.901	30623.86
532.267	30698.43
532.632	30958.99
532.998	31051.42
533.364	31269.49
533.73	31370.73
534.095	31534.34
534.461	31776.82
534.826	31861.79
535.192	32055.46
535.557	32313.3
535.923	32314.66
536.288	32393.98
536.653	32606.18
537.019	32489.8
537.384	32756.68
537.749	32990.35
538.114	33065.6
538.479	33107.41
538.845	33351.24
539.21	33416.1
539.575	33510.11
539.94	33615.87
540.305	33816.77
540.67	33808.18
541.034	34043.2
541.399	34065.12
541.764	34109.19
542.129	34340.82
542.494	34557.76
542.858	34466.47
543.223	34627.14
543.587	34919.56
543.952	34818.32
544.316	34970.18
544.681	34957.53
545.045	35239.33
545.41	35367.23
545.774	35469.15
546.138	35634.12
546.503	35663.5
546.867	35746.43
547.231	36056.03
547.595	36137.61
547.959	36245.85
548.324	36348
548.688	36337.15
549.052	36555.9
549.416	36669.8
549.779	36731.04
550.143	36703.7
550.507	37105.72
550.871	37201.76
551.235	37292.16
551.599	37498.25
551.962	37541.64
552.326	37606.5
552.689	37857.34
553.053	37739.15
553.417	37815.53
553.78	38363.09
554.143	38294.16
554.507	38427.04
554.87	38597.43
555.234	38907.48
555.597	38881.04
555.96	38973.69
556.323	39244.87
556.686	39260.46
557.05	39668.82
557.413	39641.7
557.776	39829.04
558.139	39866.32
558.502	40209.14
558.865	40364.16
559.228	40624.72
559.59	40703.59
559.953	40713.31
560.316	41403.69
560.679	41325.95
561.041	41506.96
561.404	41667.63
561.767	41994.63
562.129	41972.94
562.492	42275.75
562.854	42261.52
563.217	42511.23
563.579	42676.87
563.941	42887.49
564.304	43202.96
564.666	43390.53
565.028	43568.37
565.39	43739.22
565.753	43846.78
566.115	44160.9
566.477	44239.32
566.839	44363.38
567.201	44669.36
567.563	44867.32
567.925	45122.46
568.287	45148.22
568.648	45312.51
569.01	45581.88
569.372	45835.43
569.734	45635.44
570.095	46125.14
570.457	46265.03
570.819	46417.79
571.18	46347.06
571.542	46697.56
571.903	46721.29
572.265	46987.72
572.626	47028.62
572.987	47197.88
573.349	47243.98
573.71	47476.29
574.071	47553.81
574.432	47640.81
574.794	48031.08
575.155	48037.86
575.516	47956.73
575.877	48099.55
576.238	48231.53
576.599	48380.45
576.96	48384.74
577.32	48501.35
577.681	48627
578.042	48641.24
578.403	48749.93
578.763	48807.11
579.124	48990.15
579.485	49136.59
579.845	49225.85
580.206	49174.33
580.566	49233.54
580.927	49346.98
581.287	49561.89
581.648	49379.07
582.008	49599.63
582.368	49474.21
582.728	49616.35
583.089	49498.61
583.449	49640.53
583.809	49563.02
584.169	49763.24
584.529	49726.63
584.889	49931.6
585.249	49800.98
585.609	49742
585.969	49999.62
586.329	49805.5
586.688	49884.37
587.048	49795.1
587.408	49829.23
587.768	49841.88
588.127	49692.73
588.487	49833.75
588.846	50055.89
589.206	49817.48
589.565	49788.32
589.925	50101.54
590.284	49940.18
590.643	49976.79
591.003	50129.33
591.362	50204.58
591.721	50027.87
592.08	50065.15
592.44	50318.25
592.799	50296.11
593.158	50176.79
593.517	50164.81
593.876	50198.03
594.235	50117.81
594.593	50253.85
594.952	50372.49
595.311	50211.14
595.67	50390.79
596.029	50499.49
596.387	50447.74
596.746	50601.18
597.104	50385.37
597.463	50353.05
597.822	50497.01
598.18	50395.99
598.538	50424.24
598.897	50556.44
599.255	50323.45
599.613	50853.61
599.972	50648.87
600.33	50687.96
600.688	50590.79
601.046	50788.98
601.404	50864.68
601.762	50751.91
602.12	50979.48
602.478	51081.4
602.836	51023.55
603.194	50862.87
603.552	50821.97
603.91	50818.81
604.268	51009.76
604.625	50981.74
604.983	51050.89
605.341	50842.53
605.698	51143.54
606.056	51151.23
606.413	51071.68
606.771	51133.6
607.128	51255.63
607.485	50974.28
607.843	51020.61
608.2	51298.11
608.557	51463.53
608.914	51287.49
609.272	51565.9
609.629	51438.68
609.986	51637.54
610.343	51405.23
610.7	51603.42
611.057	51469.64
611.414	51543.31
611.771	51660.36
612.127	51727.71
612.484	51510.54
612.841	51688.16
613.198	51655.39
613.554	51669.4
613.911	51801.38
614.267	51889.06
614.624	51748.95
614.98	51791.43
615.337	51904.65
615.693	51905.78
616.05	51885.9
616.406	52044.76
616.762	51958.89
617.118	51805.67
617.475	52048.6
617.831	52006.34
618.187	52101.71
618.543	52018.55
618.899	52257.19
619.255	52210.18
619.611	52242.5
619.967	52273.23
620.323	52367.01
620.678	52161.37
621.034	52186.45
621.39	52226.9
621.746	52224.64
622.101	52527.69
622.457	52257.41
622.812	52391.65
623.168	52445.2
623.523	52354.13
623.879	52590.06
624.234	52178.77
624.589	52457.41
624.945	52383.28
625.3	52355.26
625.655	52253.34
626.01	52366.33
626.365	52330.86
626.72	52297.18
627.075	52360.01
627.43	52286.56
627.785	52254.47
628.14	52352.78
628.495	52449.27
628.85	52264.64
629.205	52204.08
629.559	52466.67
629.914	52209.05
630.269	52324.08
630.623	52213.34
630.978	52175.38
631.332	52297.64
631.687	52273.23
632.041	52079.11
632.396	52219.67
632.75	52068.26
633.104	52208.37
633.459	51953.92
633.813	51939.45
634.167	51964.09
634.521	51870.98
634.875	51962.73
635.229	51968.61
635.583	51753.7
635.937	51762.51
636.291	51698.78
636.645	51729.74
636.999	51565.9
637.352	51711.21
637.706	51560.03
638.06	51607.26
638.413	51585.56
638.767	51470.77
639.121	51538.11
639.474	51323.88
639.828	51368.4
640.181	51419.69
640.534	51303.54
640.888	51088.63
641.241	51068.29
641.594	51114.84
641.947	51197.78
642.301	51010.21
642.654	51162.52
643.007	50993.26
643.36	51089.76
643.713	50884.34
644.066	51076.43
644.419	50807.05
644.771	50644.35
645.124	50252.27
645.477	50218.82
645.83	50037.58
646.182	49984.48
646.535	49736.57
646.888	49810.47
647.24	49642.79
647.593	49744.71
647.945	49647.31
648.298	49495.45
648.65	49378.39
649.002	49340.2
649.355	49313.99
649.707	49364.15
650.059	49436.47
650.411	49914.65
650.763	49861.77
651.115	50219.95
651.467	50065.15
651.819	50103.8
652.171	49956.23
652.523	49921.2
652.875	50054.31
653.227	49817.93
653.578	50058.83
653.93	49985.61
654.282	49822.67
654.633	49666.52
654.985	49748.1
655.337	49769.34
655.688	49746.74
656.039	49867.42
656.391	49666.52
656.742	49546.3
657.094	49514.21
657.445	49624.94
657.796	49631.04
658.147	49489.57
658.498	49321.44
658.849	49449.12
659.2	49380.2
659.551	49219.98
659.902	49342.46
660.253	49152.18
660.604	49366.41
660.955	49055.24
661.306	49255.68
661.656	49204.38
662.007	49286.87
662.358	49302.46
662.708	49116.02
663.059	49109.92
663.409	48904.96
663.76	49191.28
664.11	49176.59
664.461	49247.09
664.811	49063.6
665.161	49083.71
665.511	48985.41
665.862	49114.22
666.212	49109.7
666.562	48970.94
666.912	49080.55
667.262	48897.27
667.612	48807.11
667.962	48807.78
668.312	48881.68
668.662	49080.32
669.011	48825.64
669.361	48831.74
669.711	48859.76
670.06	48720.1
670.41	48638.75
670.76	48638.75
671.109	48772.53
671.459	48659.09
671.808	48606.66
672.157	48596.49
672.507	48499.09
672.856	48470.17
673.205	48544.51
673.554	48641.24
673.904	48413.67
674.253	48491.63
674.602	48468.81
674.951	47993.12
675.3	47786.79
675.649	48335.93
675.998	48366.21
676.346	48192.66
676.695	48273.56
677.044	47919.22
677.393	48104.3
677.741	48164.19
678.09	48000.35
678.438	47901.37
678.787	47918.99
679.135	47945.21
679.484	47707.93
679.832	47684.65
680.181	47642.39
680.529	47759.45
680.877	47636.97
681.225	47502.96
681.573	47724.65
681.922	47423.19
682.27	47424.77
682.618	47274.72
682.966	47324.43
683.314	47306.58
683.661	47154.49
684.009	46921.05
684.357	46775.07
684.705	46834.28
685.053	46864.78
685.4	46789.08
685.748	46546.6
686.095	46451.01
686.443	46364.91
686.79	46289.21
687.138	46457.34
687.485	46363.55
687.832	46226.38
688.18	46116.56
688.527	46009.21
688.874	45974.41
689.221	45930.35
689.568	45928.54
689.915	45619.39
690.262	45595.67
690.609	45484.93
690.956	45270.25
691.303	45353.19
691.65	45226.86
691.997	45205.39
692.344	44850.37
692.69	44884.72
693.037	44926.53
693.383	44692.64
693.73	44508.24
694.077	44463.94
694.423	44375.36
694.769	44269.82
695.116	44143.73
695.462	44099.43
695.808	43832.77
696.155	44050.17
696.501	43607.02
696.847	43573.8
697.193	43501.71
697.539	43595.72
697.885	43298.78
698.231	43150.98
698.577	43203.41
698.923	43082.74
699.269	42942.85
699.614	42742.41
699.96	42706.25
700.306	42738.57
700.651	42458.35
700.997	42247.73
701.342	42306.49
701.688	42148.52
702.033	42064.23
702.379	42103.78
702.724	41746.73
703.069	41780.17
703.415	41431.03
703.76	41304.93
704.105	41410.01
704.45	41348.32
704.795	41039.4
705.14	41013.87
705.485	40916.01
705.83	40819.07
706.175	40814.1
706.52	40642.35
706.865	40535.01
707.209	40445.29
707.554	40297.95
707.899	40509.47
708.243	40212.3
708.588	40114.68
708.932	39717.18
709.277	39798.76
709.621	39921.46
709.966	39447.58
710.31	39578.87
710.654	39301.59
710.998	39393.34
711.342	39274.48
711.687	39051.43
712.031	38904.99
712.375	38974.37
712.719	39027.25
713.063	38763.3
713.407	39048.95
713.75	38699.35
714.094	38752
714.438	38549.07
714.782	38521.73
715.125	38400.6
715.469	38437.44
715.812	38290.55
716.156	38102.53
716.499	38121.74
716.843	38256.88
717.186	37851.24
717.53	38076.77
717.873	37977.33
718.216	37786.15
718.559	37680.62
718.902	37485.14
719.246	37609.89
719.589	37279.5
719.932	37188.88
720.275	37245.15
720.617	37151.59
720.96	37169.9
721.303	37055.78
721.646	36985.95
721.989	36892.84
722.331	36957.02
722.674	36783.24
723.016	36881.09
723.359	36673.87
723.701	36781.89
724.044	36489.46
724.386	36462.8
724.729	36586.86
725.071	36404.95
725.413	36450.6
725.755	36407.88
726.097	36345.29
726.439	36138.97
726.782	36124.5
727.124	36227.32
727.465	36078.18
727.807	36033.66
728.149	35959.08
728.491	35825.3
728.833	35956.82
729.175	35682.25
729.516	35546.89
729.858	35512.77
730.199	35642.03
730.541	35427.12
730.882	35382.15
731.224	35634.57
731.565	35215.83
731.906	35213.79
732.248	35160.23
732.589	34979.67
732.93	34944.87
733.271	34895.16
733.612	34884.31
733.953	34876.85
734.294	34697.2
734.635	34522.74
734.976	34604.77
735.317	34432.8
735.658	34512.12
735.999	34404.55
736.339	34209.07
736.68	34478.67
737.021	34379.92
737.361	34168.17
737.702	34290.88
738.042	34130.88
738.383	33986.71
738.723	34112.58
739.063	34160.49
739.404	33950.77
739.744	33789.87
740.084	33642.53
740.424	33670.33
740.764	33604.12
741.104	33649.99
741.444	33430.56
741.784	33352.6
742.124	33431.69
742.464	33330
742.804	33159.61
743.143	33216.33
743.483	33330.45
743.823	32996
744.162	33018.6
744.502	33105.15
744.841	32881.42
745.181	33092.49
745.52	32889.33
745.86	32956.45
746.199	32707.87
746.538	32637.81
746.877	32725.95
747.216	32692.28
747.556	32493.86
747.895	32447.08
748.234	32309.91
748.573	32214.32
748.911	32256.81
749.25	32219.75
749.589	32021.56
749.928	32113.53
750.267	32010.26
750.605	31874.44
750.944	31953.76
751.283	31691.62
751.621	31726.2
751.96	31600.1
752.298	31523.27
752.636	31525.53
