Data from aluminium_surface_pro_back_FLMS001491_00043.txt Node
Date: Wed Feb 08 15:34:06 GMT 2017
User: dcchb
Spectrometer: FLMS00149
Trigger mode: 0
Integration Time (sec): 2.000000E-2
Scans to average: 10
Electric dark correction enabled: true
Nonlinearity correction enabled: false
Boxcar width: 0
XAxis mode: Wavelengths
Number of Pixels in Spectrum: 2048
>>>>>Begin Spectral Data<<<<<
341.393	-7.42
341.776	-7.42
342.16	-7.42
342.543	-60.97
342.927	-76.79
343.31	-81.31
343.693	-82.22
344.077	-53.74
344.46	-59.39
344.843	-69.79
345.226	-37.02
345.61	-27.3
345.993	5.92
346.376	-3.57
346.759	9.08
347.142	34.39
347.525	32.36
347.908	49.98
348.291	79.59
348.674	91.79
349.057	111.23
349.44	129.08
349.823	127.72
350.206	167.5
350.588	197.78
350.971	238.91
351.354	224.9
351.737	243.65
352.119	277.1
352.502	264.44
352.884	312.12
353.267	311.22
353.65	325.46
354.032	328.17
354.414	336.53
354.797	332.69
355.179	356.42
355.562	352.58
355.944	337.89
356.326	373.14
356.709	376.08
357.091	363.65
357.473	389.41
357.855	350.09
358.238	388.96
358.62	376.76
359.002	362.07
359.384	373.37
359.766	368.85
360.148	371.78
360.53	390.77
360.912	384.89
361.294	382.18
361.676	357.32
362.057	375.17
362.439	373.59
362.821	350.77
363.203	374.27
363.584	375.4
363.966	389.41
364.348	373.59
364.729	359.81
365.111	373.37
365.493	374.27
365.874	360.71
366.256	359.58
366.637	362.52
367.019	364.78
367.4	368.62
367.781	360.03
368.163	379.47
368.544	371.78
368.925	360.94
369.306	398
369.688	361.61
370.069	356.19
370.45	366.81
370.831	358.9
371.212	374.95
371.593	355.29
371.974	353.48
372.355	381.28
372.736	387.6
373.117	383.99
373.498	379.47
373.879	380.37
374.26	390.99
374.641	385.79
375.021	382.41
375.402	388.28
375.783	416.75
376.163	431.44
376.544	416.98
376.925	408.62
377.305	423.99
377.686	409.52
378.066	406.13
378.447	429.18
378.827	412.23
379.208	420.82
379.588	420.14
379.968	427.38
380.349	434.83
380.729	446.13
381.109	428.73
381.489	440.48
381.87	437.54
382.25	422.63
382.63	451.33
383.01	468.73
383.39	461.27
383.77	452.46
384.15	473.48
384.53	476.19
384.91	447.71
385.29	477.32
385.67	485.23
386.049	489.3
386.429	495.17
386.809	479.35
387.189	499.01
387.568	490.2
387.948	510.31
388.328	515.96
388.707	500.37
389.087	535.85
389.466	528.39
389.846	545.34
390.225	536.98
390.605	562.97
390.984	547.37
391.363	563.64
391.743	571.1
392.122	563.42
392.501	585.11
392.881	588.95
393.26	586.92
393.639	597.77
394.018	591.21
394.397	634.6
394.776	586.47
395.155	596.18
395.534	600.93
395.913	630.08
396.292	639.35
396.671	629.86
397.05	649.74
397.429	670.99
397.808	654.26
398.186	647.03
398.565	686.8
398.944	661.04
399.323	686.8
399.701	677.54
400.08	714.15
400.458	728.84
400.837	714.37
401.215	755.5
401.594	711.44
401.972	737.65
402.351	765.67
402.729	745.11
403.107	770.64
403.486	781.49
403.864	755.5
404.242	824.2
404.62	798.89
404.999	797.76
405.377	825.56
405.755	823.07
406.133	816.29
406.511	838.44
406.889	858.78
407.267	861.94
407.645	911.2
408.023	899.68
408.401	910.98
408.779	916.63
409.156	913.69
409.534	933.58
409.912	967.93
410.29	947.14
410.667	964.76
411.045	986.91
411.422	1002.05
411.8	1001.15
412.178	1014.25
412.555	1006.8
412.933	1049.28
413.31	1065.55
413.687	1096.96
414.065	1086.34
414.442	1086.12
414.819	1128.83
415.197	1099.22
415.574	1143.52
415.951	1147.13
416.328	1160.01
416.705	1162.72
417.082	1175.6
417.46	1199.56
417.837	1245.21
418.214	1236.39
418.591	1218.99
418.967	1242.5
419.344	1229.84
419.721	1246.79
420.098	1262.61
420.475	1279.33
420.852	1293.34
421.228	1322.27
421.605	1336.73
421.982	1324.53
422.358	1342.83
422.735	1357.52
423.111	1417.63
423.488	1437.07
423.864	1419.21
424.241	1422.15
424.617	1432.55
424.994	1471.42
425.37	1479.78
425.746	1458.76
426.123	1493.56
426.499	1513
426.875	1540.34
427.251	1581.47
427.627	1571.3
428.003	1593.9
428.379	1602.49
428.756	1616.95
429.132	1675.03
429.507	1683.61
429.883	1689.49
430.259	1721.58
430.635	1771.07
431.011	1771.75
431.387	1817.85
431.763	1813.1
432.138	1835.25
432.514	1865.76
432.89	1887
433.265	1926.09
433.641	1940.1
434.016	1961.12
434.392	1977.84
434.767	2051.29
435.143	2030.05
435.518	2034.57
435.894	2099.42
436.269	2114.56
436.644	2143.49
437.02	2128.35
437.395	2163.83
437.77	2213.09
438.145	2242.92
438.52	2270.72
438.895	2286.76
439.271	2307.33
439.646	2347.1
440.021	2353.88
440.395	2391.17
440.77	2338.06
441.145	2392.97
441.52	2424.84
441.895	2456.7
442.27	2463.25
442.645	2449.47
443.019	2503.03
443.394	2506.87
443.769	2544.38
444.143	2518.17
444.518	2572.63
444.892	2596.13
445.267	2584.83
445.641	2619.63
446.016	2606.98
446.39	2646.53
446.764	2668.22
447.139	2706.41
447.513	2715.68
447.887	2775.56
448.262	2758.16
448.636	2774.43
449.01	2795.45
449.384	2839.97
449.758	2854.88
450.132	2901.89
450.506	2914.54
450.88	2901.89
451.254	2919.06
451.628	2973.75
452.002	3041.32
452.376	3058.27
452.75	3075.89
453.123	3103.92
453.497	3168.55
453.871	3163.35
454.244	3208.09
454.618	3233.18
454.992	3302.78
455.365	3308.88
455.739	3414.19
456.112	3414.42
456.486	3454.64
456.859	3516.79
457.232	3560.63
457.606	3558.37
457.979	3601.3
458.352	3707.74
458.725	3749.1
459.099	3778.93
459.472	3848.53
459.845	3868.87
460.218	3931.92
460.591	3933.05
460.964	3946.61
461.337	4076.09
461.71	4101.18
462.083	4134.85
462.456	4179.14
462.829	4215.98
463.201	4264.56
463.574	4277.44
463.947	4342.75
464.32	4483.99
464.692	4497.78
465.065	4531.45
465.438	4609.41
465.81	4634.27
466.183	4746.13
466.555	4821.38
466.928	4828.39
467.3	4881.72
467.672	4927.6
468.045	5050.76
468.417	5061.83
468.789	5134.37
469.161	5208.94
469.534	5290.3
469.906	5416.4
470.278	5426.11
470.65	5482.38
471.022	5611.19
471.394	5702.04
471.766	5775.48
472.138	5864.52
472.51	5986.1
472.882	6058.87
473.253	6118.53
473.625	6192.2
473.997	6360.1
474.369	6421.57
474.74	6456.82
475.112	6546.99
475.484	6676.93
475.855	6780.88
476.227	6864.49
476.598	7110.59
476.97	7075.79
477.341	7237.37
477.713	7370.47
478.084	7383.35
478.455	7680.07
478.827	7686.17
479.198	7972.71
479.569	7914.64
479.94	8153.27
480.311	8189.43
480.682	8391.46
481.053	8586.03
481.424	8768.17
481.795	8814.27
482.166	9036.87
482.537	9096.53
482.908	9261.95
483.279	9387.14
483.65	9534.25
484.021	9753.01
484.391	9891.08
484.762	10031.19
485.133	10116.61
485.503	10284.52
485.874	10463.04
486.244	10505.3
486.615	10796.82
486.985	10816.26
487.356	11007.21
487.726	11210.6
488.097	11457.59
488.467	11449.91
488.837	11724.03
489.207	11814.2
489.578	12037.47
489.948	12142.77
490.318	12226.39
490.688	12401.3
491.058	12509.77
491.428	12772.59
491.798	12934.17
492.168	13157.44
492.538	13163.09
492.908	13305.23
493.278	13560.59
493.648	13549.29
494.017	13753.13
494.387	13940.92
494.757	14069.95
495.126	14202.83
495.496	14249.84
495.866	14334.81
496.235	14554.69
496.605	14624.52
496.974	14799.65
497.344	14862.93
497.713	15072.19
498.082	15106.31
498.452	15247.1
498.821	15375.46
499.19	15400.32
499.559	15571.84
499.928	15599.63
500.298	15798.95
500.667	15929.12
501.036	15923.24
501.405	16200.75
501.774	16135.44
502.143	16256.34
502.512	16332.49
502.88	16570.45
503.249	16657.23
503.618	16819.26
503.987	16790.11
504.356	16993.72
504.724	17130.44
505.093	17159.14
505.462	17360.04
505.83	17409.98
506.199	17568.62
506.567	17751.89
506.936	17821.95
507.304	18049.06
507.672	18096.52
508.041	18158.66
508.409	18409.05
508.777	18527.69
509.145	18592.55
509.514	18724.52
509.882	18866.21
510.25	18891.3
510.618	19073.21
510.986	19206.09
511.354	19336.03
511.722	19495.57
512.09	19757.26
512.458	19715.91
512.826	19903.93
513.193	20024.15
513.561	20147.54
513.929	20380.3
514.297	20451.48
514.664	20649.89
515.032	20700.29
515.4	20871.36
515.767	21074.52
516.135	21129.88
516.502	21241.29
516.869	21508.18
517.237	21681.73
517.604	21640.6
517.972	21925.34
518.339	22067.26
518.706	22212.57
519.073	22329.4
519.44	22507.47
519.808	22729.16
520.175	22874.7
520.542	23115.59
520.909	23214.57
521.276	23240.34
521.643	23539.76
522.009	23785.63
522.376	23942.69
522.743	24026.3
523.11	24388.1
523.477	24628.1
523.843	24727.75
524.21	24981.31
524.577	25229.89
524.943	25330.22
525.31	25512.59
525.676	25690.89
526.043	25839.81
526.409	25983.99
526.776	26380.59
527.142	26538.55
527.508	26586.91
527.874	26762.28
528.241	27043.17
528.607	27022.83
528.973	27348.02
529.339	27404.07
529.705	27634.34
530.071	27940.78
530.437	28028.23
530.803	28225.97
531.169	28401.1
531.535	28356.13
531.901	28596.8
532.267	28844.71
532.632	29011.48
532.998	29045.61
533.364	29229.78
533.73	29371.02
534.095	29684.91
534.461	29743.44
534.826	29892.14
535.192	29985.69
535.557	30297.55
535.923	30183.43
536.288	30266.59
536.653	30570.31
537.019	30518.11
537.384	30725.79
537.749	30834.49
538.114	30921.94
538.479	31009.4
538.845	31107.47
539.21	31143.4
539.575	31326.45
539.94	31420.46
540.305	31632.88
540.67	31503.85
541.034	31682.37
541.399	31790.39
541.764	31971.41
542.129	32077.17
542.494	32191.96
542.858	32211.62
543.223	32352.86
543.587	32477.83
543.952	32448.23
544.316	32504.72
544.681	32593.76
545.045	32686.87
545.41	32900.42
545.774	33108.1
546.138	33147.42
546.503	33173.18
546.867	33203.69
547.231	33630.8
547.595	33564.13
547.959	33694.75
548.324	33796.22
548.688	33867.85
549.052	34129.99
549.416	34109.2
549.779	34311.23
550.143	34475.75
550.507	34641.62
550.871	34836.87
551.235	34845.68
551.599	35015.39
551.962	35256.29
552.326	35170.64
552.689	35335.84
553.053	35338.77
553.417	35361.6
553.78	35920
554.143	35830.06
554.507	35966.33
554.87	36122.26
555.234	36530.38
555.597	36356.15
555.96	36540.32
556.323	36730.38
556.686	36779.64
557.05	37098.28
557.413	37091.27
557.776	37330.13
558.139	37546.17
558.502	37543.91
558.865	37708.88
559.228	38060.28
559.59	38049.21
559.953	38213.73
560.316	38455.08
560.679	38600.16
561.041	38819.59
561.404	39029.75
561.767	39283.76
562.129	39093.7
562.492	39586.35
562.854	39493.47
563.217	39608.27
563.579	39808.04
563.941	40023.4
564.304	40179.55
564.666	40539.54
565.028	40528.02
565.39	40789.25
565.753	40991.51
566.115	41188.56
566.477	41317.15
566.839	41497.71
567.201	41765.95
567.563	41868.77
567.925	42106.05
568.287	42171.36
568.648	42196
569.01	42603.89
569.372	42839.37
569.734	42707.39
570.095	43115.52
570.457	43153.48
570.819	43351.67
571.18	43340.15
571.542	43600.48
571.903	43701.27
572.265	43942.39
572.626	44146.9
572.987	44153.68
573.349	44390.29
573.71	44505.54
574.071	44438.87
574.432	44654.69
574.794	45020.33
575.155	44907.56
575.516	44867.79
575.877	45174.45
576.238	45185.75
576.599	45310.94
576.96	45368.57
577.32	45523.82
577.681	45763.58
578.042	45834.77
578.403	45959.96
578.763	45977.82
579.124	46230.69
579.485	46326.96
579.845	46290.12
580.206	46350.24
580.566	46444.47
580.927	46541.19
581.287	46705.71
581.648	46611.92
582.008	46733.28
582.368	46650.57
582.728	46779.83
583.089	46767.17
583.449	46846.95
583.809	46878.81
584.169	46935.53
584.529	46877.68
584.889	47142.08
585.249	46943.89
585.609	46774.18
585.969	47121.29
586.329	46986.83
586.688	47154.96
587.048	47101.63
587.408	47085.36
587.768	47063.21
588.127	47079.71
588.487	47096.21
588.846	47273.6
589.206	47087.84
589.565	47265.47
589.925	47235.41
590.284	47128.29
590.643	47298.91
591.003	47443.31
591.362	47291.68
591.721	47331.68
592.08	47278.12
592.44	47342.98
592.799	47451.22
593.158	47379.81
593.517	47487.61
593.876	47497.1
594.235	47299.59
594.593	47438.57
594.952	47579.58
595.311	47462.3
595.67	47556.76
596.029	47710.2
596.387	47670.2
596.746	47924.43
597.104	47655.74
597.463	47623.87
597.822	47792.01
598.18	47810.54
598.538	47743.42
598.897	47994.71
599.255	47647.83
599.613	48208.72
599.972	47943.41
600.33	48119.68
600.688	47873.81
601.046	48033.13
601.404	48095.5
601.762	48231.77
602.12	48296.85
602.478	48288.26
602.836	48326.68
603.194	48160.13
603.552	48187.02
603.91	48038.1
604.268	48262.73
604.625	48201.03
604.983	48300.02
605.341	48333.46
605.698	48467.92
606.056	48380.01
606.413	48409.39
606.771	48678.76
607.128	48674.47
607.485	48415.72
607.843	48458.2
608.2	48598.99
608.557	48880.11
608.914	48787.23
609.272	48876.27
609.629	48937.96
609.986	49003.73
610.343	48829.27
610.7	49134.57
611.057	49047.11
611.414	49054.57
611.771	48986.55
612.127	49222.7
612.484	49142.71
612.841	49281.23
613.198	49046.66
613.554	49165.98
613.911	49348.35
614.267	49325.3
614.624	49240.1
614.98	49297.5
615.337	49585.63
615.693	49455.47
616.05	49420.21
616.406	49749.92
616.762	49500.21
617.118	49511.28
617.475	49584.73
617.831	49686.42
618.187	49766.87
618.543	49864.95
618.899	49855
619.255	49777.04
619.611	49791.95
619.967	49908.11
620.323	50053.87
620.678	49854.55
621.034	49858.84
621.39	49942.91
621.746	49784.27
622.101	50179.74
622.457	49883.93
622.812	50101.1
623.168	50140.19
623.523	50011.61
623.879	50153.07
624.234	49881.89
624.589	50073.75
624.945	50004.83
625.3	50095.22
625.655	49859.07
626.01	50021.1
626.365	50048.44
626.72	50000.08
627.075	50075.79
627.43	49856.13
627.785	49918.96
628.14	49942.91
628.495	50003.93
628.85	49900.65
629.205	49740.43
629.559	50027.43
629.914	49841.44
630.269	49915.34
630.623	49891.61
630.978	49789.24
631.332	49796.93
631.687	49903.36
632.041	49803.25
632.396	49760.32
632.75	49743.82
633.104	49685.06
633.459	49525.97
633.813	49619.98
634.167	49391.06
634.521	49441.91
634.875	49519.64
635.229	49394.22
635.583	49277.62
635.937	49281.46
636.291	49285.53
636.645	49228.8
636.999	49122.37
637.352	49277.84
637.706	49014.8
638.06	49161.24
638.413	48987.91
638.767	48885.76
639.121	48961.01
639.474	48746.78
639.828	48605.77
640.181	48774.35
640.534	48899.55
640.888	48629.95
641.241	48492.1
641.594	48586.79
641.947	48613.23
642.301	48551.53
642.654	48665.88
643.007	48629.27
643.36	48612.32
643.713	48374.36
644.066	48626.79
644.419	48330.97
644.771	48057.99
645.124	47705.91
645.477	47720.14
645.83	47429.3
646.182	47147.5
646.535	46938.7
646.888	47126.03
647.24	47012.82
647.593	47129.42
647.945	47027.05
648.298	46917.23
648.65	46674.75
649.002	46657.12
649.355	46867.96
649.707	46638.82
650.059	46860.05
650.411	47338.01
650.763	47223.89
651.115	47665.46
651.467	47420.72
651.819	47448.96
652.171	47356.31
652.523	47257.1
652.875	47310.21
653.227	47128.07
653.578	47338.91
653.93	47269.99
654.282	46916.77
654.633	46994.51
654.985	46950.67
655.337	47013.5
655.688	46901.86
656.039	46971.24
656.391	46624.35
656.742	46660.28
657.094	46771.69
657.445	46908.87
657.796	46761.75
658.147	46631.13
658.498	46514.75
658.849	46777.57
659.2	46557.91
659.551	46565.6
659.902	46642.88
660.253	46543
660.604	46566.05
660.955	46363.57
661.306	46588.65
661.656	46472.04
662.007	46372.83
662.358	46375.32
662.708	46358.37
663.059	46347.75
663.409	46117.25
663.76	46416.68
664.11	46280.41
664.461	46336.23
664.811	46211.03
665.161	46211.48
665.511	46117.02
665.862	46069.79
666.212	46256.45
666.562	46154.76
666.912	45978.95
667.262	46045.16
667.612	45995.22
667.962	46058.94
668.312	46041.32
668.662	46076.57
669.011	45938.72
669.361	45964.03
669.711	46008.1
670.06	45780.99
670.41	45770.36
670.76	45674.55
671.109	45770.59
671.459	45741.66
671.808	45651.27
672.157	45792.51
672.507	45479.52
672.856	45692.63
673.205	45598.84
673.554	45683.13
673.904	45657.37
674.253	45819.63
674.602	45706.86
674.951	45042.7
675.3	44911.86
675.649	45438.85
675.998	45377.61
676.346	45553.65
676.695	45469.58
677.044	45090.83
677.393	45242.02
677.741	45307.33
678.09	45248.8
678.438	45111.62
678.787	45308.68
679.135	45208.57
679.484	44900.78
679.832	45044.06
680.181	44945.75
680.529	44990.27
680.877	44851.52
681.225	44750.73
681.573	44890.61
681.922	44583.5
682.27	44509.83
682.618	44494.69
682.966	44472.77
683.314	44593.22
683.661	44290.86
684.009	44207.24
684.357	44190.52
684.705	44318.65
685.053	44123.4
685.4	44025.55
685.748	43804.77
686.095	43951.2
686.443	43736.75
686.79	43639.12
687.138	43741.49
687.485	43736.52
687.832	43501.05
688.18	43435.28
688.527	43324.55
688.874	43314.84
689.221	43204.1
689.568	43154.61
689.915	42862.64
690.262	42876.66
690.609	42855.86
690.956	42654.06
691.303	42705.36
691.65	42445.25
691.997	42445.48
692.344	42164.13
692.69	42090.46
693.037	42124.58
693.383	41772.5
693.73	41834.87
694.077	41731.37
694.423	41793.52
694.769	41443.02
695.116	41352.85
695.462	41271.05
695.808	41145.4
696.155	41306.3
696.501	40905.63
696.847	40930.72
697.193	40662.02
697.539	40922.58
697.885	40662.25
698.231	40509.26
698.577	40366.21
698.923	40397.17
699.269	40206.22
699.614	40041.25
699.96	39964.42
700.306	39896.39
700.651	39685.78
700.997	39516.97
701.342	39542.28
701.688	39499.12
702.033	39275.17
702.379	39180.48
702.724	39123.31
703.069	39163.76
703.415	38738.68
703.76	38888.06
704.105	38804.67
704.45	38733.94
704.795	38551.12
705.14	38465.25
705.485	38374.63
705.83	38237.23
706.175	38290.56
706.52	38266.38
706.865	37974.86
707.209	37891.02
707.554	37724.93
707.899	37975.32
708.243	37619.62
708.588	37557.47
708.932	37323.13
709.277	37326.07
709.621	37290.81
709.966	37134.66
710.31	37053.76
710.654	36885.63
710.998	36979.18
711.342	36825.97
711.687	36712.52
712.031	36579.65
712.375	36519.08
712.719	36574.9
713.063	36610.15
713.407	36601.79
713.75	36335.58
714.094	36267.34
714.438	36129.04
714.782	36115.7
715.125	36027.57
715.469	36025.76
715.812	35744.41
716.156	35666.22
716.499	35736.05
716.843	35621.03
717.186	35397.08
717.53	35609.95
717.873	35430.75
718.216	35389.62
718.559	35160.7
718.902	34884.55
719.246	34997.54
719.589	34983.98
719.932	34850.2
720.275	34757.32
720.617	34679.58
720.96	34773.82
721.303	34703.54
721.646	34676.87
721.989	34558.23
722.331	34452.7
722.674	34314.39
723.016	34304
723.359	34355.98
723.701	34263.32
724.044	34123.44
724.386	33915.08
724.729	34090.22
725.071	33958.02
725.413	33940.39
725.755	33809.55
726.097	33697.69
726.439	33649.1
726.782	33602.1
727.124	33676.45
727.465	33583.79
727.807	33575.88
728.149	33456.56
728.491	33488.43
728.833	33516
729.175	33276.46
729.516	33276
729.858	33241.2
730.199	33162.56
730.541	33136.57
730.882	32991.72
731.224	33065.39
731.565	32734.32
731.906	32708.11
732.248	32702.91
732.589	32555.57
732.93	32488.23
733.271	32589.02
733.612	32604.38
733.953	32561.67
734.294	32370.26
734.635	32373.88
734.976	32432.86
735.317	32215.24
735.658	32215.92
735.999	32131.63
736.339	32153.1
736.68	32193.77
737.021	32014.57
737.361	31809.38
737.702	31937.73
738.042	31833.1
738.383	31703.62
738.723	31871.75
739.063	31455.49
739.404	31747.68
739.744	31493
740.084	31459.78
740.424	31565.54
740.764	31245.32
741.104	31435.15
741.444	31199
741.784	31248.49
742.124	31282.38
742.464	31145.89
742.804	31040.13
743.143	30941.38
743.483	30915.61
743.823	30817.09
744.162	30823.64
744.502	30855.73
744.841	30535.51
745.181	30780.48
745.52	30664.32
745.86	30446.7
746.199	30481.95
746.538	30544.1
746.877	30568.96
747.216	30383.42
747.556	30352.01
747.895	30274.05
748.234	30164.67
748.573	30077.22
748.911	30136.65
749.25	30061.17
749.589	29951.8
749.928	29942.08
750.267	29979.82
750.605	29856.21
750.944	29813.27
751.283	29692.14
751.621	29720.16
751.96	29594.07
752.298	29608.76
752.636	29667.28
752.975	29399.72
753.313	29401.98
