Data from aluminium_macbook_case_FLMS001491_005.txt Node
Date: Tue Feb 07 10:43:06 GMT 2017
User: dcchb
Spectrometer: FLMS00149
Trigger mode: 0
Integration Time (sec): 2.000000E-2
Scans to average: 10
Electric dark correction enabled: true
Nonlinearity correction enabled: false
Boxcar width: 0
XAxis mode: Wavelengths
Number of Pixels in Spectrum: 2048
>>>>>Begin Spectral Data<<<<<
341.393	-1.74
341.776	-1.74
342.16	-1.74
342.543	-53.04
342.927	-72.92
343.31	-71.11
343.693	-63.88
344.077	-68.18
344.46	-51.45
344.843	-53.04
345.226	-39.48
345.61	-44.22
345.993	-41.51
346.376	-3.55
346.759	13.4
347.142	41.88
347.525	50.69
347.908	54.08
348.291	83.68
348.674	75.55
349.057	117.13
349.44	141.08
349.823	130.01
350.206	177.69
350.588	231.02
350.971	264.7
351.354	269.44
351.737	271.25
352.119	300.18
352.502	321.64
352.884	333.4
353.267	349.44
353.65	336.56
354.032	363.45
354.414	388.99
354.797	373.17
355.179	358.25
355.562	396.67
355.944	364.81
356.326	393.28
356.709	387.18
357.091	415.88
357.473	417.91
357.855	406.84
358.238	412.04
358.62	421.75
359.002	396.9
359.384	421.3
359.766	414.07
360.148	412.26
360.53	417.91
360.912	438.25
361.294	423.79
361.676	429.89
362.057	416.78
362.439	412.94
362.821	430.12
363.203	435.77
363.584	464.47
363.966	416.78
364.348	420.62
364.729	428.76
365.111	421.3
365.493	445.71
365.874	419.72
366.256	433.28
366.637	411.59
367.019	432.83
367.4	426.27
367.781	409.78
368.163	430.79
368.544	428.08
368.925	435.54
369.306	446.84
369.688	444.58
370.069	454.07
370.45	460.4
370.831	463.79
371.212	479.83
371.593	467.4
371.974	467.4
372.355	471.24
372.736	451.81
373.117	464.24
373.498	473.28
373.879	461.3
374.26	480.06
374.641	446.39
375.021	454.97
375.402	486.84
375.783	499.27
376.163	523.9
376.544	540.85
376.925	529.32
377.305	524.8
377.686	520.96
378.066	514.63
378.447	532.03
378.827	541.07
379.208	528.64
379.588	542.88
379.968	549.43
380.349	558.25
380.729	543.33
381.109	594.63
381.489	575.87
381.87	590.56
382.25	581.75
382.63	588.98
383.01	588.3
383.39	630.11
383.77	603.44
384.15	612.48
384.53	640.28
384.91	626.72
385.29	623.56
385.67	654.06
386.049	668.53
386.429	663.33
386.809	660.84
387.189	671.01
387.568	673.5
387.948	696.55
388.328	714.85
388.707	712.14
389.087	706.04
389.466	749.43
389.846	729.54
390.225	755.53
390.605	736.1
390.984	751.24
391.363	770.22
391.743	760.28
392.122	801.86
392.501	798.02
392.881	810.22
393.26	822.42
393.639	808.86
394.018	808.86
394.397	850.44
394.776	873.27
395.155	852.03
395.534	867.17
395.913	883.89
396.292	896.77
396.671	906.26
397.05	934.06
397.429	919.37
397.808	926.37
398.186	950.78
398.565	944.45
398.944	979.71
399.323	969.99
399.701	989.65
400.08	979.25
400.458	1011.12
400.837	980.16
401.215	1006.82
401.594	1048.4
401.972	1045.01
402.351	1064.45
402.729	1082.08
403.107	1075.97
403.486	1089.99
403.864	1101.51
404.242	1109.87
404.62	1154.84
404.999	1165.01
405.377	1158.91
405.755	1196.42
406.133	1207.04
406.511	1209.98
406.889	1214.73
407.267	1267.38
407.645	1290.21
408.023	1309.41
408.401	1316.65
408.779	1327.49
409.156	1366.81
409.534	1390.77
409.912	1392.35
410.29	1421.28
410.667	1413.59
411.045	1422.63
411.422	1461.05
411.8	1464.66
412.178	1503.31
412.555	1556.64
412.933	1553.7
413.31	1572.23
413.687	1579.01
414.065	1613.59
414.442	1632.57
414.819	1660.59
415.197	1659.46
415.574	1709.63
415.951	1741.72
416.328	1773.36
416.705	1756.41
417.082	1801.83
417.46	1804.77
417.837	1806.58
418.214	1821.27
418.591	1831.66
418.967	1884.99
419.344	1904.2
419.721	1940.81
420.098	1960.25
420.475	1959.12
420.852	1993.46
421.228	1992.33
421.605	2038.21
421.982	2028.27
422.358	2083.86
422.735	2133.57
423.111	2111.43
423.488	2146.68
423.864	2158.43
424.241	2202.72
424.617	2216.51
424.994	2251.08
425.37	2292.89
425.746	2293.57
426.123	2332.66
426.499	2361.59
426.875	2406.11
427.251	2476.62
427.627	2459.89
428.003	2494.69
428.379	2516.84
428.756	2554.81
429.132	2630.28
429.507	2654.46
429.883	2720.45
430.259	2715.48
430.635	2772.65
431.011	2798.19
431.387	2902.59
431.763	2908.92
432.138	2973.55
432.514	2987.56
432.89	2972.42
433.265	3067.11
433.641	3136.03
434.016	3140.1
434.392	3170.38
434.767	3262.36
435.143	3247.44
435.518	3315.92
435.894	3349.36
436.269	3397.5
436.644	3425.52
437.02	3447.66
437.395	3470.71
437.77	3517.49
438.145	3603.82
438.52	3613.31
438.895	3681.56
439.271	3720.2
439.646	3794.32
440.021	3834.77
440.395	3831.83
440.77	3819.18
441.145	3882.68
441.52	3971.49
441.895	3917.03
442.27	3999.06
442.645	3958.16
443.019	4084.26
443.394	4084.71
443.769	4178.49
444.143	4069.79
444.518	4196.12
444.892	4137.14
445.267	4229.34
445.641	4273.4
446.016	4310.69
446.39	4322.89
446.764	4382.55
447.139	4335.78
447.513	4490.57
447.887	4477.47
448.262	4505.26
448.636	4564.92
449.01	4628.2
449.384	4647.63
449.758	4673.85
450.132	4736.44
450.506	4760.4
450.88	4815.54
451.254	4832.03
451.628	4890.11
452.002	4983.67
452.376	5042.2
452.75	5024.35
453.123	5083.55
453.497	5185.47
453.871	5209.43
454.244	5339.14
454.618	5346.37
454.992	5418.91
455.365	5470.44
455.739	5609.41
456.112	5663.65
456.486	5744.55
456.859	5783.65
457.232	5906.58
457.606	5905.9
457.979	6024.32
458.352	6168.27
458.725	6257.76
459.099	6277.65
459.472	6379.34
459.845	6502.95
460.218	6521.03
460.591	6546.79
460.964	6646.22
461.337	6784.98
461.71	6877.18
462.083	6951.53
462.456	6980.9
462.829	6994.69
463.201	7132.31
463.574	7209.15
463.947	7284.85
464.32	7500.66
464.692	7510.16
465.065	7643.94
465.438	7720.32
465.81	7810.49
466.183	7933.65
466.555	8111.04
466.928	8180.42
467.3	8232.85
467.672	8388.55
468.045	8651.82
468.417	8683.91
468.789	8716
469.161	8917.35
469.534	9052.49
469.906	9217.46
470.278	9240.73
470.65	9399.82
471.022	9506.26
471.394	9686.14
471.766	9798.68
472.138	9945.12
472.51	10121.84
472.882	10315.73
473.253	10390.08
473.625	10571.54
473.997	10828.03
474.369	10854.02
474.74	11012.44
475.112	11151.64
475.484	11389.15
475.855	11588.01
476.227	11746.65
476.598	12007.89
476.97	12219.64
477.341	12528.78
477.713	12721.77
478.084	12837.47
478.455	13161.98
478.827	13309.33
479.198	13639.49
479.569	13739.14
479.94	14119.25
480.311	14135.29
480.682	14568.73
481.053	14916.29
481.424	15098.66
481.795	15286
482.166	15472.88
482.537	15744.52
482.908	16043.72
483.279	16194.9
483.65	16556.02
484.021	16829.68
484.391	17069.23
484.762	17171.6
485.133	17318.71
485.503	17560.96
485.874	17970.45
486.244	18250.44
486.615	18459.25
486.985	18775.17
487.356	19191.2
487.726	19354.14
488.097	19811.98
488.467	19901.92
488.837	20333.32
489.207	20524.95
489.578	20873.87
489.948	21090.14
490.318	21400.41
490.688	21359.51
491.058	21812.6
491.428	22129.88
491.798	22376.21
492.168	22794.95
492.538	22834.5
492.908	23111.78
493.278	23423.64
493.648	23393.35
494.017	23679.22
494.387	23908.82
494.757	24142.49
495.126	24418.19
495.496	24323.27
495.866	24632.64
496.235	24903.82
496.605	25083.48
496.974	25242.57
497.344	25592.39
497.713	25785.38
498.082	26110.34
498.452	26375.87
498.821	26455.65
499.19	26604.34
499.559	26970.66
499.928	27226.25
500.298	27384.89
500.667	27589.85
501.036	27611.32
501.405	27932.44
501.774	28011.31
502.143	28259.89
502.512	28395.03
502.88	28672.54
503.249	28768.13
503.618	29022.58
503.987	29059.87
504.356	29318.4
504.724	29348.45
505.093	29405.63
505.462	29576.92
505.83	29903.92
506.199	30096.91
506.567	30468.65
506.936	30612.6
507.304	30868.41
507.672	31065.92
508.041	31100.72
508.409	31477.66
508.777	31790.42
509.145	32052.11
509.514	32123.75
509.882	32540.01
510.25	32545.2
510.618	32930.96
510.986	33021.12
511.354	33416.37
511.722	33626.08
512.09	34061.1
512.458	34100.64
512.826	34387.87
513.193	34591.25
513.561	34727.29
513.929	35037.79
514.297	35246.83
514.664	35556.65
515.032	35720.71
515.4	35980.59
515.767	35920.26
516.135	36405.44
516.502	36261.26
516.869	36757.97
517.237	36886.33
517.604	36930.85
517.972	37369.71
518.339	37602.7
518.706	37756.82
519.073	37882.24
519.44	38275.45
519.808	38687.87
520.175	38587.53
520.542	39217.57
520.909	39514.29
521.276	39539.82
521.643	40038.57
522.009	40325.79
522.376	40637.87
522.743	40954.02
523.11	41344.52
523.477	41859.99
523.843	42066.99
524.21	42330.71
524.577	42663.36
524.943	42867.42
525.31	43296.56
525.676	43640.28
526.043	43784.91
526.409	43978.58
526.776	44409.07
527.142	44392.58
527.508	44753.47
527.874	44941.71
528.241	45275.49
528.607	45402.04
528.973	45575.14
529.339	45793.67
529.705	46122.47
530.071	46296.93
530.437	46518.4
530.803	46718.62
531.169	46923.58
531.535	46961.1
531.901	47246.06
532.267	47270.69
532.632	47702.09
532.998	47839.26
533.364	48124.45
533.73	48349.76
534.095	48679.47
534.461	48744.55
534.826	49016.63
535.192	49152.9
535.557	49584.53
535.923	49502.27
536.288	49756.28
536.653	49840.57
537.019	49953.79
537.384	50172.08
537.749	50290.73
538.114	50430.83
538.479	50518.29
538.845	50706.08
539.21	50696.36
539.575	50907.43
539.94	50989.01
540.305	51186.97
540.67	51015
541.034	51196.69
541.399	51365.05
541.764	51379.96
542.129	51514.65
542.494	51561.65
542.858	51717.81
543.223	51675.77
543.587	51920.29
543.952	51839.84
544.316	52030.79
544.681	52050
545.045	52314.63
545.41	52384.68
545.774	52479.59
546.138	52494.74
546.503	52709.65
546.867	52729.53
547.231	53028.05
547.595	53139.01
547.959	53289.06
548.324	53345.33
548.688	53521.83
549.052	53562.73
549.416	53704.87
549.779	53719.56
550.143	53877.3
550.507	54181.7
550.871	54219.89
551.235	54244.75
551.599	54463.05
551.962	54590.27
552.326	54613.55
552.689	54755.69
553.053	54775.35
553.417	54764.28
553.78	55065.06
554.143	54967.44
554.507	55150.26
554.87	55152.97
555.234	55517.71
555.597	55289.01
555.96	55430.48
556.323	55501.89
556.686	55559.74
557.05	55778.27
557.413	55752.05
557.776	55805.83
558.139	55999.05
558.502	56075.88
558.865	56157.69
559.228	56337.12
559.59	56440.85
559.953	56553.84
560.316	56855.98
560.679	56866.6
561.041	56971.45
561.404	57100.26
561.767	57283.31
562.129	57139.36
562.492	57500.03
562.854	57550.87
563.217	57621.38
563.579	57767.59
563.941	57933.91
564.304	58093.91
564.666	58204.19
565.028	58277.63
565.39	58389.72
565.753	58487.8
566.115	58689.83
566.477	58715.14
566.839	58798.3
567.201	58938.63
567.563	58962.81
567.925	59130.49
568.287	59048.01
568.648	59124.39
569.01	59316.48
569.372	59430.15
569.734	59309.7
570.095	59499.75
570.457	59550.37
570.819	59574.55
571.18	59574.78
571.542	59731.38
571.903	59735.22
572.265	59841.89
572.626	59863.81
572.987	59852.28
573.349	59940.87
573.71	60030.81
574.071	60087.53
574.432	60202.78
574.794	60336.11
575.155	60300.63
575.516	60285.04
575.877	60371.36
576.238	60513.28
576.599	60580.85
576.96	60592.15
577.32	60690.23
577.681	60776.33
578.042	60825.82
578.403	60846.83
578.763	60892.03
579.124	60916.43
579.485	61047.28
579.845	61144.45
580.206	61115.3
580.566	61127.05
580.927	61108.97
581.287	61237.33
581.648	61092.93
582.008	61261.06
582.368	61328.4
582.728	61292.7
583.089	61213.15
583.449	61204.34
583.809	61235.97
584.169	61226.26
584.529	61111.01
584.889	61355.07
585.249	61121.85
585.609	61112.81
585.969	61226.94
586.329	61079.82
586.688	61151.91
587.048	61136.32
587.408	61031.46
587.768	61097.45
588.127	61065.58
588.487	60993.04
588.846	61192.36
589.206	61003.66
589.565	61062.19
589.925	61197.78
590.284	61084.34
590.643	61157.33
591.003	61241.85
591.362	61357.78
591.721	61243.43
592.08	61274.84
592.44	61360.94
592.799	61351.45
593.158	61349.87
593.517	61376.54
593.876	61430.09
594.235	61377.89
594.593	61370.89
594.952	61536.31
595.311	61436.65
595.67	61553.03
596.029	61634.83
596.387	61619.69
596.746	61697.88
597.104	61541.96
597.463	61588.96
597.822	61646.36
598.18	61590.09
598.538	61569.75
598.897	61759.12
599.255	61502.63
599.613	61818.78
599.972	61665.79
600.33	61693.36
600.688	61511.22
601.046	61642.29
601.404	61684.55
601.762	61617.43
602.12	61748.05
602.478	61719.8
602.836	61686.13
603.194	61567.72
603.552	61585.34
603.91	61493.59
604.268	61616.08
604.625	61548.96
604.983	61678.67
605.341	61497.21
605.698	61665.34
606.056	61700.82
606.413	61735.62
606.771	61760.03
607.128	61839.12
607.485	61750.31
607.843	61828.73
608.2	61911.21
608.557	61994.6
608.914	61946.46
609.272	62092.22
609.629	62094.26
609.986	62214.93
610.343	62133.13
610.7	62302.16
611.057	62312.1
611.414	62310.97
611.771	62312.1
612.127	62378.54
612.484	62413.12
612.841	62484.08
613.198	62453.57
613.554	62451.99
613.911	62588.71
614.267	62550.06
614.624	62525.21
614.98	62544.41
615.337	62626.9
615.693	62496.05
616.05	62569.5
616.406	62690.17
616.762	62564.08
617.118	62561.36
617.475	62513
617.831	62559.78
618.187	62592.1
618.543	62600.91
618.899	62705.77
619.255	62616.05
619.611	62609.95
619.967	62605.88
620.323	62689.04
620.678	62551.42
621.034	62488.82
621.39	62428.26
621.746	62470.52
622.101	62706.44
622.457	62444.53
622.812	62494.25
623.168	62614.92
623.523	62574.47
623.879	62658.08
624.234	62465.77
624.589	62630.06
624.945	62606.79
625.3	62628.48
625.655	62677.07
626.01	62746.9
626.365	62738.53
626.72	62731.53
627.075	62688.59
627.43	62709.38
627.785	62619.89
628.14	62716.84
628.495	62720.46
628.85	62732.43
629.205	62676.39
629.559	62809.72
629.914	62655.82
630.269	62779.44
630.623	62663.96
630.978	62621.02
631.332	62710.06
631.687	62699.21
632.041	62657.86
632.396	62732.43
632.75	62565.88
633.104	62550.74
633.459	62411.54
633.813	62398.88
634.167	62365.66
634.521	62343.52
634.875	62355.04
635.229	62335.83
635.583	62237.08
635.937	62198.44
636.291	62173.58
636.645	62152.56
636.999	62029.4
637.352	62092.68
637.706	61952.11
638.06	62000.25
638.413	61905.11
638.767	61807.71
639.121	61916.41
639.474	61691.56
639.828	61743.76
640.181	61691.78
640.534	61711.44
640.888	61580.82
641.241	61513.03
641.594	61590.09
641.947	61556.64
642.301	61514.61
642.654	61612.46
643.007	61567.27
643.36	61485.69
643.713	61506.48
644.066	61562.75
644.419	61433.94
644.771	61293.37
645.124	61147.39
645.477	61040.95
645.83	60899.49
646.182	60830.11
646.535	60800.51
646.888	60804.57
647.24	60725.93
647.593	60841.18
647.945	60759.6
648.298	60665.59
648.65	60682.54
649.002	60618.82
649.355	60679.38
649.707	60629.66
650.059	60715.54
650.411	60932.03
650.763	61003.89
651.115	61237.33
651.467	61119.14
651.819	61105.81
652.171	61038.69
652.523	61002.99
652.875	60874.4
653.227	60869.66
653.578	61008.41
653.93	60884.35
654.282	60691.36
654.633	60743.33
654.985	60682.54
655.337	60688.64
655.688	60666.72
656.039	60688.42
656.391	60508.31
656.742	60426.73
657.094	60454.75
657.445	60501.08
657.796	60449.55
658.147	60327.98
658.498	60356
658.849	60377.01
659.2	60376.79
659.551	60259.05
659.902	60351.7
660.253	60292.27
660.604	60380.86
660.955	60158.94
661.306	60271.48
661.656	60229
662.007	60217.02
662.358	60252.72
662.708	60191.71
663.059	60267.86
663.409	60141.54
663.76	60282.78
664.11	60234.42
664.461	60216.34
664.811	60277.36
665.161	60266.06
665.511	60203.46
665.862	60225.15
666.212	60261.99
666.562	60358.94
666.912	60273.74
667.262	60311.48
667.612	60263.34
667.962	60302.67
668.312	60204.82
668.662	60339.5
669.011	60266.51
669.361	60219.5
669.711	60173.63
670.06	60178.6
670.41	60137.02
670.76	60085.95
671.109	60115.55
671.459	60083.24
671.808	59980.41
672.157	60112.16
672.507	59923.47
672.856	59892.73
673.205	59886.18
673.554	59929.57
673.904	59839.85
674.253	60007.98
674.602	59888.44
674.951	59464.95
675.3	59346.53
675.649	59711.04
675.998	59644.15
676.346	59672.4
676.695	59707.43
677.044	59440.54
677.393	59563.25
677.741	59578.84
678.09	59449.58
678.438	59390.15
678.787	59417.04
679.135	59388.34
679.484	59175.24
679.832	59278.29
680.181	59121.45
680.529	59203.03
680.877	59043.94
681.225	58981.34
681.573	59157.84
681.922	59031.96
682.27	58985.19
682.618	58962.81
682.966	58854.79
683.314	58916.71
683.661	58933.89
684.009	58816.15
684.357	58749.26
684.705	58780.22
685.053	58824.96
685.4	58826.32
685.748	58658.42
686.095	58681.01
686.443	58596.95
686.79	58545.2
687.138	58603.95
687.485	58487.57
687.832	58479.21
688.18	58541.13
688.527	58339.55
688.874	58383.17
689.221	58301.81
689.568	58254.13
689.915	58181.82
690.262	58170.07
690.609	58156.73
690.956	58082.39
691.303	57934.37
691.65	57848.27
691.997	57790.87
692.344	57752.22
692.69	57682.4
693.037	57626.35
693.383	57426.13
693.73	57563.98
694.077	57284.67
694.423	57377.32
694.769	57303.65
695.116	57141.62
695.462	57096.87
695.808	57002.41
696.155	57034.28
696.501	56807.84
696.847	56727.39
697.193	56534.18
697.539	56685.36
697.885	56435.87
698.231	56296.67
698.577	56299.16
698.923	56183.23
699.269	56102.32
699.614	55939.84
699.96	55816.91
700.306	55886.06
700.651	55726.97
700.997	55610.13
701.342	55533.53
701.688	55509.12
702.033	55374.89
702.379	55467.09
702.724	55273.42
703.069	55338.95
703.415	55027.55
703.76	55082.69
704.105	54996.82
704.45	54872.07
704.795	54791.17
705.14	54662.59
705.485	54763.38
705.83	54516.38
706.175	54630.72
706.52	54461.01
706.865	54436.61
707.209	54445.64
707.554	54307.12
707.899	54445.42
708.243	54197.52
708.588	54246.1
708.932	54104.41
709.277	54020.35
709.621	54072.1
709.966	53773.57
710.31	53952.32
710.654	53666.68
710.998	53764.76
711.342	53793.01
711.687	53760.01
712.031	53580.13
712.375	53468.95
712.719	53638.21
713.063	53440.25
713.407	53574.26
713.75	53431.21
714.094	53355.05
714.438	53140.14
714.782	53215.17
715.125	53090.88
715.469	53038.45
715.812	52894.05
716.156	52725.46
716.499	52731.57
716.843	52854.27
717.186	52600.27
717.53	52645.92
717.873	52557.11
718.216	52468.75
718.559	52346.94
718.902	52053.62
719.246	52083.45
719.589	51935.65
719.932	51830.12
720.275	51865.6
720.617	51782.89
720.96	51700.86
721.303	51641.2
721.646	51584.48
721.989	51425.84
722.331	51430.13
722.674	51130.25
723.016	51239.4
723.359	51163.25
723.701	51069.69
724.044	50818.62
724.386	50718.74
724.729	50825.85
725.071	50740.66
725.413	50671.96
725.755	50567.33
726.097	50445.98
726.439	50214.8
726.782	50283.27
727.124	50394.68
727.465	50174.8
727.807	50254.12
728.149	50063.39
728.491	50007.34
728.833	50106.55
729.175	50008.7
729.516	49985.87
729.858	49888.93
730.199	49929.61
730.541	49785.2
730.882	49663.17
731.224	49775.94
731.565	49540.01
731.906	49603.06
732.248	49600.35
732.589	49474.7
732.93	49325.55
733.271	49472.67
733.612	49385.89
733.953	49509.05
734.294	49337.3
734.635	49318.32
734.976	49327.36
735.317	49137.99
735.658	49245.78
735.999	49109.97
736.339	49116.29
736.68	49156.74
737.021	49081.49
737.361	49007.37
737.702	49112
738.042	48878.33
738.383	48837.43
738.723	48844.89
739.063	48763.76
739.404	48692.12
739.744	48534.61
740.084	48313.15
740.424	48529.42
740.764	48319.03
741.104	48306.37
741.444	48133.04
741.784	48053.72
742.124	47978.7
742.464	47818.93
742.804	47649.44
743.143	47726.5
743.483	47706.39
743.823	47363.35
744.162	47341.2
744.502	47390.91
744.841	47153.18
745.181	47241.31
745.52	47146.18
745.86	47052.84
746.199	46872.96
746.538	46772.4
746.877	46849.69
747.216	46713.19
747.556	46522.69
747.895	46403.82
748.234	46288.57
748.573	46096.03
748.911	46067.56
749.25	46125.86
749.589	45832.09
749.928	45910.28
750.267	45761.81
750.605	45618.76
750.944	45638.64
751.283	45424.41
751.621	45434.13
