Data from aluminium_macbook_case_FLMS001491_030.txt Node
Date: Tue Feb 07 10:43:27 GMT 2017
User: dcchb
Spectrometer: FLMS00149
Trigger mode: 0
Integration Time (sec): 2.000000E-2
Scans to average: 10
Electric dark correction enabled: true
Nonlinearity correction enabled: false
Boxcar width: 0
XAxis mode: Wavelengths
Number of Pixels in Spectrum: 2048
>>>>>Begin Spectral Data<<<<<
341.393	-3.91
341.776	-3.91
342.16	-3.91
342.543	-57.02
342.927	-70.13
343.31	-73.97
343.693	-59.96
344.077	-68.54
344.46	-59.28
344.843	-69.22
345.226	-44.59
345.61	-36.91
345.993	-19.28
346.376	6.93
346.759	12.58
347.142	34.96
347.525	48.29
347.908	45.58
348.291	90.1
348.674	90.1
349.057	103.2
349.44	137.78
349.823	124.22
350.206	163.99
350.588	245.12
350.971	254.16
351.354	270.66
351.737	299.58
352.119	323.76
352.502	311.11
352.884	301.16
353.267	354.04
353.65	360.15
354.032	353.59
354.414	360.82
354.797	349.75
355.179	373.48
355.562	394.95
355.944	408.28
356.326	368.73
356.709	396.3
357.091	398.79
357.473	397.89
357.855	407.83
358.238	414.61
358.62	406.47
359.002	416.42
359.384	399.69
359.766	421.16
360.148	405.12
360.53	427.04
360.912	416.42
361.294	416.42
361.676	426.58
362.057	400.6
362.439	422.07
362.821	413.93
363.203	408.05
363.584	405.34
363.966	407.38
364.348	400.14
364.729	445.34
365.111	409.41
365.493	441.5
365.874	429.97
366.256	422.29
366.637	431.1
367.019	401.73
367.4	417.55
367.781	420.26
368.163	440.37
368.544	427.49
368.925	408.73
369.306	413.7
369.688	422.07
370.069	431.56
370.45	444.66
370.831	440.82
371.212	443.76
371.593	427.26
371.974	440.14
372.355	442.18
372.736	449.86
373.117	458.9
373.498	446.25
373.879	462.97
374.26	465
374.641	443.08
375.021	444.21
375.402	465.23
375.783	476.53
376.163	522.85
376.544	513.59
376.925	498.45
377.305	512.23
377.686	503.42
378.066	486.7
378.447	518.56
378.827	519.01
379.208	517.66
379.588	536.86
379.968	547.03
380.349	549.75
380.729	543.87
381.109	542.29
381.489	542.06
381.87	553.59
382.25	556.3
382.63	557.88
383.01	564.89
383.39	570.99
383.77	578.67
384.15	598.78
384.53	608.73
384.91	592.46
385.29	621.16
385.67	633.81
386.049	639.69
386.429	653.92
386.809	647.6
387.189	641.04
387.568	643.3
387.948	660.48
388.328	690.53
388.707	675.17
389.087	680.82
389.466	684.88
389.846	704.54
390.225	707.93
390.605	709.06
390.984	718.1
391.363	740.25
391.743	745.45
392.122	738.89
392.501	760.59
392.881	768.95
393.26	773.02
393.639	802.39
394.018	801.94
394.397	813.69
394.776	817.76
395.155	829.96
395.534	822.96
395.913	852.11
396.292	846.23
396.671	856.18
397.05	866.57
397.429	866.8
397.808	874.26
398.186	902.5
398.565	908.38
398.944	923.07
399.323	922.84
399.701	932.56
400.08	937.08
400.458	961.71
400.837	969.85
401.215	955.38
401.594	1000.81
401.972	999.45
402.351	1019.56
402.729	1020.92
403.107	1028.6
403.486	1065.66
403.864	1027.47
404.242	1065.21
404.62	1078.77
404.999	1094.82
405.377	1091.43
405.755	1144.53
406.133	1145.66
406.511	1151.31
406.889	1155.15
407.267	1187.69
407.645	1201.25
408.023	1252.55
408.401	1240.12
408.779	1241.03
409.156	1272.89
409.534	1299.1
409.912	1317.18
410.29	1349.27
410.667	1351.31
411.045	1372.32
411.422	1383.17
411.8	1411.42
412.178	1423.39
412.555	1460.23
412.933	1476.5
413.31	1490.96
413.687	1508.14
414.065	1540.91
414.442	1525.54
414.819	1554.01
415.197	1577.06
415.574	1607.12
415.951	1633.56
416.328	1633.56
416.705	1637.85
417.082	1663.16
417.46	1676.72
417.837	1693.67
418.214	1741.13
418.591	1770.73
418.967	1766.44
419.344	1793.78
419.721	1819.54
420.098	1820.45
420.475	1834.46
420.852	1886.66
421.228	1854.34
421.605	1911.07
421.982	1918.97
422.358	1971.18
422.735	1974.79
423.111	1991.06
423.488	2015.7
423.864	2015.92
424.241	2081.23
424.617	2101.57
424.994	2127.78
425.37	2148.35
425.746	2117.61
426.123	2184.96
426.499	2177.27
426.875	2213.66
427.251	2284.16
427.627	2316.48
428.003	2313.09
428.379	2374.33
428.756	2440.09
429.132	2418.17
429.507	2492.52
429.883	2505.85
430.259	2567.32
430.635	2592.63
431.011	2558.05
431.387	2657.26
431.763	2683.93
432.138	2713.08
432.514	2780.65
432.89	2785.84
433.265	2863.36
433.641	2884.6
434.016	2946.52
434.392	2964.15
434.767	3008.66
435.143	3021.54
435.518	3077.59
435.894	3110.81
436.269	3208.88
436.644	3217.7
437.02	3245.27
437.395	3265.61
437.77	3322.1
438.145	3353.74
438.52	3381.54
438.895	3450.91
439.271	3484.81
439.646	3523.9
440.021	3547.86
440.395	3552.38
440.77	3491.36
441.145	3569.33
441.52	3670.57
441.895	3656.78
442.27	3718.48
442.645	3677.12
443.019	3798.47
443.394	3807.74
443.769	3865.59
444.143	3824.01
444.518	3907.4
444.892	3928.87
445.267	3984.68
445.641	4026.26
446.016	4052.7
446.39	4120.05
446.764	4103.55
447.139	4072.14
447.513	4150.33
447.887	4137.22
448.262	4182.19
448.636	4190.33
449.01	4271.46
449.384	4309.19
449.758	4340.83
450.132	4402.07
450.506	4445.91
450.88	4461.06
451.254	4492.69
451.628	4586.7
452.002	4621.28
452.376	4627.83
452.75	4678
453.123	4734.27
453.497	4806.36
453.871	4885.68
454.244	4973.36
454.618	5043.19
454.992	5089.06
455.365	5086.35
455.739	5245.44
456.112	5328.38
456.486	5320.69
456.859	5386.23
457.232	5461.03
457.606	5525.66
457.979	5571.31
458.352	5756.61
458.725	5725.65
459.099	5801.81
459.472	5916.38
459.845	5996.83
460.218	6072.31
460.591	6156.15
460.964	6157.96
461.337	6294.45
461.71	6368.12
462.083	6464.62
462.456	6472.53
462.829	6576.93
463.201	6683.14
463.574	6728.79
463.947	6793.2
464.32	6982.57
464.692	7011.04
465.065	7086.07
465.438	7229.8
465.81	7372.16
466.183	7454.87
466.555	7595.21
466.928	7637.47
467.3	7606.06
467.672	7760.86
468.045	7952.26
468.417	7966.95
468.789	8058.25
469.161	8138.7
469.534	8226.83
469.906	8471.12
470.278	8570.33
470.65	8693.03
471.022	8803.31
471.394	9009.18
471.766	9066.36
472.138	9216.64
472.51	9471.54
472.882	9603.97
473.253	9688.71
473.625	9904.75
473.997	10101.36
474.369	10155.59
474.74	10237.63
475.112	10443.95
475.484	10619.09
475.855	10893.43
476.227	10922.81
476.598	11210.26
476.97	11259.29
477.341	11534.77
477.713	11707.19
478.084	11801.88
478.455	12160.97
478.827	12256.56
479.198	12639.6
479.569	12635.08
479.94	12989.87
480.311	13122.97
480.682	13438.67
481.053	13739
481.424	13946.46
481.795	14177.41
482.166	14421.02
482.537	14554.12
482.908	14876.15
483.279	15074.34
483.65	15390.49
484.021	15660.08
484.391	15862.79
484.762	16034.76
485.133	16303
485.503	16366.05
485.874	16711.58
486.244	16952.93
486.615	17201.96
486.985	17445.57
487.356	17741.61
487.726	17859.35
488.097	18321.93
488.467	18306.57
488.837	18746.56
489.207	18977.28
489.578	19150.61
489.948	19514.22
490.318	19649.58
490.688	19837.83
491.058	20105.16
491.428	20268.55
491.798	20628.77
492.168	20975.88
492.538	21154.85
492.908	21396.2
493.278	21820.15
493.648	21769.98
494.017	22014.94
494.387	22371.32
494.757	22465.55
495.126	22735.15
495.496	22836.84
495.866	23083.39
496.235	23328.58
496.605	23518.86
496.974	23766.54
497.344	23862.35
497.713	23990.49
498.082	24121.1
498.452	24524.26
498.821	24508.89
499.19	24682.9
499.559	24799.05
499.928	25089.89
500.298	25190
500.667	25386.38
501.036	25526.04
501.405	25813.04
501.774	25813.04
502.143	26097.32
502.512	26218.68
502.88	26504.09
503.249	26564.43
503.618	26798.77
503.987	26837.64
504.356	27286.44
504.724	27450.06
505.093	27576.38
505.462	27760.1
505.83	27991.74
506.199	28157.61
506.567	28574.32
506.936	28566.41
507.304	28880.98
507.672	29058.15
508.041	29141.08
508.409	29428.31
508.777	29567.74
509.145	29822.87
509.514	29875.98
509.882	30089.08
510.25	30227.38
510.618	30435.51
510.986	30560.48
511.354	30864.43
511.722	31092.22
512.09	31398.88
512.458	31380.57
512.826	31681.36
513.193	31862.82
513.561	32015.36
513.929	32412.86
514.297	32786.86
514.664	32928.1
515.032	33182.11
515.4	33368.32
515.767	33653.96
516.135	33841.53
516.502	33712.49
516.869	34371.68
517.237	34470.66
517.604	34622.97
517.972	34985.45
518.339	35160.13
518.706	35371.2
519.073	35596.28
519.44	35754.24
519.808	36256.6
520.175	36140.45
520.542	36697.72
520.909	36881.9
521.276	36862.01
521.643	37237.14
522.009	37625.38
522.376	37735.66
522.743	37884.36
523.11	38222.65
523.477	38715.97
523.843	38790.77
524.21	39191.22
524.577	39662.39
524.943	39726.79
525.31	39993.45
525.676	40409.94
526.043	40601.8
526.409	40812.19
526.776	41319.29
527.142	41468.9
527.508	41770.36
527.874	42048.54
528.241	42467.97
528.607	42563.1
528.973	42919.25
529.339	43133.03
529.705	43366.7
530.071	43777.31
530.437	43999.22
530.803	44104.98
531.169	44319.89
531.535	44232.89
531.901	44537.29
532.267	44690.28
532.632	45010.27
532.998	45066.32
533.364	45233.09
533.73	45520.09
534.095	45760.99
534.461	45847.54
534.826	46187.64
535.192	46210.47
535.557	46593.96
535.923	46530.91
536.288	46573.85
536.653	46919.37
537.019	46793.5
537.384	47043.44
537.749	47263.32
538.114	47473.71
538.479	47493.6
538.845	47708.28
539.21	47661.28
539.575	47946.24
539.94	48010.64
540.305	48586.9
540.67	48335.38
541.034	48650.18
541.399	48814.92
541.764	48896.72
542.129	49040.9
542.494	49221.01
542.858	49247.9
543.223	49453.77
543.587	49657.15
543.952	49565.41
544.316	49771.28
544.681	49782.12
545.045	49982.8
545.41	50295.1
545.774	50317.7
546.138	50163.13
546.503	50333.52
546.867	50270.02
547.231	50726.73
547.595	50742.32
547.959	50811.7
548.324	50822.55
548.688	50942.77
549.052	51019.15
549.416	51197.45
549.779	51137.12
550.143	51295.98
550.507	51648.97
550.871	51722.41
551.235	51620.94
551.599	52076.3
551.962	52090.54
552.326	52176.86
552.689	52336.41
553.053	52221.16
553.417	52349.29
553.78	52813.46
554.143	52730.29
554.507	52931.42
554.87	53041.92
555.234	53383.84
555.597	53214.58
555.96	53377.28
556.323	53580.44
556.686	53639.87
557.05	53871.51
557.413	53852.3
557.776	54048.23
558.139	54215.23
558.502	54151.73
558.865	54275.56
559.228	54408.89
559.59	54525.28
559.953	54596.69
560.316	54919.62
560.679	54792.39
561.041	55000.52
561.404	55064.02
561.767	55299.49
562.129	55235.31
562.492	55520.73
562.854	55555.3
563.217	55606.6
563.579	55698.58
563.941	55929.76
564.304	55983.09
564.666	56149.41
565.028	56190.32
565.39	56275.74
565.753	56449.74
566.115	56482.29
566.477	56604.32
566.839	56776.74
567.201	56979
567.563	57013.35
567.925	57035.49
568.287	57254.92
568.648	57231.87
569.01	57360
569.372	57581.01
569.734	57504.41
570.095	57767.22
570.457	57812.87
570.819	57889.93
571.18	57852.65
571.542	58085.86
571.903	58047.89
572.265	58151.62
572.626	58198.85
572.987	58256.25
573.349	58286.98
573.71	58376.93
574.071	58415.12
574.432	58467.09
574.794	58616.47
575.155	58556.58
575.516	58476.13
575.877	58597.94
576.238	58673.87
576.599	58762
576.96	58815.11
577.32	58835.67
577.681	58861.66
578.042	58950.7
578.403	58966.06
578.763	58970.13
579.124	59076.79
579.485	59085.83
579.845	59213.06
580.206	59117.7
580.566	59211.93
580.927	59236.34
581.287	59361.31
581.648	59299.61
582.008	59411.47
582.368	59355.43
582.728	59464.13
583.089	59383.23
583.449	59437.91
583.809	59521.98
584.169	59537.12
584.529	59448.08
584.889	59638.36
585.249	59563.11
585.609	59481.08
585.969	59630.45
586.329	59470.68
586.688	59601.07
587.048	59564.46
587.408	59503.45
587.768	59534.41
588.127	59477.91
588.487	59428.42
588.846	59565.59
589.206	59399.05
589.565	59400.4
589.925	59576.89
590.284	59411.25
590.643	59419.84
591.003	59478.82
591.362	59520.4
591.721	59442.43
592.08	59448.08
592.44	59506.84
592.799	59463.9
593.158	59428.65
593.517	59493.96
593.876	59506.84
594.235	59492.38
594.593	59461.19
594.952	59554.97
595.311	59491.02
595.67	59628.42
596.029	59696.21
596.387	59683.78
596.746	59732.6
597.104	59700.28
597.463	59656.67
597.822	59790
598.18	59731.69
598.538	59693.28
598.897	59826.15
599.255	59717.91
599.613	60123.55
599.972	59850.11
600.33	59974.4
600.688	59851.24
601.046	59971.23
601.404	60055.98
601.762	60046.26
602.12	60097.33
602.478	60121.96
602.836	60092.13
603.194	60051.68
603.552	60018.69
603.91	59978.24
604.268	60078.58
604.625	60000.84
604.983	60105.92
605.341	59897.56
605.698	60058.92
606.056	60030.22
606.413	60044.45
606.771	60124
607.128	60115.64
607.485	60047.62
607.843	60005.13
608.2	60123.32
608.557	60191.57
608.914	60061.63
609.272	60248.51
609.629	60209.19
609.986	60317.89
610.343	60267.72
610.7	60488.96
611.057	60395.18
611.414	60357.44
611.771	60413.71
612.127	60445.57
612.484	60529.64
612.841	60604.66
613.198	60582.52
613.554	60613.7
613.911	60660.71
614.267	60689.41
614.624	60657.77
614.98	60768.05
615.337	60930.76
615.693	60839.91
616.05	60815.51
616.406	60953.58
616.762	60863.87
617.118	60903.64
617.475	60962.85
617.831	60989.96
618.187	60931.89
618.543	61017.08
618.899	61066.8
619.255	61000.59
619.611	61021.83
619.967	61048.95
620.323	61163.07
620.678	61010.98
621.034	60994.03
621.39	60937.99
621.746	60922.62
622.101	61144.31
622.457	60926.91
622.812	60869.06
623.168	60971.43
623.523	60965.11
623.879	60892.79
624.234	60793.59
624.589	60902.28
624.945	60893.24
625.3	60871.32
625.655	60829.97
626.01	60829.74
626.365	60819.12
626.72	60757.2
627.075	60739.58
627.43	60766.47
627.785	60732.57
628.14	60767.37
628.495	60762.63
628.85	60780.03
629.205	60757.2
629.559	60848.27
629.914	60707.26
630.269	60801.72
630.623	60768.73
630.978	60652.12
631.332	60771.89
631.687	60835.62
632.041	60730.31
632.396	60786.13
632.75	60679.01
633.104	60777.09
633.459	60659.58
633.813	60649.41
634.167	60648.96
634.521	60681.27
634.875	60655.74
635.229	60557.21
635.583	60542.74
635.937	60548.17
636.291	60513.82
636.645	60530.77
636.999	60410.77
637.352	60489.86
637.706	60324.22
638.06	60395.4
638.413	60288.51
638.767	60286.25
639.121	60284.9
639.474	60065.24
639.828	60113.15
640.181	60146.37
640.534	60064.56
640.888	59977.34
641.241	59884.46
641.594	59821.86
641.947	59902.31
642.301	59774.63
642.654	59708.64
643.007	59750.67
643.36	59715.65
643.713	59615.09
644.066	59692.82
644.419	59545.26
644.771	59372.38
645.124	59145.94
645.477	59046.96
645.83	58932.17
646.182	58790.93
646.535	58705.73
646.888	58770.59
647.24	58587.32
647.593	58720.19
647.945	58649.01
648.298	58524.27
648.65	58506.19
649.002	58497.15
649.355	58616.69
649.707	58623.92
650.059	58652.4
650.411	59046.29
650.763	59071.14
651.115	59237.47
651.467	59127.87
651.819	59223.23
652.171	59147.75
652.523	59184.36
652.875	59140.07
653.227	58982.56
653.578	59198.37
653.93	59096.45
654.282	58954.76
654.633	58964.03
654.985	58934.65
655.337	58961.54
655.688	58932.62
656.039	58994.31
656.391	58833.86
656.742	58847.2
657.094	58792.28
657.445	58906.18
657.796	58780.53
658.147	58780.53
658.498	58739.4
658.849	58730.81
659.2	58645.39
659.551	58573.53
659.902	58646.3
660.253	58549.8
660.604	58546.64
660.955	58420.77
661.306	58479.75
661.656	58414.89
662.007	58319.98
662.358	58341.22
662.708	58277.27
663.059	58244.73
663.409	58039.76
663.76	58223.94
664.11	58240.43
664.461	58242.92
664.811	58120.89
665.161	58042.25
665.511	58076.82
665.862	58097.84
666.212	58122.24
666.562	58178.29
666.912	58102.81
667.262	58062.58
667.612	58080.66
667.962	58073.2
668.312	58041.12
668.662	58171.06
669.011	58121.34
669.361	58140.55
669.711	58202.69
670.06	58131.06
670.41	58119.76
670.76	58049.25
671.109	58180.55
671.459	58126.76
671.808	58028.46
672.157	58155.01
672.507	57927.45
672.856	58034.79
673.205	57991.85
673.554	58046.31
673.904	57956.82
674.253	58086.76
674.602	57981.23
674.951	57648.13
675.3	57532.88
675.649	57938.52
675.998	57876.15
676.346	57873.21
676.695	57882.48
677.044	57747.11
677.393	57804.96
677.741	57788.01
678.09	57747.56
678.438	57626.21
678.787	57649.71
679.135	57630.73
679.484	57445.2
679.832	57538.98
680.181	57299.21
680.529	57379.66
680.877	57254.92
681.225	57207.92
681.573	57276.39
681.922	57071.42
682.27	57040.69
682.618	56984.19
682.966	56922.95
683.314	56946
683.661	56823.52
684.009	56696.74
684.357	56643.86
684.705	56610.19
685.053	56589.63
685.4	56541.27
685.748	56413.81
686.095	56448.84
686.443	56259.24
686.79	56316.41
687.138	56258.11
687.485	56291.78
687.832	56141.96
688.18	56218.11
688.527	56105.35
688.874	56012.92
689.221	56007.27
689.568	55953.26
689.915	55870.1
690.262	55952.58
690.609	55840.04
690.956	55774.51
691.303	55748.29
691.65	55586.04
691.997	55584.23
692.344	55514.85
692.69	55459.26
693.037	55461.52
693.383	55239.83
693.73	55341.07
694.077	55208.42
694.423	55198.7
694.769	55133.39
695.116	55069.67
695.462	55012.72
695.808	54866.96
696.155	55021.99
696.501	54739.51
696.847	54728.21
697.193	54550.59
697.539	54671.49
697.885	54345.62
698.231	54430.36
698.577	54327.77
698.923	54295.9
699.269	54150.37
699.614	53905.4
699.96	53869.47
700.306	53794.45
700.651	53776.37
700.997	53613.21
701.342	53434.23
701.688	53340.9
702.033	53292.09
702.379	53280.56
702.724	53137.06
703.069	53203.28
703.415	52857.97
703.76	52784.76
704.105	52781.59
704.45	52590.64
704.795	52400.36
705.14	52401.04
705.485	52368.95
705.83	52127.37
706.175	52104.1
706.52	52062.29
706.865	51851.9
707.209	51779.58
707.554	51734.84
707.899	51705.01
708.243	51534.62
708.588	51487.84
708.932	51254.63
709.277	51209.2
709.621	51245.81
709.966	51098.25
710.31	51196.78
710.654	50800.63
710.998	51016.44
711.342	51016.22
711.687	50852.83
712.031	50790.68
712.375	50665.49
712.719	50640.86
713.063	50644.25
713.407	50719.5
713.75	50494.87
714.094	50490.58
714.438	50355.44
714.782	50396.8
715.125	50313.86
715.469	50484.48
715.812	50148.67
716.156	49970.37
716.499	50027.31
716.843	50243.58
717.186	49852.86
717.53	50054.21
717.873	49963.59
718.216	49846.3
718.559	49684.95
718.902	49490.83
719.246	49486.76
719.589	49454.22
719.932	49284.06
720.275	49290.84
720.617	49190.05
720.96	49114.34
721.303	49035.48
721.646	49030.05
721.989	48804.75
722.331	48988.47
722.674	48694.69
723.016	48673.23
723.359	48651.31
723.701	48616.5
724.044	48275.5
724.386	48058.33
724.729	48266.23
725.071	48063.07
725.413	48021.04
725.755	48006.12
726.097	47825.11
726.439	47528.17
726.782	47540.6
727.124	47723.19
727.465	47487.27
727.807	47322.75
728.149	47333.6
728.491	47186.26
728.833	47238.01
729.175	46852.93
729.516	46873.73
729.858	46707.4
730.199	46741.75
730.541	46733.16
730.882	46697.01
731.224	46739.49
731.565	46311.03
731.906	46313.74
732.248	46418.14
732.589	46181.77
732.93	46090.24
733.271	46060.41
733.612	46143.57
733.953	46088.89
734.294	45926.86
734.635	45746.3
734.976	45891.38
735.317	45668.79
735.658	45588.79
735.999	45731.61
736.339	45469.24
736.68	45819.06
737.021	45429.47
737.361	45403.93
737.702	45544.04
738.042	45421.56
738.383	45407.55
738.723	45361.9
739.063	45316.7
739.404	45299.53
739.744	45184.28
740.084	44996.26
740.424	45163.26
740.764	45017.28
741.104	45047.56
741.444	44651.41
741.784	44741.58
742.124	44777.96
742.464	44689.83
742.804	44665.42
743.143	44565.76
743.483	44574.8
743.823	44392.66
744.162	44319.89
744.502	44340.23
744.841	44133.23
745.181	44226.79
745.52	43980.47
745.86	44118.09
746.199	43977.08
746.538	43869.51
746.877	43819.34
747.216	43855.05
747.556	43679.23
747.895	43560.14
748.234	43455.28
748.573	43226.59
748.911	43213.48
749.25	43166.25
749.589	43051.68
749.928	42859.82
750.267	42930.1
750.605	42828.41
750.944	42705.02
751.283	42640.39
751.621	42600.84
751.96	42423.22
