Data from aluminium_macbook_case_FLMS001491_093.txt Node
Date: Tue Feb 07 10:44:27 GMT 2017
User: dcchb
Spectrometer: FLMS00149
Trigger mode: 0
Integration Time (sec): 2.000000E-2
Scans to average: 10
Electric dark correction enabled: true
Nonlinearity correction enabled: false
Boxcar width: 0
XAxis mode: Wavelengths
Number of Pixels in Spectrum: 2048
>>>>>Begin Spectral Data<<<<<
341.393	-7.82
341.776	-7.82
342.16	-7.82
342.543	-60.48
342.927	-77.65
343.31	-83.08
343.693	-71.78
344.077	-65.45
344.46	-53.93
344.843	-60.03
345.226	-52.34
345.61	-10.54
345.993	-24.1
346.376	-0.14
346.759	5.73
347.142	21.78
347.525	47.99
347.908	64.04
348.291	73.08
348.674	90.93
349.057	117.82
349.44	125.05
349.823	157.82
350.206	172.28
350.588	248.67
350.971	243.24
351.354	269
351.737	275.33
352.119	292.28
352.502	313.97
352.884	325.95
353.267	320.3
353.65	360.08
354.032	342
354.414	372.5
354.797	369.34
355.179	378.15
355.562	390.58
355.944	373.41
356.326	393.52
356.709	397.81
357.091	401.66
357.473	395.78
357.855	402.56
358.238	412.96
358.62	405.05
359.002	410.92
359.384	419.73
359.766	412.05
360.148	417.02
360.53	447.98
360.912	393.29
361.294	405.72
361.676	431.49
362.057	428.77
362.439	408.21
362.821	431.71
363.203	409.57
363.584	417.47
363.966	411.15
364.348	420.64
364.729	439.17
365.111	426.06
365.493	412.73
365.874	436.01
366.256	429.45
366.637	421.09
367.019	432.62
367.4	434.42
367.781	413.86
368.163	456.12
368.544	446.17
368.925	439.85
369.306	418.15
369.688	454.08
370.069	441.66
370.45	415.89
370.831	442.11
371.212	441.66
371.593	443.91
371.974	452.5
372.355	445.72
372.736	443.01
373.117	482.11
373.498	482.56
373.879	474.65
374.26	474.42
374.641	465.16
375.021	436.68
375.402	491.37
375.783	507.42
376.163	524.14
376.544	527.3
376.925	506.96
377.305	507.19
377.686	498.83
378.066	500.86
378.447	495.66
378.827	514.65
379.208	523.91
379.588	527.3
379.968	556.23
380.349	540.86
380.729	524.14
381.109	557.13
381.489	556.45
381.87	546.06
382.25	569.34
382.63	566.62
383.01	563.23
383.39	578.37
383.77	596.23
384.15	594.42
384.53	605.27
384.91	630.58
385.29	633.51
385.67	630.58
386.049	634.87
386.429	653.63
386.809	636
387.189	654.76
387.568	670.12
387.948	648.88
388.328	685.04
388.707	678.94
389.087	706.28
389.466	704.47
389.846	726.39
390.225	712.83
390.605	729.33
390.984	734.08
391.363	744.7
391.743	766.39
392.122	749.44
392.501	777.69
392.881	792.38
393.26	778.6
393.639	798.26
394.018	806.17
394.397	807.75
394.776	814.07
395.155	822.44
395.534	833.74
395.913	814.53
396.292	865.6
396.671	870.34
397.05	864.24
397.429	871.25
397.808	896.11
398.186	917.8
398.565	906.28
398.944	932.26
399.323	934.07
399.701	931.59
400.08	960.29
400.458	955.31
400.837	970.23
401.215	970.45
401.594	996.67
401.972	989.89
402.351	1008.87
402.729	1037.8
403.107	1041.19
403.486	1066.95
403.864	1060.4
404.242	1071.92
404.62	1090.68
404.999	1086.38
405.377	1121.19
405.755	1134.52
406.133	1151.92
406.511	1173.84
406.889	1169.77
407.267	1203.44
407.645	1240.5
408.023	1217.45
408.401	1222.43
408.779	1273.5
409.156	1291.8
409.534	1303.1
409.912	1340.61
410.29	1361.86
410.667	1375.64
411.045	1375.19
411.422	1414.28
411.8	1379.48
412.178	1433.04
412.555	1456.09
412.933	1469.88
413.31	1520.04
413.687	1556.43
414.065	1529.76
414.442	1551
414.819	1572.92
415.197	1599.82
415.574	1626.48
415.951	1666.03
416.328	1667.39
416.705	1659.02
417.082	1669.87
417.46	1707.16
417.837	1727.04
418.214	1759.59
418.591	1779.25
418.967	1777.67
419.344	1805.24
419.721	1842.97
420.098	1825.57
420.475	1871.45
420.852	1879.36
421.228	1891.79
421.605	1927.72
421.982	1956.42
422.358	1976.08
422.735	2010.88
423.111	2006.81
423.488	2039.58
423.864	2066.25
424.241	2109.63
424.617	2124.77
424.994	2142.18
425.37	2154.6
425.746	2186.92
426.123	2195.73
426.499	2212.91
426.875	2243.19
427.251	2273.7
427.627	2350.53
428.003	2361.83
428.379	2382.17
428.756	2433.02
429.132	2460.13
429.507	2499.45
429.883	2545.1
430.259	2588.94
430.635	2620.58
431.011	2635.72
431.387	2715.49
431.763	2751.65
432.138	2787.36
432.514	2809.05
432.89	2819.45
433.265	2878.88
433.641	2909.84
434.016	2953.68
434.392	3014.24
434.767	3042.49
435.143	3063.96
435.518	3078.42
435.894	3167.91
436.269	3127.69
436.644	3206.1
437.02	3265.08
437.395	3286.33
437.77	3358.64
438.145	3367.91
438.52	3397.28
438.895	3437.51
439.271	3471.18
439.646	3511.18
440.021	3584.85
440.395	3637.96
440.77	3577.17
441.145	3628.69
441.52	3736.03
441.895	3731.74
442.27	3743.94
442.645	3774.9
443.019	3804.73
443.394	3832.53
443.769	3907.55
444.143	3826.42
444.518	3923.37
444.892	3926.31
445.267	3980.32
445.641	4006.08
446.016	4032.97
446.39	4047.89
446.764	4127.43
447.139	4104.38
447.513	4157.26
447.887	4190.03
448.262	4237.94
448.636	4269.58
449.01	4340.99
449.384	4347.77
449.758	4417.82
450.132	4454.43
450.506	4466.63
450.88	4493.3
451.254	4535.56
451.628	4645.16
452.002	4665.72
452.376	4692.16
452.75	4715.67
453.123	4781.43
453.497	4854.19
453.871	4914.98
454.244	5033.4
454.618	5040.4
454.992	5083.79
455.365	5109.78
455.739	5294.18
456.112	5324.69
456.486	5362.66
456.859	5421.41
457.232	5531.92
457.606	5574.85
457.979	5652.14
458.352	5744.34
458.725	5826.6
459.099	5888.07
459.472	5985.92
459.845	6068.85
460.218	6093.48
460.591	6104.33
460.964	6188.62
461.337	6378
461.71	6469.97
462.083	6510.42
462.456	6549.97
462.829	6518.56
463.201	6697.76
463.574	6795.16
463.947	6778.66
464.32	6978.21
464.692	7037.19
465.065	7146.56
465.438	7199.44
465.81	7384.3
466.183	7437.18
466.555	7567.12
466.928	7646.66
467.3	7668.36
467.672	7818.18
468.045	8029.93
468.417	8027.9
468.789	8099.53
469.161	8208.91
469.534	8412.07
469.906	8518.05
470.278	8594.89
470.65	8695.9
471.022	8895.22
471.394	9039.4
471.766	9128.88
472.138	9245.04
472.51	9388.31
472.882	9579.04
473.253	9686.84
473.625	9828.07
473.997	10056.09
474.369	10081.4
474.74	10277.33
475.112	10515.51
475.484	10731.1
475.855	10770.87
476.227	10920.25
476.598	11294.7
476.97	11386
477.341	11665.99
477.713	11810.62
478.084	11933.56
478.455	12248.12
478.827	12354.34
479.198	12734.21
479.569	12800.65
479.94	13119.97
480.311	13265.05
480.682	13542.1
481.053	13799.27
481.424	13996.55
481.795	14218.69
482.166	14364.45
482.537	14530.1
482.908	14929.18
483.279	15013.93
483.65	15270.64
484.021	15660.01
484.391	15787.69
484.762	16028.36
485.133	16151.3
485.503	16384.96
485.874	16839.42
486.244	16941.11
486.615	17330.48
486.985	17608.89
487.356	17831.48
487.726	18066.5
488.097	18428.75
488.467	18571.35
488.837	18861.96
489.207	19118
489.578	19409.29
489.948	19477.76
490.318	19797.08
490.688	19920.46
491.058	20209.95
491.428	20372.2
491.798	20682.48
492.168	21089.47
492.538	21153.65
492.908	21389.35
493.278	21610.14
493.648	21620.76
494.017	22028.43
494.387	22234.53
494.757	22431.81
495.126	22640.85
495.496	22766.27
495.866	22964.9
496.235	23262.07
496.605	23521.5
496.974	23723.08
497.344	23809.85
497.713	24045.33
498.082	24233.57
498.452	24555.37
498.821	24767.57
499.19	24753.11
499.559	25098.18
499.928	25230.83
500.298	25380.43
500.667	25648.45
501.036	25750.14
501.405	25827.88
501.774	25952.85
502.143	26252.73
502.512	26346.06
502.88	26507.86
503.249	26593.06
503.618	26853.62
503.987	26991.47
504.356	27193.04
504.724	27276.43
505.093	27428.06
505.462	27630.77
505.83	27796.64
506.199	27994.83
506.567	28375.38
506.936	28334.48
507.304	28760.46
507.672	28907.12
508.041	29049.04
508.409	29378.07
508.777	29652.64
509.145	29878.85
509.514	29930.37
509.882	30263.7
510.25	30405.84
510.618	30646.06
510.986	30810.8
511.354	31144.8
511.722	31350.9
512.09	31619.37
512.458	31475.87
512.826	31869.08
513.193	32018.9
513.561	32269.52
513.929	32408.05
514.297	32817.98
514.664	32905.89
515.032	33092.32
515.4	33412.31
515.767	33568.47
516.135	33556.04
516.502	33651.18
516.869	34294.78
517.237	34328.9
517.604	34349.24
517.972	34824.25
518.339	35010.01
518.706	35045.94
519.073	35299.04
519.44	35649.09
519.808	36059.25
520.175	36133.6
520.542	36647.71
520.909	36828.04
521.276	37022.16
521.643	37502.15
522.009	37626.67
522.376	37950.95
522.743	38249.7
523.11	38588.67
523.477	38796.13
523.843	39111.6
524.21	39568.08
524.577	39823.22
524.943	39910.67
525.31	40047.17
525.676	40412.58
526.043	40679.69
526.409	40977.76
526.776	41378.43
527.142	41425.89
527.508	41712.21
527.874	41994.23
528.241	42234
528.607	42357.84
528.973	42728.68
529.339	42729.58
529.705	43107.65
530.071	43456.34
530.437	43630.8
530.803	43838.71
531.169	44077.12
531.535	44207.96
531.901	44347.17
532.267	44601.17
532.632	44955.74
532.998	45109.18
533.364	45531.32
533.73	45381.26
534.095	45817.64
534.461	45970.63
534.826	46304.63
535.192	46205.65
535.557	46833.43
535.923	46690.38
536.288	46876.82
536.653	47130.14
537.019	46951.39
537.384	47305.06
537.749	47461.66
538.114	47516.35
538.479	47613.97
538.845	47859.17
539.21	47832.05
539.575	47932.16
539.94	48063.68
540.305	48290.79
540.67	48249.66
541.034	48454.18
541.399	48673.38
541.764	48774.85
542.129	48868.86
542.494	49048.96
542.858	49239.24
543.223	49241.73
543.587	49371.22
543.952	49458.22
544.316	49670.42
544.681	49656.18
545.045	49878.1
545.41	49982.05
545.774	50262.27
546.138	50191.99
546.503	50354.92
546.867	50460.23
547.231	50666.78
547.595	50812.53
547.959	50895.02
548.324	50979.76
548.688	51108.8
549.052	51301.11
549.416	51334.78
549.779	51463.82
550.143	51521.89
550.507	51857.48
550.871	51866.29
551.235	51943.8
551.599	52026.06
551.962	52187.64
552.326	52212.95
552.689	52478.25
553.053	52299.5
553.417	52410.91
553.78	52820.62
554.143	52681.64
554.507	52839.6
554.87	52861.29
555.234	53138.57
555.597	53113.26
555.96	53318.23
556.323	53379.92
556.686	53501.5
557.05	53721.61
557.413	53778.11
557.776	53872.11
558.139	54084.99
558.502	54072.34
558.865	54149.62
559.228	54397.3
559.59	54552.1
559.953	54576.05
560.316	54964.52
560.679	54908.92
561.041	55140.78
561.404	55183.49
561.767	55423.71
562.129	55322.02
562.492	55601.79
562.854	55650.37
563.217	55668
563.579	55840.88
563.941	56031.38
564.304	56139.4
564.666	56243.8
565.028	56313.18
565.39	56415.55
565.753	56550.24
566.115	56640.63
566.477	56699.38
566.839	56772.6
567.201	56943.9
567.563	56939.15
567.925	57150.22
568.287	57184.34
568.648	57288.07
569.01	57361.29
569.372	57610.77
569.734	57453.72
570.095	57696.87
570.457	57773.48
570.819	57869.75
571.18	57798.34
571.542	57952.69
571.903	57994.27
572.265	58114.04
572.626	58175.28
572.987	58223.19
573.349	58264.09
573.71	58371.21
574.071	58464.99
574.432	58499.56
574.794	58694.36
575.155	58678.09
575.516	58611.42
575.877	58759.22
576.238	58770.74
576.599	58876.05
576.96	58900.91
577.32	58989.27
577.681	59031.75
578.042	59048.02
578.403	59049.61
578.763	59136.61
579.124	59193.1
579.485	59236.49
579.845	59311.52
580.206	59248.24
580.566	59296.6
580.927	59369.37
581.287	59411.18
581.648	59245.08
582.008	59397.62
582.368	59335.25
582.728	59430.16
583.089	59439.88
583.449	59454.79
583.809	59435.36
584.169	59454.11
584.529	59400.1
584.889	59659.08
585.249	59425.41
585.609	59434
585.969	59557.84
586.329	59448.47
586.688	59559.42
587.048	59534.11
587.408	59499.99
587.768	59512.42
588.127	59522.36
588.487	59504.73
588.846	59584.73
589.206	59481.01
589.565	59445.98
589.925	59545.64
590.284	59496.6
590.643	59595.35
591.003	59572.3
591.362	59660.44
591.721	59612.53
592.08	59552.87
592.44	59650.72
592.799	59657.95
593.158	59622.02
593.517	59629.93
593.876	59628.57
594.235	59642.58
594.593	59551.51
594.952	59713.32
595.311	59718.06
595.67	59685.52
596.029	59778.63
596.387	59776.14
596.746	59824.73
597.104	59753.99
597.463	59697.27
597.822	59843.48
598.18	59751.28
598.538	59677.16
598.897	59826.99
599.255	59712.86
599.613	60071.95
599.972	59898.85
600.33	59936.14
600.688	59850.71
601.046	59911.05
601.404	59947.66
601.762	59886.19
602.12	60030.14
602.478	60045.06
602.836	60059.07
603.194	60007.77
603.552	60057.26
603.91	59949.24
604.268	60093.87
604.625	60002.8
604.983	60153.98
605.341	60011.16
605.698	60098.39
606.056	60153.31
606.413	60111.95
606.771	60162.57
607.128	60201.67
607.485	60144.04
607.843	60123.02
608.2	60310.14
608.557	60400.3
608.914	60283.47
609.272	60408.89
609.629	60410.25
609.986	60453.18
610.343	60323.92
610.7	60603.69
611.057	60553.97
611.414	60451.6
611.771	60538.83
612.127	60551.71
612.484	60561.2
612.841	60687.53
613.198	60610.69
613.554	60564.82
613.911	60763.68
614.267	60668.55
614.624	60669.9
614.98	60741.31
615.337	60840.74
615.693	60793.97
616.05	60716.91
616.406	60821.31
616.762	60820.86
617.118	60812.5
617.475	60895.88
617.831	60936.34
618.187	60951.93
618.543	60927.52
618.899	61040.06
619.255	61032.15
619.611	60976.56
619.967	61041.87
620.323	61118.03
620.678	60998.48
621.034	60952.15
621.39	60971.81
621.746	60922.32
622.101	61130.91
622.457	60916.9
622.812	60991.02
623.168	61048.2
623.523	60990.57
623.879	61117.8
624.234	60904.02
624.589	61006.39
624.945	61024.02
625.3	61033.28
625.655	61045.71
626.01	61021.76
626.365	60967.3
626.72	60953.96
627.075	60945.37
627.43	60937.69
627.785	60856.11
628.14	60956.45
628.495	60922.32
628.85	60884.81
629.205	60849.56
629.559	60915.09
629.914	60812.5
630.269	60812.95
630.623	60803.68
630.978	60737.24
631.332	60850.69
631.687	60785.83
632.041	60697.47
632.396	60766.62
632.75	60647.98
633.104	60669.9
633.459	60585.84
633.813	60584.03
634.167	60562.79
634.521	60583.58
634.875	60617.02
635.229	60552.16
635.583	60372.73
635.937	60478.95
636.291	60414.54
636.645	60455.44
636.999	60309.46
637.352	60477.36
637.706	60280.31
638.06	60338.61
638.413	60293.19
638.767	60271.95
639.121	60331.15
639.474	60102.46
639.828	60090.93
640.181	60130.71
640.534	60113.98
640.888	59950.37
641.241	59913.31
641.594	59942.46
641.947	59980.65
642.301	59882.58
642.654	59921.45
643.007	59858.4
643.36	59842.58
643.713	59775.24
644.066	59846.65
644.419	59640.32
644.771	59556.26
645.124	59320.33
645.477	59264.06
645.83	59092.32
646.182	58994.69
646.535	58864.53
646.888	58879.89
647.24	58763.96
647.593	58955.82
647.945	58803.96
648.298	58657.98
648.65	58619.79
649.002	58583.63
649.355	58702.72
649.707	58603.52
650.059	58731.42
650.411	59014.58
650.763	59064.75
651.115	59271.29
651.467	59112.2
651.819	59156.72
652.171	59068.81
652.523	59067.46
652.875	59041.24
653.227	58998.76
653.578	59066.55
653.93	58917.41
654.282	58895.49
654.633	58834.02
654.985	58854.13
655.337	58853
655.688	58856.62
656.039	58972.55
656.391	58749.73
656.742	58791.76
657.094	58777.52
657.445	58865.66
657.796	58845.77
658.147	58766.22
658.498	58803.96
658.849	58752.89
659.2	58749.5
659.551	58569.39
659.902	58683.97
660.253	58674.93
660.604	58659.33
660.955	58432.67
661.306	58583.63
661.656	58490.52
662.007	58486.23
662.358	58517.42
662.708	58439.9
663.059	58398.78
663.409	58189.06
663.76	58494.14
664.11	58378.21
664.461	58438.32
664.811	58336.18
665.161	58311.32
665.511	58270.64
665.862	58263.19
666.212	58363.75
666.562	58263.41
666.912	58287.59
667.262	58232
667.612	58183.87
667.962	58240.59
668.312	58200.81
668.662	58288.04
669.011	58164.66
669.361	58074.94
669.711	58044.21
670.06	58088.05
670.41	58001.5
670.76	57859.81
671.109	58038.33
671.459	57954.04
671.808	57900.03
672.157	57977.32
672.507	57829.98
672.856	57924.66
673.205	58006.92
673.554	57981.39
673.904	57827.04
674.253	58021.38
674.602	57893.93
674.951	57515.86
675.3	57457.78
675.649	57771.9
675.998	57744.33
676.346	57724.67
676.695	57836.53
677.044	57617.55
677.393	57827.72
677.741	57791.56
678.09	57722.86
678.438	57626.37
678.787	57675.18
679.135	57669.3
679.484	57412.13
679.832	57570.32
680.181	57373.94
680.529	57382.53
680.877	57429.99
681.225	57263.44
681.573	57451
681.922	57261.63
682.27	57156.55
682.618	57123.55
682.966	57067.74
683.314	57100.28
683.661	56991.13
684.009	56901.19
684.357	56786.61
684.705	56720.85
685.053	56682.21
685.4	56721.76
685.748	56617.58
686.095	56550.46
686.443	56492.61
686.79	56461.88
687.138	56485.15
687.485	56381.2
687.832	56329
688.18	56377.81
688.527	56054.2
688.874	56142.34
689.221	56012.62
689.568	56037.48
689.915	55962
690.262	55929.46
690.609	55783.7
690.956	55660.09
691.303	55702.8
691.65	55527.21
691.997	55548.23
692.344	55438.4
692.69	55344.62
693.037	55424.16
693.383	55101.46
693.73	55293.55
694.077	55035.7
694.423	55069.82
694.769	55055.81
695.116	54824.41
695.462	54906.44
695.808	54885.87
696.155	54920.22
696.501	54772.66
696.847	54614.47
697.193	54472.55
697.539	54551.19
697.885	54369.5
698.231	54366.11
698.577	54256.06
698.923	54086.35
699.269	53937.65
699.614	53811.1
699.96	53852.91
700.306	53842.06
700.651	53769.07
700.997	53552.12
701.342	53535.63
701.688	53574.72
702.033	53404.56
702.379	53324.11
702.724	53227.61
703.069	53323.88
703.415	52901.97
703.76	52840.5
704.105	52943.1
704.45	52840.28
704.795	52600.74
705.14	52473.51
705.485	52478.48
705.83	52358.48
706.175	52372.27
706.52	52203.01
706.865	52035.1
707.209	52014.08
707.554	51869
707.899	51886.18
708.243	51678.95
708.588	51724.37
708.932	51410.94
709.277	51569.12
709.621	51416.13
709.966	51128.46
710.31	51275.35
710.654	51078.06
710.998	51105.86
711.342	51027.44
711.687	50930.72
712.031	50746.77
712.375	50634.23
712.719	50737.96
713.063	50633.78
713.407	50722.59
713.75	50500.23
714.094	50495.48
714.438	50396.95
714.782	50303.85
715.125	50121.48
715.469	50235.15
715.812	49991.54
716.156	49867.93
716.499	49896.17
716.843	49952.9
717.186	49731.88
717.53	49820.92
717.873	49802.84
718.216	49645.11
718.559	49556.52
718.902	49309.52
719.246	49393.36
719.589	49345.23
719.932	49225.68
720.275	49190.66
720.617	49099.13
720.96	49047.83
721.303	49100.94
721.646	48961.74
721.989	48726.04
722.331	48800.16
722.674	48680.39
723.016	48644
723.359	48626.38
723.701	48621.86
724.044	48460.51
724.386	48232.94
724.729	48434.29
725.071	48202.21
725.413	48222.32
725.755	48184.35
726.097	47918.6
726.439	47775.55
726.782	47662.79
727.124	47846.96
727.465	47646.29
727.807	47523.81
728.149	47410.36
728.491	47349.35
728.833	47418.95
729.175	47199.97
729.516	47074.33
729.858	46897.38
730.199	46910.94
730.541	46798.4
730.882	46867.1
731.224	46877.5
731.565	46613.77
731.906	46590.95
732.248	46554.57
732.589	46442.71
732.93	46159.77
733.271	46202.94
733.612	46207.68
733.953	46320.22
734.294	46050.17
734.635	45776.96
734.976	45865.32
735.317	45786.9
735.658	45665.55
735.999	45712.1
736.339	45483.41
736.68	45571.32
737.021	45447.93
737.361	45332.9
737.702	45511.66
738.042	45399.57
738.383	45258.78
738.723	45374.03
739.063	45258.1
739.404	45267.82
739.744	45117.99
740.084	44946.7
740.424	45099.69
740.764	44781.96
741.104	45076.19
741.444	44868.74
741.784	44553.26
742.124	44713.26
742.464	44746.93
742.804	44543.55
743.143	44493.38
743.483	44426.71
743.823	44241.18
744.162	44152.14
744.502	44391.69
744.841	44047.51
745.181	44222.88
745.52	44037.57
745.86	44072.82
746.199	43867.86
746.538	43873.06
746.877	43860.4
747.216	43756.67
747.556	43746.05
747.895	43620.41
748.234	43505.38
748.573	43396.01
748.911	43374.99
749.25	43291.83
749.589	43144.49
749.928	43059.74
750.267	43002.34
750.605	42870.82
750.944	42786.76
751.283	42624.27
751.621	42694.33
751.96	42408.46
752.298	42395.35
752.636	42308.12
