Data from aluminium_surface_pro_back_FLMS001491_00001.txt Node
Date: Wed Feb 08 15:33:28 GMT 2017
User: dcchb
Spectrometer: FLMS00149
Trigger mode: 0
Integration Time (sec): 2.000000E-2
Scans to average: 10
Electric dark correction enabled: true
Nonlinearity correction enabled: false
Boxcar width: 0
XAxis mode: Wavelengths
Number of Pixels in Spectrum: 2048
>>>>>Begin Spectral Data<<<<<
341.393	12.02
341.776	12.02
342.16	12.02
342.543	-49.67
342.927	-62.78
343.31	-63.46
343.693	-56.23
344.077	-67.3
344.46	-73.85
344.843	-47.41
345.226	-47.19
345.61	-42.67
345.993	-28.88
346.376	-0.86
346.759	22.19
347.142	35.52
347.525	37.1
347.908	52.47
348.291	78.46
348.674	97.21
349.057	104.9
349.44	136.54
349.823	135.63
350.206	173.6
350.588	214.27
350.971	242.3
351.354	245.91
351.737	264.89
352.119	308.73
352.502	296.31
352.884	312.12
353.267	306.47
353.65	336.76
354.032	346.93
354.414	341.95
354.797	340.37
355.179	348.51
355.562	370.65
355.944	383.08
356.326	353.71
356.709	379.47
357.091	362.74
357.473	378.56
357.855	361.16
358.238	391.67
358.62	360.94
359.002	367.26
359.384	374.04
359.766	350.09
360.148	387.6
360.53	380.82
360.912	367.49
361.294	370.2
361.676	399.35
362.057	387.38
362.439	373.59
362.821	378.34
363.203	363.2
363.584	384.67
363.966	384.21
364.348	353.93
364.729	380.6
365.111	384.21
365.493	374.5
365.874	368.17
366.256	337.21
366.637	376.76
367.019	363.65
367.4	384.21
367.781	379.02
368.163	374.95
368.544	375.85
368.925	373.59
369.306	405
369.688	394.16
370.069	391.67
370.45	385.34
370.831	377.43
371.212	393.25
371.593	389.18
371.974	350.77
372.355	402.52
372.736	398.68
373.117	391.67
373.498	382.63
373.879	398.68
374.26	391.44
374.641	377.21
375.021	387.6
375.402	399.35
375.783	420.6
376.163	419.69
376.544	429.18
376.925	437.54
377.305	412.46
377.686	435.29
378.066	423.99
378.447	434.61
378.827	423.53
379.208	436.42
379.588	433.03
379.968	442.06
380.349	452.23
380.729	444.32
381.109	452.69
381.489	464.21
381.87	454.04
382.25	430.09
382.63	441.16
383.01	474.38
383.39	478.67
383.77	475.06
384.15	485.23
384.53	468.05
384.91	498.79
385.29	521.61
385.67	478.9
386.049	523.42
386.429	506.47
386.809	510.99
387.189	501.5
387.568	506.7
387.948	505.79
388.328	550.76
388.707	545.79
389.087	540.82
389.466	550.08
389.846	570.42
390.225	566.81
390.605	575.17
390.984	576.52
391.363	562.97
391.743	579.91
392.122	576.98
392.501	583.76
392.881	594.83
393.26	606.13
393.639	619.69
394.018	610.42
394.397	618.78
394.776	640.93
395.155	656.97
395.534	659.01
395.913	636.41
396.292	639.12
396.671	675.05
397.05	670.76
397.429	668.95
397.808	688.39
398.186	707.82
398.565	710.98
398.944	687.03
399.323	720.93
399.701	712.79
400.08	703.75
400.458	723.87
400.837	748.72
401.215	763.19
401.594	746.24
401.972	786.01
402.351	775.62
402.729	760.93
403.107	809.29
403.486	788.5
403.864	836.4
404.242	807.93
404.62	828.04
404.999	826.24
405.377	854.48
405.755	855.39
406.133	894.48
406.511	861.71
406.889	892.9
407.267	907.36
407.645	905.56
408.023	933.13
408.401	917.31
408.779	931.09
409.156	989.39
409.534	979.45
409.912	986.23
410.29	1007.02
410.667	1018.77
411.045	1045.89
411.422	1044.08
411.8	1040.47
412.178	1072.78
412.555	1104.87
412.933	1099.67
413.31	1115.04
413.687	1103.52
414.065	1146.23
414.442	1144.19
414.819	1155.94
415.197	1160.92
415.574	1174.25
415.951	1201.14
416.328	1234.13
416.705	1211.54
417.082	1236.17
417.46	1226.22
417.837	1251.99
418.214	1261.7
418.591	1315.49
418.967	1307.35
419.344	1316.39
419.721	1348.48
420.098	1333.57
420.475	1364.07
420.852	1369.05
421.228	1366.11
421.605	1412.89
421.982	1404.07
422.358	1436.16
422.735	1436.84
423.111	1444.75
423.488	1464.41
423.864	1505.54
424.241	1547.35
424.617	1535.14
424.994	1531.3
425.37	1545.31
425.746	1606.78
426.123	1597.29
426.499	1590.51
426.875	1626.21
427.251	1647.46
427.627	1683.39
428.003	1690.62
428.379	1729.49
428.756	1720.68
429.132	1765.42
429.507	1806.32
429.883	1814.91
430.259	1829.15
430.635	1861.01
431.011	1875.02
431.387	1908.01
431.763	1953.89
432.138	1974.91
432.514	1993.89
432.89	1983.72
433.265	2044.96
433.641	2043.38
434.016	2067.78
434.392	2105.07
434.767	2190.04
435.143	2160.66
435.518	2158.4
435.894	2214.67
436.269	2206.54
436.644	2291.51
437.02	2278.4
437.395	2327.66
437.77	2376.25
438.145	2368.79
438.52	2396.14
438.895	2435.46
439.271	2416.48
439.646	2481.33
440.021	2544.61
440.395	2498.73
440.77	2496.93
441.145	2506.42
441.52	2573.31
441.895	2587.09
442.27	2585.51
442.645	2599.07
443.019	2660.76
443.394	2677.03
443.769	2725.62
444.143	2665.28
444.518	2743.47
444.892	2725.39
445.267	2752.74
445.641	2803.81
446.016	2830.7
446.39	2880.19
446.764	2831.15
447.139	2865.73
447.513	2895.33
447.887	2921.55
448.262	2953.64
448.636	2952.06
449.01	2968.55
449.384	3002
449.758	3036.12
450.132	3085.61
450.506	3105.72
450.88	3141.88
451.254	3134.65
451.628	3178.72
452.002	3226.4
452.376	3267.53
452.75	3274.76
453.123	3307.53
453.497	3414.64
453.871	3378.48
454.244	3467.3
454.618	3498.03
454.992	3538.48
455.365	3516.79
455.739	3608.54
456.112	3663.45
456.486	3670.45
456.859	3724.69
457.232	3828.42
457.606	3808.53
457.979	3821.64
458.352	3937.79
458.725	3967.85
459.099	3979.82
459.472	4075.42
459.845	4143.66
460.218	4169.65
460.591	4216.65
460.964	4271.12
461.337	4345.24
461.71	4402.19
462.083	4435.63
462.456	4424.33
462.829	4520.15
463.201	4581.84
463.574	4590.2
463.947	4659.35
464.32	4759.69
464.692	4820.03
465.065	4889.63
465.438	4937.09
465.81	4991.55
466.183	5122.62
466.555	5167.14
466.928	5225.67
467.3	5188.83
467.672	5319.68
468.045	5403.06
468.417	5424.76
468.789	5502.27
469.161	5565.32
469.534	5627.01
469.906	5737.74
470.278	5833.79
470.65	5863.17
471.022	5981.58
471.394	6089.37
471.766	6195.81
472.138	6258.63
472.51	6394
472.882	6510.61
473.253	6547.67
473.625	6598.74
473.997	6747.89
474.369	6806.64
474.74	6893.19
475.112	7036.47
475.484	7207.54
475.855	7279.4
476.227	7373.41
476.598	7574.31
476.97	7640.29
477.341	7769.56
477.713	7893.62
478.084	8000.96
478.455	8198.02
478.827	8289.09
479.198	8559.37
479.569	8511.01
479.94	8863.76
480.311	8894.95
480.682	9066.24
481.053	9304.2
481.424	9343.53
481.795	9548.04
482.166	9587.81
482.537	9764.53
482.908	10022.38
483.279	10108.7
483.65	10279.32
484.021	10445.87
484.391	10512.76
484.762	10694.45
485.133	10853.99
485.503	11001.79
485.874	11202.91
486.244	11338.28
486.615	11601.77
486.985	11660.07
487.356	11885.83
487.726	12039.5
488.097	12293.5
488.467	12247.86
488.837	12604.46
489.207	12702.99
489.578	12889.65
489.948	13030.89
490.318	13201.96
490.688	13275.63
491.058	13493.47
491.428	13662.96
491.798	13764.43
492.168	14111.99
492.538	14113.8
492.908	14198.54
493.278	14557.17
493.648	14515.14
494.017	14815.7
494.387	14823.16
494.757	15080.78
495.126	15159.42
495.496	15264.27
495.866	15355.57
496.235	15552.18
496.605	15674.88
496.974	15783.81
497.344	15950.13
497.713	16086.17
498.082	16166.85
498.452	16365.04
498.821	16486.61
499.19	16609.78
499.559	16742.88
499.928	16902.65
500.298	17020.16
500.667	17230.78
501.036	17125.02
501.405	17248.63
501.774	17403.2
502.143	17599.58
502.512	17591.9
502.88	17873.02
503.249	17838.22
503.618	17922.06
503.987	18073.47
504.356	18253.35
504.724	18334.48
505.093	18343.97
505.462	18377.41
505.83	18657.4
506.199	18876.83
506.567	19159.09
506.936	19046.55
507.304	19339.42
507.672	19380.55
508.041	19420.1
508.409	19630.03
508.777	19817.83
509.145	19933.76
509.514	20039.29
509.882	20279.28
510.25	20392.5
510.618	20511.14
510.986	20578.48
511.354	20815.54
511.722	21035.87
512.09	21395.19
512.458	21288.07
512.826	21524
513.193	21579.14
513.561	21660.49
513.929	21960.14
514.297	22123.53
514.664	22216.86
515.032	22299.8
515.4	22540.47
515.767	22514.48
516.135	22786.79
516.502	22762.16
516.869	23191.75
517.237	23351.29
517.604	23259.09
517.972	23523.27
518.339	23771.85
518.706	23797.16
519.073	23961.22
519.44	24118.96
519.808	24379.29
520.175	24413.19
520.542	24790.35
520.909	24886.39
521.276	24892.27
521.643	25292.26
522.009	25435.53
522.376	25561.86
522.743	25790.78
523.11	26036.87
523.477	26353.7
523.843	26323.87
524.21	26763.18
524.577	26967.02
524.943	27085.88
525.31	27374.92
525.676	27535.14
526.043	27785.07
526.409	27822.14
526.776	28278.17
527.142	28353.42
527.508	28619.18
527.874	28767.87
528.241	28926.06
528.607	28979.17
528.973	29318.82
529.339	29437.69
529.705	29644.91
530.071	29901.86
530.437	30123.54
530.803	30411.22
531.169	30462.52
531.535	30347.49
531.901	30638.78
532.267	30615.51
532.632	30872.22
532.998	31114.93
533.364	31207.36
533.73	31375.71
534.095	31655.48
534.461	31729.38
534.826	31918.07
535.192	32052.98
535.557	32312.87
535.923	32233.77
536.288	32494.78
536.653	32655
537.019	32487.55
537.384	32761.44
537.749	32985.62
538.114	32996.01
538.479	33073.52
538.845	33506.96
539.21	33445.04
539.575	33519.16
539.94	33586.96
540.305	33818.81
540.67	33735.88
541.034	33931.35
541.399	34057
541.764	34195.53
542.129	34326.6
542.494	34412.02
542.858	34427.39
543.223	34662.18
543.587	34866.7
543.952	34932.46
544.316	35025.56
544.681	35021.27
545.045	35307.59
545.41	35346.23
545.774	35413.35
546.138	35566.34
546.503	35723.4
546.867	35770.85
547.231	36028.47
547.595	36058.98
547.959	36226.21
548.324	36396.6
548.688	36368.35
549.052	36539.87
549.416	36620.77
549.779	36769.47
550.143	36866.87
550.507	37055.79
550.871	37138.73
551.235	37098.73
551.599	37482.22
551.962	37471.6
552.326	37557.25
552.689	37745.26
553.053	37647.64
553.417	37844.02
553.78	38242.2
554.143	38157.23
554.507	38318.13
554.87	38429.54
555.234	38879.02
555.597	38648.52
555.96	39034.5
556.323	39034.95
556.686	39154.72
557.05	39399.01
557.413	39455.95
557.776	39825.44
558.139	39981.36
558.502	40089.38
558.865	40311.98
559.228	40510.84
559.59	40706.77
559.953	40616.83
560.316	41090.94
560.679	41177.49
561.041	41483.25
561.404	41608.44
561.767	41841.2
562.129	41765.72
562.492	42170.46
562.854	42176.11
563.217	42306.05
563.579	42470.56
563.941	42819.26
564.304	43106.93
564.666	43376.75
565.028	43299.69
565.39	43581.27
565.753	43915.5
566.115	43933.35
566.477	44157.53
566.839	44297.18
567.201	44502.83
567.563	44534.24
567.925	44879.31
568.287	44854
568.648	44918.64
569.01	45264.16
569.372	45603.59
569.734	45512.52
570.095	45692.63
570.457	45987.99
570.819	46100.75
571.18	46057.14
571.542	46288.32
571.903	46333.51
572.265	46497.58
572.626	46691.92
572.987	46805.37
573.349	46964.68
573.71	47236.09
574.071	47288.06
574.432	47475.63
574.794	47762.4
575.155	47782.06
575.516	47606.47
575.877	47882.4
576.238	47967.37
576.599	48022.28
576.96	48129.4
577.32	48167.82
577.681	48255.72
578.042	48507.47
578.403	48412.78
578.763	48534.36
579.124	48619.78
579.485	48788.82
579.845	48915.14
580.206	48796.5
580.566	48933.67
580.927	48980.68
581.287	49160.33
581.648	49224.74
582.008	49140.22
582.368	49176.6
582.728	49276.49
583.089	49265.41
583.449	49377.28
583.809	49412.53
584.169	49332.3
584.529	49349.03
584.889	49575.24
585.249	49391.29
585.609	49292.76
585.969	49582.47
586.329	49354.45
586.688	49589.7
587.048	49381.34
587.408	49353.09
587.768	49435.58
588.127	49411.4
588.487	49474
588.846	49782.46
589.206	49561.45
589.565	49550.6
589.925	49703.37
590.284	49717.83
590.643	49731.62
591.003	49823.59
591.362	49931.61
591.721	49830.82
592.08	49901.33
592.44	49955.79
592.799	49891.84
593.158	49777.72
593.517	49953.08
593.876	49877.83
594.235	49846.87
594.593	49788.79
594.952	49980.88
595.311	49905.85
595.67	49964.15
596.029	50180.42
596.387	50123.47
596.746	50156.01
597.104	50093.87
597.463	50026.75
597.822	50266.97
598.18	50018.39
598.538	50159.18
598.897	50302.22
599.255	50004.38
599.613	50556.45
599.972	50386.74
600.33	50422.22
600.688	50321.66
601.046	50394.2
601.404	50501.99
601.762	50465.83
602.12	50618.6
602.478	50636
602.836	50635.32
603.194	50512.16
603.552	50596.45
603.91	50424.03
604.268	50820.4
604.625	50704.25
604.983	50777.01
605.341	50630.8
605.698	50718.71
606.056	50771.36
606.413	50818.82
606.771	50928.19
607.128	50921.42
607.485	50872.15
607.843	50893.85
608.2	50989.89
608.557	51105.14
608.914	51021.07
609.272	51119.15
609.629	51256.77
609.986	51280.05
610.343	51134.07
610.7	51376.09
611.057	51256.55
611.414	51282.31
611.771	51301.29
612.127	51412.7
612.484	51309.43
612.841	51513.04
613.198	51346.04
613.554	51395.98
613.911	51587.84
614.267	51588.06
614.624	51513.72
614.98	51566.37
615.337	51838.45
615.693	51703.32
616.05	51632.58
616.406	51928.62
616.762	51789.87
617.118	51864.67
617.475	51856.76
617.831	51852.92
618.187	51927.94
618.543	51888.62
618.899	52116.41
619.255	52009.75
619.611	52103.98
619.967	52135.62
620.323	52187.82
620.678	52072.8
621.034	51927.72
621.39	52013.14
621.746	51847.72
622.101	52245.9
622.457	51983.76
622.812	52151.89
623.168	52108.73
623.523	52112.57
623.879	52173.59
624.234	52002.29
624.589	52160.93
624.945	52095.85
625.3	52145.34
625.655	52116.19
626.01	52035.51
626.365	52134.72
626.72	51894.05
627.075	51998.9
627.43	52018.11
627.785	51910.09
628.14	51972.24
628.495	52082.97
628.85	51963.65
629.205	51854.5
629.559	52039.13
629.914	51882.29
630.269	51840.71
630.623	51876.42
630.978	51875.74
631.332	51980.37
631.687	51959.58
632.041	51754.16
632.396	51930.65
632.75	51783.77
633.104	51855.4
633.459	51672.58
633.813	51625.8
634.167	51573.83
634.521	51580.16
634.875	51593.04
635.229	51527.05
635.583	51426.94
635.937	51312.82
636.291	51357.34
636.645	51359.14
636.999	51324.34
637.352	51374.28
637.706	51166.38
638.06	51241.63
638.413	51095.42
638.767	51098.81
639.121	51131.13
639.474	50960.74
639.828	50922.77
640.181	51011.81
640.534	50975.2
640.888	50868.54
641.241	50591.03
641.594	50758.48
641.947	50964.35
642.301	50711.03
642.654	50621.08
643.007	50687.98
643.36	50558.49
643.713	50565.72
644.066	50652.72
644.419	50355.55
644.771	50177.25
645.124	49844.61
645.477	49826.53
645.83	49584.05
646.182	49464.28
646.535	49381.34
646.888	49513.77
647.24	49234.68
647.593	49432.41
647.945	49264.96
648.298	49158.3
648.65	49111.75
649.002	49026.32
649.355	49229.03
649.707	48988.81
650.059	49225.87
650.411	49662.24
650.763	49708.57
651.115	50137.48
651.467	49982.46
651.819	49906.75
652.171	49780.2
652.523	49733.88
652.875	49965.51
653.227	49525.52
653.578	49914.21
653.93	49656.59
654.282	49517.61
654.633	49419.76
654.985	49386.54
655.337	49368.46
655.688	49445.52
656.039	49484.16
656.391	49116.04
656.742	49336.37
657.094	49314
657.445	49356.26
657.796	49121.01
658.147	49170.27
658.498	49158.98
658.849	49131.63
659.2	49174.34
659.551	48984.52
659.902	49107.45
660.253	48997.85
660.604	49090.5
660.955	48886.44
661.306	49153.78
661.656	48908.59
662.007	48963.73
662.358	48963.05
662.708	48943.39
663.059	48804.41
663.409	48600.57
663.76	49059.77
664.11	48795.6
664.461	48732.32
664.811	48701.59
665.161	48648.25
665.511	48574.13
665.862	48647.58
666.212	48613
666.562	48703.85
666.912	48466.34
667.262	48443.29
667.612	48328.26
667.962	48558.77
668.312	48455.72
668.662	48684.64
669.011	48473.57
669.361	48454.36
669.711	48440.58
670.06	48316.74
670.41	48238.55
670.76	48222.05
671.109	48393.12
671.459	48270.86
671.808	48137.53
672.157	48255.04
672.507	48081.49
672.856	48147.25
673.205	48205.1
673.554	48209.4
673.904	48138.66
674.253	48368.71
674.602	48125.1
674.951	47595.18
675.3	47343.2
675.649	48113.13
675.998	47963.08
676.346	47947.71
676.695	48018.67
677.044	47699.35
677.393	47688.51
677.741	47762.18
678.09	47626.81
678.438	47464.11
678.787	47655.96
679.135	47663.42
679.484	47319.7
679.832	47427.04
680.181	47245.13
680.529	47411.68
680.877	47383.66
681.225	47120.39
681.573	47287.61
681.922	47182.3
682.27	47014.85
682.618	47258.46
682.966	46933.27
683.314	47099.37
683.661	46867.28
684.009	46763.56
684.357	46641.3
684.705	46604.47
685.053	46604.47
685.4	46573.28
685.748	46419.16
686.095	46280.86
686.443	46204.7
686.79	46126.97
687.138	46181.43
687.485	46228.88
687.832	45984.37
688.18	46040.87
688.527	45731.95
688.874	45761.78
689.221	45666.64
689.568	45474.1
689.915	45445.18
690.262	45403.59
690.609	45208.12
690.956	45142.58
691.303	45197.5
691.65	44815.59
691.997	44938.07
692.344	44728.81
692.69	44715.48
693.037	44731.52
693.383	44387.8
693.73	44529.27
694.077	44336.05
694.423	44301.7
694.769	44160.46
695.116	44125.44
695.462	43881.37
695.808	43765.45
696.155	43856.06
696.501	43467.37
696.847	43490.65
697.193	43262.18
697.539	43293.37
697.885	43094.28
698.231	43186.25
698.577	43090.43
698.923	42947.39
699.269	42780.39
699.614	42422.88
699.96	42462.88
700.306	42468.53
700.651	42209.78
700.997	42173.85
701.342	42034.42
701.688	41936.34
702.033	41739.06
702.379	41877.13
702.724	41646.63
703.069	41815.67
703.415	41258.84
703.76	41257.04
704.105	41300.88
704.45	41206.42
704.795	40868.35
705.14	40788.35
705.485	40716.49
705.83	40633.78
706.175	40625.19
706.52	40510.84
706.865	40329.15
707.209	40242.37
707.554	40269.04
707.899	40212.54
708.243	40024.3
708.588	39936.17
708.932	39710.64
709.277	39650.75
709.621	39643.07
709.966	39314.49
710.31	39491.66
710.654	39163.76
710.998	39169.41
711.342	39227.71
711.687	38941.62
712.031	38868.85
712.375	38764.9
712.719	38955.18
713.063	38626.6
713.407	38791.11
713.75	38477
714.094	38480.16
714.438	38294.85
714.782	38430.44
715.125	38064.35
715.469	38200.85
715.812	37984.58
716.156	37863.91
716.499	37932.15
716.843	38011.7
717.186	37706.17
717.53	37995.43
717.873	37776.45
718.216	37754.08
718.559	37553.18
718.902	37188.44
719.246	37429.11
719.589	37206.07
719.932	37015.34
720.275	37174.43
720.617	37099.41
720.96	37068.67
721.303	36920.43
721.646	36819.19
721.989	36637.05
722.331	36762.69
722.674	36528.57
723.016	36595.01
723.359	36485.41
723.701	36546.43
724.044	36346.21
724.386	36172.88
724.729	36256.94
725.071	36264.63
725.413	36204.29
725.755	36093.78
726.097	35952.09
726.439	35748.93
726.782	35932.88
727.124	35930.62
727.465	35648.6
727.807	35669.61
728.149	35605.21
728.491	35361.6
728.833	35505.32
729.175	35339.9
729.516	35296.52
729.858	35315.5
730.199	35214.26
730.541	35231.88
730.882	35132.68
731.224	35256.97
731.565	34922.06
731.906	35014.26
732.248	34908.95
732.589	34682.97
732.93	34643.65
733.271	34630.32
733.612	34653.59
733.953	34598.91
734.294	34346.48
734.635	34263.55
734.976	34435.07
735.317	34198.47
735.658	34249.31
735.999	34261.51
736.339	34137.45
736.68	34158.92
737.021	34076.21
737.361	33699.27
737.702	34185.58
738.042	33913.5
738.383	33806.16
738.723	33881.64
739.063	33733.84
739.404	33805.93
739.744	33720.96
740.084	33511.7
740.424	33547.86
740.764	33497.01
741.104	33642.77
741.444	33347.19
741.784	33208.43
742.124	33436.68
742.464	33195.55
742.804	33166.18
743.143	33092.96
743.483	33091.83
743.823	32845.05
744.162	32859.07
744.502	32820.2
744.841	32707.88
745.181	32775.9
745.52	32560.32
745.86	32732.29
746.199	32611.61
746.538	32537.04
746.877	32550.6
747.216	32544.27
747.556	32349.93
747.895	32290.94
748.234	32200.33
748.573	32156.26
748.911	32030.61
749.25	32058.41
749.589	31890.5
749.928	31845.08
750.267	31874.91
750.605	31779.55
750.944	31549.04
751.283	31535.03
751.621	31535.03
751.96	31347.69
752.298	31302.27
752.636	31291.65
752.975	31172.33
