Data from aluminium_macbook_case_FLMS001491_090.txt Node
Date: Tue Feb 07 10:44:18 GMT 2017
User: dcchb
Spectrometer: FLMS00149
Trigger mode: 0
Integration Time (sec): 2.000000E-2
Scans to average: 10
Electric dark correction enabled: true
Nonlinearity correction enabled: false
Boxcar width: 0
XAxis mode: Wavelengths
Number of Pixels in Spectrum: 2048
>>>>>Begin Spectral Data<<<<<
341.393	-17.88
341.776	-17.88
342.16	-17.88
342.543	-58.33
342.927	-60.14
343.31	-69.18
343.693	-77.09
344.077	-52
344.46	-50.2
344.843	-48.84
345.226	-41.61
345.61	-31.67
345.993	-29.41
346.376	-14.49
346.759	5.85
347.142	31.84
347.525	28.22
347.908	52.63
348.291	73.19
348.674	99.86
349.057	122.91
349.44	125.84
349.823	139.4
350.206	157.03
350.588	237.03
350.971	261.66
351.354	269.34
351.737	279.96
352.119	305.05
352.502	309.34
352.884	353.63
353.267	331.26
353.65	344.14
354.032	360.41
354.414	356.8
354.797	358.15
355.179	378.04
355.562	392.73
355.944	385.95
356.326	382.33
356.709	409.45
357.091	399.96
357.473	396.8
357.855	432.05
358.238	420.75
358.62	428.89
359.002	410.58
359.384	415.78
359.766	421.66
360.148	404.71
360.53	414.2
360.912	415.78
361.294	406.51
361.676	432.28
362.057	423.69
362.439	423.69
362.821	432.05
363.203	426.85
363.584	423.69
363.966	424.82
364.348	431.6
364.729	439.28
365.111	408.77
365.493	437.25
365.874	423.24
366.256	436.8
366.637	445.84
367.019	437.25
367.4	438.83
367.781	426.4
368.163	428.66
368.544	439.96
368.925	462.33
369.306	464.82
369.688	448.55
370.069	444.93
370.45	441.09
370.831	447.64
371.212	463.24
371.593	472.5
371.974	461.2
372.355	465.72
372.736	478.15
373.117	488.55
373.498	497.13
373.879	465.95
374.26	476.8
374.641	454.88
375.021	450.36
375.402	507.76
375.783	515.66
376.163	525.83
376.544	512.27
376.925	523.8
377.305	512.5
377.686	543.91
378.066	526.74
378.447	533.29
378.827	531.48
379.208	534.87
379.588	559.05
379.968	551.82
380.349	576.45
380.729	569
381.109	561.31
381.489	574.42
381.87	582.1
382.25	608.54
382.63	567.87
383.01	582.56
383.39	602.44
383.77	610.58
384.15	624.14
384.53	613.06
384.91	631.14
385.29	638.83
385.67	648.54
386.049	679.95
386.429	649.45
386.809	673.63
387.189	677.92
387.568	671.82
387.948	696.68
388.328	680.41
388.707	717.02
389.087	722.89
389.466	740.07
389.846	731.25
390.225	733.29
390.605	763.34
390.984	777.8
391.363	780.74
391.743	766.51
392.122	766.96
392.501	761.76
392.881	828.88
393.26	840.63
393.639	832.49
394.018	840.63
394.397	867.07
394.776	838.37
395.155	884.47
395.534	844.24
395.913	894.86
396.292	877.91
396.671	916.56
397.05	928.99
397.429	925.82
397.808	914.52
398.186	930.12
398.565	950.23
398.944	971.25
399.323	977.35
399.701	968.31
400.08	999.95
400.458	1006.27
400.837	1038.81
401.215	1019.38
401.594	1059.15
401.972	1059.38
402.351	1062.32
402.729	1068.87
403.107	1089.43
403.486	1118.36
403.864	1108.19
404.242	1138.7
404.62	1138.92
404.999	1165.82
405.377	1173.73
405.755	1185.7
406.133	1195.42
406.511	1217.57
406.889	1217.34
407.267	1274.06
407.645	1282.2
408.023	1281.07
408.401	1298.02
408.779	1335.76
409.156	1361.97
409.534	1365.59
409.912	1380.05
410.29	1426.37
410.667	1423.89
411.045	1444.45
411.422	1469.31
411.8	1489.42
412.178	1518.8
412.555	1518.8
412.933	1562.42
413.31	1597.67
413.687	1572.36
414.065	1596.31
414.442	1643.32
414.819	1681.06
415.197	1688.29
415.574	1697.78
415.951	1729.42
416.328	1746.59
416.705	1768.74
417.082	1777.1
417.46	1817.55
417.837	1854.84
418.214	1855.52
418.591	1836.31
418.967	1898.45
419.344	1896.87
419.721	1940.03
420.098	1918.34
420.475	1965.57
420.852	1979.58
421.228	2021.61
421.605	2036.98
421.982	2042.4
422.358	2063.87
422.735	2115.85
423.111	2108.39
423.488	2147.26
423.864	2157.66
424.241	2207.15
424.617	2215.28
424.994	2235.62
425.37	2257.09
425.746	2282.62
426.123	2342.96
426.499	2381.83
426.875	2371.89
427.251	2417.54
427.627	2481.26
428.003	2484.88
428.379	2540.7
428.756	2556.51
429.132	2565.33
429.507	2620.47
429.883	2688.04
430.259	2738.66
430.635	2742.05
431.011	2752.89
431.387	2830.41
431.763	2900.23
432.138	2880.8
432.514	2958.09
432.89	2976.16
433.265	3066.56
433.641	3113.11
434.016	3148.14
434.392	3177.74
434.767	3250.28
435.143	3229.72
435.518	3300.45
435.894	3299.55
436.269	3334.35
436.644	3399.2
437.02	3448.92
437.395	3491.63
437.77	3500.9
438.145	3559.43
438.52	3601.23
438.895	3602.36
439.271	3619.31
439.646	3749.25
440.021	3766.88
440.395	3793.09
440.77	3760.78
441.145	3765.52
441.52	3926.87
441.895	3898.4
442.27	3983.14
442.645	3914.67
443.019	4059.07
443.394	4057.27
443.769	4074.89
444.143	4062.01
444.518	4182.01
444.892	4092.97
445.267	4170.26
445.641	4230.14
446.016	4238.73
446.39	4280.09
446.764	4350.14
447.139	4315.34
447.513	4423.81
447.887	4440.98
448.262	4470.14
448.636	4525.95
449.01	4590.59
449.384	4617.03
449.758	4654.99
450.132	4699.51
450.506	4698.15
450.88	4730.92
451.254	4749.23
451.628	4851.14
452.002	4910.13
452.376	4917.81
452.75	5036
453.123	5046.39
453.497	5112.15
453.871	5172.72
454.244	5278.93
454.618	5285.93
454.992	5374.29
455.365	5423.11
455.739	5527.74
456.112	5563.44
456.486	5680.27
456.859	5739.71
457.232	5851.8
457.606	5826.94
457.979	5894.05
458.352	6015.86
458.725	6137.21
459.099	6181.73
459.472	6311.9
459.845	6369.52
460.218	6443.19
460.591	6502.63
460.964	6547.82
461.337	6666.92
461.71	6761.15
462.083	6853.12
462.456	6894.25
462.829	6923.63
463.201	7011.09
463.574	7077.98
463.947	7184.19
464.32	7369.72
464.692	7435.03
465.065	7444.97
465.438	7618.98
465.81	7810.39
466.183	7831.18
466.555	7967.45
466.928	8065.3
467.3	8086.09
467.672	8278.85
468.045	8425.74
468.417	8407.89
468.789	8475.91
469.161	8643.36
469.534	8906.18
469.906	9026.85
470.278	9078.6
470.65	9166.51
471.022	9404.02
471.394	9554.97
471.766	9557.69
472.138	9664.8
472.51	9989.31
472.882	10099.37
473.253	10234.96
473.625	10341.85
473.997	10609.86
474.369	10644.21
474.74	10869.52
475.112	11021.38
475.484	11209.85
475.855	11491.87
476.227	11550.4
476.598	11871.07
476.97	11992.2
477.341	12199.42
477.713	12391.06
478.084	12566.65
478.455	12881.67
478.827	12967.09
479.198	13465.38
479.569	13482.33
479.94	13767.29
480.311	13901.3
480.682	14354.17
481.053	14546.48
481.424	14757.55
481.795	14906.02
482.166	15182.4
482.537	15370.87
482.908	15694.02
483.279	15812.89
483.65	16210.17
484.021	16441.8
484.391	16729.48
484.762	16755.46
485.133	17020.32
485.503	17317.71
485.874	17689.45
486.244	17778.26
486.615	18171.7
486.985	18441.07
487.356	18738.91
487.726	18969.19
488.097	19286.24
488.467	19408.73
488.837	19868.15
489.207	20168.71
489.578	20395.37
489.948	20576.83
490.318	20956.03
490.688	20975.01
491.058	21315.12
491.428	21529.58
491.798	21784.94
492.168	22146.28
492.538	22333.17
492.908	22525.93
493.278	22839.37
493.648	22879.37
494.017	23202.07
494.387	23365.91
494.757	23624.66
495.126	23900.13
495.496	23944.65
495.866	24145.33
496.235	24447.46
496.605	24586.67
496.974	24948.24
497.344	25056.49
497.713	25133.1
498.082	25489.25
498.452	25745.51
498.821	26078.38
499.19	26030.47
499.559	26293.74
499.928	26503
500.298	26702.77
500.667	26930.56
501.036	27005.82
501.405	27175.75
501.774	27302.76
502.143	27594.5
502.512	27735.06
502.88	27998.11
503.249	28099.57
503.618	28184.99
503.987	28317.65
504.356	28399.9
504.724	28665.88
505.093	28791.53
505.462	29017.51
505.83	29218.41
506.199	29477.84
506.567	29774.56
506.936	29791.28
507.304	30236.01
507.672	30377.25
508.041	30513.97
508.409	30832.61
508.777	31193.5
509.145	31236.21
509.514	31286.38
509.882	31653.83
510.25	31708.06
510.618	32107.15
510.986	32280.25
511.354	32715.95
511.722	32823.52
512.09	33254.92
512.458	33170.62
512.826	33483.16
513.193	33737.39
513.561	33802.47
513.929	34164.05
514.297	34327.2
514.664	34680.42
515.032	34769.23
515.4	35061.65
515.767	35102.78
516.135	35360.17
516.502	35395.88
516.869	35964
517.237	36020.49
517.604	36128.97
517.972	36551.78
518.339	36785.22
518.706	36808.27
519.073	37017.08
519.44	37300.46
519.808	37747.91
520.175	37809.6
520.542	38345.86
520.909	38587.43
521.276	38621.78
521.643	39105.16
522.009	39418.6
522.376	39587.86
522.743	39874.63
523.11	40367.5
523.477	40753.48
523.843	40999.57
524.21	41354.82
524.577	41603.85
524.943	41816.73
525.31	42108.02
525.676	42411.74
526.043	42653.77
526.409	42726.76
526.776	43329.68
527.142	43409.45
527.508	43673.63
527.874	44071.81
528.241	44030
528.607	44237.68
528.973	44670.44
529.339	44581.17
529.705	45195.85
530.071	45616.17
530.437	45643.97
530.803	45875.38
531.169	46190.4
531.535	46123.28
531.901	46337.06
532.267	46555.13
532.632	46739.53
532.998	46900.21
533.364	47102.46
533.73	47306.75
534.095	47728.66
534.461	47870.13
534.826	48094.3
535.192	48315.31
535.557	48541.75
535.923	48470.79
536.288	48735.64
536.653	48963.43
537.019	48852.02
537.384	49181.05
537.749	49232.35
538.114	49432.8
538.479	49419.24
538.845	49628.95
539.21	49553.02
539.575	49769.06
539.94	49967.02
540.305	50222.15
540.67	50187.13
541.034	50298.08
541.399	50482.49
541.764	50529.94
542.129	50603.61
542.494	50823.49
542.858	50880.89
543.223	50929.93
543.587	51052.87
543.952	51149.59
544.316	51269.81
544.681	51306.42
545.045	51516.81
545.41	51742.34
545.774	51694.66
546.138	51825.28
546.503	52002.45
546.867	51882.9
547.231	52347.75
547.595	52345.94
547.959	52563.34
548.324	52449.67
548.688	52703.44
549.052	52837
549.416	52837.68
549.779	52943.66
550.143	53074.96
550.507	53306.59
550.871	53349.53
551.235	53360.15
551.599	53693.93
551.962	53676.3
552.326	53801.72
552.689	53953.13
553.053	53881.04
553.417	53996.74
553.78	54333.23
554.143	54230.41
554.507	54431.99
554.87	54455.94
555.234	54728.25
555.597	54536.16
555.96	54694.13
556.323	54874.91
556.686	54851.64
557.05	55110.39
557.413	55128.47
557.776	55260.89
558.139	55411.4
558.502	55550.15
558.865	55579.3
559.228	55796.7
559.59	55844.61
559.953	55890.71
560.316	56159.17
560.679	56190.58
561.041	56405.49
561.404	56481.65
561.767	56724.58
562.129	56687.52
562.492	56952.37
562.854	56995.08
563.217	57033.05
563.579	57135.19
563.941	57310.33
564.304	57364.79
564.666	57525.92
565.028	57576.08
565.39	57666.03
565.753	57772.92
566.115	57866.25
566.477	57995.06
566.839	58055.39
567.201	58195.96
567.563	58241.15
567.925	58470.52
568.287	58407.7
568.648	58533.57
569.01	58609.28
569.372	58740.12
569.734	58707.13
570.095	58834.36
570.457	58892.43
570.819	58983.73
571.18	58988.7
571.542	59165.42
571.903	59196.16
572.265	59276.38
572.626	59366.09
572.987	59403.83
573.349	59559.08
573.71	59581.23
574.071	59645.64
574.432	59733.32
574.794	59894.22
575.155	59831.62
575.516	59742.58
575.877	59953.2
576.238	59975.34
576.599	60103.02
576.96	60077.71
577.32	60135.79
577.681	60201.55
578.042	60326.75
578.403	60372.85
578.763	60352.51
579.124	60381.21
579.485	60438.38
579.845	60488.55
580.206	60418.72
580.566	60438.38
580.927	60535.78
581.287	60576.91
581.648	60463.69
582.008	60609.23
582.368	60608.55
582.728	60656.91
583.089	60530.81
583.449	60577.81
583.809	60565.61
584.169	60655.33
584.529	60530.81
584.889	60790.24
585.249	60611.03
585.609	60542.33
585.969	60670.69
586.329	60581.88
586.688	60657.13
587.048	60597.7
587.408	60620.98
587.768	60610.58
588.127	60709.11
588.487	60662.11
588.846	60765.83
589.206	60642.22
589.565	60624.14
589.925	60794.31
590.284	60761.09
590.643	60743.69
591.003	60774.87
591.362	60872.72
591.721	60837.02
592.08	60821.88
592.44	60855.55
592.799	60851.48
593.158	60789.11
593.517	60876.56
593.876	60867.52
594.235	60858.48
594.593	60856.45
594.952	60898.71
595.311	60788.43
595.67	60951.82
596.029	61001.31
596.387	61027.75
596.746	61053.73
597.104	60893.06
597.463	60893.51
597.822	60980.29
598.18	60907.52
598.538	60881.99
598.897	61074.75
599.255	60881.76
599.613	61170.34
599.972	60933.74
600.33	61045.82
600.688	60986.16
601.046	61051.02
601.404	61108.87
601.762	61018.93
602.12	61089.89
602.478	61138.7
602.836	61161.08
603.194	61025.03
603.552	61114.52
603.91	61016.45
604.268	61188.87
604.625	61133.28
604.983	61219.6
605.341	61221.64
605.698	61307.29
606.056	61377.57
606.413	61339.38
606.771	61361.75
607.128	61536.66
607.485	61405.14
607.843	61410.11
608.2	61583.66
608.557	61571.23
608.914	61578.47
609.272	61634.51
609.629	61646.71
609.986	61771.68
610.343	61598.13
610.7	61716.77
611.057	61807.16
611.414	61739.82
611.771	61712.02
612.127	61869.53
612.484	61835.18
612.841	61868.63
613.198	61744.34
613.554	61796.54
613.911	61944.56
614.267	61882.64
614.624	61858.68
614.98	61881.51
615.337	61976.2
615.693	61923.54
616.05	61900.49
616.406	61970.77
616.762	61936.87
617.118	61935.52
617.475	61954.73
617.831	61920.15
618.187	61955.86
618.543	61998.57
618.899	62184.55
619.255	62063.42
619.611	62058.9
619.967	62076.76
620.323	62118.34
620.678	62076.53
621.034	62007.61
621.39	62094.16
621.746	61990.88
622.101	62234.04
622.457	62061.62
622.812	62105.01
623.168	62143.2
623.523	62105.91
623.879	62256.19
624.234	62066.36
624.589	62178.22
624.945	62202.63
625.3	62273.14
625.655	62276.98
626.01	62273.81
626.365	62230.88
626.72	62220.03
627.075	62188.85
627.43	62213.93
627.785	62159.69
628.14	62198.11
628.495	62242.63
628.85	62189.75
629.205	62173.7
629.559	62240.6
629.914	62074.95
630.269	62045.12
630.623	62040.37
630.978	61984.56
631.332	62044.67
631.687	62076.98
632.041	61923.99
632.396	61973.71
632.75	61859.59
633.104	61867.72
633.459	61786.37
633.813	61711.34
634.167	61720.38
634.521	61630.67
634.875	61726.94
635.229	61670.21
635.583	61545.02
635.937	61532.37
636.291	61552.25
636.645	61504.8
636.999	61423.22
637.352	61510.67
637.706	61323.78
638.06	61448.75
638.413	61368.08
638.767	61307.51
639.121	61345.93
639.474	61213.96
639.828	61191.36
640.181	61235.65
640.534	61295.76
640.888	61134.18
641.241	61063.22
641.594	61088.31
641.947	61170.57
642.301	61071.81
642.654	61099.38
643.007	61067.07
643.36	61107.52
643.713	61005.83
644.066	61078.37
644.419	60997.01
644.771	60883.79
645.124	60620.07
645.477	60584.14
645.83	60399.29
646.182	60335.11
646.535	60252.17
646.888	60347.31
647.24	60172.17
647.593	60235
647.945	60142.35
648.298	60100.31
648.65	60002.46
649.002	59926.08
649.355	59992.74
649.707	59975.8
650.059	60024.38
650.411	60261.44
650.763	60300.08
651.115	60495.78
651.467	60420.76
651.819	60325.84
652.171	60289.46
652.523	60263.02
652.875	60234.09
653.227	60145.73
653.578	60241.78
653.93	60210.82
654.282	60089.69
654.633	60070.93
654.985	60017.38
655.337	60037.49
655.688	60020.54
656.039	60062.8
656.391	59871.84
656.742	59922.46
657.094	59897.38
657.445	59974.21
657.796	59897.15
658.147	59854.67
658.498	59856.48
658.849	59933.99
659.2	59870.94
659.551	59876.14
659.902	59929.24
660.253	59776.25
660.604	59910.03
660.955	59778.96
661.306	59891.5
661.656	59756.14
662.007	59786.65
662.358	59822.81
662.708	59792.52
663.059	59781.45
663.409	59689.7
663.76	59750.72
664.11	59721.79
664.461	59769.93
664.811	59819.19
665.161	59771.06
665.511	59693.09
665.862	59656.71
666.212	59798.63
666.562	59782.35
666.912	59682.24
667.262	59629.59
667.612	59621.45
667.962	59620.1
668.312	59530.84
668.662	59621
669.011	59609.93
669.361	59524.28
669.711	59459.88
670.06	59431.4
670.41	59383.27
670.76	59353.44
671.109	59418.07
671.459	59338.52
671.808	59208.58
672.157	59357.96
672.507	59099.89
672.856	59075.25
673.205	59188.25
673.554	59189.83
673.904	59096.95
674.253	59174.01
674.602	59080
674.951	58742.61
675.3	58616.51
675.649	59014.01
675.998	58960.23
676.346	59005.2
676.695	59007.23
677.044	58761.82
677.393	58883.4
677.741	58927.01
678.09	58862.83
678.438	58791.19
678.787	58838.2
679.135	58876.84
679.484	58723.4
679.832	58768.37
680.181	58701.93
680.529	58757.97
680.877	58656.06
681.225	58597.08
681.573	58746.68
681.922	58560.24
682.27	58520.24
682.618	58562.73
682.966	58435.05
683.314	58531.09
683.661	58458.55
684.009	58352.56
684.357	58303.75
684.705	58267.59
685.053	58261.04
685.4	58210.87
685.748	58090.2
686.095	58093.13
686.443	58030.54
686.79	57901.05
687.138	57990.54
687.485	58010.65
687.832	57863.08
688.18	57853.37
688.527	57769.75
688.874	57646.59
689.221	57658.34
689.568	57562.98
689.915	57475.75
690.262	57459.03
690.609	57362.76
690.956	57233.5
691.303	57218.35
691.65	57061.07
691.997	57064.01
692.344	56872.15
692.69	56791.25
693.037	56857.69
693.383	56615.43
693.73	56637.13
694.077	56500.41
694.423	56426.06
694.769	56358.04
695.116	56278.04
695.462	56237.36
695.808	56110.13
696.155	56167.31
696.501	56023.58
696.847	55997.6
697.193	55777.94
697.539	55856.81
697.885	55688.68
698.231	55634.44
698.577	55644.38
698.923	55551.51
699.269	55352.19
699.614	55261.12
699.96	55246.65
700.306	55283.26
700.651	55160.1
700.997	55010.28
701.342	54983.61
701.688	54917.85
702.033	54846.21
702.379	54798.08
702.724	54799.21
703.069	54921.92
703.415	54485.32
703.76	54587.69
704.105	54599.44
704.45	54458.88
704.795	54344.31
705.14	54215.72
705.485	54276.96
705.83	54109.74
706.175	54219.34
706.52	54055.95
706.865	53945.67
707.209	53836.97
707.554	53821.83
707.899	53826.81
708.243	53688.96
708.588	53707.26
708.932	53435.63
709.277	53405.8
709.621	53402.18
709.966	53167.39
710.31	53235.63
710.654	53002.87
710.998	53062.31
711.342	53077.67
711.687	52924.23
712.031	52679.72
712.375	52545.93
712.719	52660.06
713.063	52535.54
713.407	52667.29
713.75	52376.22
714.094	52303.91
714.438	52131.71
714.782	52016.91
715.125	52048.09
715.469	52121.31
715.812	51816.01
716.156	51722.91
716.499	51720.65
716.843	51637.94
717.186	51418.96
717.53	51614.43
717.873	51533.08
718.216	51432.29
718.559	51328.34
718.902	51079.76
719.246	51272.97
719.589	51099.19
719.932	50791.4
720.275	50808.58
720.617	50777.62
720.96	50620.56
721.303	50738.75
721.646	50628.7
721.989	50492.43
722.331	50662.82
722.674	50446.78
723.016	50484.29
723.359	50390.06
723.701	50357.52
724.044	50234.58
724.386	50049.05
724.729	50199.78
725.071	50046.34
725.413	50117.75
725.755	50095.83
726.097	49933.35
726.439	49788.72
726.782	49736.52
727.124	49989.39
727.465	49722.73
727.807	49749.62
728.149	49496.07
728.491	49499.46
728.833	49648.38
729.175	49476.64
729.516	49313.48
729.858	49362.52
730.199	49359.13
730.541	49311.44
730.882	49183.31
731.224	49233.48
731.565	48892.25
731.906	48968.18
732.248	49115.74
732.589	48795.52
732.93	48621.74
733.271	48656.09
733.612	48644.79
733.953	48690.89
734.294	48396.67
734.635	48412.94
734.976	48392.15
735.317	48218.59
735.658	48187.18
735.999	48089.33
736.339	47950.58
736.68	48082.1
737.021	47796.68
737.361	47583.81
737.702	47992.61
738.042	47799.39
738.383	47572.51
738.723	47452.51
739.063	47295.9
739.404	47230.14
739.744	47219.97
740.084	46912.41
740.424	47036.02
740.764	46930.04
741.104	47049.58
741.444	46747.44
741.784	46752.87
742.124	46634.45
742.464	46627.67
742.804	46471.74
743.143	46296.16
743.483	46291.41
743.823	46091.19
744.162	46105.43
744.502	46142.94
744.841	45881.25
745.181	46130.51
745.52	45791.99
745.86	45899.56
746.199	45777.53
746.538	45706.11
746.877	45724.87
747.216	45710.41
747.556	45614.59
747.895	45634.48
748.234	45261.15
748.573	45323.07
748.911	45239.01
749.25	45323.75
749.589	45135.96
749.928	45118.11
750.267	45140.71
750.605	44989.98
750.944	45009.18
751.283	44709.08
751.621	44804.44
