Data from aluminium_surface_pro_back_FLMS001491_00020.txt Node
Date: Wed Feb 08 15:33:42 GMT 2017
User: dcchb
Spectrometer: FLMS00149
Trigger mode: 0
Integration Time (sec): 2.000000E-2
Scans to average: 10
Electric dark correction enabled: true
Nonlinearity correction enabled: false
Boxcar width: 0
XAxis mode: Wavelengths
Number of Pixels in Spectrum: 2048
>>>>>Begin Spectral Data<<<<<
341.393	-30.54
341.776	-30.54
342.16	-30.54
342.543	-70.99
342.927	-44.77
343.31	-53.36
343.693	-75.51
344.077	-74.15
344.46	-58.56
344.843	-60.82
345.226	-32.8
345.61	-41.38
345.993	-29.18
346.376	6.75
346.759	22.12
347.142	13.3
347.525	42.46
347.908	57.82
348.291	75
348.674	96.01
349.057	112.29
349.44	106.86
349.823	131.49
350.206	155.45
350.588	230.25
350.971	226.18
351.354	248.55
351.737	263.24
352.119	285.61
352.502	282
352.884	306.18
353.267	314.31
353.65	324.71
354.032	308.66
354.414	339.4
354.797	330.13
355.179	346.86
355.562	355.67
355.944	344.82
356.326	357.48
356.709	365.39
357.091	348.66
357.473	371.71
357.855	373.97
358.238	399.74
358.62	372.17
359.002	376.01
359.384	368.55
359.766	383.69
360.148	376.91
360.53	362.22
360.912	366.06
361.294	373.3
361.676	373.52
362.057	361.77
362.439	356.8
362.821	361.77
363.203	353.86
363.584	343.69
363.966	382.79
364.348	380.3
364.729	380.3
365.111	380.75
365.493	358.15
365.874	357.25
366.256	366.97
366.637	360.64
367.019	376.91
367.4	372.17
367.781	369.23
368.163	376.69
368.544	340.3
368.925	357.48
369.306	380.07
369.688	363.35
370.069	358.83
370.45	374.43
370.831	384.82
371.212	365.16
371.593	387.53
371.974	366.06
372.355	380.75
372.736	369
373.117	377.81
373.498	402
373.879	382.79
374.26	392.73
374.641	381.2
375.021	378.94
375.402	398.38
375.783	421.88
376.163	433.86
376.544	422.79
376.925	406.06
377.305	414.42
377.686	415.1
378.066	410.36
378.447	429.34
378.827	440.41
379.208	428.66
379.588	432.5
379.968	439.28
380.349	437.25
380.729	436.34
381.109	457.81
381.489	446.97
381.87	434.76
382.25	463.01
382.63	488.55
383.01	442.45
383.39	451.26
383.77	484.25
384.15	469.56
384.53	483.35
384.91	481.77
385.29	496.23
385.67	484.93
386.049	489.9
386.429	497.36
386.809	503.91
387.189	498.04
387.568	524.48
387.948	529.68
388.328	525.38
388.707	525.16
389.087	525.83
389.466	547.3
389.846	528.55
390.225	570.58
390.605	567.41
390.984	569.45
391.363	568.54
391.743	580.75
392.122	561.09
392.501	601.99
392.881	606.96
393.26	610.8
393.639	604.7
394.018	625.27
394.397	617.36
394.776	635.21
395.155	627.75
395.534	638.15
395.913	622.78
396.292	667.07
396.671	659.16
397.05	655.55
397.429	660.07
397.808	689.9
398.186	668.65
398.565	691.48
398.944	697.13
399.323	713.85
399.701	694.87
400.08	713.4
400.458	717.47
400.837	735.77
401.215	757.92
401.594	761.53
401.972	753.4
402.351	762.66
402.729	787.07
403.107	768.54
403.486	780.74
403.864	813.06
404.242	797.92
404.62	808.09
404.999	830.91
405.377	840.4
405.755	856.22
406.133	859.61
406.511	855.99
406.889	870.23
407.267	879.5
407.645	906.61
408.023	916.78
408.401	936.44
408.779	932.38
409.156	954.75
409.534	955.65
409.912	952.94
410.29	999.27
410.667	992.26
411.045	1005.82
411.422	1024.35
411.8	1034.07
412.178	1052.37
412.555	1072.94
412.933	1105.71
413.31	1108.87
413.687	1119.49
414.065	1120.17
414.442	1131.02
414.819	1156.33
415.197	1156.55
415.574	1176.89
415.951	1163.78
416.328	1198.58
416.705	1217.57
417.082	1219.37
417.46	1220.73
417.837	1233.16
418.214	1247.17
418.591	1288.3
418.967	1278.58
419.344	1309.77
419.721	1338.92
420.098	1339.37
420.475	1340.5
420.852	1336.66
421.228	1339.37
421.605	1368.52
421.982	1357.22
422.358	1417.79
422.735	1413.27
423.111	1453.72
423.488	1448.75
423.864	1483.1
424.241	1471.8
424.617	1467.96
424.994	1509.08
425.37	1515.86
425.746	1540.72
426.123	1547.73
426.499	1596.99
426.875	1585.69
427.251	1599.25
427.627	1645.8
428.003	1679.48
428.379	1706.82
428.756	1709.31
429.132	1749.08
429.507	1744.11
429.883	1757.67
430.259	1806.7
430.635	1822.07
431.011	1836.76
431.387	1844.67
431.763	1891.22
432.138	1905.23
432.514	1935.29
432.89	1978
433.265	1996.53
433.641	1966.25
434.016	2022.97
434.392	2094.15
434.767	2108.16
435.143	2118.56
435.518	2149.97
435.894	2150.42
436.269	2171.44
436.644	2203.76
437.02	2200.37
437.395	2230.42
437.77	2285.34
438.145	2295.5
438.52	2353.58
438.895	2330.53
439.271	2336.63
439.646	2441.04
440.021	2404.43
440.395	2439
440.77	2434.94
441.145	2482.17
441.52	2540.92
441.895	2524.43
442.27	2552.9
442.645	2524.65
443.019	2594.71
443.394	2559.68
443.769	2621.6
444.143	2614.82
444.518	2681.48
444.892	2661.14
445.267	2696.17
445.641	2705.21
446.016	2737.75
446.39	2778.88
446.764	2796.06
447.139	2789.95
447.513	2839.22
447.887	2856.62
448.262	2847.58
448.636	2870.18
449.01	2919.44
449.384	2968.03
449.758	2947.92
450.132	2996.05
450.506	3038.76
450.88	3024.98
451.254	3055.48
451.628	3046.67
452.002	3122.38
452.376	3148.59
452.75	3195.59
453.123	3211.86
453.497	3236.04
453.871	3298.64
454.244	3354.69
454.618	3370.28
454.992	3417.73
455.365	3442.37
455.739	3514.68
456.112	3536.6
456.486	3549.03
456.859	3613.66
457.232	3660.44
457.606	3671.51
457.979	3736.82
458.352	3819.31
458.725	3888.01
459.099	3929.59
459.472	3965.29
459.845	4060.2
460.218	4076.93
460.591	4125.06
460.964	4113.54
461.337	4177.04
461.71	4278.96
462.083	4330.25
462.456	4354.21
462.829	4346.07
463.201	4456.13
463.574	4479.4
463.947	4545.61
464.32	4684.59
464.692	4676.91
465.065	4740.64
465.438	4793.52
465.81	4846.4
466.183	4918.49
466.555	5031.93
466.928	5070.12
467.3	5047.3
467.672	5137.46
468.045	5275.77
468.417	5287.97
468.789	5356.44
469.161	5412.26
469.534	5465.36
469.906	5583.33
470.278	5664.23
470.65	5735.41
471.022	5782.19
471.394	5949.87
471.766	6013.82
472.138	6051.11
472.51	6137.89
472.882	6294.04
473.253	6349.86
473.625	6429.18
473.997	6546.24
474.369	6620.14
474.74	6720.92
475.112	6828.27
475.484	6929.06
475.855	7125.43
476.227	7101.71
476.598	7325.2
476.97	7421.02
477.341	7578.08
477.713	7705.31
478.084	7714.57
478.455	7956.15
478.827	8043.83
479.198	8313.43
479.569	8292.64
479.94	8499.18
480.311	8583.7
480.682	8793.41
481.053	9000.41
481.424	9136.91
481.795	9190.46
482.166	9328.54
482.537	9458.25
482.908	9683.11
483.279	9761.07
483.65	10010.78
484.021	10133.49
484.391	10290.77
484.762	10428.4
485.133	10462.07
485.503	10691.67
485.874	10915.39
486.244	11006.01
486.615	11212.11
486.985	11335.72
487.356	11606.9
487.726	11674.47
488.097	11956.95
488.467	11976.15
488.837	12254.11
489.207	12398.29
489.578	12452.98
489.948	12608.68
490.318	12815.45
490.688	12937.94
491.058	13088.89
491.428	13256.57
491.798	13466.51
492.168	13821.3
492.538	13765.03
492.908	13975.65
493.278	14108.98
493.648	14193.95
494.017	14347.39
494.387	14502.87
494.757	14600.94
495.126	14841.16
495.496	14803.88
495.866	14957.77
496.235	15102.17
496.605	15205.45
496.974	15379.68
497.344	15483.63
497.713	15615.83
498.082	15703.74
498.452	15934.02
498.821	16056.95
499.19	16117.29
499.559	16312.76
499.928	16356.83
500.298	16449.03
500.667	16670.72
501.036	16669.59
501.405	16844.05
501.774	16879.53
502.143	17143.25
502.512	17148.22
502.88	17319.52
503.249	17411.27
503.618	17582.79
503.987	17642.67
504.356	17766.51
504.724	17844.25
505.093	17917.47
505.462	17980.97
505.83	18074.07
506.199	18341.64
506.567	18550.67
506.936	18654.4
507.304	18869.08
507.672	18850.1
508.041	19011.22
508.409	19176.42
508.777	19277.66
509.145	19523.07
509.514	19483.75
509.882	19629.74
510.25	19807.81
510.618	19890.97
510.986	20110.86
511.354	20315.82
511.722	20428.59
512.09	20589.71
512.458	20648.02
512.826	20873.77
513.193	20970.27
513.561	20950.16
513.929	21224.95
514.297	21439.18
514.664	21525.96
515.032	21647.76
515.4	21909.45
515.767	21983.35
516.135	22195.32
516.502	22087.98
516.869	22513.28
517.237	22559.15
517.604	22643.44
517.972	22948.07
518.339	23102.64
518.706	23064.22
519.073	23280.49
519.44	23441.16
519.808	23807.03
520.175	23741.04
520.542	24094.71
520.909	24341.93
521.276	24261.93
521.643	24602.04
522.009	24774.91
522.376	24912.09
522.743	25103.49
523.11	25378.97
523.477	25697.6
523.843	25818.05
524.21	26145.05
524.577	26317.02
524.943	26445.15
525.31	26563.34
525.676	26914.97
526.043	27027.96
526.409	27268.18
526.776	27607.83
527.142	27556.99
527.508	27968.95
527.874	28190.19
528.241	28341.83
528.607	28435.83
528.973	28614.59
529.339	28624.98
529.705	29090.51
530.071	29175.25
530.437	29336.38
530.803	29593.09
531.169	29753.99
531.535	29782.24
531.901	29928.22
532.267	30097.71
532.632	30333.86
532.998	30341.55
533.364	30504.71
533.73	30608.88
534.095	30918.25
534.461	31137.91
534.826	31182.88
535.192	31366.6
535.557	31607.95
535.923	31626.03
536.288	31743.54
536.653	31917.32
537.019	31809.3
537.384	31971.79
537.749	32274.15
538.114	32336.52
538.479	32367.03
538.845	32587.14
539.21	32518.21
539.575	32691.32
539.94	32832.78
540.305	32977.41
540.67	32953
541.034	33062.38
541.399	33317.29
541.764	33407.68
542.129	33396.61
542.494	33632.53
542.858	33693.1
543.223	33857.16
543.587	33963.37
543.952	34082.47
544.316	34123.82
544.681	34133.54
545.045	34442.23
545.41	34479.97
545.774	34612.62
546.138	34631.6
546.503	34872.05
546.867	34797.47
547.231	35153.85
547.595	35158.14
547.959	35396.33
548.324	35313.85
548.688	35469.32
549.052	35664.12
549.416	35719.71
549.779	35984.11
550.143	35881.74
550.507	36171
550.871	36321.5
551.235	36324.89
551.599	36689.18
551.962	36732.34
552.326	36719.46
552.689	36973.24
553.053	36945.44
553.417	37024.99
553.78	37512.66
554.143	37423.17
554.507	37646.21
554.87	37757.62
555.234	38107.67
555.597	37868.81
555.96	38142.7
556.323	38278.74
556.686	38278.97
557.05	38641.89
557.413	38844.6
557.776	38824.26
558.139	39069
558.502	39215.89
558.865	39310.35
559.228	39453.62
559.59	39741.07
559.953	39833.05
560.316	40296.31
560.679	40362.53
561.041	40470.09
561.404	40617.21
561.767	40818.11
562.129	40834.6
562.492	41350.97
562.854	41339.9
563.217	41440.01
563.579	41637.97
563.941	41850.62
564.304	41995.48
564.666	42156.83
565.028	42348.01
565.39	42491.51
565.753	42611.51
566.115	42867.09
566.477	42950.48
566.839	43157.48
567.201	43344.82
567.563	43421.65
567.925	43707.52
568.287	43790.68
568.648	44013.73
569.01	44188.87
569.372	44524.45
569.734	44458.46
570.095	44776.87
570.457	44931.45
570.819	44939.58
571.18	45113.59
571.542	45273.81
571.903	45503.86
572.265	45580.69
572.626	45716.74
572.987	45801.48
573.349	46140.45
573.71	46139.78
574.071	46378.19
574.432	46445.08
574.794	46853.88
575.155	46823.6
575.516	46760.55
575.877	46916.25
576.238	46986.08
576.599	47160.31
576.96	47127.32
577.32	47255.45
577.681	47371.83
578.042	47413.41
578.403	47548.33
578.763	47659.06
579.124	47713.97
579.485	47817.7
579.845	47935.66
580.206	47998.03
580.566	48076
580.927	48025.6
581.287	48265.14
581.648	48254.97
582.008	48168.2
582.368	48106.73
582.728	48344.92
583.089	48309.44
583.449	48326.38
583.809	48568.64
584.169	48511.46
584.529	48442.31
584.889	48809.08
585.249	48435.76
585.609	48478.25
585.969	48712.82
586.329	48567.28
586.688	48639.82
587.048	48555.08
587.408	48493.16
587.768	48480.05
588.127	48576.1
588.487	48429.21
588.846	48729.99
589.206	48496.78
589.565	48598.47
589.925	48732.48
590.284	48675.53
590.643	48715.98
591.003	48748.75
591.362	48914.84
591.721	48715.08
592.08	48798.24
592.44	48900.15
592.799	48835.75
593.158	48803.89
593.517	48864.45
593.876	48713.27
594.235	48793.27
594.593	48757.33
594.952	48932.47
595.311	48801.4
595.67	48862.19
596.029	49068.29
596.387	49184.89
596.746	49001.17
597.104	48900.15
597.463	49043.88
597.822	49225.12
598.18	48989.64
598.538	49039.59
598.897	49278.68
599.255	48936.31
599.613	49404.32
599.972	49201.62
600.33	49243.2
600.688	49236.19
601.046	49279.81
601.404	49459.91
601.762	49448.62
602.12	49687.03
602.478	49663.3
602.836	49664.2
603.194	49534.94
603.552	49598.67
603.91	49570.42
604.268	49718.66
604.625	49642.28
604.983	49881.15
605.341	49763.64
605.698	49878.21
606.056	50039.33
606.413	49849.73
606.771	50037.3
607.128	50097.19
607.485	49982.84
607.843	49923.86
608.2	50285.66
608.557	50320
608.914	50230.06
609.272	50367.69
609.629	50380.57
609.986	50501.69
610.343	50167.69
610.7	50465.54
611.057	50464.41
611.414	50411.75
611.771	50557.96
612.127	50454.46
612.484	50600.45
612.841	50693.55
613.198	50640.67
613.554	50527.91
613.911	50832.99
614.267	50719.77
614.624	50766.55
614.98	50808.58
615.337	50907.33
615.693	50861.91
616.05	50859.65
616.406	50960.44
616.762	50854.91
617.118	50894.68
617.475	50998.86
617.831	50919.76
618.187	51013.55
618.543	51032.3
618.899	51209.25
619.255	51182.35
619.611	51164.05
619.967	51347.77
620.323	51361.11
620.678	51256.48
621.034	51266.42
621.39	51261.22
621.746	51208.34
622.101	51586.86
622.457	51266.87
622.812	51314.33
623.168	51421.44
623.523	51401.56
623.879	51565.17
624.234	51245.4
624.589	51393.65
624.945	51390.94
625.3	51422.8
625.655	51338.51
626.01	51471.61
626.365	51486.98
626.72	51343.93
627.075	51345.74
627.43	51340.32
627.785	51282.92
628.14	51307.78
628.495	51426.64
628.85	51302.13
629.205	51279.98
629.559	51286.08
629.914	51197.72
630.269	51293.31
630.623	51197.5
630.978	51118.18
631.332	51295.35
631.687	51250.15
632.041	51144.16
632.396	51200.66
632.75	51029.36
633.104	51188.91
633.459	50999.76
633.813	50957.95
634.167	51026.88
634.521	50851.52
634.875	50982.36
635.229	50786.21
635.583	50721.35
635.937	50654.01
636.291	50745.76
636.645	50712.08
636.999	50559.32
637.352	50696.04
637.706	50496.72
638.06	50649.71
638.413	50530.17
638.767	50398.65
639.121	50463.05
639.474	50252.44
639.828	50273.68
640.181	50207.24
640.534	50265.54
640.888	50160.46
641.241	49998.88
641.594	50080.46
641.947	50168.82
642.301	50049.28
642.654	49996.85
643.007	50047.24
643.36	49927.7
643.713	50040.01
644.066	50016.51
644.419	49767.48
644.771	49468.28
645.124	49206.81
645.477	49046.14
645.83	48857.9
646.182	48705.13
646.535	48661.29
646.888	48670.78
647.24	48430.56
647.593	48637.11
647.945	48588.07
648.298	48441.64
648.65	48332.94
649.002	48084.13
649.355	48322.99
649.707	48153.51
650.059	48384.01
650.411	48834.85
650.763	48875.52
651.115	49233.03
651.467	49009.98
651.819	49054.05
652.171	48991
652.523	48853.83
652.875	48869.87
653.227	48799.14
653.578	48929.98
653.93	48901.74
654.282	48739.71
654.633	48601.18
654.985	48697.67
655.337	48524.12
655.688	48571.35
656.039	48773.6
656.391	48344.01
656.742	48289.78
657.094	48423.33
657.445	48558.69
657.796	48360.51
658.147	48327.51
658.498	48270.11
658.849	48376.78
659.2	48256.1
659.551	48233.28
659.902	48365.48
660.253	48360.06
660.604	48426.95
660.955	48107.86
661.306	48177.46
661.656	48118.25
662.007	48168.42
662.358	48047.3
662.708	47957.81
663.059	48016.34
663.409	47817.47
663.76	48265.82
664.11	48004.36
664.461	48033.06
664.811	48069.67
665.161	47986.96
665.511	47875.55
665.862	47946.73
666.212	47829.45
666.562	47978.37
666.912	47834.65
667.262	47731.37
667.612	47623.58
667.962	47689.57
668.312	47615.67
668.662	47848.66
669.011	47583.81
669.361	47625.84
669.711	47485.73
670.06	47459.51
670.41	47354.21
670.76	47390.14
671.109	47558.27
671.459	47437.59
671.808	47310.14
672.157	47334.77
672.507	47123.7
672.856	47141.56
673.205	47186.3
673.554	47353.75
673.904	47175.91
674.253	47306.52
674.602	47158.51
674.951	46491.4
675.3	46325.08
675.649	47045.51
675.998	46949.25
676.346	46931.17
676.695	47189.69
677.044	46764.62
677.393	46952.41
677.741	46934.78
678.09	46936.14
678.438	46814.33
678.787	46913.77
679.135	46860.89
679.484	46591.74
679.832	46733.88
680.181	46711.74
680.529	46579.54
680.877	46536.83
681.225	46385.64
681.573	46769.36
681.922	46358.98
682.27	46241.02
682.618	46272.43
682.966	46121.47
683.314	46202.15
683.661	45964.41
684.009	45909.27
684.357	45725.32
684.705	45791.54
685.053	45637.19
685.4	45655.27
685.748	45455.73
686.095	45496.85
686.443	45330.53
686.79	45248.73
687.138	45344.99
687.485	45314.94
687.832	45056.41
688.18	45075.85
688.527	44952.01
688.874	44841.96
689.221	44900.49
689.568	44790.88
689.915	44549.76
690.262	44485.36
690.609	44446.49
690.956	44232.03
691.303	44204.69
691.65	44107.51
691.997	43954.07
692.344	43777.13
692.69	43685.6
693.037	43761.98
693.383	43330.81
693.73	43387.98
694.077	43262.79
694.423	43339.85
694.769	43003.59
695.116	42960.88
695.462	42960.42
695.808	42738.96
696.155	43007.2
696.501	42640.43
696.847	42647.89
697.193	42293.77
697.539	42387.33
697.885	42161.35
698.231	41974.01
698.577	41964.52
698.923	41860.11
699.269	41795.48
699.614	41697.41
699.96	41604.75
700.306	41486.11
700.651	41401.82
700.997	41197.31
701.342	41153.92
701.688	41112.34
702.033	41000.02
702.379	40801.38
702.724	40759.58
703.069	40906.69
703.415	40368.4
703.76	40350.78
704.105	40466.25
704.45	40328.18
704.795	40075.08
705.14	39988.98
705.485	40035.76
705.83	39788.08
706.175	40046.15
706.52	39757.34
706.865	39615.2
707.209	39506.28
707.554	39415.43
707.899	39511.02
708.243	39351.25
708.588	39377.24
708.932	38897.48
709.277	38877.82
709.621	38948.33
709.966	38534.55
710.31	38696.13
710.654	38381.56
710.998	38549.01
711.342	38509.92
711.687	38233.77
712.031	38204.16
712.375	38094.34
712.719	38227.22
713.063	38173.88
713.407	38178.85
713.75	38086.88
714.094	38018.41
714.438	37915.58
714.782	37876.26
715.125	37612.32
715.469	37765.08
715.812	37525.31
716.156	37337.07
716.499	37454.13
716.843	37382.72
717.186	37148.83
717.53	37383.85
717.873	37018.21
718.216	36966.68
718.559	36888.04
718.902	36685.56
719.246	36780.47
719.589	36560.37
719.932	36417.77
720.275	36483.76
720.617	36333.48
720.96	36247.61
721.303	36361.28
721.646	36233.6
721.989	36034.96
722.331	36093.03
722.674	35922.42
723.016	35992.7
723.359	35900.27
723.701	35914.06
724.044	35740.5
724.386	35508.42
724.729	35700.05
725.071	35472.26
725.413	35484.46
725.755	35463.45
726.097	35313.39
726.439	35002.89
726.782	35185.04
727.124	35252.38
727.465	34939.84
727.807	34881.09
728.149	34838.38
728.491	34678.61
728.833	34796.34
729.175	34655.78
729.516	34734.2
729.858	34448.56
730.199	34526.3
730.541	34396.13
730.882	34378.95
731.224	34440.42
731.565	34126.53
731.906	34169.92
732.248	34225.74
732.589	34046.31
732.93	33886.54
733.271	33882.7
733.612	33876.82
733.953	33968.12
734.294	33839.08
734.635	33676.83
734.976	33891.74
735.317	33668.01
735.658	33638.86
735.999	33597.28
736.339	33705.53
736.68	33648.35
737.021	33571.97
737.361	33355.7
737.702	33528.81
738.042	33296.72
738.383	33103.28
738.723	33239.78
739.063	33140.57
739.404	33178.99
739.744	33021.02
740.084	32880.69
740.424	32933.34
740.764	32790.07
741.104	32870.97
741.444	32576.52
741.784	32556.63
742.124	32593.69
742.464	32516.18
742.804	32451.77
743.143	32409.06
743.483	32272.34
743.823	32283.42
744.162	32185.34
744.502	32306.47
744.841	32189.41
745.181	32289.97
745.52	32123.42
745.86	32115.96
746.199	32062.18
746.538	31859.25
746.877	31957.32
747.216	31966.14
747.556	31812.92
747.895	31824.9
748.234	31583.77
748.573	31654.05
748.911	31653.6
749.25	31572.25
749.589	31433.5
749.928	31463.33
750.267	31434.63
750.605	31330.45
750.944	31338.13
751.283	31139.27
751.621	31233.95
751.96	30953.06
752.298	30905.83
752.636	30964.36
