Data from aluminium_macbook_case_FLMS001491_020.txt Node
Date: Tue Feb 07 10:43:17 GMT 2017
User: dcchb
Spectrometer: FLMS00149
Trigger mode: 0
Integration Time (sec): 2.000000E-2
Scans to average: 10
Electric dark correction enabled: true
Nonlinearity correction enabled: false
Boxcar width: 0
XAxis mode: Wavelengths
Number of Pixels in Spectrum: 2048
>>>>>Begin Spectral Data<<<<<
341.393	-7.63
341.776	-7.63
342.16	-7.63
342.543	-61.18
342.927	-51.02
343.31	-64.35
343.693	-82.43
344.077	-61.64
344.46	-67.96
344.843	-47.17
345.226	-57.57
345.61	-34.52
345.993	-20.28
346.376	-11.47
346.759	26.04
347.142	24.91
347.525	49.55
347.908	51.35
348.291	68.53
348.674	101.97
349.057	125.02
349.44	133.61
349.823	162.76
350.206	186.94
350.588	253.38
350.971	253.38
351.354	270.11
351.737	287.51
352.119	310.56
352.502	331.57
352.884	316.88
353.267	344
353.65	338.13
354.032	368.41
354.414	360.5
354.797	372.93
355.179	367.5
355.562	383.78
355.944	404.11
356.326	388.29
356.709	414.28
357.091	387.84
357.473	407.73
357.855	419.93
358.238	440.95
358.62	416.77
359.002	402.31
359.384	404.79
359.766	443.43
360.148	415.64
360.53	415.19
360.912	421.74
361.294	425.36
361.676	423.55
362.057	435.53
362.439	403.66
362.821	427.84
363.203	407.73
363.584	408.63
363.966	424.23
364.348	443.43
364.729	412.7
365.111	421.06
365.493	434.4
365.874	418.58
366.256	436.88
366.637	424.68
367.019	421.29
367.4	429.42
367.781	429.42
368.163	434.4
368.544	443.21
368.925	420.38
369.306	441.17
369.688	445.47
370.069	438.69
370.45	429.2
370.831	439.82
371.212	447.73
371.593	470.33
371.974	461.51
372.355	464.68
372.736	475.98
373.117	467.39
373.498	455.64
373.879	471
374.26	462.87
374.641	466.48
375.021	469.42
375.402	466.03
375.783	489.31
376.163	522.75
376.544	519.36
376.925	508.29
377.305	518.46
377.686	525.69
378.066	518.91
378.447	519.59
378.827	514.62
379.208	532.25
379.588	529.76
379.968	535.64
380.349	555.52
380.729	542.64
381.109	545.8
381.489	582.64
381.87	564.11
382.25	547.84
382.63	602.98
383.01	585.35
383.39	576.99
383.77	602.07
384.15	596.88
384.53	612.47
384.91	589.42
385.29	624.22
385.67	625.35
386.049	664.45
386.429	656.99
386.809	645.24
387.189	675.07
387.568	654.28
387.948	669.64
388.328	698.57
388.707	671
389.087	689.53
389.466	703.99
389.846	734.05
390.225	727.49
390.605	736.99
390.984	744.9
391.363	760.26
391.743	768.17
392.122	770.66
392.501	775.86
392.881	777.21
393.26	811.79
393.639	817.44
394.018	817.44
394.397	819.92
394.776	845.46
395.155	848.85
395.534	835.06
395.913	878.23
396.292	865.57
396.671	883.2
397.05	897.21
397.429	900.82
397.808	901.28
398.186	921.39
398.565	929.75
398.944	930.2
399.323	954.16
399.701	937.66
400.08	987.15
400.458	982.63
400.837	976.08
401.215	985.79
401.594	1012.91
401.972	993.48
402.351	1028.73
402.729	1063.08
403.107	1059.01
403.486	1063.31
403.864	1064.66
404.242	1124.32
404.62	1118.67
404.999	1119.8
405.377	1129.52
405.755	1148.5
406.133	1182.4
406.511	1174.94
406.889	1200.02
407.267	1217.2
407.645	1239.12
408.023	1254.94
408.401	1259.68
408.779	1281.83
409.156	1311.21
409.534	1290.87
409.912	1327.03
410.29	1335.84
410.667	1373.13
411.045	1391.66
411.422	1426.01
411.8	1430.75
412.178	1468.72
412.555	1472.33
412.933	1495.38
413.31	1535.84
413.687	1548.72
414.065	1580.13
414.442	1569.51
414.819	1581.26
415.197	1627.58
415.574	1628.49
415.951	1642.95
416.328	1680.69
416.705	1693.57
417.082	1712.78
417.46	1719.11
417.837	1769.95
418.214	1768.6
418.591	1789.16
418.967	1812.89
419.344	1822.38
419.721	1861.02
420.098	1842.04
420.475	1888.14
420.852	1894.02
421.228	1928.59
421.605	1950.06
421.982	1995.48
422.358	1992.09
422.735	2021.92
423.111	2021.7
423.488	2050.62
423.864	2092.43
424.241	2102.83
424.617	2117.29
424.994	2151.41
425.37	2203.61
425.746	2203.39
426.123	2220.11
426.499	2270.96
426.875	2256.27
427.251	2333.1
427.627	2368.81
428.003	2426.21
428.379	2431.4
428.756	2438.64
429.132	2486.77
429.507	2562.47
429.883	2553.66
430.259	2579.65
430.635	2638.86
431.011	2684.28
431.387	2726.76
431.763	2796.14
432.138	2765.63
432.514	2820.55
432.89	2821
433.265	2938.51
433.641	3004.72
434.016	3014.89
434.392	3031.39
434.767	3104.16
435.143	3111.39
435.518	3131.73
435.894	3160.88
436.269	3281.33
436.644	3283.81
437.02	3333.08
437.395	3333.75
437.77	3371.72
438.145	3474.99
438.52	3452.4
438.895	3499.17
439.271	3562
439.646	3594.76
440.021	3655.55
440.395	3648.77
440.77	3603.8
441.145	3671.82
441.52	3749.34
441.895	3750.69
442.27	3839.5
442.645	3809
443.019	3862.1
443.394	3852.38
443.769	3940.29
444.143	3931.93
444.518	3997.24
444.892	3955.88
445.267	4027.07
445.641	4093.51
446.016	4083.79
446.39	4154.52
446.764	4156.11
447.139	4181.19
447.513	4207.63
447.887	4221.41
448.262	4239.04
448.636	4283.33
449.01	4382.31
449.384	4458.24
449.758	4439.49
450.132	4535.98
450.506	4529.65
450.88	4555.42
451.254	4627.51
451.628	4680.84
452.002	4732.36
452.376	4702.53
452.75	4805.13
453.123	4867.95
453.497	4964.22
453.871	4948.17
454.244	5068.85
454.618	5158.34
454.992	5235.85
455.365	5224.1
455.739	5366.02
456.112	5430.65
456.486	5389.75
456.859	5499.8
457.232	5592.23
457.606	5620.25
457.979	5682.84
458.352	5854.82
458.725	5866.12
459.099	5954.93
459.472	6050.29
459.845	6121.7
460.218	6201.25
460.591	6236.28
460.964	6267.01
461.337	6420.23
461.71	6537.74
462.083	6681.24
462.456	6636.49
462.829	6673.1
463.201	6828.58
463.574	6783.83
463.947	6984.96
464.32	7098.63
464.692	7147.21
465.065	7279.41
465.438	7397.6
465.81	7468.79
466.183	7516.7
466.555	7701.55
466.928	7755.78
467.3	7714.66
467.672	7838.27
468.045	8080.07
468.417	8142.22
468.789	8237.81
469.161	8291.59
469.534	8494.07
469.906	8674.63
470.278	8754.4
470.65	8907.62
471.022	8961.4
471.394	9149.19
471.766	9296.99
472.138	9428.06
472.51	9568.84
472.882	9755.28
473.253	9843.64
473.625	10081.83
473.997	10179.45
474.369	10270.97
474.74	10438.43
475.112	10600.91
475.484	10769.49
475.855	10983.04
476.227	11099.2
476.598	11388.68
476.97	11496.25
477.341	11744.38
477.713	11976.01
478.084	12009.46
478.455	12405.61
478.827	12521.76
479.198	12847.85
479.569	12969.88
479.94	13362.64
480.311	13457.1
480.682	13800.15
481.053	14028.16
481.424	14316.74
481.795	14482.39
482.166	14720.8
482.537	14866.78
482.908	15212.31
483.279	15301.12
483.65	15628.57
484.021	15885.29
484.391	16011.61
484.762	16181.33
485.133	16335.67
485.503	16592.84
485.874	16982.43
486.244	17155.99
486.615	17468.07
486.985	17711.91
487.356	18000.04
487.726	18185.12
488.097	18590.08
488.467	18648.61
488.837	19083.85
489.207	19332.66
489.578	19527.68
489.948	19837.5
490.318	20048.57
490.688	20306.87
491.058	20646.29
491.428	20892.61
491.798	21133.29
492.168	21466.61
492.538	21529.43
492.908	21755.42
493.278	22082.41
493.648	22165.8
494.017	22319.7
494.387	22595.17
494.757	22866.57
495.126	23058.43
495.496	23070.41
495.866	23372.78
496.235	23584.07
496.605	23737.29
496.974	23874.01
497.344	24180.66
497.713	24273.77
498.082	24487.32
498.452	24830.59
498.821	25047.08
499.19	25049.57
499.559	25363.68
499.928	25482.55
500.298	25741.75
500.667	26015.64
501.036	25970.67
501.405	26473.26
501.774	26376.76
502.143	26707.38
502.512	26819.46
502.88	27005.67
503.249	27253.8
503.618	27488.37
503.987	27446.57
504.356	27763.39
504.724	27919.1
505.093	28017.4
505.462	28112.31
505.83	28289.48
506.199	28560.66
506.567	28832.29
506.936	28873.87
507.304	29155.9
507.672	29420.07
508.041	29450.81
508.409	29697.58
508.777	29904.13
509.145	30124.91
509.514	30274.74
509.882	30630.66
510.25	30759.93
510.618	31093.93
510.986	31045.79
511.354	31551.77
511.722	31755.15
512.09	31907.69
512.458	32031.98
512.826	32483.27
513.193	32627.45
513.561	32874.22
513.929	32989.7
514.297	33434.66
514.664	33645.73
515.032	33692.73
515.4	34145.15
515.767	34131.36
516.135	34525.02
516.502	34244.35
516.869	35032.81
517.237	34981.06
517.604	34960.49
517.972	35439.8
518.339	35592.79
518.706	35762.05
519.073	36006.57
519.44	36288.82
519.808	36627.79
520.175	36558.64
520.542	37190.27
520.909	37378.06
521.276	37284.73
521.643	37810.81
522.009	38209.45
522.376	38357.01
522.743	38801.3
523.11	39099.37
523.477	39523.09
523.843	39710.88
524.21	40072.45
524.577	40407.36
524.943	40683.05
525.31	40750.17
525.676	41275.58
526.043	41678.28
526.409	41787.21
526.776	42337.7
527.142	42245.27
527.508	42541.31
527.874	42919.83
528.241	42936.55
528.607	43063.56
528.973	43447.95
529.339	43471.68
529.705	43889.07
530.071	44302.39
530.437	44365.22
530.803	44641.37
531.169	44839.1
531.535	44830.52
531.901	45013.34
532.267	45329.94
532.632	45659.65
532.998	45686.09
533.364	45792.52
533.73	46064.83
534.095	46540.3
534.461	46649.45
534.826	46840.86
535.192	46908.43
535.557	47427.28
535.923	47519.26
536.288	47646.94
536.653	47947.5
537.019	47813.26
537.384	47940.94
537.749	48286.02
538.114	48380.48
538.479	48479.23
538.845	48642.62
539.21	48632.22
539.575	48791.32
539.94	48892.33
540.305	49239.89
540.67	49090.97
541.034	49270.85
541.399	49347.23
541.764	49514.91
542.129	49639.43
542.494	49639.43
542.858	49951.74
543.223	49841.23
543.587	50150.15
543.952	50146.99
544.316	50276.7
544.681	50327.32
545.045	50565.28
545.41	50502.46
545.774	50705.16
546.138	50778.83
546.503	50983.12
546.867	51108.32
547.231	51481.64
547.595	51366.16
547.959	51587.17
548.324	51656.78
548.688	51793.04
549.052	51897.22
549.416	52039.14
549.779	52143.77
550.143	52203.66
550.507	52475.74
550.871	52609.07
551.235	52597.32
551.599	52835.73
551.962	52937.42
552.326	53039.79
552.689	53220.35
553.053	53029.85
553.417	53144.65
553.78	53564.75
554.143	53332.21
554.507	53567.24
554.87	53642.04
555.234	53914.12
555.597	53775.59
555.96	53803.16
556.323	54087
556.686	54082.93
557.05	54292.41
557.413	54372.86
557.776	54316.37
558.139	54593.88
558.502	54673.87
558.865	54781.67
559.228	54978.05
559.59	55036.12
559.953	55098.95
560.316	55469.78
560.679	55442.21
561.041	55610.57
561.404	55725.6
561.767	55957.91
562.129	55882.43
562.492	56182.53
562.854	56177.56
563.217	56216.66
563.579	56432.47
563.941	56683.54
564.304	56789.75
564.666	56937.32
565.028	57042.85
565.39	57024.77
565.753	57230.87
566.115	57325.1
566.477	57369.4
566.839	57466.79
567.201	57562.84
567.563	57631.31
567.925	57695.26
568.287	57824.52
568.648	57888.03
569.01	57951.08
569.372	58134.12
569.734	58067.23
570.095	58187.23
570.457	58305.42
570.819	58331.18
571.18	58311.52
571.542	58453.21
571.903	58479.65
572.265	58633.54
572.626	58641.68
572.987	58758.74
573.349	58782.24
573.71	58868.34
574.071	58897.26
574.432	58949.69
574.794	59163.7
575.155	59153.76
575.516	59097.49
575.877	59255.67
576.238	59333.19
576.599	59420.42
576.96	59526.63
577.32	59499.51
577.681	59596.46
578.042	59720.75
578.403	59686.17
578.763	59707.41
579.124	59825.38
579.485	59917.13
579.845	59916
580.206	59931.36
580.566	59937.92
580.927	59971.13
581.287	60080.74
581.648	59945.82
582.008	60069.66
582.368	59991.02
582.728	60087.29
583.089	60061.53
583.449	59970.01
583.809	59988.76
584.169	60040.51
584.529	59934.07
584.889	60186.27
585.249	59928.88
585.609	59860.86
585.969	59988.31
586.329	59929.78
586.688	60035.31
587.048	60020.85
587.408	59951.02
587.768	59993.28
588.127	60024.01
588.487	59910.35
588.846	60100.17
589.206	59937.69
589.565	59934.07
589.925	60073.51
590.284	60022.21
590.643	60116.89
591.003	60156.21
591.362	60184.46
591.721	60107.4
592.08	60115.31
592.44	60230.11
592.799	60211.81
593.158	60271.92
593.517	60217.68
593.876	60296.78
594.235	60257
594.593	60264.69
594.952	60357.34
595.311	60283.67
595.67	60284.57
596.029	60421.97
596.387	60499.71
596.746	60464.68
597.104	60401.18
597.463	60399.15
597.822	60492.48
598.18	60379.03
598.538	60367.96
598.897	60451.8
599.255	60239.38
599.613	60562.98
599.972	60415.42
600.33	60513.72
600.688	60387.62
601.046	60442.54
601.404	60535.64
601.762	60515.08
602.12	60655.64
602.478	60633.94
602.836	60558.92
603.194	60455.87
603.552	60473.04
603.91	60434.17
604.268	60603.66
604.625	60489.54
604.983	60624.45
605.341	60498.58
605.698	60707.39
606.056	60648.86
606.413	60634.85
606.771	60690.89
607.128	60779.02
607.485	60644.56
607.843	60735.86
608.2	60868.51
608.557	60948.06
608.914	60864.9
609.272	60973.59
609.629	60990.09
609.986	61136.75
610.343	61041.84
610.7	61230.54
611.057	61214.27
611.414	61182.18
611.771	61163.19
612.127	61255.4
612.484	61280.93
612.841	61351.21
613.198	61195.06
613.554	61273.93
613.911	61390.08
614.267	61409.74
614.624	61319.35
614.98	61370.19
615.337	61411.1
615.693	61426.01
616.05	61344.88
616.406	61483.86
616.762	61448.61
617.118	61356.86
617.475	61389.18
617.831	61412.9
618.187	61500.36
618.543	61504.88
618.899	61559.79
619.255	61554.82
619.611	61543.3
619.967	61534.71
620.323	61518.66
620.678	61497.65
621.034	61430.98
621.39	61491.55
621.746	61421.27
622.101	61712.33
622.457	61431.44
622.812	61565.44
623.168	61518.44
623.523	61567.25
623.879	61617.42
624.234	61502.17
624.589	61562.73
624.945	61582.84
625.3	61631.66
625.655	61528.38
626.01	61594.6
626.365	61638.66
626.72	61577.65
627.075	61628.94
627.43	61600.24
627.785	61487.03
628.14	61576.74
628.495	61607.48
628.85	61585.56
629.205	61501.72
629.559	61673.46
629.914	61554.82
630.269	61525.22
630.623	61501.26
630.978	61409.06
631.332	61556.18
631.687	61559.12
632.041	61466.46
632.396	61410.42
632.75	61374.49
633.104	61390.31
633.459	61199.8
633.813	61240.93
634.167	61194.15
634.521	61188.5
634.875	61132.46
635.229	61204.77
635.583	61093.82
635.937	61074.38
636.291	61015.4
636.645	61001.84
636.999	60947.15
637.352	60965.69
637.706	60811.11
638.06	60918.23
638.413	60829.64
638.767	60767.95
639.121	60827.16
639.474	60643.89
639.828	60695.86
640.181	60652.25
640.534	60683.43
640.888	60571.35
641.241	60460.84
641.594	60505.81
641.947	60554.4
642.301	60480.73
642.654	60448.64
643.007	60433.5
643.36	60377
643.713	60329.54
644.066	60426.04
644.419	60234.63
644.771	60090
645.124	59977.69
645.477	59844.36
645.83	59707.41
646.182	59619.28
646.535	59558.04
646.888	59691.82
647.24	59490.02
647.593	59690.92
647.945	59562.78
648.298	59422.45
648.65	59479.4
649.002	59386.29
649.355	59490.02
649.707	59446.85
650.059	59569.56
650.411	59784.93
650.763	59741.54
651.115	59988.76
651.467	59946.28
651.819	59906.05
652.171	59795.09
652.523	59808.65
652.875	59772.04
653.227	59594.65
653.578	59812.04
653.93	59767.07
654.282	59623.12
654.633	59610.01
654.985	59587.64
655.337	59582.22
655.688	59541.77
656.039	59600.52
656.391	59430.36
656.742	59356.01
657.094	59412.05
657.445	59491.83
657.796	59327.54
658.147	59346.52
658.498	59231.04
658.849	59314.88
659.2	59361.21
659.551	59203.47
659.902	59268.78
660.253	59183.81
660.604	59240.31
660.955	59040.09
661.306	59176.58
661.656	59069.24
662.007	59095.45
662.358	59080.08
662.708	59069.24
663.059	58968.68
663.409	58823.37
663.76	58992.18
664.11	59025.4
664.461	59042.12
664.811	59054.77
665.161	58987.43
665.511	58995.12
665.862	59073.76
666.212	59115.34
666.562	59150.14
666.912	59085.28
667.262	59057.03
667.612	59004.61
667.962	59068.11
668.312	59021.1
668.662	59124.83
669.011	59058.84
669.361	58955.57
669.711	58999.41
670.06	58949.69
670.41	58877.6
670.76	58830.83
671.109	58948.56
671.459	58925.74
671.808	58852.52
672.157	58878.96
672.507	58770.26
672.856	58713.54
673.205	58677.38
673.554	58790.38
673.904	58645.75
674.253	58768.23
674.602	58627.89
674.951	58240.79
675.3	58202.37
675.649	58576.14
675.998	58512.19
676.346	58525.52
676.695	58555.58
677.044	58346.09
677.393	58371.18
677.741	58431.29
678.09	58324.17
678.438	58257.96
678.787	58324.17
679.135	58346.32
679.484	58099.32
679.832	58134.12
680.181	57967.35
680.529	58069.26
680.877	58045.54
681.225	57938.19
681.573	58004.41
681.922	57900.45
682.27	57702.72
682.618	57756.73
682.966	57698.43
683.314	57658.43
683.661	57525.55
684.009	57529.84
684.357	57477.19
684.705	57394.93
685.053	57477.64
685.4	57437.64
685.748	57300.02
686.095	57321.71
686.443	57221.6
686.79	57174.15
687.138	57225.67
687.485	57275.16
687.832	57198.33
688.18	57135.96
688.527	57082.85
688.874	56968.73
689.221	56981.84
689.568	56918.79
689.915	56967.15
690.262	56869.52
690.609	56846.02
690.956	56750.65
691.303	56671.79
691.65	56570.77
691.997	56536.42
692.344	56394.51
692.69	56388.4
693.037	56425.47
693.383	56197.9
693.73	56237.22
694.077	56041.97
694.423	56010.11
694.769	55943.22
695.116	55812.15
695.462	55798.14
695.808	55618.71
696.155	55743.9
696.501	55520.4
696.847	55524.02
697.193	55248.32
697.539	55421.2
697.885	55134.2
698.231	55026.41
698.577	55072.51
698.923	54998.61
699.269	54876.35
699.614	54652.63
699.96	54670.94
700.306	54617.6
700.651	54539.87
700.997	54383.71
701.342	54299.42
701.688	54261.45
702.033	54131.29
702.379	54055.81
702.724	54101.46
703.069	54047
703.415	53573.79
703.76	53646.56
704.105	53668.48
704.45	53514.36
704.795	53348.03
705.14	53249.5
705.485	53233.23
705.83	53092.45
706.175	53179.9
706.52	53077.98
706.865	52943.3
707.209	52849.29
707.554	52815.39
707.899	52787.6
708.243	52590.54
708.588	52593.7
708.932	52391.9
709.277	52390.09
709.621	52498.34
709.966	52294.73
710.31	52439.36
710.654	52047.28
710.998	52184.67
711.342	52191
711.687	52096.99
712.031	51993.49
712.375	51847.51
712.719	51960.27
713.063	51922.31
713.407	51975.41
713.75	51696.32
714.094	51842.08
714.438	51640.73
714.782	51659.94
715.125	51519.15
715.469	51518.02
715.812	51188.09
716.156	51144.7
716.499	51170.46
716.843	51235.09
717.186	50942.45
717.53	51060.41
717.873	50975.44
718.216	50881.43
718.559	50785.39
718.902	50516.92
719.246	50673.98
719.589	50417.26
719.932	50378.84
720.275	50191.05
720.617	50216.36
720.96	50144.27
721.303	50115.35
721.646	50060.89
721.989	49690.28
722.331	49948.35
722.674	49785.19
723.016	49837.16
723.359	49722.14
723.701	49653.67
724.044	49311.75
724.386	49077.18
724.729	49361.24
725.071	49152.44
725.413	49129.39
725.755	49095.71
726.097	48807.13
726.439	48601.94
726.782	48552.45
727.124	48681.49
727.465	48547.25
727.807	48451.89
728.149	48423.42
728.491	48224.33
728.833	48323.53
729.175	48132.58
729.516	48022.52
729.858	47940.72
730.199	48082.41
730.541	47938.23
730.882	47774.85
731.224	47987.95
731.565	47629.31
731.906	47731.23
732.248	47779.14
732.589	47599.03
732.93	47405.14
733.271	47457.57
733.612	47495.3
733.953	47519.71
734.294	47164.92
734.635	47293.28
734.976	47468.64
735.317	47067.52
735.658	47253.05
735.999	47185.93
736.339	47172.15
736.68	47145.71
737.021	47108.2
737.361	46903.68
737.702	47164.01
738.042	46973.96
738.383	46883.34
738.723	46998.59
739.063	46772.39
739.404	46858.71
739.744	46552.5
740.084	46524.93
740.424	46512.96
740.764	46387.31
741.104	46432.06
741.444	46150.48
741.784	46123.82
742.124	46280.87
742.464	46115.45
742.804	45926.76
743.143	45889.92
743.483	45864.84
743.823	45598.18
744.162	45521.35
744.502	45712.3
744.841	45540.1
745.181	45548.92
745.52	45291.52
745.86	45338.98
746.199	45054.24
746.538	44990.96
746.877	45139.89
747.216	44939.44
747.556	44922.04
747.895	44801.59
748.234	44633.69
748.573	44508.94
748.911	44510.98
749.25	44330.64
749.589	44200.7
749.928	44124.77
750.267	44217.65
750.605	43918.9
750.944	43859.47
751.283	43593.94
751.621	43771.79
751.96	43302.65
