Data from aluminium_surface_pro_back_FLMS001491_00081.txt Node
Date: Wed Feb 08 15:34:38 GMT 2017
User: dcchb
Spectrometer: FLMS00149
Trigger mode: 0
Integration Time (sec): 2.000000E-2
Scans to average: 10
Electric dark correction enabled: true
Nonlinearity correction enabled: false
Boxcar width: 0
XAxis mode: Wavelengths
Number of Pixels in Spectrum: 2048
>>>>>Begin Spectral Data<<<<<
341.393	-3.19
341.776	-3.19
342.16	-3.19
342.543	-40.25
342.927	-66.47
343.31	-80.03
343.693	-79.57
344.077	-53.59
344.46	-59.69
344.843	-65.34
345.226	-41.61
345.61	-41.16
345.993	-21.72
346.376	2.01
346.759	26.64
347.142	3.14
347.525	37.94
347.908	74.09
348.291	77.26
348.674	88.56
349.057	133.08
349.44	115.9
349.823	131.72
350.206	170.59
350.588	195.9
350.971	230.7
351.354	236.12
351.737	256.69
352.119	283.58
352.502	299.17
352.884	288.1
353.267	310.02
353.65	324.03
354.032	333.75
354.414	340.3
354.797	346.18
355.179	324.71
355.562	345.05
355.944	357.93
356.326	343.24
356.709	373.97
357.091	383.01
357.473	373.75
357.855	389.57
358.238	376.91
358.62	357.7
359.002	365.39
359.384	381.2
359.766	370.81
360.148	372.84
360.53	384.82
360.912	380.98
361.294	389.57
361.676	347.99
362.057	363.13
362.439	388.89
362.821	376.69
363.203	379.4
363.584	358.15
363.966	361.54
364.348	366.74
364.729	377.59
365.111	363.13
365.493	357.48
365.874	356.57
366.256	377.36
366.637	371.49
367.019	349.34
367.4	362.45
367.781	384.59
368.163	345.05
368.544	374.2
368.925	374.43
369.306	384.14
369.688	374.43
370.069	384.14
370.45	378.27
370.831	398.15
371.212	393.18
371.593	382.56
371.974	402.45
372.355	385.05
372.736	380.75
373.117	387.08
373.498	360.64
373.879	387.31
374.26	392.28
374.641	374.65
375.021	396.57
375.402	399.28
375.783	415.1
376.163	421.43
376.544	408.55
376.925	430.92
377.305	417.14
377.686	418.04
378.066	437.02
378.447	431.6
378.827	426.85
379.208	437.47
379.588	420.53
379.968	437.02
380.349	458.26
380.729	455.33
381.109	445.84
381.489	475.67
381.87	449
382.25	467.76
382.63	471.82
383.01	472.05
383.39	456.91
383.77	480.41
384.15	481.32
384.53	477.02
384.91	492.16
385.29	504.14
385.67	494.42
386.049	504.14
386.429	504.82
386.809	514.08
387.189	507.98
387.568	516.34
387.948	509.34
388.328	518.83
388.707	518.15
389.087	528.55
389.466	547.3
389.846	574.42
390.225	569.22
390.605	579.39
390.984	587.53
391.363	585.49
391.743	576.91
392.122	598.6
392.501	611.93
392.881	618.26
393.26	616.23
393.639	633.18
394.018	611.48
394.397	623.68
394.776	652.61
395.155	660.75
395.534	665.72
395.913	659.39
396.292	687.86
396.671	693.51
397.05	685.83
397.429	699.61
397.808	667.3
398.186	700.07
398.565	681.76
398.944	713.4
399.323	733.29
399.701	731.03
400.08	752.04
400.458	747.97
400.837	752.49
401.215	773.28
401.594	777.58
401.972	775.77
402.351	778.03
402.729	797.69
403.107	807.41
403.486	812.83
403.864	838.14
404.242	822.32
404.62	855.32
404.999	868.65
405.377	854.64
405.755	867.07
406.133	900.06
406.511	898.48
406.889	880.85
407.267	897.8
407.645	933.28
408.023	955.2
408.401	953.17
408.779	976.67
409.156	987.52
409.534	998.14
409.912	1000.17
410.29	1024.58
410.667	1021.87
411.045	1062.99
411.422	1059.6
411.8	1079.04
412.178	1081.98
412.555	1094.86
412.933	1116.55
413.31	1138.02
413.687	1153.39
414.065	1173.95
414.442	1174.18
414.819	1199.26
415.197	1194.06
415.574	1236.78
415.951	1265.25
416.328	1228.41
416.705	1245.59
417.082	1247.17
417.46	1275.42
417.837	1333.72
418.214	1303.67
418.591	1317.68
418.967	1359.94
419.344	1340.73
419.721	1376.66
420.098	1365.36
420.475	1437
420.852	1417.11
421.228	1408.97
421.605	1435.64
421.982	1466.6
422.358	1492.14
422.735	1508.86
423.111	1498.24
423.488	1549.31
423.864	1520.84
424.241	1546.82
424.617	1582.08
424.994	1559.25
425.37	1594.73
425.746	1593.38
426.123	1644.9
426.499	1638.12
426.875	1661.85
427.251	1707.27
427.627	1744.78
428.003	1770.77
428.379	1762.86
428.756	1763.32
429.132	1791.56
429.507	1815.52
429.883	1869.53
430.259	1898.23
430.635	1902.97
431.011	1909.3
431.387	1980.71
431.763	2020.71
432.138	2004.44
432.514	2072.69
432.89	2058.22
433.265	2098.22
433.641	2147.49
434.016	2142.97
434.392	2200.14
434.767	2213.47
435.143	2208.73
435.518	2231.55
435.894	2276.75
436.269	2326.01
436.644	2349.97
437.02	2342.28
437.395	2351.32
437.77	2418.44
438.145	2450.3
438.52	2485.1
438.895	2472.68
439.271	2501.83
439.646	2568.49
440.021	2578.44
440.395	2582.5
440.77	2581.15
441.145	2643.29
441.52	2687.81
441.895	2693.69
442.27	2727.58
442.645	2682.84
443.019	2739.56
443.394	2742.95
443.769	2815.26
444.143	2792.44
444.518	2863.63
444.892	2808.71
445.267	2849.84
445.641	2902.27
446.016	2881.7
446.39	2907.24
446.764	2964.64
447.139	2942.49
447.513	2998.09
447.887	2960.8
448.262	3011.19
448.636	3057.52
449.01	3080.79
449.384	3117.18
449.758	3152.21
450.132	3179.78
450.506	3183.16
450.88	3212.32
451.254	3213.45
451.628	3279.21
452.002	3314.91
452.376	3321.24
452.75	3337.06
453.123	3421.35
453.497	3469.94
453.871	3497.73
454.244	3534.79
454.618	3546.77
454.992	3608.24
455.365	3624.28
455.739	3776.37
456.112	3766.65
456.486	3831.96
456.859	3849.81
457.232	3954.22
457.606	3890.04
457.979	3949.7
458.352	4062.01
458.725	4122.58
459.099	4132.07
459.472	4222.23
459.845	4251.16
460.218	4307.88
460.591	4378.16
460.964	4377.03
461.337	4481.66
461.71	4513.53
462.083	4572.51
462.456	4604.82
462.829	4632.39
463.201	4731.6
463.574	4739.06
463.947	4866.96
464.32	4911.03
464.692	4921.42
465.065	4979.73
465.438	5145.83
465.81	5166.84
466.183	5196.45
466.555	5331.81
466.928	5355.31
467.3	5344.46
467.672	5436.21
468.045	5588.53
468.417	5567.96
468.789	5667.39
469.161	5724.12
469.534	5817.22
469.906	5892.7
470.278	6018.34
470.65	6096.08
471.022	6176.76
471.394	6313.7
471.766	6345.34
472.138	6478.22
472.51	6584.88
472.882	6685.45
473.253	6791.21
473.625	6860.81
473.997	6992.56
474.369	7039.79
474.74	7180.35
475.112	7286.79
475.484	7471.87
475.855	7585.08
476.227	7675.48
476.598	7893.1
476.97	7896.71
477.341	8119.31
477.713	8326.53
478.084	8329.24
478.455	8517.49
478.827	8549.58
479.198	8790.25
479.569	8929
479.94	9107.98
480.311	9227.53
480.682	9488.31
481.053	9598.36
481.424	9815.76
481.795	9903.89
482.166	10013.72
482.537	10195.64
482.908	10396.31
483.279	10480.37
483.65	10676.98
484.021	10907.71
484.391	11087.82
484.762	11144.31
485.133	11311.76
485.503	11456.62
485.874	11723.73
486.244	11874.24
486.615	12060.9
486.985	12097.73
487.356	12469.02
487.726	12572.3
488.097	12810.48
488.467	12968.22
488.837	13120.53
489.207	13263.58
489.578	13572.04
489.948	13655.66
490.318	13833.05
490.688	13940.85
491.058	14177.23
491.428	14361.18
491.798	14461.29
492.168	14769.3
492.538	14818.79
492.908	15028.05
493.278	15214.71
493.648	15226.01
494.017	15472.33
494.387	15640.69
494.757	15688.82
495.126	15941.7
495.496	15997.97
495.866	16097.63
496.235	16241.13
496.605	16423.49
496.974	16530.84
497.344	16683.83
497.713	16756.82
498.082	16919.98
498.452	17126.98
498.821	17276.58
499.19	17337.14
499.559	17482.45
499.928	17566.97
500.298	17772.84
500.667	17952.04
501.036	17985.26
501.405	18206.5
501.774	18284.01
502.143	18358.13
502.512	18410.34
502.88	18698.01
503.249	18635.41
503.618	18844.22
503.987	18952.24
504.356	19106.81
504.724	19149.75
505.093	19462.06
505.462	19463.87
505.83	19609.4
506.199	19694.14
506.567	19956.96
506.936	20053.46
507.304	20230.63
507.672	20281.47
508.041	20427.46
508.409	20582.71
508.777	20713.78
509.145	21000.55
509.514	21002.81
509.882	21112.64
510.25	21298.62
510.618	21537.26
510.986	21648.44
511.354	21840.75
511.722	22027.64
512.09	22223.57
512.458	22231.93
512.826	22509.89
513.193	22593.5
513.561	22677.57
513.929	22819.48
514.297	23089.08
514.664	23250.66
515.032	23453.82
515.4	23699.91
515.767	23788.95
516.135	23946.46
516.502	23807.03
516.869	24311.65
517.237	24486.79
517.604	24434.13
517.972	24865.31
518.339	24934.91
518.706	25006.77
519.073	25188.01
519.44	25381.45
519.808	25584.16
520.175	25678.39
520.542	26023.69
520.909	26160.41
521.276	26282.67
521.643	26488.54
522.009	26776.44
522.376	26872.49
522.743	27137.11
523.11	27312.7
523.477	27590.21
523.843	27871.56
524.21	28124.2
524.577	28371.43
524.943	28525.32
525.31	28673.12
525.676	29031.07
526.043	29145.65
526.409	29338.41
526.776	29600.32
527.142	29726.42
527.508	30160.31
527.874	30234.66
528.241	30365.95
528.607	30461.77
528.973	30796.22
529.339	30912.83
529.705	31153.95
530.071	31355.76
530.437	31572.7
530.803	31793.71
531.169	32058.79
531.535	31932.01
531.901	32115.06
532.267	32335.84
532.632	32604.31
532.998	32830.29
533.364	32888.15
533.73	33005.21
534.095	33206.78
534.461	33397.74
534.826	33742.36
535.192	33858.29
535.557	34030.26
535.923	34054.67
536.288	34134.89
536.653	34374.44
537.019	34280.65
537.384	34582.79
537.749	34780.07
538.114	34775.33
538.479	34973.29
538.845	35010.12
539.21	35008.32
539.575	35220.06
539.94	35355.2
540.305	35448.31
540.67	35584.12
541.034	35598.13
541.399	35861.85
541.764	36047.16
542.129	36108.63
542.494	36175.29
542.858	36222.52
543.223	36277.89
543.587	36714.03
543.952	36655.05
544.316	36779.34
544.681	36825.22
545.045	37024.76
545.41	37244.42
545.774	37340.91
546.138	37393.79
546.503	37544.97
546.867	37631.3
547.231	37900.44
547.595	38092.3
547.959	38092.53
548.324	38198.74
548.688	38316.7
549.052	38548.11
549.416	38647.77
549.779	38731.61
550.143	38657.49
550.507	38997.36
550.871	39070.36
551.235	39071.94
551.599	39353.74
551.962	39409.78
552.326	39525.26
552.689	39683.67
553.053	39613.17
553.417	39696.33
553.78	40280.72
554.143	40083.89
554.507	40241.4
554.87	40327.05
555.234	40859.69
555.597	40559.13
555.96	40804.77
556.323	41078.44
556.686	41070.53
557.05	41367.7
557.413	41511.2
557.776	41508.26
558.139	41832.77
558.502	41949.15
558.865	42103.27
559.228	42329.03
559.59	42521.79
559.953	42682.01
560.316	43112.74
560.679	43169.23
561.041	43360.41
561.404	43674.3
561.767	43860.74
562.129	43748.88
562.492	44103.9
562.854	44166.95
563.217	44311.12
563.579	44491.23
563.941	44715.41
564.304	44900.71
564.666	45132.34
565.028	45328.95
565.39	45454.14
565.753	45758.32
566.115	45916.28
566.477	46072.66
566.839	46182.26
567.201	46512.42
567.563	46560.78
567.925	46908.12
568.287	46817.05
568.648	47063.59
569.01	47267.66
569.372	47367.77
569.734	47417.26
570.095	47690.92
570.457	47748.77
570.819	47955.32
571.18	47991.25
571.542	48320.74
571.903	48341.75
572.265	48506.72
572.626	48594.85
572.987	48732.7
573.349	48943.32
573.71	49099.02
574.071	49108.74
574.432	49349.18
574.794	49451.55
575.155	49569.97
575.516	49468.73
575.877	49647.25
576.238	49723.64
576.599	49919.11
576.96	49878.43
577.32	50031.65
577.681	50117.52
578.042	50280.23
578.403	50197.75
578.763	50336.73
579.124	50381.47
579.485	50531.98
579.845	50716.6
580.206	50633.67
580.566	50634.57
580.927	50730.16
581.287	50890.16
581.648	50693.78
582.008	50924.51
582.368	50750.95
582.728	50954.79
583.089	50906.66
583.449	50911.63
583.809	51024.84
584.169	51084.96
584.529	51020.1
584.889	51320.66
585.249	51124.05
585.609	51088.12
585.969	51370.15
586.329	51214.9
586.688	51266.65
587.048	51061
587.408	51152.07
587.768	51251.51
588.127	51230.04
588.487	51159.53
588.846	51488.11
589.206	51128.57
589.565	51287.44
589.925	51407.66
590.284	51268.45
590.643	51332.41
591.003	51440.88
591.362	51479.3
591.721	51333.09
592.08	51397.49
592.44	51471.39
592.799	51468
593.158	51488.79
593.517	51373.99
593.876	51431.39
594.235	51444.72
594.593	51458.73
594.952	51669.8
595.311	51493.53
595.67	51548.45
596.029	51671.16
596.387	51787.08
596.746	51779.85
597.104	51653.3
597.463	51653.53
597.822	51762
598.18	51646.98
598.538	51776.24
598.897	51926.74
599.255	51629.35
599.613	52105.27
599.972	51789.12
600.33	51977.81
600.688	51842.22
601.046	51954.09
601.404	52027.53
601.762	51955.89
602.12	52131.48
602.478	52148.66
602.836	52159.5
603.194	52009.68
603.552	52131.93
603.91	51905.27
604.268	52206.96
604.625	52109.56
604.983	52236.34
605.341	52101.65
605.698	52293.74
606.056	52362.21
606.413	52265.26
606.771	52325.83
607.128	52448.54
607.485	52281.31
607.843	52226.85
608.2	52519.49
608.557	52593.17
608.914	52427.29
609.272	52683.11
609.629	52660.73
609.986	52637.23
610.343	52626.61
610.7	52855.98
611.057	52803.56
611.414	52725.14
611.771	52793.61
612.127	52896.21
612.484	52912.48
612.841	53018.24
613.198	52970.56
613.554	52936.43
613.911	53209.42
614.267	53156.31
614.624	53172.13
614.98	53219.59
615.337	53337.33
615.693	53257.1
616.05	53233.15
616.406	53442.86
616.762	53268.63
617.118	53270.21
617.475	53343.2
617.831	53354.95
618.187	53379.59
618.543	53402.18
618.899	53467.72
619.255	53522.86
619.611	53404.44
619.967	53632.69
620.323	53685.79
620.678	53534.16
621.034	53483.31
621.39	53453.71
621.746	53500.71
622.101	53689.63
622.457	53495.51
622.812	53635.62
623.168	53715.62
623.523	53844.21
623.879	53841.95
624.234	53658.22
624.589	53720.59
624.945	53792.23
625.3	53803.3
625.655	53796.75
626.01	53751.1
626.365	53800.14
626.72	53669.97
627.075	53719.92
627.43	53572.12
627.785	53559.02
628.14	53771.21
628.495	53764.21
628.85	53716.98
629.205	53610.77
629.559	53721.72
629.914	53644.21
630.269	53623.42
630.623	53534.84
630.978	53594.04
631.332	53607.6
631.687	53600.37
632.041	53378.68
632.396	53432.69
632.75	53380.04
633.104	53447.83
633.459	53365.8
633.813	53370.55
634.167	53342.98
634.521	53255.97
634.875	53341.17
635.229	53280.83
635.583	53081.51
635.937	53095.52
636.291	52955.19
636.645	52944.57
636.999	52969.2
637.352	52904.57
637.706	52789.32
638.06	52811.46
638.413	52636.78
638.767	52567.86
639.121	52563.34
639.474	52443.56
639.828	52458.71
640.181	52432.27
640.534	52494.86
640.888	52274.98
641.241	52223.01
641.594	52328.77
641.947	52397.92
642.301	52332.83
642.654	52309.78
643.007	52354.3
643.36	52218.94
643.713	52121.99
644.066	52223.23
644.419	52096
644.771	51814.65
645.124	51535.57
645.477	51546.64
645.83	51394.55
646.182	51197.72
646.535	51095.8
646.888	51134.67
647.24	50895.36
647.593	51127.67
647.945	51009.93
648.298	50873.66
648.65	50697.85
649.002	50649.26
649.355	50812.65
649.707	50747.34
650.059	50924.96
650.411	51155.91
650.763	51233.43
651.115	51633.19
651.467	51473.87
651.819	51404.95
652.171	51316.36
652.523	51244.5
652.875	51388.9
653.227	51223.94
653.578	51298.06
653.93	51284.5
654.282	51087.44
654.633	51011.29
654.985	50987.78
655.337	51130.83
655.688	51039.76
656.039	51184.39
656.391	50957.05
656.742	50995.47
657.094	50930.84
657.445	51025.97
657.796	50917.73
658.147	50777.85
658.498	50800.44
658.849	50975.13
659.2	50744.4
659.551	50674.8
659.902	50845.41
660.253	50748.47
660.604	50707.79
660.955	50527
661.306	50632.76
661.656	50497.85
662.007	50605.42
662.358	50454.24
662.708	50603.84
663.059	50507.34
663.409	50225.77
663.76	50562.03
664.11	50431.64
664.461	50447.23
664.811	50537.17
665.161	50367.91
665.511	50404.75
665.862	50315.03
666.212	50504.18
666.562	50483.84
666.912	50320.23
667.262	50300.34
667.612	50330.63
667.962	50305.77
668.312	50149.84
668.662	50388.25
669.011	50262.38
669.361	50115.26
669.711	50194.81
670.06	50111.87
670.41	50017.19
670.76	49926.12
671.109	50172.66
671.459	50011.76
671.808	49983.29
672.157	50058.99
672.507	49778.78
672.856	49954.14
673.205	49904.87
673.554	50122.5
673.904	49856.74
674.253	49940.13
674.602	49936.29
674.951	49400.48
675.3	49163.2
675.649	49816.29
675.998	49806.8
676.346	49769.51
676.695	49927.47
677.044	49571.55
677.393	49698.33
677.741	49707.37
678.09	49650.87
678.438	49559.35
678.787	49538.56
679.135	49568.61
679.484	49280.94
679.832	49542.17
680.181	49282.29
680.529	49308.05
680.877	49181.73
681.225	49167.04
681.573	49316.19
681.922	49041.62
682.27	48891.12
682.618	49037.78
682.966	48914.17
683.314	48902.64
683.661	48730.22
684.009	48631.46
684.357	48624
684.705	48457
685.053	48506.27
685.4	48380.39
685.748	48324.12
686.095	48199.38
686.443	48231.47
686.79	47946.96
687.138	48088.42
687.485	47951.48
687.832	47886.17
688.18	47904.47
688.527	47712.62
688.874	47654.09
689.221	47604.37
689.568	47551.49
689.915	47523.69
690.262	47368.9
690.609	47256.36
690.956	47222.68
691.303	47113.76
691.65	46933.88
691.997	46931.62
692.344	46599.88
692.69	46588.8
693.037	46567.11
693.383	46393.55
693.73	46459.54
694.077	46188.14
694.423	46127.57
694.769	45977.97
695.116	45976.62
695.462	45817.52
695.808	45734.14
696.155	45736.17
696.501	45482.62
696.847	45325.11
697.193	45228.16
697.539	45456.86
697.885	45029.52
698.231	44883.09
698.577	44826.59
698.923	44759.47
699.269	44573.26
699.614	44525.58
699.96	44372.82
700.306	44387.96
700.651	44066.61
700.997	44046.72
701.342	44050.11
701.688	43959.95
702.033	43587.98
702.379	43655.32
702.724	43456.68
703.069	43635.66
703.415	43197.93
703.76	43201.77
704.105	43192.28
704.45	43076.58
704.795	42847.43
705.14	42668.45
705.485	42780.99
705.83	42521.34
706.175	42616.25
706.52	42416.48
706.865	42333.32
707.209	42297.39
707.554	42064.4
707.899	42166.32
708.243	41985.31
708.588	41998.87
708.932	41655.83
709.277	41653.79
709.621	41733.79
709.966	41329.05
710.31	41377.41
710.654	41108.95
710.998	41113.24
711.342	41166.12
711.687	40927.94
712.031	40884.77
712.375	40724.55
712.719	40826.24
713.063	40713.25
713.407	40811.55
713.75	40475.29
714.094	40531.34
714.438	40218.35
714.782	40240.72
715.125	40122.53
715.469	40247.05
715.812	40019.26
716.156	39775.88
716.499	39787.85
716.843	39893.16
717.186	39617.91
717.53	39745.14
717.873	39498.59
718.216	39468.76
718.559	39316.45
718.902	39146.06
719.246	39358.94
719.589	39183.12
719.932	39107.87
720.275	39050.47
720.617	39093.63
720.96	38882.11
721.303	38987.87
721.646	39026.74
721.989	38605.06
722.331	38708.78
722.674	38644.38
723.016	38501.11
723.359	38402.8
723.701	38390.15
724.044	38167.78
724.386	38076.03
724.729	38148.12
725.071	38076.71
725.413	37947.67
725.755	37965.3
726.097	37764.85
726.439	37524.18
726.782	37709.49
727.124	37822.03
727.465	37542.04
727.807	37527.12
728.149	37480.79
728.491	37412.32
728.833	37348.59
729.175	37138.66
729.516	37038.32
729.858	37101.82
730.199	37157.64
730.541	36961.94
730.882	37010.75
731.224	37162.84
731.565	36813.92
731.906	36622.96
732.248	36654.83
732.589	36514.72
732.93	36413.7
733.271	36407.15
733.612	36358.11
733.953	36493.25
734.294	36237.89
734.635	36159.92
734.976	36238.57
735.317	35990.44
735.658	35960.38
735.999	36029.53
736.339	35990.66
736.68	35888.52
737.021	35863.44
737.361	35634.52
737.702	35826.15
738.042	35611.01
738.383	35675.42
738.723	35609.88
739.063	35439.49
739.404	35405.37
739.744	35423
740.084	35186.62
740.424	35280.63
740.764	35194.3
741.104	35236.11
741.444	35014.87
741.784	35059.39
742.124	34929.22
742.464	34920.18
742.804	34792.73
743.143	34588.44
743.483	34808.55
743.823	34493.08
744.162	34495.56
744.502	34435.22
744.841	34197.72
745.181	34482
745.52	34300.99
745.86	34326.3
746.199	34266.19
746.538	34159.98
746.877	34173.99
747.216	34057.83
747.556	33895.58
747.895	33823.49
748.234	33813.55
748.573	33726.99
748.911	33757.95
749.25	33648.8
749.589	33531.97
749.928	33534.01
750.267	33479.09
750.605	33403.16
750.944	33321.81
751.283	33197.97
751.621	33270.06
751.96	33050.18
752.298	33073.45
752.636	33163.17
