Data from aluminium_macbook_case_FLMS001491_025.txt Node
Date: Tue Feb 07 10:43:26 GMT 2017
User: dcchb
Spectrometer: FLMS00149
Trigger mode: 0
Integration Time (sec): 2.000000E-2
Scans to average: 10
Electric dark correction enabled: true
Nonlinearity correction enabled: false
Boxcar width: 0
XAxis mode: Wavelengths
Number of Pixels in Spectrum: 2048
>>>>>Begin Spectral Data<<<<<
341.393	-3.11
341.776	-3.11
342.16	-3.11
342.543	-47.63
342.927	-78.13
343.31	-79.72
343.693	-67.96
344.077	-56.89
344.46	-52.15
344.843	-42.88
345.226	-60.51
345.61	-37.91
345.993	-41.75
346.376	10.45
346.759	18.81
347.142	26.72
347.525	21.52
347.908	67.63
348.291	73.27
348.674	112.14
349.057	109.21
349.44	127.51
349.823	151.46
350.206	168.87
350.588	222.88
350.971	253.84
351.354	272.37
351.737	285.7
352.119	299.26
352.502	315.98
352.884	309.65
353.267	329.77
353.65	334.51
354.032	347.39
354.414	374.51
354.797	379.71
355.179	391.68
355.562	388.07
355.944	379.93
356.326	416.32
356.709	397.79
357.091	387.62
357.473	424.45
357.855	407.28
358.238	399.59
358.62	400.05
359.002	391.91
359.384	410.67
359.766	415.41
360.148	412.7
360.53	406.15
360.912	410.67
361.294	433.49
361.676	412.93
362.057	395.07
362.439	419.71
362.821	421.74
363.203	413.6
363.584	414.51
363.966	441.63
364.348	435.53
364.729	413.38
365.111	405.24
365.493	409.09
365.874	432.59
366.256	419.48
366.637	407.05
367.019	424.9
367.4	417.22
367.781	434.17
368.163	419.03
368.544	421.29
368.925	422.19
369.306	430.1
369.688	424
370.069	426.71
370.45	453.6
370.831	432.81
371.212	432.36
371.593	442.98
371.974	447.73
372.355	433.49
372.736	449.99
373.117	482.08
373.498	469.87
373.879	444.56
374.26	467.61
374.641	424.23
375.021	469.42
375.402	455.64
375.783	469.65
376.163	508.52
376.544	500.38
376.925	512.13
377.305	494.73
377.686	496.54
378.066	519.36
378.447	509.42
378.827	517.56
379.208	533.15
379.588	548.97
379.968	523.21
380.349	534.73
380.729	536.31
381.109	552.58
381.489	557.78
381.87	567.95
382.25	574.5
382.63	553.26
383.01	589.87
383.39	579.93
383.77	579.25
384.15	606.37
384.53	583.77
384.91	611.57
385.29	600.27
385.67	636.2
386.049	648.85
386.429	617.89
386.809	622.19
387.189	642.98
387.568	659.7
387.948	664.67
388.328	674.16
388.707	665.58
389.087	669.42
389.466	678
389.846	692.47
390.225	714.16
390.605	727.49
390.984	698.34
391.363	729.75
391.743	748.51
392.122	751.9
392.501	775.86
392.881	787.15
393.26	777.21
393.639	789.87
394.018	807.27
394.397	779.92
394.776	820.83
395.155	809.07
395.534	811.79
395.913	849.07
396.292	893.14
396.671	862.41
397.05	890.43
397.429	890.65
397.808	904.67
398.186	892.46
398.565	899.92
398.944	915.06
399.323	911.22
399.701	940.37
400.08	938.11
400.458	964.32
400.837	958.68
401.215	965.68
401.594	987.6
401.972	1009.75
402.351	1015.85
402.729	1062.63
403.107	1030.31
403.486	1051.33
403.864	1048.84
404.242	1049.75
404.62	1076.19
404.999	1130.42
405.377	1105.34
405.755	1108.5
406.133	1122.96
406.511	1165
406.889	1182.17
407.267	1179.23
407.645	1187.14
408.023	1221.95
408.401	1209.06
408.779	1235.96
409.156	1272.11
409.534	1283.19
409.912	1303.3
410.29	1355.5
410.667	1332.9
411.045	1384.43
411.422	1399.12
411.8	1392.34
412.178	1427.14
412.555	1439.57
412.933	1468.94
413.31	1479.57
413.687	1527.7
414.065	1520.24
414.442	1560.02
414.819	1564.31
415.197	1578.77
415.574	1601.6
415.951	1634.36
416.328	1632.56
416.705	1657.41
417.082	1675.94
417.46	1703.51
417.837	1692.67
418.214	1742.38
418.591	1753.46
418.967	1773.57
419.344	1798.2
419.721	1807.69
420.098	1823.06
420.475	1856.96
420.852	1851.08
421.228	1916.16
421.605	1928.14
421.982	1933.11
422.358	1942.38
422.735	1990.51
423.111	1989.61
423.488	2048.14
423.864	2054.69
424.241	2052.88
424.617	2102.6
424.994	2110.96
425.37	2134.69
425.746	2131.07
426.123	2181.69
426.499	2191.19
426.875	2243.84
427.251	2273.44
427.627	2310.28
428.003	2330.39
428.379	2363.16
428.756	2395.47
429.132	2437.96
429.507	2484.96
429.883	2515.02
430.259	2551.18
430.635	2571.74
431.011	2615.58
431.387	2659.87
431.763	2726.76
432.138	2737.16
432.514	2781.45
432.89	2792.07
433.265	2857.16
433.641	2907.1
434.016	2909.36
434.392	2966.98
434.767	3049.02
435.143	3021.67
435.518	3089.69
435.894	3108
436.269	3154.1
436.644	3249.91
437.02	3234.1
437.395	3243.81
437.77	3362.91
438.145	3351.61
438.52	3384.6
438.895	3434.99
439.271	3437.48
439.646	3531.49
440.021	3554.31
440.395	3564.71
440.77	3540.3
441.145	3588.89
441.52	3656.23
441.895	3701.2
442.27	3708.21
442.645	3726.06
443.019	3743.23
443.394	3800.41
443.769	3867.75
444.143	3838.83
444.518	3907.3
444.892	3922.89
445.267	3924.93
445.641	4011.48
446.016	4023.45
446.39	4074.07
446.764	4091.93
447.139	4088.76
447.513	4116.11
447.887	4151.36
448.262	4151.81
448.636	4198.59
449.01	4284.01
449.384	4324.69
449.758	4342.77
450.132	4401.3
450.506	4448.3
450.88	4459.37
451.254	4516.55
451.628	4568.52
452.002	4613.04
452.376	4651.01
452.75	4738.24
453.123	4736.66
453.497	4823.66
453.871	4889.19
454.244	5003.09
454.618	5038.12
454.992	5081.5
455.365	5083.99
455.739	5283.08
456.112	5264.32
456.486	5325.34
456.859	5390.88
457.232	5529.63
457.606	5533.24
457.979	5539.35
458.352	5651.21
458.725	5744.31
459.099	5762.16
459.472	5921.71
459.845	5945.21
460.218	6007.58
460.591	6116.73
460.964	6102.72
461.337	6303.39
461.71	6400.34
462.083	6502.48
462.456	6460.23
462.829	6529.83
463.201	6669.03
463.574	6708.13
463.947	6832.42
464.32	7016.14
464.692	7064.28
465.065	7100.66
465.438	7175.01
465.81	7336.81
466.183	7408
466.555	7503.59
466.928	7640.53
467.3	7610.25
467.672	7792.17
468.045	7968.89
468.417	7934.76
468.789	8028.55
469.161	8097.24
469.534	8247.3
469.906	8451.13
470.278	8555.99
470.65	8591.47
471.022	8820.84
471.394	9007.5
471.766	9048.63
472.138	9190.55
472.51	9396.42
472.882	9541.5
473.253	9687.26
473.625	9826.46
473.997	10104.2
474.369	10116.85
474.74	10206.79
475.112	10489.27
475.484	10724.97
475.855	10789.15
476.227	10902.59
476.598	11195.24
476.97	11308.23
477.341	11622.35
477.713	11651.5
478.084	11832.97
478.455	12176.01
478.827	12216.46
479.198	12627.07
479.569	12599.5
479.94	13007.85
480.311	13131.91
480.682	13448.52
481.053	13792.91
481.424	13942.29
481.795	14113.36
482.166	14399.68
482.537	14513.8
482.908	14944.07
483.279	15031.98
483.65	15360.78
484.021	15652.3
484.391	15768.46
484.762	16044.61
485.133	16126.86
485.503	16481.21
485.874	16751.93
486.244	16959.61
486.615	17215.88
486.985	17492.48
487.356	17766.82
487.726	17889.76
488.097	18295.17
488.467	18337.65
488.837	18704.88
489.207	18841.59
489.578	19207.24
489.948	19331.53
490.318	19692.87
490.688	19798.18
491.058	20133.31
491.428	20327.21
491.798	20564.49
492.168	21056.23
492.538	21147.3
492.908	21446.27
493.278	21686.27
493.648	21696.66
494.017	22090.32
494.387	22296.19
494.757	22453.03
495.126	22820.93
495.496	22892.11
495.866	23019.56
496.235	23342.72
496.605	23566.89
496.974	23613.22
497.344	23800.11
497.713	24055.47
498.082	24082.36
498.452	24375.23
498.821	24605.74
499.19	24645.74
499.559	24785.17
499.928	24942.9
500.298	25175.44
500.667	25457.69
501.036	25296.57
501.405	25753.96
501.774	25825.14
502.143	26084.34
502.512	26205.7
502.88	26457.44
503.249	26547.83
503.618	26879.12
503.987	26951.89
504.356	27266.46
504.724	27481.37
505.093	27586.9
505.462	27720.91
505.83	27990.73
506.199	28170.62
506.567	28496.26
506.936	28500.78
507.304	28913.42
507.672	28981.89
508.041	29150.93
508.409	29319.06
508.777	29554.08
509.145	29716.56
509.514	29931.02
509.882	30042.66
510.25	30207.17
510.618	30298.24
510.986	30529.42
511.354	30844.67
511.722	30993.14
512.09	31317.65
512.458	31396.75
512.826	31761.26
513.193	31873.12
513.561	32060.46
513.929	32231.98
514.297	32747.9
514.664	32901.56
515.032	33168.22
515.4	33287.09
515.767	33600.75
516.135	33822.22
516.502	33753.97
516.869	34413.16
517.237	34637.56
517.604	34607.51
517.972	34925.69
518.339	35237.32
518.706	35324.1
519.073	35562.96
519.44	35825.33
519.808	36214.47
520.175	36156.39
520.542	36616.72
520.909	36872.99
521.276	36866.43
521.643	37216.03
522.009	37558.16
522.376	37738.05
522.743	37934.88
523.11	38197.7
523.477	38745.7
523.843	38867.28
524.21	39316.99
524.577	39465.69
524.943	39572.12
525.31	39877.43
525.676	40276.29
526.043	40470.4
526.409	40904.29
526.776	41205.07
527.142	41466.08
527.508	41800.09
527.874	42132.28
528.241	42420.18
528.607	42496.57
528.973	43052.94
529.339	43075.08
529.705	43401.4
530.071	43765.69
530.437	43920.94
530.803	44093.13
531.169	44398.44
531.535	44262.17
531.901	44589.17
532.267	44703.74
532.632	44909.16
532.998	45059.44
533.364	45352.08
533.73	45483.38
534.095	45812.41
534.461	45704.17
534.826	46028.22
535.192	46176.47
535.557	46452.62
535.923	46385.5
536.288	46725.16
536.653	46842.21
537.019	46858.94
537.384	46928.54
537.749	47233.16
538.114	47211.02
538.479	47401.52
538.845	47732.81
539.21	47680.61
539.575	47873.6
539.94	48060.04
540.305	48385.45
540.67	48300.93
541.034	48572.56
541.399	48826.57
541.764	48844.2
542.129	48933.91
542.494	49129.16
542.858	49286.22
543.223	49430.85
543.587	49717.17
543.952	49612.54
544.316	49816.6
544.681	49774.57
545.045	49881.46
545.41	50140.21
545.774	50182.24
546.138	50176.82
546.503	50320.77
546.867	50243.93
547.231	50573.19
547.595	50806.18
547.959	50734.09
548.324	50856.35
548.688	50940.41
549.052	51017.02
549.416	51197.81
549.779	51250.23
550.143	51313.74
550.507	51502.21
550.871	51729.77
551.235	51645.93
551.599	51903.32
551.962	51998.69
552.326	52099.25
552.689	52352.13
553.053	52306.48
553.417	52332.69
553.78	52811.32
554.143	52728.84
554.507	52970.19
554.87	53008.61
555.234	53333.8
555.597	53217.19
555.96	53338.09
556.323	53539.67
556.686	53596.84
557.05	53822.37
557.413	53929.26
557.776	54089.26
558.139	54227.11
558.502	54235.24
558.865	54232.75
559.228	54382.36
559.59	54461.22
559.953	54589.81
560.316	54815.34
560.679	54860.53
561.041	55026.86
561.404	55156.35
561.767	55313.4
562.129	55202.9
562.492	55526.96
562.854	55474.08
563.217	55550.91
563.579	55709.55
563.941	55869.32
564.304	56031.8
564.666	56182.53
565.028	56151.57
565.39	56293.72
565.753	56445.8
566.115	56589.98
566.477	56660.26
566.839	56709.75
567.201	56854.38
567.563	56973.93
567.925	57062.06
568.287	57134.83
568.648	57275.61
569.01	57381.6
569.372	57598.32
569.734	57492.78
570.095	57684.64
570.457	57817.29
570.819	57869.04
571.18	57835.82
571.542	58045.08
571.903	58116.27
572.265	58153.1
572.626	58168.7
572.987	58220.67
573.349	58344.51
573.71	58348.13
574.071	58480.78
574.432	58511.96
574.794	58628.12
575.155	58521
575.516	58522.36
575.877	58584.05
576.238	58685.75
576.599	58791.05
576.96	58737.04
577.32	58836.7
577.681	58927.55
578.042	58923.48
578.403	58874.21
578.763	58994.44
579.124	58981.33
579.485	59142.46
579.845	59179.07
580.206	59096.36
580.566	59167.09
580.927	59205.28
581.287	59362.34
581.648	59302.9
582.008	59390.36
582.368	59334.32
582.728	59423.8
583.089	59439.85
583.449	59440.75
583.809	59449.11
584.169	59557.13
584.529	59477.14
584.889	59689.56
585.249	59490.02
585.609	59431.26
585.969	59619.51
586.329	59465.61
586.688	59584.48
587.048	59519.85
587.408	59475.78
587.768	59539.51
588.127	59513.75
588.487	59410.7
588.846	59557.36
589.206	59463.13
589.565	59448.66
589.925	59582.44
590.284	59387.87
590.643	59401.66
591.003	59436.01
591.362	59484.37
591.721	59391.94
592.08	59498.38
592.44	59465.84
592.799	59460.64
593.158	59483.92
593.517	59375.9
593.876	59482.79
594.235	59485.95
594.593	59535.21
594.952	59595.55
595.311	59470.81
595.67	59538.15
596.029	59692.27
596.387	59684.36
596.746	59719.84
597.104	59608.43
597.463	59667.19
597.822	59772.27
598.18	59697.24
598.538	59780.63
598.897	59935.66
599.255	59737.47
599.613	60090
599.972	59928.42
600.33	59918.48
600.688	59862.89
601.046	59984.47
601.404	60026.5
601.762	59999.83
602.12	60109.44
602.478	60122.09
602.836	60133.39
603.194	59948.99
603.552	60097.23
603.91	59930.68
604.268	60084.58
604.625	59989.89
604.983	60089.1
605.341	59957.8
605.698	60056.78
606.056	60025.82
606.413	60023.34
606.771	60128.87
607.128	60140.85
607.485	59995.54
607.843	60025.6
608.2	60134.75
608.557	60171.81
608.914	60058.14
609.272	60230.79
609.629	60186.95
609.986	60339.03
610.343	60245.48
610.7	60361.18
611.057	60376.32
611.414	60327.96
611.771	60342.65
612.127	60465.36
612.484	60463.33
612.841	60592.14
613.198	60496.77
613.554	60551.68
613.911	60679.14
614.267	60667.39
614.624	60654.05
614.98	60715.97
615.337	60916.19
615.693	60880.04
616.05	60834.84
616.406	60962.97
616.762	60886.59
617.118	60868.74
617.475	60936.99
617.831	60983.54
618.187	60968.62
618.543	60963.65
618.899	61067.6
619.255	60989.41
619.611	60947.61
619.967	61089.52
620.323	61156.19
620.678	61056.98
621.034	60965.91
621.39	60951.45
621.746	60880.04
622.101	61127.26
622.457	60903.54
622.812	60866.93
623.168	60961.39
623.523	60901.05
623.879	60953.93
624.234	60755.75
624.589	60879.59
624.945	60846.37
625.3	60871.9
625.655	60797.78
626.01	60787.16
626.365	60807.5
626.72	60765.92
627.075	60784.9
627.43	60758.46
627.785	60731.34
628.14	60849.53
628.495	60817.89
628.85	60726.82
629.205	60660.61
629.559	60857.89
629.914	60698.12
630.269	60787.16
630.623	60769.08
630.978	60688.18
631.332	60801.4
631.687	60780.15
632.041	60742.41
632.396	60817.21
632.75	60641.17
633.104	60728.4
633.459	60631.68
633.813	60630.78
634.167	60691.12
634.521	60653.15
634.875	60674.17
635.229	60583.1
635.583	60519.37
635.937	60613.6
636.291	60485.47
636.645	60487.05
636.999	60385.36
637.352	60485.02
637.706	60284.35
638.06	60416.55
638.413	60327.28
638.767	60275.08
639.121	60269.88
639.474	60066.05
639.828	60030.12
640.181	60101.98
640.534	60084.58
640.888	59977.69
641.241	59874.87
641.594	59859.73
641.947	59876.22
642.301	59763.68
642.654	59787.41
643.007	59718.26
643.36	59682.1
643.713	59660.86
644.066	59639.17
644.419	59486.63
644.771	59384.71
645.124	59086.86
645.477	59127.77
645.83	58947.66
646.182	58828.79
646.535	58720.55
646.888	58760.32
647.24	58601
647.593	58785.4
647.945	58613.88
648.298	58588.35
648.65	58551.74
649.002	58474.23
649.355	58605.75
649.707	58590.38
650.059	58689.59
650.411	58966.64
650.763	59146.75
651.115	59254.77
651.467	59219.74
651.819	59152.85
652.171	59167.99
652.523	59152.4
652.875	59095.45
653.227	59021.33
653.578	59193.08
653.93	59084.6
654.282	58985.62
654.633	58969.58
654.985	58995.12
655.337	59006.64
655.688	58967.09
656.039	58930.48
656.391	58809.36
656.742	58784.05
657.094	58817.72
657.445	58903.14
657.796	58826.31
658.147	58688
658.498	58709.93
658.849	58723.71
659.2	58671.06
659.551	58579.99
659.902	58700.43
660.253	58596.03
660.604	58537.27
660.955	58412.76
661.306	58506.99
661.656	58412.98
662.007	58379.54
662.358	58339.99
662.708	58335.7
663.059	58291.63
663.409	58088.7
663.76	58178.87
664.11	58189.94
664.461	58166.21
664.811	58138.87
665.161	58104.97
665.511	58052.54
665.862	58119.66
666.212	58109.94
666.562	58107
666.912	58061.58
667.262	58019.1
667.612	58014.12
667.962	58067.23
668.312	58041.69
668.662	58215.7
669.011	58077.17
669.361	58092.54
669.711	58116.27
670.06	58105.87
670.41	58146.32
670.76	58054.8
671.109	58180.67
671.459	58094.35
671.808	58091.18
672.157	58172.76
672.507	57918.76
672.856	57999.89
673.205	58015.48
673.554	58047.57
673.904	58000.34
674.253	58125.31
674.602	57988.36
674.951	57643.74
675.3	57525.1
675.649	57892.09
675.998	57906.78
676.346	57821.81
676.695	57951.53
677.044	57762.38
677.393	57781.14
677.741	57789.95
678.09	57682.16
678.438	57636.96
678.787	57693.23
679.135	57646
679.484	57393.12
679.832	57507.92
680.181	57363.75
680.529	57404.65
680.877	57253.24
681.225	57143.86
681.573	57279
681.922	57058.44
682.27	57018.67
682.618	56963.98
682.966	56849.64
683.314	56947.71
683.661	56865
684.009	56692.13
684.357	56620.26
684.705	56514.5
685.053	56672.01
685.4	56547.5
685.748	56395.18
686.095	56336.2
686.443	56309.54
686.79	56271.12
687.138	56260.5
687.485	56302.3
687.832	56206.71
688.18	56227.05
688.527	56074.29
688.874	56079.26
689.221	55925.37
689.568	55966.49
689.915	55904.58
690.262	55958.36
690.609	55824.58
690.956	55831.36
691.303	55740.51
691.65	55678.37
691.997	55679.72
692.344	55467.75
692.69	55483.57
693.037	55450.35
693.383	55256
693.73	55366.74
694.077	55241.32
694.423	55173.52
694.769	55124.71
695.116	55028.67
695.462	55031.6
695.808	54862.79
696.155	54962.45
696.501	54733.08
696.847	54800.65
697.193	54632.52
697.539	54708.45
697.885	54385.07
698.231	54432.52
698.577	54315.01
698.923	54320.89
699.269	54105.07
699.614	53937.4
699.96	53894.01
700.306	53803.39
700.651	53755.71
700.997	53644.97
701.342	53472.77
701.688	53510.74
702.033	53369.73
702.379	53277.98
702.724	53185.78
703.069	53184.19
703.415	52813.36
703.76	52871.66
704.105	52760.48
704.45	52730.2
704.795	52440.26
705.14	52376.76
705.485	52351.45
705.83	52207.27
706.175	52123.21
706.52	51963.89
706.865	51919.82
707.209	51861.07
707.554	51759.83
707.899	51750.33
708.243	51511.92
708.588	51426.05
708.932	51210.69
709.277	51379.04
709.621	51259.73
709.966	51076.68
710.31	51203.23
710.654	50893.86
710.998	50918.94
711.342	50952.39
711.687	50823.35
712.031	50794.2
712.375	50609.57
712.719	50747.2
713.063	50554.66
713.407	50807.08
713.75	50578.16
714.094	50585.62
714.438	50378.84
714.782	50390.14
715.125	50304.5
715.469	50397.38
715.812	50226.31
716.156	49935.24
716.499	50102.69
716.843	50128.46
717.186	49921
717.53	50035.13
717.873	49888.91
718.216	49848.01
718.559	49657.06
718.902	49466.78
719.246	49568.02
719.589	49309.49
719.932	49283.51
720.275	49139.78
720.617	49189.27
720.96	48970.07
721.303	49040.57
721.646	48996.51
721.989	48845.55
722.331	48871.99
722.674	48787.93
723.016	48833.12
723.359	48601.04
723.701	48635.16
724.044	48210.77
724.386	48110.66
724.729	48327.15
725.071	48216.87
725.413	47958.57
725.755	48056.87
726.097	47918.12
726.439	47629.54
726.782	47619.37
727.124	47640.84
727.465	47492.37
727.807	47360.85
728.149	47238.14
728.491	47124.92
728.833	47191.36
729.175	46949.56
729.516	46791.37
729.858	46804.25
730.199	46913.85
730.541	46721.31
730.882	46526.52
731.224	46657.36
731.565	46362.68
731.906	46400.19
732.248	46529.68
732.589	46042.91
732.93	45895.57
733.271	46016.47
733.612	46096.47
733.953	46166.53
734.294	45837.5
734.635	45673.21
734.976	45779.87
735.317	45630.95
735.658	45522.02
735.999	45658.52
736.339	45522.02
736.68	45750.49
737.021	45587.11
737.361	45421.91
737.702	45553.21
738.042	45233.67
738.383	45461.23
738.723	45524.51
739.063	45168.36
739.404	45308.92
739.744	45202.71
740.084	45108.7
740.424	45150.73
740.764	44977.63
741.104	45018.76
741.444	44738.09
741.784	44732.44
742.124	44860.57
742.464	44624.65
742.804	44712.55
743.143	44596.17
743.483	44551.43
743.823	44360.02
744.162	44359.34
744.502	44200.48
744.841	44227.82
745.181	44396.4
745.52	43924.78
745.86	44053.14
746.199	43830.09
746.538	43837.77
746.877	43803.65
747.216	43858.34
747.556	43577.67
747.895	43620.15
748.234	43391.91
748.573	43267.17
748.911	43386.94
749.25	43167.06
749.589	42987.4
749.928	42940.4
750.267	42985.59
750.605	42751.93
750.944	42745.15
751.283	42522.33
751.621	42572.04
751.96	42410.47
752.298	42269.45
