Data from aluminium_surface_pro_back_FLMS001491_00094.txt Node
Date: Wed Feb 08 15:34:47 GMT 2017
User: dcchb
Spectrometer: FLMS00149
Trigger mode: 0
Integration Time (sec): 2.000000E-2
Scans to average: 10
Electric dark correction enabled: true
Nonlinearity correction enabled: false
Boxcar width: 0
XAxis mode: Wavelengths
Number of Pixels in Spectrum: 2048
>>>>>Begin Spectral Data<<<<<
341.393	13.29
341.776	13.29
342.16	13.29
342.543	-56.54
342.927	-80.72
343.31	-75.29
343.693	-75.97
344.077	-62.41
344.46	-85.01
344.843	-30.78
345.226	-37.78
345.61	-39.14
345.993	-21.06
346.376	0.64
346.759	19.62
347.142	22.78
347.525	32.5
347.908	50.8
348.291	84.02
348.674	112.5
349.057	104.59
349.44	137.36
349.823	134.64
350.206	180.74
350.588	209.67
350.971	229.56
351.354	237.01
351.737	263.68
352.119	286.28
352.502	284.7
352.884	303.23
353.267	296.67
353.65	328.99
354.032	329.44
354.414	354.75
354.797	340.97
355.179	353.17
355.562	366.28
355.944	361.53
356.326	376.67
356.709	388.2
357.091	381.64
357.473	377.12
357.855	378.93
358.238	366.73
358.62	371.93
359.002	350.46
359.384	401.08
359.766	360.63
360.148	385.48
360.53	383.22
360.912	383.22
361.294	363.79
361.676	367.18
362.057	387.97
362.439	360.85
362.821	379.61
363.203	380.51
363.584	361.98
363.966	375.54
364.348	382.77
364.729	376.22
365.111	375.54
365.493	350.68
365.874	370.34
366.256	378.7
366.637	388.42
367.019	360.63
367.4	392.49
367.781	371.7
368.163	353.17
368.544	374.64
368.925	371.47
369.306	393.39
369.688	378.48
370.069	389.1
370.45	358.37
370.831	390.46
371.212	366.95
371.593	378.7
371.974	376.9
372.355	387.97
372.736	385.71
373.117	385.94
373.498	387.07
373.879	378.48
374.26	397.01
374.641	364.92
375.021	387.74
375.402	405.82
375.783	407.63
376.163	403.34
376.544	389.1
376.925	409.89
377.305	408.53
377.686	405.14
378.066	412.15
378.447	422.32
378.827	430.23
379.208	450.12
379.588	428.19
379.968	421.87
380.349	436.78
380.729	435.65
381.109	428.42
381.489	429.1
381.87	444.47
382.25	448.53
382.63	451.47
383.01	448.53
383.39	471.36
383.77	444.69
384.15	446.5
384.53	468.19
384.91	456.22
385.29	473.84
385.67	465.93
386.049	488.53
386.429	501.87
386.809	476.78
387.189	487.63
387.568	497.8
387.948	505.48
388.328	504.8
388.707	519.72
389.087	510.68
389.466	513.84
389.846	539.83
390.225	547.29
390.605	539.15
390.984	561.75
391.363	568.76
391.743	563.11
392.122	571.02
392.501	593.39
392.881	614.4
393.26	582.99
393.639	570.34
394.018	615.31
394.397	598.81
394.776	608.53
395.155	615.76
395.534	623.9
395.913	628.87
396.292	606.5
396.671	655.99
397.05	665.25
397.429	658.47
397.808	676.78
398.186	670.22
398.565	684.46
398.944	694.85
399.323	706.38
399.701	716.32
400.08	717.45
400.458	716.77
400.837	717.23
401.215	733.5
401.594	715.87
401.972	751.8
402.351	735.08
402.729	769.88
403.107	765.59
403.486	791.58
403.864	782.31
404.242	776.21
404.62	840.61
404.999	825.47
405.377	816.21
405.755	820.5
406.133	840.39
406.511	867.51
406.889	859.6
407.267	857.56
407.645	882.87
408.023	904.79
408.401	895.98
408.779	927.16
409.156	922.19
409.534	963.1
409.912	942.98
410.29	957.22
410.667	987.05
411.045	989.31
411.422	1009.2
411.8	1027.5
412.178	1025.92
412.555	1046.71
412.933	1063.43
413.31	1076.09
413.687	1094.17
414.065	1070.66
414.442	1110.66
414.819	1123.09
415.197	1144.79
415.574	1161.73
415.951	1171.68
416.328	1177.55
416.705	1167.16
417.082	1191.56
417.46	1229.3
417.837	1263.65
418.214	1252.58
418.591	1214.84
418.967	1266.59
419.344	1243.77
419.721	1298.68
420.098	1283.99
420.475	1292.8
420.852	1331.67
421.228	1358.11
421.605	1344.33
421.982	1387.27
422.358	1375.06
422.735	1377.1
423.111	1377.77
423.488	1408.06
423.864	1421.62
424.241	1418.23
424.617	1485.57
424.994	1470.88
425.37	1493.93
425.746	1517.66
426.123	1504.1
426.499	1540.48
426.875	1547.26
427.251	1596.75
427.627	1612.12
428.003	1642.85
428.379	1638.78
428.756	1650.08
429.132	1700.03
429.507	1713.13
429.883	1727.6
430.259	1732.57
430.635	1753.13
431.011	1784.32
431.387	1808.5
431.763	1852.79
432.138	1849.85
432.514	1859.8
432.89	1892.79
433.265	1912
433.641	1949.28
434.016	1988.83
434.392	1989.96
434.767	2077.42
435.143	2012.11
435.518	2073.35
435.894	2070.41
436.269	2137.3
436.644	2158.32
437.02	2191.76
437.395	2156.74
437.77	2218.2
438.145	2251.2
438.52	2290.74
438.895	2261.59
439.271	2286.9
439.646	2360.8
440.021	2376.84
440.395	2384.75
440.77	2380.01
441.145	2414.81
441.52	2446
441.895	2426.33
442.27	2417.52
442.645	2478.54
443.019	2511.98
443.394	2513.79
443.769	2556.27
444.143	2533.68
444.518	2595.37
444.892	2544.3
445.267	2618.19
445.641	2623.84
446.016	2635.37
446.39	2669.72
446.764	2662.03
447.139	2712.43
447.513	2731.86
447.887	2737.74
448.262	2735.48
448.636	2772.77
449.01	2843.27
449.384	2854.35
449.758	2856.38
450.132	2888.47
450.506	2904.97
450.88	2949.26
451.254	2944.06
451.628	2972.76
452.002	3007.56
452.376	3021.57
452.75	3092.76
453.123	3090.05
453.497	3155.35
453.871	3188.35
454.244	3219.76
454.618	3240.78
454.992	3324.62
455.365	3315.12
455.739	3372.98
456.112	3401
456.486	3438.29
456.859	3464.73
457.232	3551.05
457.606	3552.18
457.979	3614.55
458.352	3682.8
458.725	3739.75
459.099	3740.88
459.472	3834.66
459.845	3865.39
460.218	3921.44
460.591	3994.88
460.964	3927.99
461.337	4084.37
461.71	4134.31
462.083	4172.5
462.456	4210.24
462.829	4189
463.201	4258.83
463.574	4238.72
463.947	4384.48
464.32	4462.89
464.692	4497.01
465.065	4474.64
465.438	4602.55
465.81	4636.9
466.183	4725.26
466.555	4756.44
466.928	4842.99
467.3	4851.81
467.672	4883.22
468.045	5073.04
468.417	5077.79
468.789	5121.18
469.161	5150.56
469.534	5202.98
469.906	5342.64
470.278	5359.59
470.65	5472.81
471.022	5600.94
471.394	5628.96
471.766	5731.11
472.138	5763.87
472.51	5946.92
472.882	5970.87
473.253	6118.67
473.625	6177.2
473.997	6293.13
474.369	6351.88
474.74	6386.68
475.112	6505.32
475.484	6641.82
475.855	6759.1
476.227	6790.51
476.598	6967.68
476.97	7092.65
477.341	7293.33
477.713	7300.33
478.084	7413.32
478.455	7582.58
478.827	7631.17
479.198	7877.72
479.569	7814.22
479.94	8124.49
480.311	8240.19
480.682	8398.38
481.053	8565.61
481.424	8661.65
481.795	8773.06
482.166	8916.11
482.537	9049.44
482.908	9320.39
483.279	9337.11
483.65	9519.26
484.021	9614.39
484.391	9834.05
484.762	9881.05
485.133	10006.7
485.503	10117.66
485.874	10351.1
486.244	10490.08
486.615	10669.73
486.985	10862.27
487.356	11069.05
487.726	11042.83
488.097	11302.71
488.467	11364.4
488.837	11561.24
489.207	11779.31
489.578	11918.29
489.948	12038.29
490.318	12249.58
490.688	12299.97
491.058	12546.75
491.428	12667.65
491.798	12806.85
492.168	13107.41
492.538	13117.35
492.908	13329.32
493.278	13405.93
493.648	13549.43
494.017	13741.74
494.387	13799.37
494.757	13874.85
495.126	14114.61
495.496	14128.63
495.866	14267.61
496.235	14344.44
496.605	14591.21
496.974	14609.07
497.344	14829.85
497.713	14890.41
498.082	15021.03
498.452	15248.82
498.821	15301.7
499.19	15367.92
499.559	15486.33
499.928	15566.55
500.298	15873.89
500.667	15946.43
501.036	15913.44
501.405	16090.38
501.774	16166.99
502.143	16279.76
502.512	16404.05
502.88	16575.12
503.249	16567.88
503.618	16672.97
503.987	16790.7
504.356	16878.61
504.724	17116.34
505.093	17189.56
505.462	17143.24
505.83	17350.69
506.199	17500.51
506.567	17772.82
506.936	17699.15
507.304	18023.44
507.672	18069.99
508.041	18099.59
508.409	18285.58
508.777	18485.57
509.145	18544.55
509.514	18633.82
509.882	18707.04
510.25	18880.37
510.618	18937.54
510.986	19016.63
511.354	19321.03
511.722	19397.64
512.09	19603.28
512.458	19550.63
512.826	19842.37
513.193	19975.03
513.561	20081.69
513.929	20200.56
514.297	20465.18
514.664	20571.85
515.032	20642.8
515.4	20919.86
515.767	20929.12
516.135	21121.44
516.502	21128.22
516.869	21475.55
517.237	21527.98
517.604	21649.11
517.972	21920.51
518.339	22042.54
518.706	22051.58
519.073	22166.38
519.44	22472.36
519.808	22680.72
520.175	22789.64
520.542	23054.49
520.909	23151.21
521.276	23216.52
521.643	23501.03
522.009	23613.8
522.376	23827.13
522.743	23903.96
523.11	24184.18
523.477	24371.97
523.843	24678.63
524.21	24887.21
524.577	25010.15
524.943	25214.44
525.31	25401.32
525.676	25647.19
526.043	25762.44
526.409	25945.49
526.776	26165.15
527.142	26369.21
527.508	26521.07
527.874	26655.75
528.241	26909.31
528.607	26991.56
528.973	27123.09
529.339	27204.67
529.705	27590.87
530.071	27897.98
530.437	27946.57
530.803	28049.39
531.169	28276.95
531.535	28225.2
531.901	28414.8
532.267	28568.7
532.632	28591.52
532.998	28809.14
533.364	28880.55
533.73	29021.12
534.095	29352.86
534.461	29386.08
534.826	29587.2
535.192	29598.73
535.557	29812.96
535.923	29884.82
536.288	30043.24
536.653	30202.78
537.019	30099.28
537.384	30304.7
537.749	30544.47
538.114	30651.81
538.479	30780.17
538.845	31041.4
539.21	30848.41
539.575	31072.13
539.94	31227.16
540.305	31312.58
540.67	31385.35
541.034	31502.86
541.399	31676.64
541.764	31759.57
542.129	31818.56
542.494	31955.28
542.858	32109.85
543.223	32088.38
543.587	32359.78
543.952	32332.67
544.316	32413.12
544.681	32354.81
545.045	32745.76
545.41	32926.1
545.774	33013.1
546.138	32989.82
546.503	33094.45
546.867	33192.31
547.231	33309.14
547.595	33512.07
547.959	33545.97
548.324	33505.29
548.688	33696.02
549.052	34005.17
549.416	33968.33
549.779	34001.1
550.143	34164.94
550.507	34459.16
550.871	34564.25
551.235	34440.86
551.599	34890.57
551.962	34890.11
552.326	34907.97
552.689	35068.64
553.053	35034.29
553.417	35018.92
553.78	35605.35
554.143	35487.61
554.507	35687.61
554.87	35764.89
555.234	36181.61
555.597	36015.96
555.96	36265.67
556.323	36371.2
556.686	36597.19
557.05	36834.47
557.413	36877.18
557.776	36870.17
558.139	37268.13
558.502	37243.5
558.865	37300.45
559.228	37645.07
559.59	37818.17
559.953	37951.73
560.316	38295.9
560.679	38447.08
561.041	38675.78
561.404	38723.01
561.767	39022.21
562.129	38781.54
562.492	39328.64
562.854	39388.07
563.217	39442.08
563.579	39630.55
563.941	39985.12
564.304	40039.13
564.666	40411.32
565.028	40275.06
565.39	40639.34
565.753	40756.17
566.115	40977.86
566.477	41170.4
566.839	41289.04
567.201	41459.88
567.563	41545.53
567.925	41904.62
568.287	41896.94
568.648	41947.78
569.01	42310.48
569.372	42685.61
569.734	42509.12
570.095	42776.46
570.457	42905.27
570.819	43000.86
571.18	43043.35
571.542	43402.88
571.903	43598.13
572.265	43665.93
572.626	43851.91
572.987	43858.69
573.349	44166.71
573.71	44216.87
574.071	44311.33
574.432	44436.08
574.794	44933.69
575.155	44794.26
575.516	44895.27
575.877	45061.6
576.238	45108.6
576.599	45183.18
576.96	45416.84
577.32	45455.71
577.681	45521.7
578.042	45704.29
578.403	45757.17
578.763	45815.02
579.124	45966.66
579.485	45980.9
579.845	46097.28
580.206	46021.8
580.566	46170.04
580.927	46173.66
581.287	46358.74
581.648	46165.52
582.008	46376.59
582.368	46406.65
582.728	46393.99
583.089	46424.5
583.449	46441.45
583.809	46624.95
584.169	46639.64
584.529	46430.15
584.889	46806.64
585.249	46671.5
585.609	46631.27
585.969	46955.33
586.329	46695.9
586.688	46831.95
587.048	46795.56
587.408	46674.66
587.768	46683.02
588.127	46616.36
588.487	46533.42
588.846	46848.22
589.206	46555.12
589.565	46690.48
589.925	46715.79
590.284	46767.32
590.643	46756.24
591.003	46868.1
591.362	47054.31
591.721	46941.32
592.08	46838.27
592.44	47062.9
592.799	46992.85
593.158	46792.4
593.517	46935.45
593.876	46931.38
594.235	46783.59
594.593	47146.06
594.952	47181.09
595.311	47062.45
595.67	47089.79
596.029	47372.27
596.387	47334.76
596.746	47355.1
597.104	47236.23
597.463	47330.24
597.822	47324.14
598.18	47243.91
598.538	47241.65
598.897	47479.61
599.255	47190.36
599.613	47656.56
599.972	47410.91
600.33	47468.31
600.688	47428.99
601.046	47633.06
601.404	47595.32
601.762	47697.01
602.12	47861.75
602.478	47857
602.836	47792.6
603.194	47711.02
603.552	47840.06
603.91	47719.15
604.268	47946.27
604.625	47841.64
604.983	48070.33
605.341	47843.45
605.698	48171.35
606.056	48190.55
606.413	48156.21
606.771	48281.4
607.128	48332.25
607.485	48162.08
607.843	48106.94
608.2	48408.4
608.557	48512.58
608.914	48439.36
609.272	48523.65
609.629	48592.35
609.986	48663.76
610.343	48516.42
610.7	48730.88
611.057	48685.23
611.414	48704.67
611.771	48780.6
612.127	48936.52
612.484	48795.06
612.841	48953.47
613.198	48879.58
613.554	48881.84
613.911	49198.44
614.267	49185.78
614.624	49034.6
614.98	49108.27
615.337	49244.99
615.693	49256.29
616.05	49131.77
616.406	49486.11
616.762	49291.77
617.118	49415.83
617.475	49302.62
617.831	49512.78
618.187	49498.09
618.543	49420.58
618.899	49697.18
619.255	49570.63
619.611	49518.43
619.967	49730.4
620.323	49772.89
620.678	49657.41
621.034	49572.21
621.39	49655.38
621.746	49584.42
622.101	49992.32
622.457	49662.61
622.812	49681.82
623.168	49778.31
623.523	49813.34
623.879	49952.32
624.234	49731.98
624.589	49811.98
624.945	49779.89
625.3	49864.64
625.655	49798.2
626.01	49808.59
626.365	49967.68
626.72	49895.82
627.075	49873
627.43	49855.37
627.785	49745.09
628.14	49894.24
628.495	49787.12
628.85	49790.51
629.205	49726.33
629.559	49876.16
629.914	49769.04
630.269	49676.17
630.623	49704.41
630.978	49580.12
631.332	49783.06
631.687	49775.37
632.041	49636.17
632.396	49716.39
632.75	49520.46
633.104	49582.83
633.459	49330.64
633.813	49420.58
634.167	49393.24
634.521	49334.93
634.875	49359.11
635.229	49308.49
635.583	48951.89
635.937	49071.44
636.291	48964.77
636.645	49016.52
636.999	48874.6
637.352	48862.18
637.706	48601.17
638.06	48875.73
638.413	48690.43
638.767	48526.37
639.121	48587.15
639.474	48377.67
639.828	48317.56
640.181	48494.05
640.534	48379.48
640.888	48311.68
641.241	48149.2
641.594	48195.98
641.947	48307.84
642.301	48150.1
642.654	48225.36
643.007	48122.08
643.36	48066.49
643.713	47912.82
644.066	48202.53
644.419	47948.75
644.771	47596.9
645.124	47177.25
645.477	47339.5
645.83	46828.56
646.182	46812.06
646.535	46788.78
646.888	46834.88
647.24	46620.88
647.593	46709.01
647.945	46791.72
648.298	46499.75
648.65	46394.44
649.002	46304.05
649.355	46398.96
649.707	46332.3
650.059	46600.54
650.411	46959.4
650.763	46887.99
651.115	47245.04
651.467	47003.47
651.819	47000.53
652.171	46959.63
652.523	46899.29
652.875	46850.25
653.227	46696.36
653.578	46976.12
653.93	46855.45
654.282	46638.73
654.633	46490.71
654.985	46681.89
655.337	46638.28
655.688	46523.93
656.039	46742.46
656.391	46347.44
656.742	46507.89
657.094	46528.68
657.445	46649.58
657.796	46568.9
658.147	46433.76
658.498	46344.05
658.849	46503.37
659.2	46336.82
659.551	46370.04
659.902	46432.64
660.253	46363.94
660.604	46421.34
660.955	46142.93
661.306	46329.81
661.656	46259.53
662.007	46157.39
662.358	46257.5
662.708	46269.25
663.059	46067.22
663.409	45968.47
663.76	46350.15
664.11	46134.79
664.461	46100.44
664.811	46171.17
665.161	46083.72
665.511	45900.9
665.862	45884.63
666.212	46172.53
666.562	46093.89
666.912	45911.97
667.262	45964.4
667.612	45756.04
667.962	45804.63
668.312	45747.46
668.662	45895.47
669.011	45680.11
669.361	45667.23
669.711	45561.92
670.06	45354.92
670.41	45319.44
670.76	45216.85
671.109	45474.47
671.459	45320.57
671.808	45224.53
672.157	45333.23
672.507	45227.02
672.856	45112.67
673.205	45242.61
673.554	45156.06
673.904	44951.54
674.253	45163.74
674.602	44933.92
674.951	44450.31
675.3	44199.93
675.649	44843.98
675.998	44799.46
676.346	44803.3
676.695	44961.94
677.044	44654.6
677.393	44778.67
677.741	44756.29
678.09	44822.28
678.438	44590.42
678.787	44700.7
679.135	44698.9
679.484	44493.03
679.832	44682.17
680.181	44434.72
680.529	44375.29
680.877	44340.49
681.225	44370.09
681.573	44496.41
681.922	44166.48
682.27	44105.92
682.618	44269.75
682.966	44145.24
683.314	44226.37
683.661	44002.42
684.009	43830.9
684.357	43757.68
684.705	43623.67
685.053	43766.04
685.4	43617.12
685.748	43506.38
686.095	43454.18
686.443	43150.24
686.79	43055.77
687.138	43158.6
687.485	43090.58
687.832	42960.18
688.18	43064.14
688.527	42865.5
688.874	42696.91
689.221	42758.83
689.568	42449.69
689.915	42282.24
690.262	42426.86
690.609	42318.17
690.956	42072.52
691.303	42162.01
691.65	41967.67
691.997	41961.57
692.344	41702.59
692.69	41740.78
693.037	41715.7
693.383	41487.68
693.73	41500.56
694.077	41429.15
694.423	41227.12
694.769	41191.42
695.116	41086.11
695.462	40969.73
695.808	40820.81
696.155	40905.77
696.501	40611.77
696.847	40539.91
697.193	40140.6
697.539	40483.86
697.885	40100.15
698.231	40146.92
698.577	40000.04
698.923	39932.24
699.269	39745.35
699.614	39524.79
699.96	39437.11
700.306	39492.03
700.651	39162.54
700.997	39115.31
701.342	39045.26
701.688	39056.78
702.033	38880.29
702.379	38876
702.724	38723.69
703.069	38799.39
703.415	38271.72
703.76	38437.14
704.105	38426.29
704.45	38284.15
704.795	38058.39
705.14	37909.24
705.485	38005.96
705.83	37632.64
706.175	37873.31
706.52	37651.85
706.865	37640.55
707.209	37522.59
707.554	37419.54
707.899	37490.5
708.243	37251.86
708.588	37177.06
708.932	36871.3
709.277	36859.33
709.621	36904.52
709.966	36580.69
710.31	36860.23
710.654	36407.36
710.998	36498.21
711.342	36474.7
711.687	36377.31
712.031	36180.7
712.375	36156.07
712.719	36261.38
713.063	36195.62
713.407	36220.25
713.75	35874.27
714.094	35907.26
714.438	35691.67
714.782	35773.25
715.125	35589.3
715.469	35602.41
715.812	35352.93
716.156	35183.21
716.499	35384.11
716.843	35214.4
717.186	35017.57
717.53	35199.26
717.873	35261.63
718.216	34927.63
718.559	34993.39
718.902	34775.31
719.246	34736.22
719.589	34744.35
719.932	34487.86
720.275	34406.74
720.617	34403.35
720.96	34298.49
721.303	34293.75
721.646	34354.53
721.989	34148.66
722.331	34098.04
722.674	34006.75
723.016	34238.15
723.359	34008.33
723.701	33981.44
724.044	33778.73
724.386	33653.76
724.729	33797.04
725.071	33508
725.413	33506.87
725.755	33484.5
726.097	33270.5
726.439	33100.78
726.782	33162.02
727.124	33365.18
727.465	33013.1
727.807	32928.13
728.149	32982.59
728.491	32943.05
728.833	32964.74
729.175	32719.32
729.516	32668.03
729.858	32670.96
730.199	32740.79
730.541	32456.28
730.882	32626.44
731.224	32432.33
731.565	32462.83
731.906	32557.29
732.248	32487.92
732.589	32180.13
732.93	32174.25
733.271	32271.65
733.612	32237.3
733.953	32017.19
734.294	31973.81
734.635	31814.26
734.976	32009.74
735.317	31729.29
735.658	31878.44
735.999	31812.68
736.339	31717.77
736.68	31818.33
737.021	31659.69
737.361	31470.54
737.702	31656.07
738.042	31623.08
738.383	31597.32
738.723	31571.1
739.063	31406.14
739.404	31531.56
739.744	31462.86
740.084	31224
740.424	31323.43
740.764	31220.38
741.104	31209.53
741.444	31139.93
741.784	30949.88
742.124	31094.06
742.464	30923.89
742.804	30929.54
743.143	30662.88
743.483	30795.31
743.823	30535.2
744.162	30538.14
744.502	30555.09
744.841	30398.03
745.181	30562.09
745.52	30397.12
745.86	30367.52
746.199	30258.82
746.538	30207.3
746.877	30220.63
747.216	30146.96
747.556	29953.29
747.895	29876.69
748.234	29814.31
748.573	29885.95
748.911	29789.68
749.25	29795.33
749.589	29600.08
749.928	29719.63
750.267	29654.55
750.605	29415.46
750.944	29492.06
751.283	29327.55
751.621	29420.43
751.96	29103.37
752.298	29131.4
752.636	29083.71
752.975	29080.77
753.313	28839.88
