Data from aluminium_macbook_case_FLMS001491_044.txt Node
Date: Tue Feb 07 10:43:40 GMT 2017
User: dcchb
Spectrometer: FLMS00149
Trigger mode: 0
Integration Time (sec): 2.000000E-2
Scans to average: 10
Electric dark correction enabled: true
Nonlinearity correction enabled: false
Boxcar width: 0
XAxis mode: Wavelengths
Number of Pixels in Spectrum: 2048
>>>>>Begin Spectral Data<<<<<
341.393	-17.22
341.776	-17.22
342.16	-17.22
342.543	-61.74
342.927	-54.96
343.31	-65.58
343.693	-80.72
344.077	-70.77
344.46	-62.87
344.843	-51.79
345.226	-30.78
345.61	-27.16
345.993	-38.91
346.376	13.74
346.759	22.78
347.142	33.4
347.525	44.25
347.908	58.71
348.291	62.1
348.674	83.57
349.057	110.01
349.44	127.86
349.823	122.21
350.206	156.56
350.588	236.11
350.971	280.63
351.354	284.02
351.737	288.54
352.119	280.85
352.502	312.94
352.884	316.56
353.267	329.67
353.65	352.04
354.032	341.42
354.414	344.36
354.797	365.6
355.179	376.9
355.562	388.87
355.944	366.95
356.326	375.99
356.709	405.37
357.091	401.98
357.473	386.84
357.855	399.04
358.238	377.8
358.62	414.64
359.002	402.66
359.384	400.4
359.766	399.72
360.148	390.23
360.53	401.75
360.912	411.47
361.294	423.22
361.676	401.98
362.057	410.79
362.439	422.32
362.821	430.23
363.203	411.92
363.584	415.31
363.966	428.42
364.348	398.37
364.729	423.22
365.111	407.63
365.493	408.99
365.874	397.01
366.256	409.66
366.637	426.16
367.019	410.34
367.4	389.33
367.781	424.58
368.163	436.78
368.544	431.58
368.925	415.99
369.306	443.56
369.688	427.74
370.069	451.02
370.45	432.49
370.831	446.73
371.212	428.42
371.593	443.34
371.974	445.6
372.355	422.32
372.736	457.12
373.117	462.77
373.498	470.68
373.879	463.22
374.26	460.28
374.641	468.65
375.021	426.84
375.402	461.41
375.783	495.99
376.163	493.05
376.544	514.75
376.925	494.41
377.305	503.67
377.686	484.24
378.066	511.13
378.447	521.53
378.827	504.35
379.208	522.2
379.588	514.97
379.968	521.75
380.349	507.97
380.729	542.32
381.109	545.03
381.489	563.33
381.87	548.87
382.25	566.72
382.63	575.31
383.01	597.91
383.39	582.09
383.77	590.68
384.15	598.81
384.53	598.36
384.91	622.99
385.29	629.09
385.67	641.75
386.049	625.03
386.429	633.84
386.809	632.71
387.189	646.27
387.568	654.86
387.948	669.77
388.328	662.09
388.707	677.45
389.087	709.54
389.466	683.33
389.846	700.5
390.225	721.29
390.605	726.04
390.984	734.4
391.363	714.52
391.743	735.53
392.122	757.68
392.501	760.84
392.881	784.34
393.26	796.77
393.639	793.38
394.018	812.37
394.397	822.08
394.776	824.79
395.155	846.72
395.534	844.91
395.913	824.79
396.292	838.58
396.671	869.77
397.05	858.47
397.429	890.56
397.808	884.68
398.186	901.4
398.565	899.14
398.944	894.85
399.323	938.46
399.701	959.71
400.08	967.39
400.458	930.1
400.837	973.94
401.215	975.07
401.594	972.14
401.972	1026.6
402.351	1011.23
402.729	1033.83
403.107	1021.4
403.486	1038.35
403.864	1074.73
404.242	1063.66
404.62	1095.75
404.999	1109.31
405.377	1089.19
405.755	1117.89
406.133	1168.97
406.511	1149.53
406.889	1163.09
407.267	1170.55
407.645	1197.44
408.023	1206.03
408.401	1240.15
408.779	1258.68
409.156	1279.92
409.534	1284.22
409.912	1329.87
410.29	1335.52
410.667	1348.85
411.045	1362.63
411.422	1388.4
411.8	1392.69
412.178	1433.14
412.555	1468.39
412.933	1464.1
413.31	1510.88
413.687	1498.22
414.065	1555.4
414.442	1563.53
414.819	1562.4
415.197	1627.26
415.574	1639.24
415.951	1622.74
416.328	1677.43
416.705	1689.18
417.082	1673.13
417.46	1689.86
417.837	1700.7
418.214	1727.82
418.591	1775.96
418.967	1740.25
419.344	1810.53
419.721	1843.75
420.098	1834.71
420.475	1846.46
420.852	1872.22
421.228	1905.22
421.605	1924.2
421.982	1949.06
422.358	1979.79
422.735	1999
423.111	2037.64
423.488	2010.98
423.864	2042.39
424.241	2075.38
424.617	2096.85
424.994	2112.9
425.37	2158.09
425.746	2159
426.123	2200.58
426.499	2228.83
426.875	2264.3
427.251	2268.82
427.627	2327.35
428.003	2350.86
428.379	2399.67
428.756	2402.15
429.132	2447.12
429.507	2510.85
429.883	2528.03
430.259	2570.96
430.635	2552.43
431.011	2596.5
431.387	2679.89
431.763	2682.6
432.138	2754.91
432.514	2815.25
432.89	2823.16
433.265	2888.7
433.641	2897.73
434.016	2955.36
434.392	2991.29
434.767	3039.88
435.143	3015.7
435.518	3078.52
435.894	3090.72
436.269	3156.94
436.644	3238.74
437.02	3312.41
437.395	3303.6
437.77	3353.32
438.145	3387.89
438.52	3433.77
438.895	3446.87
439.271	3473.76
439.646	3551.73
440.021	3583.82
440.395	3626.53
440.77	3579.98
441.145	3634.44
441.52	3678.73
441.895	3693.42
442.27	3730.93
442.645	3751.5
443.019	3815
443.394	3830.82
443.769	3856.35
444.143	3822.68
444.518	3970.47
444.892	3920.76
445.267	3918.5
445.641	3984.03
446.016	4027.87
446.39	4079.17
446.764	4131.15
447.139	4105.39
447.513	4216.12
447.887	4236
448.262	4195.33
448.636	4258.6
449.01	4351.93
449.384	4369.79
449.758	4407.07
450.132	4403.23
450.506	4435.1
450.88	4553.28
451.254	4564.13
451.628	4613.85
452.002	4671.25
452.376	4718.7
452.75	4726.39
453.123	4777.69
453.497	4845.71
453.871	4865.14
454.244	4982.2
454.618	5043.44
454.992	5089.09
455.365	5095.87
455.739	5327.05
456.112	5304
456.486	5374.51
456.859	5439.59
457.232	5527.95
457.606	5528.17
457.979	5609.3
458.352	5710.54
458.725	5781.05
459.099	5811.78
459.472	5969.29
459.845	6029.18
460.218	6064.66
460.591	6190.3
460.964	6190.3
461.337	6318.89
461.71	6392.78
462.083	6483.63
462.456	6520.01
462.829	6565.66
463.201	6687.69
463.574	6768.59
463.947	6861.25
464.32	7040.68
464.692	7022.6
465.065	7109.15
465.438	7246.77
465.81	7307.11
466.183	7391.85
466.555	7558.4
466.928	7572.64
467.3	7704.39
467.672	7840.66
468.045	8002.69
468.417	8017.83
468.789	8126.98
469.161	8167.88
469.534	8330.13
469.906	8520.64
470.278	8600.64
470.65	8678.37
471.022	8793.4
471.394	9050.12
471.766	9060.74
472.138	9260.96
472.51	9472.93
472.882	9517.67
473.253	9693.26
473.625	9763.99
473.997	10001.95
474.369	10067.94
474.74	10207.6
475.112	10410.08
475.484	10604.42
475.855	10762.61
476.227	10863.85
476.598	11209.15
476.97	11257.97
477.341	11516.94
477.713	11779.31
478.084	11796.48
478.455	12150.6
478.827	12378.84
479.198	12662.68
479.569	12636.46
479.94	13080.07
480.311	13238.93
480.682	13495.65
481.053	13785.58
481.424	13914.17
481.795	14118.68
482.166	14386.02
482.537	14597.77
482.908	14884.99
483.279	14968.38
483.65	15308.26
484.021	15654.91
484.391	15684.29
484.762	15910.27
485.133	16082.02
485.503	16296.25
485.874	16692.4
486.244	16880.42
486.615	17161.77
486.985	17425.49
487.356	17769.89
487.726	17918.36
488.097	18298.23
488.467	18277.67
488.837	18791.55
489.207	19013.02
489.578	19186.57
489.948	19453.01
490.318	19701.59
490.688	19755.37
491.058	20162.59
491.428	20402.13
491.798	20590.38
492.168	20936.36
492.538	20984.04
492.908	21299.96
493.278	21577.02
493.648	21591.48
494.017	21997.12
494.387	22203.22
494.757	22360.27
495.126	22569.08
495.496	22686.14
495.866	22833.48
496.235	23175.17
496.605	23332.23
496.974	23501.94
497.344	23726.79
497.713	23882.04
498.082	24159.32
498.452	24385.31
498.821	24475.7
499.19	24675.24
499.559	24996.14
499.928	25096.7
500.298	25279.97
500.667	25554.09
501.036	25579.62
501.405	25747.98
501.774	25823.23
502.143	26091.93
502.512	26243.34
502.88	26476.32
503.249	26493.27
503.618	26632.03
503.987	26794.96
504.356	27015.07
504.724	27181.62
505.093	27393.36
505.462	27411.21
505.83	27726.69
506.199	28081.48
506.567	28279.21
506.936	28302.04
507.304	28636.04
507.672	28718.75
508.041	28950.83
508.409	29216.14
508.777	29500.2
509.145	29808.44
509.514	29856.8
509.882	30087.75
510.25	30221.54
510.618	30327.07
510.986	30563.45
511.354	30959.82
511.722	31136.09
512.09	31471.9
512.458	31370.88
512.826	31693.36
513.193	31884.99
513.561	31962.51
513.929	32346.45
514.297	32470.52
514.664	32783.28
515.032	32916.83
515.4	33035.7
515.767	33348.23
516.135	33590.03
516.502	33381.68
516.869	34034.09
517.237	34218.72
517.604	34192.05
517.972	34599.05
518.339	34838.14
518.706	35023.22
519.073	35286.26
519.44	35370.33
519.808	35889.41
520.175	35922.85
520.542	36368.72
520.909	36664.53
521.276	36752.21
521.643	37131.41
522.009	37411.63
522.376	37682.13
522.743	37951.73
523.11	38347.2
523.477	38548.55
523.843	38820.41
524.21	39362.99
524.577	39523.89
524.943	39685.24
525.31	39908.29
525.676	40317.32
526.043	40487.71
526.409	40603.64
526.776	41044.98
527.142	41181.7
527.508	41365.2
527.874	41792.76
528.241	41882.7
528.607	42065.97
528.973	42574.88
529.339	42455.11
529.705	42932.16
530.071	43289.89
530.437	43479.49
530.803	43737.79
531.169	43834.51
531.535	43992.25
531.901	44196.08
532.267	44424.1
532.632	44723.53
532.998	44919
533.364	45089.39
533.73	45166.68
534.095	45621.36
534.461	45670.17
534.826	45967.34
535.192	46097.73
535.557	46406.2
535.923	46475.12
536.288	46786.75
536.653	46774.32
537.019	46815.45
537.384	47173.41
537.749	47206.4
538.114	47245.5
538.479	47396.23
538.845	47556.67
539.21	47484.58
539.575	47688.65
539.94	47844.8
540.305	47975.65
540.67	48117.79
541.034	48249.08
541.399	48412.02
541.764	48584.89
542.129	48758.68
542.494	48776.75
542.858	48918.45
543.223	49112.56
543.587	49345.55
543.952	49223.07
544.316	49358.21
544.681	49312.56
545.045	49680.23
545.41	49926.33
545.774	49875.03
546.138	50069.15
546.503	50133.1
546.867	50241.57
547.231	50627.55
547.595	50623.94
547.959	50736.25
548.324	50778.28
548.688	50818.51
549.052	51058.5
549.416	51249.23
549.779	51286.74
550.143	51314.31
550.507	51573.52
550.871	51658.03
551.235	51601.09
551.599	51907.29
551.962	51963.11
552.326	52042.88
552.689	52214.4
553.053	52150.45
553.417	52194.52
553.78	52606.03
554.143	52460.05
554.507	52692.81
554.87	52874.73
555.234	53117.66
555.597	52918.57
555.96	53067.49
556.323	53207.6
556.686	53189.97
557.05	53546.35
557.413	53542.28
557.776	53686.46
558.139	53833.8
558.502	53954.25
558.865	53983.17
559.228	54294.12
559.59	54328.92
559.953	54408.7
560.316	54776.82
560.679	54756.03
561.041	54928.23
561.404	55054.33
561.767	55339.07
562.129	55232.63
562.492	55536.58
562.854	55522.11
563.217	55498.39
563.579	55673.97
563.941	55878.71
564.304	55911.48
564.666	56087.52
565.028	56161.19
565.39	56236.22
565.753	56413.84
566.115	56468.76
566.477	56579.71
566.839	56601.86
567.201	56858.12
567.563	56806.83
567.925	56990.55
568.287	57000.72
568.648	56987.61
569.01	57170.88
569.372	57301.28
569.734	57304.44
570.095	57428.5
570.457	57510.99
570.819	57622.17
571.18	57619.91
571.542	57857.65
571.903	57802.05
572.265	57929.06
572.626	57995.04
572.987	58062.84
573.349	58213.57
573.71	58208.82
574.071	58303.96
574.432	58390.06
574.794	58549.15
575.155	58542.6
575.516	58467.57
575.877	58661.69
576.238	58653.78
576.599	58728.13
576.96	58796.83
577.32	58757.51
577.681	58931.06
578.042	58907.56
578.403	58985.75
578.763	58984.4
579.124	59076.37
579.485	59106.43
579.845	59224.39
580.206	59150.27
580.566	59156.14
580.927	59208.12
581.287	59244.05
581.648	59124.5
582.008	59286.99
582.368	59131.51
582.728	59275.01
583.089	59244.73
583.449	59184.84
583.809	59263.71
584.169	59309.81
584.529	59229.59
584.889	59419.64
585.249	59176.71
585.609	59135.35
585.969	59370.83
586.329	59267.78
586.688	59304.84
587.048	59315.91
587.408	59200.43
587.768	59312.97
588.127	59309.58
588.487	59273.65
588.846	59420.99
589.206	59175.8
589.565	59293.54
589.925	59419.86
590.284	59315.69
590.643	59365.4
591.003	59469.13
591.362	59505.51
591.721	59471.16
592.08	59504.61
592.44	59562.01
592.799	59609.92
593.158	59425.29
593.517	59531.95
593.876	59542.12
594.235	59530.6
594.593	59515
594.952	59529.24
595.311	59533.99
595.67	59537.6
596.029	59699.4
596.387	59705.73
596.746	59649.24
597.104	59612.18
597.463	59562.46
597.822	59660.31
598.18	59579.86
598.538	59505.96
598.897	59699.4
599.255	59440.88
599.613	59804.71
599.972	59645.85
600.33	59701.66
600.688	59605.4
601.046	59749.8
601.404	59745.28
601.762	59704.38
602.12	59820.08
602.478	59853.3
602.836	59767.43
603.194	59721.78
603.552	59760.42
603.91	59670.71
604.268	59888.33
604.625	59752.28
604.983	59871.6
605.341	59867.08
605.698	60002.45
606.056	60042.22
606.413	60001.77
606.771	60026.4
607.128	60091.48
607.485	59986.4
607.843	60035.44
608.2	60144.14
608.557	60214.19
608.914	60171.26
609.272	60284.02
609.629	60346.17
609.986	60439.05
610.343	60287.86
610.7	60414.64
611.057	60390.23
611.414	60345.04
611.771	60339.84
612.127	60470.23
612.484	60404.47
612.841	60521.3
613.198	60394.53
613.554	60397.01
613.911	60613.05
614.267	60567.63
614.624	60561.3
614.98	60486.73
615.337	60629.1
615.693	60547.29
616.05	60585.48
616.406	60685.14
616.762	60607.63
617.118	60612.15
617.475	60583
617.831	60701.64
618.187	60665.03
618.543	60680.4
618.899	60758.81
619.255	60740.96
619.611	60754.52
619.967	60840.17
620.323	60903.22
620.678	60805.14
621.034	60795.65
621.39	60757.23
621.746	60701.41
622.101	60990.67
622.457	60775.31
622.812	60847.17
623.168	60918.36
623.523	60953.16
623.879	60959.71
624.234	60851.92
624.589	60910.9
624.945	60940.95
625.3	60872.71
625.655	60939.6
626.01	60924.23
626.365	60942.99
626.72	60915.87
627.075	60871.35
627.43	60882.65
627.785	60846.49
628.14	60848.75
628.495	60836.55
628.85	60788.87
629.205	60740.73
629.559	60926.72
629.914	60720.17
630.269	60738.02
630.623	60716.1
630.978	60650.34
631.332	60720.62
631.687	60778.25
632.041	60631.36
632.396	60603.56
632.75	60533.96
633.104	60543.68
633.459	60443.57
633.813	60406.28
634.167	60370.8
634.521	60476.56
634.875	60430.69
635.229	60381.65
635.583	60228.88
635.937	60227.75
636.291	60240.41
636.645	60274.53
636.999	60103.46
637.352	60204.02
637.706	60013.97
638.06	60129.68
638.413	60027.08
638.767	60003.35
639.121	60009.23
639.474	59903.02
639.828	59864.82
640.181	59923.13
640.534	59900.76
640.888	59813.75
641.241	59703.92
641.594	59809.46
641.947	59852.4
642.301	59740.08
642.654	59817.37
643.007	59764.04
643.36	59672.74
643.713	59682.23
644.066	59727.65
644.419	59522.23
644.771	59431.39
645.124	59229.59
645.477	59171.74
645.83	58922.48
646.182	58793.89
646.535	58791.63
646.888	58843.16
647.24	58720.67
647.593	58882.93
647.945	58758.19
648.298	58645.42
648.65	58581.24
649.002	58503.96
649.355	58563.62
649.707	58479.78
650.059	58659.88
650.411	58902.82
650.763	58855.81
651.115	59153.43
651.467	59028.24
651.819	59011.74
652.171	58888.13
652.523	58864.62
652.875	58826.66
653.227	58727.9
653.578	58898.97
653.93	58754.34
654.282	58671.64
654.633	58580.11
654.985	58673.44
655.337	58676.61
655.688	58684.29
656.039	58735.59
656.391	58508.7
656.742	58534.01
657.094	58524.29
657.445	58609.94
657.796	58484.52
658.147	58526.33
658.498	58489.49
658.849	58485.43
659.2	58453.11
659.551	58406.78
659.902	58458.76
660.253	58446.56
660.604	58419.21
660.955	58332.44
661.306	58353.45
661.656	58324.53
662.007	58406.56
662.358	58284.07
662.708	58369.72
663.059	58287.01
663.409	58188.26
663.76	58354.13
664.11	58260.12
664.461	58263.28
664.811	58306.22
665.161	58202.04
665.511	58132.21
665.862	58190.97
666.212	58262.83
666.562	58271.19
666.912	58210.63
667.262	58202.04
667.612	58147.36
667.962	58110.07
668.312	58084.31
668.662	58233.91
669.011	58076.85
669.361	58035.04
669.711	58035.27
670.06	57924.31
670.41	57957.53
670.76	57889.06
671.109	57980.13
671.459	57885.89
671.808	57835.73
672.157	57791.21
672.507	57689.06
672.856	57706.46
673.205	57733.81
673.554	57752.34
673.904	57578.1
674.253	57733.13
674.602	57689.29
674.951	57334.95
675.3	57142.18
675.649	57637.76
675.998	57508.5
676.346	57598.44
676.695	57568.16
677.044	57303.08
677.393	57473.7
677.741	57556.41
678.09	57397.32
678.438	57399.58
678.787	57405.45
679.135	57400.93
679.484	57226.25
679.832	57262.86
680.181	57178.57
680.529	57266.93
680.877	57173.82
681.225	57053.6
681.573	57255.18
681.922	57049.76
682.27	57028.97
682.618	57010.21
682.966	56951.68
683.314	56984.45
683.661	56816.32
684.009	56716.21
684.357	56676.66
684.705	56623.1
685.053	56699.26
685.4	56607.51
685.748	56421.52
686.095	56520.73
686.443	56406.38
686.79	56355.31
687.138	56382.2
687.485	56376.33
687.832	56199.84
688.18	56256.33
688.527	56113.06
688.874	56026.96
689.221	55941.31
689.568	55905.83
689.915	55825.83
690.262	55761.88
690.609	55682.34
690.956	55664.93
691.303	55666.97
691.65	55516.01
691.997	55456.35
692.344	55301.1
692.69	55197.15
693.037	55308.11
693.383	55003.03
693.73	55114.21
694.077	54895.01
694.423	54902.47
694.769	54814.34
695.116	54667.9
695.462	54679.42
695.808	54586.54
696.155	54639.88
696.501	54423.39
696.847	54434.91
697.193	54191.53
697.539	54387.45
697.885	53965.32
698.231	53875.15
698.577	53922.83
698.923	53819.79
699.269	53714.48
699.614	53593.12
699.96	53552.45
700.306	53546.57
700.651	53388.16
700.997	53269.97
701.342	53314.71
701.688	53192.91
702.033	53140.71
702.379	53098.22
702.724	52912.92
703.069	53001.05
703.415	52763.54
703.76	52675.86
704.105	52587.95
704.45	52471.35
704.795	52312.48
705.14	52218.7
705.485	52161.52
705.83	52110
706.175	52156.1
706.52	51983.45
706.865	51920.85
707.209	51916.33
707.554	51766.28
707.899	51836.79
708.243	51616.23
708.588	51520.64
708.932	51283.81
709.277	51337.59
709.621	51336.23
709.966	51156.35
710.31	51081.1
710.654	50690.83
710.998	50932.86
711.342	50894.44
711.687	50865.74
712.031	50628.68
712.375	50585.97
712.719	50656.48
713.063	50509.82
713.407	50594.56
713.75	50371.51
714.094	50342.36
714.438	50183.95
714.782	50110.28
715.125	49948.47
715.469	49924.75
715.812	49825.77
716.156	49620.35
716.499	49666.9
716.843	49644.75
717.186	49294.71
717.53	49643.17
717.873	49492.44
718.216	49333.58
718.559	49355.04
718.902	49108.5
719.246	49147.82
719.589	48998.67
719.932	48901.72
720.275	48843.65
720.617	48836.87
720.96	48722.52
721.303	48687.94
721.646	48598
721.989	48353.94
722.331	48550.32
722.674	48381.06
723.016	48444.79
723.359	48256.77
723.701	48237.56
724.044	47906.95
724.386	47831.02
724.729	48021.29
725.071	47729.78
725.413	47706.05
725.755	47752.6
726.097	47515.54
726.439	47425.15
726.782	47373.4
727.124	47423.8
727.465	47205.04
727.807	47178.6
728.149	47109.45
728.491	47068.1
728.833	47048.21
729.175	46895.9
729.516	46715.57
729.858	46711.5
730.199	46756.92
730.541	46678.28
730.882	46521.22
731.224	46463.82
731.565	46275.58
731.906	46240.78
732.248	46299.76
732.589	46010.27
732.93	45941.35
733.271	45852.31
733.612	45977.73
733.953	45985.19
734.294	45782.93
734.635	45588.14
734.976	45773.9
735.317	45512.21
735.658	45608.25
735.999	45510.85
736.339	45408.93
736.68	45587.91
737.021	45404.19
737.361	45166.91
737.702	45368.71
738.042	45093.91
738.383	45080.58
738.723	45168.04
739.063	44905.22
739.404	44874.71
739.744	44837.42
740.084	44670.65
740.424	44837.65
740.764	44560.37
741.104	44944.54
741.444	44410.32
741.784	44460.26
742.124	44523.76
742.464	44337.32
742.804	44354.27
743.143	44119.93
743.483	44095.75
743.823	43890.33
744.162	44000.83
744.502	43938.01
744.841	43731.24
745.181	43953.38
745.52	43659.37
745.86	43759.03
746.199	43606.72
746.538	43422.09
746.877	43439.72
747.216	43436.56
747.556	43252.38
747.895	43145.26
748.234	43103.23
748.573	42922.44
748.911	42981.88
749.25	42806.52
749.589	42775.1
749.928	42675.45
750.267	42688.55
750.605	42315.23
750.944	42458.5
751.283	42232.52
751.621	42236.14
751.96	41952.07
752.298	41984.16
