Data from aluminium_macbook_case_FLMS001491_041.txt Node
Date: Tue Feb 07 10:43:39 GMT 2017
User: dcchb
Spectrometer: FLMS00149
Trigger mode: 0
Integration Time (sec): 2.000000E-2
Scans to average: 10
Electric dark correction enabled: true
Nonlinearity correction enabled: false
Boxcar width: 0
XAxis mode: Wavelengths
Number of Pixels in Spectrum: 2048
>>>>>Begin Spectral Data<<<<<
341.393	-1.1
341.776	-1.1
342.16	-1.1
342.543	-49.91
342.927	-66.64
343.31	-56.24
343.693	-70.03
344.077	-91.72
344.46	-56.47
344.843	-63.25
345.226	-33.19
345.61	-30.71
345.993	-21.44
346.376	6.13
346.759	-5.85
347.142	37.09
347.525	56.3
347.908	59.69
348.291	74.83
348.674	93.59
349.057	101.27
349.44	108.95
349.823	127.93
350.206	174.94
350.588	256.74
350.971	265.56
351.354	256.29
351.737	274.37
352.119	307.82
352.502	310.98
352.884	327.25
353.267	343.3
353.65	324.09
354.032	348.27
354.414	357.53
354.797	385.33
355.179	396.18
355.562	368.38
355.944	379.91
356.326	382.17
356.709	398.21
357.091	385.55
357.473	390.3
357.855	412.22
358.238	420.58
358.62	400.7
359.002	421.94
359.384	418.1
359.766	399.34
360.148	404.31
360.53	419.45
360.912	431.43
361.294	427.36
361.676	423.07
362.057	411.09
362.439	411.77
362.821	412.22
363.203	425.78
363.584	405.22
363.966	395.72
364.348	432.33
364.729	433.24
365.111	411.09
365.493	409.96
365.874	417.87
366.256	407.48
366.637	414.93
367.019	428.27
367.4	417.19
367.781	425.78
368.163	426.46
368.544	423.75
368.925	416.51
369.306	423.29
369.688	442.28
370.069	439.11
370.45	471.2
370.831	448.38
371.212	435.05
371.593	443.41
371.974	458.77
372.355	442.05
372.736	446.12
373.117	456.29
373.498	471.2
373.879	468.72
374.26	446.34
374.641	444.99
375.021	454.03
375.402	468.49
375.783	483.18
376.163	520.92
376.544	520.01
376.925	500.81
377.305	535.61
377.686	509.62
378.066	523.18
378.447	516.85
378.827	522.73
379.208	524.76
379.588	534.93
379.968	500.35
380.349	527.25
380.729	544.19
381.109	545.32
381.489	551.43
381.87	527.92
382.25	551.2
382.63	584.19
383.01	577.87
383.39	593.01
383.77	588.71
384.15	606.11
384.53	609.96
384.91	629.84
385.29	619.45
385.67	642.72
386.049	656.51
386.429	642.72
386.809	637.75
387.189	650.18
387.568	683.4
387.948	660.12
388.328	666.23
388.707	662.16
389.087	695.15
389.466	691.54
389.846	704.64
390.225	727.92
390.605	732.89
390.984	734.92
391.363	743.06
391.743	740.35
392.122	753.23
392.501	760.69
392.881	790.97
393.26	788.03
393.639	791.42
394.018	795.94
394.397	807.92
394.776	807.24
395.155	840.01
395.534	821.93
395.913	856.28
396.292	846.56
396.671	854.7
397.05	844.53
397.429	880.91
397.808	892.89
398.186	905.54
398.565	900.8
398.944	924.75
399.323	919.1
399.701	948.7
400.08	951.87
400.458	966.33
400.837	957.07
401.215	973.34
401.594	970.62
401.972	1006.33
402.351	1012.66
402.729	1031.19
403.107	1044.29
403.486	1053.56
403.864	1065.54
404.242	1086.1
404.62	1106.44
404.999	1122.71
405.377	1125.2
405.755	1138.76
406.133	1154.8
406.511	1155.93
406.889	1170.84
407.267	1208.13
407.645	1207.91
408.023	1228.24
408.401	1239.09
408.779	1237.51
409.156	1304.85
409.534	1294.91
409.912	1298.53
410.29	1349.82
410.667	1359.31
411.045	1398.64
411.422	1396.38
411.8	1392.53
412.178	1452.42
412.555	1457.62
412.933	1495.81
413.31	1496.94
413.687	1510.95
414.065	1534.45
414.442	1565.41
414.819	1562.25
415.197	1585.3
415.574	1620.55
415.951	1635.92
416.328	1658.06
416.705	1659.19
417.082	1673.66
417.46	1731.06
417.837	1737.38
418.214	1749.81
418.591	1757.27
418.967	1778.06
419.344	1793.88
419.721	1816.25
420.098	1811.51
420.475	1862.8
420.852	1867.1
421.228	1903.71
421.605	1933.54
421.982	1937.38
422.358	1945.29
422.735	2003.59
423.111	1969.69
423.488	2043.82
423.864	2058.96
424.241	2082.46
424.617	2079.75
424.994	2160.42
425.37	2161.78
425.746	2164.94
426.123	2196.81
426.499	2230.93
426.875	2281.32
427.251	2326.97
427.627	2330.36
428.003	2376.91
428.379	2407.87
428.756	2407.2
429.132	2437.48
429.507	2489.68
429.883	2530.13
430.259	2592.5
430.635	2625.72
431.011	2636.12
431.387	2712.73
431.763	2721.09
432.138	2740.3
432.514	2809.9
432.89	2817.13
433.265	2870.01
433.641	2917.47
434.016	2914.3
434.392	2973.96
434.767	3084.01
435.143	3080.63
435.518	3120.17
435.894	3143.22
436.269	3171.92
436.644	3238.14
437.02	3284.69
437.395	3323.1
437.77	3328.98
438.145	3383.22
438.52	3410.79
438.895	3449.66
439.271	3443.55
439.646	3549.99
440.021	3550.44
440.395	3564.23
440.77	3581.63
441.145	3607.17
441.52	3737.56
441.895	3686.94
442.27	3764.22
442.645	3733.04
443.019	3837.22
443.394	3801.74
443.769	3886.48
444.143	3856.88
444.518	3960.83
444.892	3909.3
445.267	3985.23
445.641	4000.38
446.016	4067.49
446.39	4060.71
446.764	4112.69
447.139	4133.93
447.513	4201.95
447.887	4180.94
448.262	4197.66
448.636	4237.43
449.01	4328.73
449.384	4345.68
449.758	4399.01
450.132	4489.63
450.506	4479.01
450.88	4517.2
451.254	4540.93
451.628	4611.66
452.002	4667.93
452.376	4704.09
452.75	4749.96
453.123	4766.91
453.497	4882.39
453.871	4892.55
454.244	5006.68
454.618	5083.06
454.992	5135.71
455.365	5116.05
455.739	5239.66
456.112	5325.76
456.486	5393.56
456.859	5456.61
457.232	5561.69
457.606	5518.08
457.979	5600.33
458.352	5707.22
458.725	5814.34
459.099	5826.32
459.472	5928.91
459.845	6094.78
460.218	6043.26
460.591	6127.1
460.964	6163.71
461.337	6336.81
461.71	6423.81
462.083	6553.08
462.456	6539.97
462.829	6582.23
463.201	6680.3
463.574	6681.66
463.947	6823.8
464.32	7000.07
464.692	7065.38
465.065	7092.05
465.438	7192.83
465.81	7334.07
466.183	7424.69
466.555	7539.94
466.928	7612.03
467.3	7646.15
467.672	7844.34
468.045	8001.63
468.417	8021.74
468.789	8092.92
469.161	8204.11
469.534	8303.54
469.906	8494.72
470.278	8576.98
470.65	8703.98
471.022	8897.42
471.394	8976.97
471.766	9105.78
472.138	9193.91
472.51	9451.98
472.882	9560.68
473.253	9714.58
473.625	9805.87
473.997	9987.11
474.369	10125.19
474.74	10218.74
475.112	10333.99
475.484	10604.27
475.855	10825.96
476.227	10860.53
476.598	11190.47
476.97	11296.68
477.341	11556.11
477.713	11733.96
478.084	11894.18
478.455	12171.23
478.827	12293.26
479.198	12627.72
479.569	12687.83
479.94	13012.79
480.311	13242.39
480.682	13495.49
481.053	13718.54
481.424	13950.17
481.795	14141.8
482.166	14250.5
482.537	14561.91
482.908	14828.56
483.279	15037.82
483.65	15337.7
484.021	15599.62
484.391	15773.4
484.762	15920.74
485.133	16046.61
485.503	16317.11
485.874	16716.88
486.244	16878.45
486.615	17212.01
486.985	17449.06
487.356	17693.8
487.726	17872.33
488.097	18172.43
488.467	18325.65
488.837	18863.04
489.207	18981.68
489.578	19288.33
489.948	19479.06
490.318	19718.15
490.688	19788.43
491.058	20118.82
491.428	20413.28
491.798	20525.59
492.168	20995.41
492.538	21042.19
492.908	21273.37
493.278	21662.96
493.648	21581.16
494.017	21837.19
494.387	22179.33
494.757	22347.24
495.126	22651.41
495.496	22694.8
495.866	22801.46
496.235	23170.49
496.605	23385.85
496.974	23469.92
497.344	23815.45
497.713	23938.61
498.082	24064.71
498.452	24382.66
498.821	24536.78
499.19	24706.72
499.559	24875.08
499.928	25200.04
500.298	25231.91
500.667	25439.81
501.036	25407.72
501.405	25747.83
501.774	25865.56
502.143	26145.78
502.512	26176.06
502.88	26402.72
503.249	26491.08
503.618	26637.52
503.987	26884.97
504.356	27108.47
504.724	27275.92
505.093	27402.47
505.462	27476.59
505.83	27677.72
506.199	28006.3
506.567	28322.67
506.936	28239.74
507.304	28670.91
507.672	28863
508.041	28906.84
508.409	29255.98
508.777	29422.98
509.145	29724.9
509.514	29861.39
509.882	30042.85
510.25	30108.39
510.618	30275.84
510.986	30538.43
511.354	30889.84
511.722	31097.74
512.09	31284.4
512.458	31360.79
512.826	31671.96
513.193	31799.64
513.561	32048.45
513.929	32180.2
514.297	32520.08
514.664	32726.63
515.032	32843.91
515.4	33308.08
515.767	33290
516.135	33537.45
516.502	33529.99
516.869	34169.75
517.237	34172.92
517.604	34160.94
517.972	34696.97
518.339	34875.95
518.706	34924.08
519.073	35195.94
519.44	35422.15
519.808	36009.02
520.175	35889.25
520.542	36408.34
520.909	36760.19
521.276	36717.03
521.643	37152.05
522.009	37513.17
522.376	37771.92
522.743	38010.78
523.11	38244.45
523.477	38656.19
523.843	38695.06
524.21	39193.57
524.577	39450.06
524.943	39620.68
525.31	39878.08
525.676	40360.32
526.043	40429.7
526.409	40574.33
526.776	41103.58
527.142	41178.38
527.508	41409.11
527.874	41635.54
528.241	41910.11
528.607	42051.13
528.973	42485.46
529.339	42519.14
529.705	42964.32
530.071	43273.69
530.437	43514.14
530.803	43694.47
531.169	44000.91
531.535	43969.49
531.901	44165.42
532.267	44308.24
532.632	44583.71
532.998	44877.27
533.364	45263.02
533.73	45216.69
534.095	45586.85
534.461	45754.31
534.826	45882.21
535.192	46180.96
535.557	46410.79
535.923	46602.87
536.288	46782.3
536.653	46794.73
537.019	46892.81
537.384	47085.8
537.749	47273.36
538.114	47304.32
538.479	47258.9
538.845	47595.61
539.21	47546.12
539.575	47674.25
539.94	47881.48
540.305	48077.18
540.67	47991.76
541.034	48258.42
541.399	48509.04
541.764	48560.11
542.129	48698.18
542.494	48829.25
542.858	48945.63
543.223	48961
543.587	49237.15
543.952	49374.55
544.316	49363.25
544.681	49339.3
545.045	49642.56
545.41	49866.29
545.774	49892.73
546.138	50071.93
546.503	50052.72
546.867	50217.69
547.231	50565.7
547.595	50553.5
547.959	50860.16
548.324	50806.15
548.688	50918.01
549.052	50996.88
549.416	51218.12
549.779	51196.42
550.143	51374.27
550.507	51563.42
550.871	51650.87
551.235	51619.91
551.599	51902.39
551.962	51922.05
552.326	52010.64
552.689	52161.14
553.053	52156.17
553.417	52160.69
553.78	52650.85
554.143	52480.23
554.507	52678.87
554.87	52801.13
555.234	53064.4
555.597	52891.07
555.96	52945.53
556.323	53096.26
556.686	53243.37
557.05	53577.83
557.413	53552.52
557.776	53656.7
558.139	53839.74
558.502	53922.45
558.865	54069.57
559.228	54326.28
559.59	54392.5
559.953	54493.28
560.316	54785.03
560.679	54798.59
561.041	54969.66
561.404	55076.77
561.767	55286.71
562.129	55195.19
562.492	55507.72
562.854	55475.63
563.217	55546.59
563.579	55672.24
563.941	55862.06
564.304	55992.68
564.666	56160.36
565.028	56095.5
565.39	56210.98
565.753	56374.59
566.115	56516.51
566.477	56562.61
566.839	56646.22
567.201	56749.72
567.563	56890.06
567.925	56982.94
568.287	57027.91
568.648	57028.59
569.01	57196.94
569.372	57423.6
569.734	57272.42
570.095	57469.03
570.457	57585.41
570.819	57589.25
571.18	57603.03
571.542	57826.53
571.903	57836.93
572.265	57918.28
572.626	58031.27
572.987	58089.35
573.349	58146.97
573.71	58243.69
574.071	58349.23
574.432	58433.07
574.794	58557.81
575.155	58461.09
575.516	58508.77
575.877	58594.87
576.238	58673.74
576.599	58685.49
576.96	58766.84
577.32	58777.24
577.681	58926.39
578.042	58965.03
578.403	58998.93
578.763	58991.7
579.124	59104.01
579.485	59089.55
579.845	59153.5
580.206	59164.12
580.566	59103.33
580.927	59226.04
581.287	59258.36
581.648	59197.34
582.008	59259.26
582.368	59208.64
582.728	59256.55
583.089	59175.87
583.449	59151.47
583.809	59203.22
584.169	59261.29
584.529	59194.63
584.889	59345.81
585.249	59230.34
585.609	59220.84
585.969	59311.92
586.329	59267.62
586.688	59296.55
587.048	59243.67
587.408	59254.06
587.768	59275.53
588.127	59250.67
588.487	59214.29
588.846	59407.73
589.206	59224.69
589.565	59299.49
589.925	59428.97
590.284	59302.2
590.643	59422.87
591.003	59442.99
591.362	59478.69
591.721	59435.98
592.08	59442.76
592.44	59564.56
592.799	59503.1
593.158	59512.59
593.517	59502.42
593.876	59578.8
594.235	59502.64
594.593	59523.43
594.952	59599.14
595.311	59428.3
595.67	59616.54
596.029	59750.32
596.387	59658.35
596.746	59713.71
597.104	59580.83
597.463	59521.63
597.822	59680.94
598.18	59576.31
598.538	59550.78
598.897	59668.74
599.255	59516.66
599.613	59822.41
599.972	59644.11
600.33	59697.22
600.688	59518.46
601.046	59733.6
601.404	59793.26
601.762	59664.9
602.12	59862.64
602.478	59791
602.836	59829.64
603.194	59696.54
603.552	59729.76
603.91	59702.41
604.268	59859.92
604.625	59785.8
604.983	59887.04
605.341	59861.51
605.698	60051.33
606.056	60071.9
606.413	59977.21
606.771	60077.32
607.128	60042.97
607.485	59983.31
607.843	59985.34
608.2	60181.04
608.557	60189.63
608.914	60179.46
609.272	60331.1
609.629	60292
609.986	60410.64
610.343	60246.81
610.7	60406.58
611.057	60432.79
611.414	60359.57
611.771	60421.04
612.127	60467.59
612.484	60420.36
612.841	60517.76
613.198	60423.75
613.554	60488.83
613.911	60651.77
614.267	60545.55
614.624	60510.08
614.98	60531.09
615.337	60680.01
615.693	60597.76
616.05	60602.73
616.406	60723.86
616.762	60611.77
617.118	60537.87
617.475	60621.71
617.831	60685.44
618.187	60688.15
618.543	60620.81
618.899	60777.41
619.255	60780.35
619.611	60729.96
619.967	60812.67
620.323	60883.85
620.678	60850.63
621.034	60753.91
621.39	60734.25
621.746	60697.19
622.101	60965.66
622.457	60795.49
622.812	60811.76
623.168	60906.45
623.523	60969.5
623.879	61033.45
624.234	60841.59
624.589	60997.07
624.945	60838.2
625.3	60940.12
625.655	60897.64
626.01	60991.87
626.365	60908.48
626.72	60878.88
627.075	60910.29
627.43	60902.38
627.785	60786.45
628.14	60802.27
628.495	60863.74
628.85	60821.71
629.205	60730.41
629.559	60894.25
629.914	60760.46
630.269	60763.63
630.623	60637.53
630.978	60606.57
631.332	60725.89
631.687	60747.81
632.041	60601.37
632.396	60654.93
632.75	60469.17
633.104	60577.64
633.459	60471.88
633.813	60435.28
634.167	60394.15
634.521	60423.75
634.875	60368.61
635.229	60387.59
635.583	60231.66
635.937	60233.7
636.291	60277.77
636.645	60181.72
636.999	60093.14
637.352	60140.82
637.706	60064.89
638.06	60147.15
638.413	60042.97
638.767	60030.54
639.121	60042.29
639.474	59889.3
639.828	59940.15
640.181	59866.7
640.534	59913.93
640.888	59836.2
641.241	59703.09
641.594	59818.79
641.947	59826.48
642.301	59807.27
642.654	59834.84
643.007	59786.03
643.36	59741.51
643.713	59669.87
644.066	59755.97
644.419	59619.7
644.771	59415.64
645.124	59187.4
645.477	59199.38
645.83	59002.77
646.182	58878.93
646.535	58782.89
646.888	58918.03
647.24	58684.81
647.593	58907.63
647.945	58731.59
648.298	58576.57
648.65	58596.23
649.002	58482.33
649.355	58597.36
649.707	58539.05
650.059	58637.58
650.411	58884.81
650.763	58900.63
651.115	59094.52
651.467	58971.81
651.819	59005.03
652.171	58921.87
652.523	58792.61
652.875	58856.11
653.227	58741.76
653.578	58909.67
653.93	58822.44
654.282	58745.15
654.633	58614.08
654.985	58640.75
655.337	58668.09
655.688	58680.07
656.039	58689.56
656.391	58476.46
656.742	58510.58
657.094	58536.12
657.445	58642.55
657.796	58559.39
658.147	58473.74
658.498	58433.52
658.849	58518.94
659.2	58468.1
659.551	58340.42
659.902	58485.04
660.253	58476.23
660.604	58464.03
660.955	58334.31
661.306	58353.07
661.656	58307.65
662.007	58401.2
662.358	58385.16
662.708	58290.25
663.059	58280.98
663.409	58155.11
663.76	58322.79
664.11	58273.07
664.461	58269.91
664.811	58277.37
665.161	58205.96
665.511	58157.82
665.862	58186.29
666.212	58188.33
666.562	58296.8
666.912	58213.64
667.262	58207.09
667.612	58120.76
667.962	58132.06
668.312	58059.97
668.662	58179.74
669.011	58091.16
669.361	58015.9
669.711	57966.64
670.06	57950.82
670.41	57908.56
670.76	57883.48
671.109	57971.16
671.459	57932.74
671.808	57861.56
672.157	57823.82
672.507	57704.27
672.856	57754.44
673.205	57676.48
673.554	57772.07
673.904	57631.28
674.253	57772.97
674.602	57793.76
674.951	57346.32
675.3	57136.61
675.649	57578.63
675.998	57533.43
676.346	57516.71
676.695	57570.49
677.044	57437.16
677.393	57505.86
677.741	57538.4
678.09	57421.34
678.438	57438.74
678.787	57455.92
679.135	57445.3
679.484	57228.35
679.832	57273.78
680.181	57141.58
680.529	57208.69
680.877	57169.37
681.225	57055.93
681.573	57271.29
681.922	57032.65
682.27	56993.11
682.618	57015.93
682.966	56910.85
683.314	56996.72
683.661	56921.24
684.009	56757.63
684.357	56708.82
684.705	56618.88
685.053	56650.06
685.4	56587.69
685.748	56393.35
686.095	56508.82
686.443	56312.22
686.79	56295.27
687.138	56380.92
687.485	56237.87
687.832	56245.55
688.18	56233.58
688.527	56123.52
688.874	55987.26
689.221	55967.37
689.568	55862.97
689.915	55831.55
690.262	55831.1
690.609	55755.4
690.956	55685.12
691.303	55609.87
691.65	55508.85
691.997	55438.8
692.344	55301.4
692.69	55254.39
693.037	55337.1
693.383	55074.51
693.73	55149.76
694.077	54907.96
694.423	54859.38
694.769	54744.58
695.116	54711.81
695.462	54682.66
695.808	54559.27
696.155	54603.56
696.501	54407.64
696.847	54390.24
697.193	54126.51
697.539	54307.3
697.885	54000.42
698.231	53901.21
698.577	53909.35
698.923	53880.65
699.269	53752.74
699.614	53585.29
699.96	53513.2
700.306	53536.47
700.651	53448.34
700.997	53266.2
701.342	53228.46
701.688	53202.7
702.033	53097.16
702.379	53163.38
702.724	52950.27
703.069	53095.81
703.415	52657.85
703.76	52719.09
704.105	52578.08
704.45	52410.18
704.795	52354.81
705.14	52244.3
705.485	52174.93
705.83	52033.01
706.175	52109.84
706.52	52004.76
706.865	51925.44
707.209	51866.46
707.554	51842.51
707.899	51743.3
708.243	51572.23
708.588	51532.23
708.932	51397.55
709.277	51407.94
709.621	51298.79
709.966	51045.69
710.31	51165.69
710.654	50824.68
710.998	50914.85
711.342	50855.19
711.687	50804.12
712.031	50543.11
712.375	50609.54
712.719	50562.77
713.063	50424.47
713.407	50449.1
713.75	50395.54
714.094	50395.09
714.438	50082.55
714.782	50155.55
715.125	49768.89
715.469	49986.28
715.812	49872.84
716.156	49582.45
716.499	49731.38
716.843	49643.02
717.186	49432.4
717.53	49620.42
717.873	49494.55
718.216	49464.72
718.559	49266.53
718.902	49057.95
719.246	49327.54
719.589	49027.44
719.932	48885.52
720.275	48845.07
720.617	48861.57
720.96	48717.62
721.303	48609.15
721.646	48601.91
721.989	48395.37
722.331	48514.68
722.674	48472.88
723.016	48455.48
723.359	48213.9
723.701	48283.96
724.044	48053.68
724.386	47868.6
724.729	47967.81
725.071	47740.24
725.413	47773.24
725.755	47737.98
726.097	47544.31
726.439	47418.67
726.782	47306.36
727.124	47480.14
727.465	47227.26
727.807	47230.88
728.149	47170.99
728.491	47001.28
728.833	46899.36
729.175	46964.67
729.516	46793.15
729.858	46609.2
730.199	46654.62
730.541	46624.11
730.882	46578.69
731.224	46565.81
731.565	46311.8
731.906	46367.85
732.248	46239.26
732.589	46063
732.93	45947.07
733.271	45952.72
733.612	45936.45
733.953	45963.11
734.294	45750.46
734.635	45625.27
734.976	45777.81
735.317	45694.42
735.658	45576.46
735.999	45580.98
736.339	45438.83
736.68	45545.95
737.021	45376.01
737.361	45142.57
737.702	45364.03
738.042	45127.2
738.383	45032.52
738.723	45060.99
739.063	44868.23
739.404	44986.87
739.744	44944.38
740.084	44711.62
740.424	44826.65
740.764	44783.71
741.104	44823.03
741.444	44573.32
741.784	44452.19
742.124	44625.75
742.464	44464.17
742.804	44416.26
743.143	44244.51
743.483	44053.56
743.823	43927.01
744.162	43991.19
744.502	43964.97
744.841	43759.33
745.181	43899.44
745.52	43776.5
745.86	43699.22
746.199	43574.93
746.538	43458.09
746.877	43618.09
747.216	43456.29
747.556	43110.76
747.895	43166.35
748.234	43131.55
748.573	42969.29
748.911	42892.01
749.25	42761.39
749.589	42747.83
749.928	42736.53
750.267	42757.77
750.605	42595.97
750.944	42499.7
751.283	42259.26
751.621	42269.65
751.96	42070.56
