Data from aluminium_surface_pro_back_FLMS001491_00079.txt Node
Date: Wed Feb 08 15:34:32 GMT 2017
User: dcchb
Spectrometer: FLMS00149
Trigger mode: 0
Integration Time (sec): 2.000000E-2
Scans to average: 10
Electric dark correction enabled: true
Nonlinearity correction enabled: false
Boxcar width: 0
XAxis mode: Wavelengths
Number of Pixels in Spectrum: 2048
>>>>>Begin Spectral Data<<<<<
341.393	9.34
341.776	9.34
342.16	9.34
342.543	-47.61
342.927	-65.46
343.31	-74.96
343.693	-80.83
344.077	-65.92
344.46	-62.3
344.843	-59.14
345.226	-65.01
345.61	-36.31
345.993	-18.01
346.376	18.6
346.759	28.77
347.142	35.78
347.525	52.27
347.908	41.88
348.291	91.37
348.674	85.49
349.057	108.32
349.44	145.38
349.823	141.31
350.206	160.29
350.588	228.99
350.971	229.67
351.354	257.01
351.737	264.7
352.119	268.76
352.502	275.77
352.884	305.15
353.267	330.91
353.65	315.54
354.032	338.82
354.414	339.5
354.797	363.45
355.179	354.41
355.562	358.48
355.944	365.94
356.326	371.59
356.709	361.19
357.091	380.4
357.473	370.68
357.855	398.93
358.238	382.21
358.62	377.01
359.002	391.92
359.384	394.41
359.766	370.68
360.148	371.13
360.53	377.69
360.912	355.99
361.294	377.69
361.676	400.74
362.057	374.75
362.439	371.36
362.821	372.49
363.203	383.34
363.584	378.59
363.966	368.87
364.348	364.13
364.729	377.91
365.111	362.09
365.493	384.69
365.874	359.84
366.256	374.98
366.637	362.09
367.019	381.08
367.4	356.45
367.781	361.64
368.163	373.39
368.544	368.42
368.925	374.75
369.306	375.43
369.688	365.48
370.069	380.63
370.45	384.02
370.831	367.07
371.212	393.51
371.593	381.53
371.974	377.46
372.355	386.05
372.736	398.03
373.117	393.51
373.498	404.13
373.879	388.99
374.26	406.39
374.641	388.99
375.021	398.25
375.402	375.2
375.783	410.91
376.163	429.44
376.544	415.43
376.925	414.3
377.305	412.72
377.686	408.87
378.066	417.46
378.447	423.11
378.827	411.36
379.208	444.13
379.588	445.48
379.968	446.39
380.349	440.29
380.729	445.93
381.109	456.78
381.489	457.23
381.87	452.04
382.25	452.94
382.63	458.14
383.01	477.12
383.39	471.24
383.77	487.29
384.15	497.91
384.53	493.62
384.91	477.8
385.29	503.79
385.67	489.1
386.049	521.41
386.429	520.28
386.809	490.45
387.189	519.6
387.568	532.03
387.948	522.32
388.328	528.19
388.707	545.37
389.087	545.14
389.466	531.13
389.846	571.58
390.225	559.83
390.605	559.83
390.984	569.1
391.363	561.64
391.743	580.62
392.122	602.77
392.501	620.17
392.881	623.56
393.26	607.06
393.639	624.23
394.018	627.85
394.397	650.67
394.776	648.87
395.155	640.05
395.534	667.62
395.913	667.17
396.292	674.63
396.671	701.52
397.05	698.13
397.429	717.11
397.808	711.69
398.186	710.56
398.565	696.78
398.944	714.85
399.323	722.99
399.701	719.6
400.08	766.15
400.458	772.25
400.837	741.97
401.215	736.77
401.594	770.45
401.972	796.89
402.351	775.87
402.729	813.38
403.107	817
403.486	829.43
403.864	811.12
404.242	846.83
404.62	829.65
404.999	834.4
405.377	868.07
405.755	880.95
406.133	878.01
406.511	922.31
406.889	893.15
407.267	908.97
407.645	944.9
408.023	976.54
408.401	969.31
408.779	967.28
409.156	963.44
409.534	1025.13
409.912	1006.6
410.29	1038.46
410.667	1012.25
411.045	1070.32
411.422	1068.29
411.8	1071.45
412.178	1070.78
412.555	1105.58
412.933	1106.26
413.31	1143.32
413.687	1136.31
414.065	1206.59
414.442	1169.53
414.819	1191.9
415.197	1202.75
415.574	1195.29
415.951	1224.45
416.328	1262.64
416.705	1233.71
417.082	1264.9
417.46	1273.26
417.837	1298.34
418.214	1313.03
418.591	1307.15
418.967	1317.32
419.344	1348.28
419.721	1342.41
420.098	1337.89
420.475	1382.18
420.852	1406.36
421.228	1397.1
421.605	1439.35
421.982	1449.52
422.358	1471.22
422.735	1459.47
423.111	1483.87
423.488	1494.49
423.864	1497.88
424.241	1542.18
424.617	1552.35
424.994	1552.57
425.37	1574.04
425.746	1568.62
426.123	1617.2
426.499	1621.95
426.875	1659.69
427.251	1674.6
427.627	1692.23
428.003	1709.4
428.379	1735.84
428.756	1766.35
429.132	1773.81
429.507	1832.34
429.883	1838.44
430.259	1893.58
430.635	1889.74
431.011	1870.53
431.387	1952.56
431.763	1993.01
432.138	1990.53
432.514	2010.41
432.89	2050.64
433.265	2059.23
433.641	2125.89
434.016	2089.51
434.392	2127.47
434.767	2203.4
435.143	2190.97
435.518	2242.72
435.894	2223.06
436.269	2279.78
436.644	2284.53
437.02	2294.7
437.395	2327.47
437.77	2369.5
438.145	2384.41
438.52	2446.56
438.895	2430.29
439.271	2481.81
439.646	2522.26
440.021	2526.33
440.395	2545.31
440.77	2536.05
441.145	2523.62
441.52	2650.4
441.895	2613.56
442.27	2662.15
442.645	2643.62
443.019	2687.68
443.394	2717.97
443.769	2682.94
444.143	2711.64
444.518	2797.51
444.892	2755.93
445.267	2801.58
445.641	2836.83
446.016	2833.89
446.39	2865.76
446.764	2867.57
447.139	2866.66
447.513	2922.25
447.887	2915.47
448.262	2935.81
448.636	2924.51
449.01	3000.9
449.384	3036.37
449.758	3032.08
450.132	3094.9
450.506	3117.95
450.88	3114.11
451.254	3135.81
451.628	3201.57
452.002	3215.81
452.376	3269.59
452.75	3253.77
453.123	3323.6
453.497	3378.51
453.871	3356.37
454.244	3451.96
454.618	3481.11
454.992	3534.89
455.365	3514.33
455.739	3609.47
456.112	3641.1
456.486	3762.68
456.859	3725.17
457.232	3818.28
457.606	3780.54
457.979	3878.84
458.352	3929.01
458.725	3997.93
459.099	4027.76
459.472	4100.53
459.845	4165.84
460.218	4174.88
460.591	4182.56
460.964	4224.82
461.337	4348.2
461.71	4437.47
462.083	4466.39
462.456	4488.09
462.829	4548.2
463.201	4564.47
463.574	4583.9
463.947	4671.59
464.32	4769.66
464.692	4798.81
465.065	4850.56
465.438	4895.76
465.81	4941.64
466.183	5043.55
466.555	5169.2
466.928	5177.34
467.3	5166.71
467.672	5262.08
468.045	5386.37
468.417	5373.26
468.789	5463.66
469.161	5502.52
469.534	5603.31
469.906	5713.37
470.278	5812.12
470.65	5878.11
471.022	5948.39
471.394	6065
471.766	6180.25
472.138	6215.95
472.51	6333.46
472.882	6448.94
473.253	6535.94
473.625	6644.87
473.997	6749.72
474.369	6797.63
474.74	6836.5
475.112	7021.58
475.484	7105.19
475.855	7293.66
476.227	7300.9
476.598	7517.61
476.97	7584.5
477.341	7755.35
477.713	7877.38
478.084	7963.48
478.455	8188.33
478.827	8219.52
479.198	8429.23
479.569	8510.36
479.94	8802.78
480.311	8815.66
480.682	9072.83
481.053	9207.29
481.424	9341.29
481.795	9460.61
482.166	9586.49
482.537	9727.27
482.908	9949.19
483.279	10024.89
483.65	10260.82
484.021	10421.27
484.391	10592.79
484.762	10698.32
485.133	10738.55
485.503	10922.95
485.874	11161.81
486.244	11289.04
486.615	11511.63
486.985	11617.84
487.356	11815.58
487.726	11950.72
488.097	12236.36
488.467	12254.21
488.837	12509.8
489.207	12648.33
489.578	12815.1
489.948	12942.56
490.318	13197.01
490.688	13234.52
491.058	13300.51
491.428	13559.04
491.798	13702.54
492.168	14051.9
492.538	14045.13
492.908	14194.5
493.278	14448.5
493.648	14455.51
494.017	14635.84
494.387	14778.89
494.757	14930.53
495.126	15100.69
495.496	15149.95
495.866	15355.83
496.235	15439.44
496.605	15598.53
496.974	15738.87
497.344	15834.91
497.713	15968.46
498.082	16102.02
498.452	16367.1
498.821	16410.03
499.19	16354.89
499.559	16629.69
499.928	16788.1
500.298	16897.48
500.667	17084.59
501.036	17104.03
501.405	17301.54
501.774	17374.08
502.143	17517.58
502.512	17599.61
502.88	17753.73
503.249	17791.47
503.618	17971.12
503.987	18054.29
504.356	18136.32
504.724	18381.28
505.093	18403.88
505.462	18549.19
505.83	18628.51
506.199	18901.04
506.567	19045.67
506.936	19010.19
507.304	19252.22
507.672	19342.84
508.041	19455.6
508.409	19654.92
508.777	19875.03
509.145	19964.74
509.514	19981.92
509.882	20175.59
510.25	20200.22
510.618	20503.71
510.986	20496.71
511.354	20677.49
511.722	20923.81
512.09	21113.19
512.458	21166.97
512.826	21263.92
513.193	21410.81
513.561	21603.34
513.929	21888.76
514.297	22098.02
514.664	22141.18
515.032	22259.15
515.4	22498.91
515.767	22611.68
516.135	22767.61
516.502	22709.53
516.869	23163.98
517.237	23215.05
517.604	23328.5
517.972	23587.7
518.339	23703.4
518.706	23833.34
519.073	24063.39
519.44	24250.28
519.808	24519.43
520.175	24518.3
520.542	24924.16
520.909	24993.09
521.276	25005.74
521.643	25367.77
522.009	25421.1
522.376	25692.73
522.743	25898.6
523.11	26231.02
523.477	26463.56
523.843	26499.71
524.21	26892.92
524.577	27013.15
524.943	27156.87
525.31	27352.12
525.676	27641.15
526.043	27826.91
526.409	27901.94
526.776	28378.53
527.142	28358.42
527.508	28567.46
527.874	28830.5
528.241	28949.14
528.607	29032.53
528.973	29277.94
529.339	29274.1
529.705	29621.66
530.071	29914.31
530.437	30004.25
530.803	30155.89
531.169	30414.19
531.535	30315.43
531.901	30574.18
532.267	30724.91
532.632	30878.81
532.998	31054.17
533.364	31243.09
533.73	31330.09
534.095	31542.07
534.461	31664.1
534.826	31865.67
535.192	32036.74
535.557	32228.15
535.923	32224.31
536.288	32298.43
536.653	32669.04
537.019	32570.51
537.384	32832.65
537.749	32932.31
538.114	33104.74
538.479	33137.05
538.845	33393.09
539.21	33269.25
539.575	33517.61
539.94	33658.17
540.305	33761.22
540.67	33768.45
541.034	33969.35
541.399	34178.38
541.764	34177.48
542.129	34519.61
542.494	34509.22
542.858	34490.92
543.223	34562.55
543.587	34914.41
543.952	34782.66
544.316	34983.56
544.681	34923.22
545.045	35279.14
545.41	35366.82
545.774	35584.45
546.138	35538.57
546.503	35612.02
546.867	35789.64
547.231	36122.96
547.595	36126.13
547.959	36331.54
548.324	36353.24
548.688	36300.13
549.052	36560.24
549.416	36691.54
549.779	36721.82
550.143	36856.73
550.507	37082.49
550.871	37113.9
551.235	37202.26
551.599	37633.21
551.962	37639.98
552.326	37626.88
552.689	37953.65
553.053	37764.73
553.417	37907.32
553.78	38357.93
554.143	38296.01
554.507	38374.88
554.87	38507.98
555.234	39034.52
555.597	38870.24
555.96	39044.02
556.323	39159.04
556.686	39218.02
557.05	39566.49
557.413	39635.86
557.776	39829.98
558.139	40034.72
558.502	40056.87
558.865	40279.46
559.228	40646.46
559.59	40828.15
559.953	41067.01
560.316	41295.93
560.679	41360.79
561.041	41537.06
561.404	41780.44
561.767	42012.75
562.129	41848.69
562.492	42349.92
562.854	42383.14
563.217	42497.94
563.579	42706.74
563.941	42901.99
564.304	43148.09
564.666	43559.83
565.028	43526.61
565.39	43682.09
565.753	44012.47
566.115	44119.59
566.477	44330.88
566.839	44406.81
567.201	44677.54
567.563	44796.41
567.925	45065.33
568.287	45102.61
568.648	45271.42
569.01	45531.98
569.372	45708.25
569.734	45644.29
570.095	46048.8
570.457	46220.78
570.819	46383.71
571.18	46471.84
571.542	46590.26
571.903	46763.59
572.265	46989.8
572.626	46972.17
572.987	47168.55
573.349	47406.96
573.71	47463.91
574.071	47548.2
574.432	47741.41
574.794	47939.83
575.155	48026.15
575.516	47926.49
575.877	48165.13
576.238	48202.87
576.599	48417.33
576.96	48341.17
577.32	48457.55
577.681	48712.01
578.042	48645.8
578.403	48740.94
578.763	48873.36
579.124	48903.19
579.485	49202.62
579.845	49192.22
580.206	49212.34
580.566	49280.58
580.927	49367.36
581.287	49458.21
581.648	49424.31
582.008	49560.35
582.368	49489.84
582.728	49647.58
583.089	49650.06
583.449	49523.97
583.809	49631.08
584.169	49777.29
584.529	49613.23
584.889	50009.38
585.249	49776.16
585.609	49692.78
585.969	49906.55
586.329	49718.09
586.688	49875.82
587.048	49787.01
587.408	49821.36
587.768	49792.89
588.127	49781.81
588.487	49747.69
588.846	50177.06
589.206	49793.56
589.565	49928.25
589.925	50001.47
590.284	49926.89
590.643	50000.11
591.003	50004.41
591.362	50214.12
591.721	50031.52
592.08	50111.97
592.44	50250.73
592.799	50226.09
593.158	50158.98
593.517	50206.21
593.876	50175.7
594.235	50157.17
594.593	50183.16
594.952	50343.38
595.311	50267
595.67	50312.65
596.029	50507.44
596.387	50479.65
596.746	50570.94
597.104	50304.28
597.463	50366.88
597.822	50576.59
598.18	50311.97
598.538	50406.88
598.897	50612.3
599.255	50358.29
599.613	50784.05
599.972	50583.6
600.33	50768.91
600.688	50567.1
601.046	50791.96
601.404	50746.98
601.762	50801.22
602.12	50868.79
602.478	51034.66
602.836	50948.34
603.194	50823.14
603.552	50818.85
603.91	50896.36
604.268	50982.91
604.625	50878.51
604.983	51084.15
605.341	50870.37
605.698	51014.1
606.056	51182.45
606.413	51071.5
606.771	51236.24
607.128	51214.77
607.485	51002.35
607.843	51155.11
608.2	51325.95
608.557	51402.56
608.914	51253.86
609.272	51513.07
609.629	51570.69
609.986	51620.86
610.343	51386.52
610.7	51644.59
611.057	51487.53
611.414	51542.44
611.771	51643.01
612.127	51682.55
612.484	51694.08
612.841	51763.91
613.198	51628.54
613.554	51579.73
613.911	51780.63
614.267	51830.12
614.624	51716
614.98	51885.94
615.337	51919.61
615.693	51888.2
616.05	51941.3
616.406	52084.35
616.762	51848.88
617.118	51916.9
617.475	51905.15
617.831	52031.24
618.187	52068.76
618.543	52065.82
618.899	52267.17
619.255	52215.19
619.611	52241.18
619.967	52262.88
620.323	52341.07
620.678	52224.01
621.034	52239.38
621.39	52216.1
621.746	52202.09
622.101	52526.6
622.457	52259.26
622.812	52334.51
623.168	52372.93
623.523	52302.42
623.879	52517.33
624.234	52279.6
624.589	52349.88
624.945	52424.91
625.3	52418.35
625.655	52335.19
626.01	52329.54
626.365	52428.75
626.72	52495.87
627.075	52342.2
627.43	52323.67
627.785	52388.52
628.14	52306.72
628.495	52396.43
628.85	52316.89
629.205	52205.03
629.559	52411.12
629.914	52280.05
630.269	52352.37
630.623	52162.77
630.978	52130.23
631.332	52265.59
631.687	52351.91
632.041	52220.84
632.396	52226.49
632.75	52083.45
633.104	52212.03
633.459	51988.53
633.813	52011.36
634.167	51954.86
634.521	51953.73
634.875	51887.07
635.229	52015.2
635.583	51705.6
635.937	51796.45
636.291	51783.57
636.645	51601.65
636.999	51533.18
637.352	51726.85
637.706	51518.94
638.06	51599.62
638.413	51587.19
638.767	51519.39
639.121	51614.98
639.474	51318.72
639.828	51277.59
640.181	51264.94
640.534	51403.01
640.888	51146.07
641.241	51117.14
641.594	51122.57
641.947	51200.98
642.301	51083.47
642.654	51103.81
643.007	51017.26
643.36	51022.46
643.713	50947.66
644.066	51193.07
644.419	50785.18
644.771	50554
645.124	50323.95
645.477	50211.18
645.83	50006.89
646.182	49878.53
646.535	49764.64
646.888	49885.31
647.24	49547.69
647.593	49769.16
647.945	49779.78
648.298	49548.37
648.65	49319.45
649.002	49305.44
649.355	49302.96
649.707	49322.39
650.059	49435.38
650.411	49863.84
650.763	49882.83
651.115	50249.6
651.467	50005.76
651.819	50071.52
652.171	49974.8
652.523	49988.36
652.875	49994.24
653.227	49831.08
653.578	50050.96
653.93	49931.64
654.282	49767.35
654.633	49748.82
654.985	49706.33
655.337	49740.68
655.688	49671.31
656.039	49876.05
656.391	49515.6
656.742	49481.03
657.094	49524.64
657.445	49670.4
657.796	49530.29
658.147	49385.89
658.498	49387.25
658.849	49424.53
659.2	49220.47
659.551	49267.7
659.902	49233.58
660.253	49320.13
660.604	49371.88
660.955	49206.01
661.306	49247.36
661.656	49188.16
662.007	49089.4
662.358	49225.22
662.708	49180.47
663.059	49183.41
663.409	48930.08
663.76	49290.75
664.11	49231.32
664.461	49269.74
664.811	49141.6
665.161	49042.62
665.511	49114.26
665.862	49097.99
666.212	49143.86
666.562	49056.41
666.912	48993.58
667.262	48816.19
667.612	48896.19
667.962	48920.14
668.312	48822.97
668.662	49087.14
669.011	48922.63
669.361	48764.21
669.711	48755.4
670.06	48693.03
670.41	48668.17
670.76	48664.55
671.109	48877.88
671.459	48702.97
671.808	48610.32
672.157	48785.45
672.507	48375.75
672.856	48369.65
673.205	48505.91
673.554	48554.95
673.904	48462.98
674.253	48558.34
674.602	48508.17
674.951	47968.07
675.3	47739.15
675.649	48280.16
675.998	48255.52
676.346	48291
676.695	48244.9
677.044	47960.39
677.393	48032.71
677.741	48047.62
678.09	48082.65
678.438	47886.72
678.787	48006.49
679.135	47971.69
679.484	47557.69
679.832	47823.67
680.181	47620.51
680.529	47665.03
680.877	47490.57
681.225	47489.67
681.573	47716.56
681.922	47397.69
682.27	47239.28
682.618	47469.56
682.966	47202.22
683.314	47367.19
683.661	47133.75
684.009	46949.8
684.357	46938.95
684.705	46834.09
685.053	46832.96
685.4	46793.19
685.748	46581.22
686.095	46461.22
686.443	46450.37
686.79	46382.35
687.138	46370.83
687.485	46462.8
687.832	46176.03
688.18	46200.66
688.527	45857.85
688.874	46060.1
689.221	45993.89
689.568	45837.28
689.915	45700.56
690.262	45708.02
690.609	45669.15
690.956	45430.74
691.303	45332.66
691.65	45274.13
691.997	45282.72
692.344	44765.45
692.69	44906.23
693.037	44941.94
693.383	44561.38
693.73	44584.44
694.077	44337.66
694.423	44336.98
694.769	44162.98
695.116	44092.24
695.462	44174.95
695.808	43897.9
696.155	43878.92
696.501	43711.24
696.847	43716.21
697.193	43331.59
697.539	43538.13
697.885	43217.24
698.231	43140.63
698.577	43201.19
698.923	43139.5
699.269	42954.87
699.614	42725.95
699.96	42576.58
700.306	42636.69
700.651	42344.72
700.997	42240.09
701.342	42285.06
701.688	42186.53
702.033	42001.45
702.379	41974.79
702.724	41744.06
703.069	41878.97
703.415	41452.31
703.76	41464.29
704.105	41332.77
704.45	41254.58
704.795	41044.87
705.14	40977.98
705.485	40952.67
705.83	40729.17
706.175	40806.91
706.52	40640.36
706.865	40540.93
707.209	40406.47
707.554	40256.41
707.899	40290.54
708.243	40124.89
708.588	39959.02
708.932	39736.88
709.277	39776.65
709.621	39812.81
709.966	39477.22
710.31	39524.46
710.654	39190.45
710.998	39401.97
711.342	39337.34
711.687	39016.22
712.031	39045.6
712.375	38936
712.719	38931.93
713.063	38792.72
713.407	39034.3
713.75	38689
714.094	38741.65
714.438	38564.25
714.782	38554.54
715.125	38475.22
715.469	38545.95
715.812	38311.38
716.156	38103.48
716.499	38027.09
716.843	38046.75
717.186	37938.28
717.53	38032.74
717.873	37979.64
718.216	37778.51
718.559	37616.48
718.902	37472.98
719.246	37605.64
719.589	37314.57
719.932	37259.66
720.275	37189.83
720.617	37048.81
720.96	37192.54
721.303	37030.28
721.646	37038.19
721.989	36855.6
722.331	36985.54
722.674	36925.88
723.016	36840.01
723.359	36771.08
723.701	36565.21
724.044	36509.85
724.386	36480.69
724.729	36614.02
725.071	36432.78
725.413	36325.22
725.755	36398.44
726.097	36250.87
726.439	36253.58
726.782	36077.99
727.124	36387.36
727.465	36095.39
727.807	36045.22
728.149	35908.28
728.491	35883.19
728.833	35912.35
729.175	35799.58
729.516	35648.62
729.858	35553.94
730.199	35533.83
730.541	35480.04
730.882	35419.48
731.224	35454.51
731.565	35236.88
731.906	35256.32
732.248	35331.12
732.589	35044.8
732.93	34846.61
733.271	34950.56
733.612	34922.77
733.953	34953.5
734.294	34692.49
734.635	34537.47
734.976	34647.75
735.317	34490.69
735.658	34385.61
735.999	34389.45
736.339	34343.57
736.68	34448.2
737.021	34287.08
737.361	34248.21
737.702	34122.11
738.042	34109.91
738.383	34027.42
738.723	33987.65
739.063	33773.65
739.404	33953.53
739.744	33907.43
740.084	33612.29
740.424	33781.1
740.764	33553.09
741.104	33629.92
741.444	33429.93
741.784	33431.96
742.124	33406.42
742.464	33357.61
742.804	33293.88
743.143	33355.13
743.483	33278.07
743.823	33057.96
744.162	33087.34
744.502	33029.94
744.841	32913.1
745.181	32952.65
745.52	32894.12
745.86	32940.45
746.199	32748.81
746.538	32709.72
746.877	32768.25
747.216	32676.05
747.556	32368.49
747.895	32446.9
748.234	32327.81
748.573	32204.42
748.911	32229.28
749.25	32233.8
749.589	32119.68
749.928	32107.7
750.267	32022.96
750.605	32008.49
750.944	31855.96
751.283	31773.25
751.621	31931.21
751.96	31626.81
752.298	31570.54
752.636	31426.59
