Data from aluminium_macbook_case_FLMS001491_032.txt Node
Date: Tue Feb 07 10:43:30 GMT 2017
User: dcchb
Spectrometer: FLMS00149
Trigger mode: 0
Integration Time (sec): 2.000000E-2
Scans to average: 10
Electric dark correction enabled: true
Nonlinearity correction enabled: false
Boxcar width: 0
XAxis mode: Wavelengths
Number of Pixels in Spectrum: 2048
>>>>>Begin Spectral Data<<<<<
341.393	-16.44
341.776	-16.44
342.16	-16.44
342.543	-60.05
342.927	-56.67
343.31	-78.81
343.693	-76.1
344.077	-63.44
344.46	-58.7
344.843	-49.66
345.226	-34.52
345.61	-26.16
345.993	-15.76
346.376	4.58
346.759	12.49
347.142	26.5
347.525	33.05
347.908	60.39
348.291	69.89
348.674	89.32
349.057	106.95
349.44	108.75
349.823	131.13
350.206	170.22
350.588	238.92
350.971	273.27
351.354	278.47
351.737	285.02
352.119	302.2
352.502	301.07
352.884	314.85
353.267	328.86
353.65	347.62
354.032	361.18
354.414	341.29
354.797	355.98
355.179	369.99
355.562	384
355.944	390.55
356.326	396.43
356.709	392.36
357.091	406.15
357.473	412.25
357.855	386.49
358.238	406.15
358.62	403.21
359.002	405.92
359.384	404.79
359.766	397.56
360.148	414.96
360.53	414.06
360.912	427.62
361.294	428.07
361.676	420.84
362.057	404.57
362.439	407.96
362.821	422.42
363.203	406.6
363.584	404.79
363.966	402.53
364.348	394.4
364.729	386.71
365.111	421.51
365.493	404.34
365.874	408.63
366.256	419.93
366.637	423.55
367.019	403.66
367.4	413.6
367.781	413.15
368.163	420.61
368.544	387.84
368.925	422.87
369.306	441.4
369.688	438.01
370.069	418.58
370.45	449.31
370.831	429.2
371.212	435.53
371.593	440.5
371.974	438.92
372.355	444.34
372.736	460.16
373.117	462.87
373.498	458.8
373.879	449.76
374.26	450.44
374.641	444.11
375.021	442.76
375.402	456.99
375.783	466.48
376.163	533.83
376.544	492.92
376.925	489.99
377.305	491.12
377.686	474.17
378.066	502.19
378.447	521.85
378.827	502.42
379.208	525.01
379.588	497.44
379.968	506.94
380.349	534.05
380.729	541.29
381.109	521.85
381.489	539.7
381.87	548.29
382.25	547.39
382.63	557.56
383.01	584.67
383.39	573.83
383.77	583.77
384.15	598.23
384.53	596.42
384.91	590.55
385.29	608.85
385.67	611.79
386.049	628.06
386.429	616.09
386.809	623.32
387.189	654.28
387.568	632.58
387.948	653.6
388.328	659.02
388.707	673.03
389.087	677.55
389.466	704.67
389.846	674.62
390.225	686.82
390.605	733.37
390.984	712.58
391.363	716.65
391.743	720.26
392.122	743.99
392.501	756.19
392.881	795.06
393.26	774.73
393.639	776.31
394.018	813.59
394.397	811.79
394.776	820.83
395.155	808.85
395.534	834.38
395.913	813.37
396.292	861.05
396.671	868.06
397.05	850.43
397.429	851.56
397.808	884.55
398.186	874.38
398.565	894.72
398.944	925
399.323	908.51
399.701	927.49
400.08	926.13
400.458	948.96
400.837	957.09
401.215	947.15
401.594	973.59
401.972	999.13
402.351	1001.16
402.729	1012.46
403.107	1047.49
403.486	1038
403.864	1065.79
404.242	1048.39
404.62	1073.25
404.999	1100.82
405.377	1105.11
405.755	1118.22
406.133	1137.43
406.511	1133.59
406.889	1159.57
407.267	1174.49
407.645	1179.91
408.023	1212.91
408.401	1247.26
408.779	1260.36
409.156	1272.11
409.534	1264.43
409.912	1284.77
410.29	1348.72
410.667	1338.55
411.045	1360.47
411.422	1371.77
411.8	1398.66
412.178	1409.74
412.555	1454.48
412.933	1457.19
413.31	1501.71
413.687	1516.17
414.065	1541.48
414.442	1522.73
414.819	1559.34
415.197	1558.21
415.574	1593.23
415.951	1631.43
416.328	1627.13
416.705	1614.03
417.082	1670.52
417.46	1675.49
417.837	1690.41
418.214	1727.02
418.591	1732.21
418.967	1783.06
419.344	1793.68
419.721	1830.97
420.098	1802.95
420.475	1862.61
420.852	1891.98
421.228	1889.5
421.605	1890.85
421.982	1935.15
422.358	1932.89
422.735	1982.6
423.111	1988.03
423.488	2020.34
423.864	2035.71
424.241	2065.31
424.617	2088.36
424.994	2098.53
425.37	2125.42
425.746	2132.43
426.123	2185.76
426.499	2161.81
426.875	2224.86
427.251	2277.51
427.627	2324.74
428.003	2318.87
428.379	2380.11
428.756	2431.86
429.132	2435.7
429.507	2493.32
429.883	2524.96
430.259	2537.62
430.635	2629.14
431.011	2615.13
431.387	2661.23
431.763	2759.98
432.138	2681.79
432.514	2763.37
432.89	2780.32
433.265	2848.8
433.641	2886.31
434.016	2866.2
434.392	2948.68
434.767	3014.89
435.143	3057.83
435.518	3069.35
435.894	3106.19
436.269	3180.09
436.644	3193.64
437.02	3233.87
437.395	3274.32
437.77	3262.12
438.145	3347.77
438.52	3374.21
438.895	3431.6
439.271	3442
439.646	3506.63
440.021	3546.86
440.395	3551.83
440.77	3550.7
441.145	3627.08
441.52	3661.66
441.895	3660.98
442.27	3651.94
442.645	3721.54
443.019	3749.79
443.394	3754.08
443.769	3806.06
444.143	3801.99
444.518	3936.9
444.892	3899.16
445.267	3904.81
445.641	4001.08
446.016	4004.7
446.39	4031.14
446.764	4071.81
447.139	4099.84
447.513	4170.57
447.887	4122.43
448.262	4197.46
448.636	4207.86
449.01	4222.54
449.384	4342.77
449.758	4345.7
450.132	4350.68
450.506	4418.92
450.88	4486.04
451.254	4505.02
451.628	4540.5
452.002	4598.35
452.376	4622.99
452.75	4739.14
453.123	4784.56
453.497	4827.27
453.871	4850.55
454.244	5007.61
454.618	4989.53
454.992	5082.18
455.365	5088.51
455.739	5269.3
456.112	5306.13
456.486	5313.82
456.859	5403.08
457.232	5483.08
457.606	5462.29
457.979	5551.55
458.352	5700.47
458.725	5804.88
459.099	5809.85
459.472	5954.93
459.845	5958.77
460.218	5959
460.591	6087.58
460.964	6113.12
461.337	6264.75
461.71	6400.34
462.083	6458.87
462.456	6485.99
462.829	6519.66
463.201	6658.19
463.574	6710.39
463.947	6838.29
464.32	7003.94
464.692	7008.01
465.065	7072.86
465.438	7238.06
465.81	7365.96
466.183	7376.81
466.555	7565.06
466.928	7635.11
467.3	7604.15
467.672	7721.89
468.045	7938.6
468.417	7980.86
468.789	8003.69
469.161	8161.42
469.534	8272.61
469.906	8449.1
470.278	8506.5
470.65	8633.73
471.022	8795.76
471.394	8957.11
471.766	9164.79
472.138	9199.36
472.51	9396.87
472.882	9507.83
473.253	9729.07
473.625	9861.04
473.997	10089.28
474.369	10098.1
474.74	10231.43
475.112	10485.88
475.484	10657.86
475.855	10764.52
476.227	10912.99
476.598	11209.03
476.97	11327.44
477.341	11506.19
477.713	11660.99
478.084	11807.88
478.455	12084.48
478.827	12277.25
479.198	12602.21
479.569	12585.49
479.94	12997.23
480.311	13127.39
480.682	13384.56
481.053	13669.3
481.424	14061.61
481.795	14119.01
482.166	14384.99
482.537	14588.37
482.908	14945.43
483.279	15065.2
483.65	15325.08
484.021	15691.17
484.391	15878.96
484.762	16029.24
485.133	16146.3
485.503	16500.64
485.874	16771.59
486.244	16920.29
486.615	17214.29
486.985	17450.67
487.356	17692.47
487.726	17904.9
488.097	18268.05
488.467	18301.95
488.837	18706.91
489.207	18903.51
489.578	19193.22
489.948	19370.85
490.318	19599.32
490.688	19742.14
491.058	20068.91
491.428	20319.97
491.798	20542.79
492.168	20953.18
492.538	21097.13
492.908	21331.47
493.278	21667.28
493.648	21731.69
494.017	22034.51
494.387	22379.36
494.757	22539.12
495.126	22763.53
495.496	22849.4
495.866	23010.07
496.235	23327.58
496.605	23481.7
496.974	23645.76
497.344	23783.39
497.713	24049.14
498.082	24197.39
498.452	24423.14
498.821	24524.38
499.19	24608
499.559	24799.18
499.928	24955.56
500.298	25254.76
500.667	25382.67
501.036	25401.87
501.405	25757.57
501.774	25786.05
502.143	26019.49
502.512	26163.66
502.88	26534.27
503.249	26618.57
503.618	26824.66
503.987	26934.49
504.356	27202.96
504.724	27358.43
505.093	27527.24
505.462	27672.78
505.83	27943.05
506.199	28143.27
506.567	28580.32
506.936	28376.03
507.304	28942.35
507.672	28968.33
508.041	29160.87
508.409	29277.03
508.777	29508.43
509.145	29826.39
509.514	29779.84
509.882	30093.95
510.25	30109.77
510.618	30426.15
510.986	30553.15
511.354	30890.77
511.722	31205.34
512.09	31460.7
512.458	31255.28
512.826	31681.94
513.193	31881.48
513.561	31920.8
513.929	32297.74
514.297	32517.17
514.664	32975.91
515.032	33101.11
515.4	33395.34
515.767	33500.87
516.135	33900.41
516.502	33737.7
516.869	34522.54
517.237	34530
517.604	34663.78
517.972	35105.8
518.339	35188.74
518.706	35431.44
519.073	35553.47
519.44	35786.23
519.808	36206.56
520.175	36225.54
520.542	36678.64
520.909	36842.7
521.276	36880.44
521.643	37261.22
522.009	37345.29
522.376	37771.04
522.743	37970.81
523.11	38345.94
523.477	38651.24
523.843	38932.14
524.21	39299.59
524.577	39463.2
524.943	39632.69
525.31	39883.75
525.676	40340.69
526.043	40560.12
526.409	40937.51
526.776	41303.6
527.142	41431.51
527.508	41838.96
527.874	42253.86
528.241	42349.68
528.607	42428.55
528.973	43019.26
529.339	42974.75
529.705	43351.23
530.071	43730.88
530.437	43871.22
530.803	44166.58
531.169	44433.69
531.535	44441.15
531.901	44534.93
532.267	44612.22
532.632	45007.01
532.998	45080.45
533.364	45231.64
533.73	45385.3
534.095	45765.63
534.461	45772.64
534.826	46206.07
535.192	46221.67
535.557	46564.93
535.923	46442
536.288	46712.27
536.653	46883.12
537.019	46861.42
537.384	47052.38
537.749	47245.59
538.114	47355.42
538.479	47520.84
538.845	47663.44
539.21	47724.9
539.575	47991.56
539.94	48101.84
540.305	48401.95
540.67	48361.27
541.034	48555.16
541.399	48810.75
541.764	49006.23
542.129	49048.71
542.494	49237.63
542.858	49425.65
543.223	49521.47
543.587	49688.69
543.952	49608.7
544.316	49916.71
544.681	49913.32
545.045	49897.05
545.41	50095.24
545.774	50221.56
546.138	50189.02
546.503	50227.66
546.867	50345.63
547.231	50667.42
547.595	50685.96
547.959	50886.4
548.324	50779.74
548.688	50969.56
549.052	51154.87
549.416	51108.54
549.779	51260.63
550.143	51332.49
550.507	51478.7
550.871	51624.01
551.235	51595.54
551.599	51980.16
551.962	52019.03
552.326	52126.82
552.689	52344.89
553.053	52267.16
553.417	52433.93
553.78	52799.57
554.143	52636.41
554.507	52967.7
554.87	53137.42
555.234	53401.36
555.597	53235.72
555.96	53300.58
556.323	53557.29
556.686	53606.56
557.05	53891.97
557.413	54001.12
557.776	54105.3
558.139	54202.02
558.502	54246.31
558.865	54216.48
559.228	54454.22
559.59	54550.71
559.953	54618.73
560.316	54867.54
560.679	54938.27
561.041	54948.67
561.404	55127.42
561.767	55336
562.129	55186.85
562.492	55557.01
562.854	55490.8
563.217	55594.75
563.579	55703.45
563.941	55900.06
564.304	55946.16
564.666	56081.07
565.028	56251.46
565.39	56341.17
565.753	56418.69
566.115	56575.74
566.477	56668.17
566.839	56807.6
567.201	56924.21
567.563	56928.05
567.925	57109.52
568.287	57162.17
568.648	57286.91
569.01	57450.3
569.372	57573.23
569.734	57506.34
570.095	57768.03
570.457	57782.27
570.819	57829.27
571.18	57924.64
571.542	58083.95
571.903	58060.22
572.265	58131.18
572.626	58218.41
572.987	58289.82
573.349	58257.06
573.71	58372.31
574.071	58403.72
574.432	58525.3
574.794	58708.34
575.155	58576.6
575.516	58513.32
575.877	58661.56
576.238	58588.12
576.599	58737.04
576.96	58756.03
577.32	58814.56
577.681	58816.36
578.042	59005.06
578.403	58918.96
578.763	58996.7
579.124	58979.97
579.485	59162.12
579.845	59185.39
580.206	59174.09
580.566	59133.19
580.927	59217.48
581.287	59366.86
581.648	59222.23
582.008	59379.29
582.368	59358.72
582.728	59408.44
583.089	59468.1
583.449	59409.79
583.809	59508.77
584.169	59527.76
584.529	59462.45
584.889	59570.02
585.249	59458.38
585.609	59445.5
585.969	59576.34
586.329	59524.82
586.688	59537.47
587.048	59530.02
587.408	59483.24
587.768	59508.77
588.127	59504.71
588.487	59463.35
588.846	59633.74
589.206	59440.08
589.565	59417.25
589.925	59543.8
590.284	59417.7
590.643	59416.8
591.003	59465.39
591.362	59533.41
591.721	59427.65
592.08	59433.97
592.44	59495.22
592.799	59530.92
593.158	59460.87
593.517	59509.68
593.876	59524.37
594.235	59479.17
594.593	59516.91
594.952	59609.11
595.311	59537.02
595.67	59618.6
596.029	59678.04
596.387	59678.94
596.746	59633.06
597.104	59645.04
597.463	59670.8
597.822	59761.65
598.18	59728.43
598.538	59740.41
598.897	59868.54
599.255	59702.44
599.613	60050
599.972	59900.18
600.33	59993.28
600.688	59885.71
601.046	60004.13
601.404	60052.71
601.762	59988.31
602.12	60160.06
602.478	60149.44
602.836	60171.36
603.194	59964.58
603.552	60047.29
603.91	59951.25
604.268	60000.29
604.625	59947.86
604.983	60081.19
605.341	60006.61
605.698	60076.44
606.056	60020.4
606.413	60007.52
606.771	60096.78
607.128	60045.71
607.485	59960.97
607.843	60002.09
608.2	60124.8
608.557	60167.29
608.914	60118.25
609.272	60193.05
609.629	60238.92
609.986	60332.93
610.343	60256.55
610.7	60390.78
611.057	60356.21
611.414	60323.89
611.771	60416.55
612.127	60506.94
612.484	60480.73
612.841	60626.03
613.198	60458.58
613.554	60541.06
613.911	60680.72
614.267	60626.26
614.624	60630.78
614.98	60716.2
615.337	60866.25
615.693	60847.95
616.05	60814.73
616.406	60921.62
616.762	60821.96
617.118	60892.01
617.475	60935.63
617.831	60983.31
618.187	61018.79
618.543	60987.38
618.899	61089.3
619.255	61007.27
619.611	61007.72
619.967	61082.07
620.323	61103.53
620.678	60971.79
621.034	60930.88
621.39	60896.76
621.746	60901.51
622.101	61105.79
622.457	60867.38
622.812	60932.01
623.168	60985.57
623.523	61000.26
623.879	60972.01
624.234	60808.18
624.589	60885.91
624.945	60870.32
625.3	60843.65
625.655	60854.95
626.01	60816.76
626.365	60758.91
626.72	60749.87
627.075	60748.97
627.43	60765.01
627.785	60735.63
628.14	60798.91
628.495	60742.19
628.85	60819.93
629.205	60698.8
629.559	60836.2
629.914	60709.42
630.269	60735.18
630.623	60683.43
630.978	60691.79
631.332	60740.61
631.687	60814.95
632.041	60781.51
632.396	60823.32
632.75	60673.26
633.104	60782.87
633.459	60626.94
633.813	60659.48
634.167	60624.23
634.521	60594.85
634.875	60657.9
635.229	60579.93
635.583	60496.32
635.937	60544.23
636.291	60491.35
636.645	60494.51
636.999	60426.72
637.352	60442.76
637.706	60386.49
638.06	60382.88
638.413	60265.14
638.767	60189.66
639.121	60231.24
639.474	60072.15
639.828	60096.78
640.181	60060.85
640.534	60099.49
640.888	59921.19
641.241	59795.77
641.594	59844.58
641.947	59879.61
642.301	59757.58
642.654	59708.09
643.007	59719.62
643.36	59706.96
643.713	59582.44
644.066	59675.32
644.419	59496.35
644.771	59249.12
645.124	59125.51
645.477	59146.07
645.83	58843.71
646.182	58739.75
646.535	58734.11
646.888	58714.22
647.24	58592.87
647.593	58707.89
647.945	58695.46
648.298	58568.23
648.65	58544.28
649.002	58457.95
649.355	58630.83
649.707	58567.56
650.059	58674.9
650.411	58973.42
650.763	58949.47
651.115	59212.96
651.467	59228.78
651.819	59208.9
652.171	59131.61
652.523	59175.68
652.875	59068.11
653.227	59049.35
653.578	59222.91
653.93	59100.2
654.282	59021.56
654.633	58936.59
654.985	59001.44
655.337	58972.07
655.688	58924.83
656.039	59031.05
656.391	58860.43
656.742	58794.22
657.094	58830.37
657.445	58890.94
657.796	58826.53
658.147	58795.35
658.498	58706.76
658.849	58756.7
659.2	58636.25
659.551	58565.75
659.902	58709.47
660.253	58561.45
660.604	58565.52
660.955	58380.89
661.306	58425.86
661.656	58265.19
662.007	58268.13
662.358	58266.77
662.708	58238.75
663.059	58275.36
663.409	58020.23
663.76	58160.11
664.11	58149.94
664.461	58193.78
664.811	58205.08
665.161	58087.34
665.511	58096.38
665.862	58061.13
666.212	58094.57
666.562	58169.15
666.912	58004.41
667.262	58081.69
667.612	58118.98
667.962	58191.29
668.312	58084.18
668.662	58200.56
669.011	58149.49
669.361	58157.85
669.711	58146.1
670.06	58074.01
670.41	58173.22
670.76	58052.77
671.109	58143.84
671.459	58138.19
671.808	58078.76
672.157	58154.01
672.507	57893
672.856	57971.19
673.205	57980.23
673.554	58040.79
673.904	57967.8
674.253	58072.65
674.602	57998.76
674.951	57561.71
675.3	57449.85
675.649	57886.22
675.998	57871.76
676.346	57831.53
676.695	57969.38
677.044	57739.1
677.393	57795.82
677.741	57767.58
678.09	57697.52
678.438	57623.17
678.787	57611.42
679.135	57593.34
679.484	57378.66
679.832	57422.95
680.181	57279.68
680.529	57365.78
680.877	57276.52
681.225	57199.46
681.573	57281.04
681.922	57085.34
682.27	56933.25
682.618	57003.53
682.966	56873.14
683.314	56894.83
683.661	56850.09
684.009	56666.82
684.357	56665.69
684.705	56594.5
685.053	56576.2
685.4	56460.27
685.748	56400.38
686.095	56372.81
686.443	56264.11
686.79	56367.61
687.138	56278.35
687.485	56272.48
687.832	56166.26
688.18	56224.79
688.527	56048.3
688.874	56006.49
689.221	55988.41
689.568	55961.97
689.915	55921.75
690.262	55876.1
690.609	55851.47
690.956	55695.77
691.303	55705.94
691.65	55606.05
691.997	55595.88
692.344	55498.94
692.69	55462.78
693.037	55461.88
693.383	55299.62
693.73	55360.41
694.077	55209.45
694.423	55302.33
694.769	55088.78
695.116	55053.3
695.462	55080.42
695.808	54916.35
696.155	54982.11
696.501	54756.81
696.847	54732.18
697.193	54430.72
697.539	54619.41
697.885	54333.32
698.231	54312.53
698.577	54395.91
698.923	54204.05
699.269	54138.29
699.614	53877.06
699.96	53858.08
700.306	53779.43
700.651	53569.04
700.997	53442.27
701.342	53421.25
701.688	53479.55
702.033	53381.25
702.379	53300.8
702.724	53158.66
703.069	53162.95
703.415	52818.33
703.76	52844.54
704.105	52806.35
704.45	52654.72
704.795	52401.84
705.14	52302.41
705.485	52243.43
705.83	52149.42
706.175	52190.1
706.52	52054.28
706.865	51863.33
707.209	51814.29
707.554	51682.09
707.899	51689.09
708.243	51531.58
708.588	51422.43
708.932	51193.51
709.277	51262.44
709.621	51227.18
709.966	51104.93
710.31	51165.72
710.654	50904.48
710.998	50956.68
711.342	50900.87
711.687	50846.63
712.031	50695.22
712.375	50614.54
712.719	50644.15
713.063	50572.74
713.407	50757.82
713.75	50418.84
714.094	50546.3
714.438	50358.05
714.782	50416.13
715.125	50295.01
715.469	50301.33
715.812	50146.76
716.156	49975.92
716.499	50085.75
716.843	50134.11
717.186	49856.37
717.53	50132.52
717.873	49931.85
718.216	49898.41
718.559	49585.65
718.902	49410.28
719.246	49497.51
719.589	49428.59
719.932	49164.19
720.275	49210.51
720.617	49176.62
720.96	48990.86
721.303	49162.83
721.646	49058.43
721.989	48848.26
722.331	48968.26
722.674	48718.78
723.016	48645.78
723.359	48642.85
723.701	48620.7
724.044	48340.93
724.386	48020.94
724.729	48246.25
725.071	48188.85
725.413	48059.58
725.755	47926.48
726.097	47775.52
726.439	47599.26
726.782	47585.25
727.124	47787.95
727.465	47426.83
727.807	47367.4
728.149	47208.53
728.491	47119.5
728.833	47144.81
729.175	46866.39
729.516	46862.78
729.858	46770.13
730.199	46823.91
730.541	46764.48
730.882	46544.82
731.224	46600.41
731.565	46229.58
731.906	46356.35
732.248	46243.13
732.589	46043.82
732.93	46133.31
733.271	45957.94
733.612	46076.36
733.953	46155.45
734.294	45916.59
734.635	45853.09
734.976	45819.19
735.317	45577.16
735.658	45717.72
735.999	45759.76
736.339	45612.19
736.68	45652.19
737.021	45409.94
737.361	45374.68
737.702	45547.79
738.042	45529.48
738.383	45444.96
738.723	45457.62
739.063	45176.04
739.404	45276.15
739.744	45195.48
740.084	45070.51
740.424	44986.22
740.764	44975.6
741.104	45010.4
741.444	44766.79
741.784	44518.89
742.124	44788.48
742.464	44599.56
742.804	44523.18
743.143	44560.01
743.483	44513.01
743.823	44251.77
744.162	44121.83
744.502	44248.38
744.841	44101.72
745.181	44200.93
745.52	44091.78
745.86	43994.61
746.199	43889.3
746.538	43763.43
746.877	43797.1
747.216	43781.05
747.556	43511.45
747.895	43631.68
748.234	43361.4
748.573	43243.21
748.911	43070.34
749.25	43115.53
749.589	43088.19
749.928	42876.22
750.267	42988.98
750.605	42812.26
750.944	42761.64
751.283	42568.2
751.621	42498.6
751.96	42450.24
