Data from aluminium_surface_pro_back_FLMS001491_00038.txt Node
Date: Wed Feb 08 15:33:59 GMT 2017
User: dcchb
Spectrometer: FLMS00149
Trigger mode: 0
Integration Time (sec): 2.000000E-2
Scans to average: 10
Electric dark correction enabled: true
Nonlinearity correction enabled: false
Boxcar width: 0
XAxis mode: Wavelengths
Number of Pixels in Spectrum: 2048
>>>>>Begin Spectral Data<<<<<
341.393	-20.72
341.776	-20.72
342.16	-20.72
342.543	-65.92
342.927	-70.21
343.31	-58.46
343.693	-79.93
344.077	-75.41
344.46	-50.1
344.843	-52.81
345.226	-39.25
345.61	-35.18
345.993	-25.24
346.376	4.14
346.759	3.69
347.142	34.65
347.525	34.19
347.908	62.67
348.291	71.26
348.674	93.63
349.057	112.16
349.44	121.88
349.823	121.2
350.206	152.83
350.588	191.48
350.971	245.71
351.354	240.06
351.737	257.92
352.119	246.62
352.502	315.09
352.884	297.01
353.267	278.26
353.65	298.14
354.032	317.58
354.414	320.74
354.797	323
355.179	332.49
355.562	330.46
355.944	342.21
356.326	372.94
356.709	344.69
357.091	372.04
357.473	363.45
357.855	351.02
358.238	390.34
358.62	363.22
359.002	352.38
359.384	361.19
359.766	380.85
360.148	335.66
360.53	370.46
360.912	346.95
361.294	357.58
361.676	360.06
362.057	346.28
362.439	344.47
362.821	360.06
363.203	352.38
363.584	365.48
363.966	348.54
364.348	351.7
364.729	336.33
365.111	351.25
365.493	379.04
365.874	343.34
366.256	347.41
366.637	342.21
367.019	359.38
367.4	367.74
367.781	361.19
368.163	346.5
368.544	361.87
368.925	363
369.306	375.43
369.688	361.64
370.069	360.06
370.45	369.33
370.831	359.61
371.212	358.71
371.593	379.27
371.974	364.81
372.355	350.34
372.736	377.01
373.117	363.9
373.498	367.74
373.879	368.87
374.26	388.76
374.641	377.01
375.021	367.52
375.402	375.2
375.783	370.91
376.163	401.19
376.544	380.17
376.925	395.31
377.305	398.48
377.686	384.92
378.066	399.61
378.447	398.25
378.827	413.62
379.208	412.72
379.588	425.6
379.968	439.61
380.349	436.22
380.729	412.26
381.109	433.28
381.489	426.5
381.87	430.34
382.25	440.51
382.63	457.69
383.01	443
383.39	468.08
383.77	432.83
384.15	438.93
384.53	464.69
384.91	479.38
385.29	473.96
385.67	459.49
386.049	458.36
386.429	485.48
386.809	489.55
387.189	481.87
387.568	488.87
387.948	490
388.328	497.68
388.707	500.62
389.087	537.46
389.466	533.16
389.846	512.6
390.225	527.29
390.605	533.62
390.984	553.05
391.363	532.71
391.743	549.43
392.122	557.57
392.501	588.76
392.881	568.19
393.26	584.69
393.639	569.55
394.018	604.35
394.397	598.92
394.776	600.73
395.155	614.29
395.534	595.99
395.913	624.23
396.292	604.12
396.671	622.2
397.05	633.95
397.429	631.24
397.808	628.3
398.186	654.97
398.565	665.36
398.944	683.22
399.323	668.08
399.701	696.32
400.08	675.99
400.458	688.19
400.837	689.09
401.215	711.46
401.594	732.03
401.972	708.75
402.351	746.49
402.729	727.28
403.107	762.76
403.486	777.68
403.864	773.84
404.242	794.85
404.62	793.27
404.999	795.3
405.377	800.05
405.755	801.18
406.133	845.25
406.511	852.03
406.889	878.24
407.267	855.64
407.645	854.06
408.023	904
408.401	884.34
408.779	883.21
409.156	890.67
409.534	924.79
409.912	946.71
410.29	954.17
410.667	930.22
411.045	960.05
411.422	980.38
411.8	1009.99
412.178	1024.45
412.555	1023.55
412.933	1052.7
413.31	1049.08
413.687	1075.3
414.065	1090.66
414.442	1055.86
414.819	1093.6
415.197	1110.55
415.574	1109.87
415.951	1156.2
416.328	1146.48
416.705	1162.98
417.082	1181.06
417.46	1210.43
417.837	1211.34
418.214	1209.53
418.591	1188.74
418.967	1229.19
419.344	1247.04
419.721	1251.79
420.098	1267.38
420.475	1276.42
420.852	1292.24
421.228	1317.55
421.605	1317.1
421.982	1336.53
422.358	1341.73
422.735	1377.89
423.111	1379.47
423.488	1394.16
423.864	1389.41
424.241	1429.64
424.617	1427.83
424.994	1440.94
425.37	1481.84
425.746	1470.31
426.123	1494.95
426.499	1512.12
426.875	1522.06
427.251	1543.08
427.627	1573.59
428.003	1612.23
428.379	1653.36
428.756	1622.85
429.132	1676.41
429.507	1722.29
429.883	1718.67
430.259	1725
430.635	1769.97
431.011	1753.24
431.387	1789.63
431.763	1832.56
432.138	1863.52
432.514	1851.55
432.89	1882.96
433.265	1930.19
433.641	1939.45
434.016	1945.56
434.392	1965.67
434.767	2016.51
435.143	2059.68
435.518	2052.9
435.894	2074.82
436.269	2116.17
436.644	2139
437.02	2163.86
437.395	2134.93
437.77	2202.05
438.145	2241.14
438.52	2263.97
438.895	2264.87
439.271	2282.95
439.646	2308.94
440.021	2337.18
440.395	2361.36
440.77	2377.18
441.145	2347.13
441.52	2439.33
441.895	2422.15
442.27	2443.4
442.645	2470.97
443.019	2486.78
443.394	2487.69
443.769	2510.06
444.143	2519.1
444.518	2540.34
444.892	2560
445.267	2593.67
445.641	2612.43
446.016	2654.92
446.39	2632.09
446.764	2628.25
447.139	2682.71
447.513	2700.56
447.887	2731.3
448.262	2760
448.636	2762.94
449.01	2807
449.384	2830.96
449.758	2842.03
450.132	2864.63
450.506	2898.75
450.88	2904.63
451.254	2896.94
451.628	2968.35
452.002	3032.76
452.376	3024.17
452.75	3095.13
453.123	3094.23
453.497	3126.99
453.871	3166.09
454.244	3216.03
454.618	3244.05
454.992	3297.84
455.365	3356.37
455.739	3411.05
456.112	3412.64
456.486	3452.41
456.859	3488.11
457.232	3548
457.606	3554.55
457.979	3613.31
458.352	3653.76
458.725	3707.77
459.099	3728.33
459.472	3817.82
459.845	3860.08
460.218	3895.56
460.591	3975.11
460.964	3958.38
461.337	4043.58
461.71	4131.49
462.083	4162.45
462.456	4174.88
462.829	4204.03
463.201	4305.04
463.574	4281.99
463.947	4364.25
464.32	4489.67
464.692	4464.59
465.065	4528.31
465.438	4615.54
465.81	4670.46
466.183	4744.58
466.555	4836.33
466.928	4830.45
467.3	4888.53
467.672	4918.59
468.045	5040.16
468.417	5121.97
468.789	5119.71
469.161	5197.22
469.534	5324.68
469.906	5435.18
470.278	5419.59
470.65	5477.44
471.022	5561.05
471.394	5695.74
471.766	5714.5
472.138	5784.33
472.51	5952.91
472.882	5996.52
473.253	6110.42
473.625	6161.26
473.997	6267.93
474.369	6409.39
474.74	6395.38
475.112	6530.75
475.484	6658.88
475.855	6755.83
476.227	6818.2
476.598	7016.84
476.97	7075.36
477.341	7279.43
477.713	7428.12
478.084	7438.29
478.455	7625.86
478.827	7652.98
479.198	7963.7
479.569	7939.97
479.94	8159.4
480.311	8220.19
480.682	8438.04
481.053	8635.55
481.424	8722.1
481.795	8835.77
482.166	8978.82
482.537	9100.4
482.908	9289.54
483.279	9387.85
483.65	9513.27
484.021	9727.72
484.391	9919.13
484.762	9974.27
485.133	10056.53
485.503	10254.26
485.874	10508.04
486.244	10547.36
486.615	10795.27
486.985	10858.54
487.356	11121.59
487.726	11147.12
488.097	11407.68
488.467	11434.35
488.837	11696.26
489.207	11850.15
489.578	12028.68
489.948	12112.97
490.318	12308.45
490.688	12364.27
491.058	12499.4
491.428	12686.97
491.798	12856.23
492.168	13163.11
492.538	13130.12
492.908	13301.19
493.278	13494.41
493.648	13469.09
494.017	13719.71
494.387	13844
494.757	13956.99
495.126	14069.31
495.496	14215.29
495.866	14263.65
496.235	14522.4
496.605	14542.74
496.974	14668.39
497.344	14871.77
497.713	14849.62
498.082	15043.06
498.452	15129.39
498.821	15350.63
499.19	15359.89
499.559	15540.45
499.928	15644.41
500.298	15804.4
500.667	15902.93
501.036	15873.1
501.405	16025.19
501.774	16151.28
502.143	16287.33
502.512	16383.37
502.88	16507.21
503.249	16566.41
503.618	16658.16
503.987	16791.49
504.356	17008.44
504.724	17101.99
505.093	17244.81
505.462	17331.82
505.83	17497.24
506.199	17597.12
506.567	17826.27
506.936	17755.08
507.304	18021.97
507.672	18104.91
508.041	18274.62
508.409	18421.73
508.777	18633.48
509.145	18691.33
509.514	18756.64
509.882	18912.12
510.25	18984.43
510.618	19198.21
510.986	19221.71
511.354	19387.58
511.722	19552.32
512.09	19681.59
512.458	19662.15
512.826	19945.99
513.193	19999.77
513.561	20065.53
513.929	20300.55
514.297	20399.99
514.664	20746.42
515.032	20778.28
515.4	20982.8
515.767	21006.98
516.135	21184.15
516.502	21101.44
516.869	21654.64
517.237	21686.05
517.604	21651.25
517.972	21937.57
518.339	22070
518.706	22176.44
519.073	22407.84
519.44	22557.44
519.808	22843.76
520.175	22876.31
520.542	23302.96
520.909	23277.88
521.276	23424.77
521.643	23568.26
522.009	23783.4
522.376	23947.01
522.743	24174.8
523.11	24446.66
523.477	24583.38
523.843	24785.86
524.21	25009.36
524.577	25184.95
524.943	25312.63
525.31	25498.61
525.676	25817.7
526.043	25942.21
526.409	26021.99
526.776	26443.9
527.142	26373.16
527.508	26689.54
527.874	26852.7
528.241	27089.53
528.607	27092.24
528.973	27313.7
529.339	27284.78
529.705	27693.13
530.071	27950.97
530.437	28068.03
530.803	28283.85
531.169	28440.45
531.535	28334.92
531.901	28565.87
532.267	28760.67
532.632	28977.61
532.998	29123.82
533.364	29310.94
533.73	29298.06
534.095	29563.36
534.461	29670.93
534.826	29909.34
535.192	30006.06
535.557	30236.79
535.923	30296.22
536.288	30411.25
536.653	30527.4
537.019	30678.81
537.384	30695.08
537.749	30819.15
538.114	31035.41
538.479	31037.22
538.845	31259.59
539.21	31305.69
539.575	31361.05
539.94	31574.61
540.305	31699.12
540.67	31683.53
541.034	31814.83
541.399	31915.16
541.764	32119.68
542.129	32219.34
542.494	32267.24
542.858	32419.11
543.223	32542.04
543.587	32755.59
543.952	32716.27
544.316	32859.77
544.681	32935.02
545.045	33144.06
545.41	33367.55
545.774	33454.11
546.138	33460.21
546.503	33575.46
546.867	33527.32
547.231	33883.7
547.595	33917.82
547.959	33998.5
548.324	34022.23
548.688	34134.77
549.052	34363.01
549.416	34458.6
549.779	34488.88
550.143	34518.71
550.507	34864.01
550.871	35023.33
551.235	34965.25
551.599	35168.41
551.962	35346.49
552.326	35420.83
552.689	35575.41
553.053	35569.76
553.417	35666.93
553.78	36110.31
554.143	35969.75
554.507	36336.97
554.87	36340.58
555.234	36818.31
555.597	36590.75
555.96	36894.02
556.323	36957.29
556.686	37134.24
557.05	37429.14
557.413	37471.18
557.776	37629.82
558.139	37835.01
558.502	37880.43
558.865	38086.3
559.228	38429.57
559.59	38404.03
559.953	38410.59
560.316	38887.41
560.679	38861.42
561.041	39164.01
561.404	39331.01
561.767	39520.39
562.129	39479.48
562.492	39851.23
562.854	39843.09
563.217	40041.96
563.579	40123.31
563.941	40381.38
564.304	40567.59
564.666	40987.47
565.028	41069.5
565.39	41127.35
565.753	41420.45
566.115	41563.95
566.477	41793.77
566.839	41784.96
567.201	42215.91
567.563	42318.51
567.925	42374.1
568.287	42576.8
568.648	42750.81
569.01	43032.39
569.372	43279.38
569.734	43230.35
570.095	43515.08
570.457	43807.96
570.819	43944
571.18	43935.19
571.542	44292.92
571.903	44384.67
572.265	44596.19
572.626	44725.45
572.987	44779.01
573.349	45036.63
573.71	45192.33
574.071	45169.28
574.432	45566.78
574.794	45821.24
575.155	45658.53
575.516	45581.92
575.877	45957.73
576.238	45929.71
576.599	46121.8
576.96	46166.09
577.32	46184.62
577.681	46493.54
578.042	46544.16
578.403	46466.19
578.763	46567.66
579.124	46630.71
579.485	46888.56
579.845	47028.21
580.206	46939.4
580.566	46962.68
580.927	46981.43
581.287	47185.72
581.648	47006.97
582.008	47326.28
582.368	47260.52
582.728	47356.11
583.089	47390.46
583.449	47315.89
583.809	47383.01
584.169	47550.68
584.529	47493.51
584.889	47685.82
585.249	47497.8
585.609	47461.87
585.969	47756.1
586.329	47575.09
586.688	47761.75
587.048	47598.82
587.408	47492.16
587.768	47677.24
588.127	47592.27
588.487	47542.55
588.846	47752.94
589.206	47696.67
589.565	47604.92
589.925	47860.28
590.284	47613.28
590.643	47744.35
591.003	47747.74
591.362	47953.61
591.721	47829.32
592.08	47851.02
592.44	47923.1
592.799	47915.87
593.158	47895.99
593.517	47855.76
593.876	47891.24
594.235	47885.59
594.593	47829.32
594.952	48117.45
595.311	47898.02
595.67	48057.34
596.029	48222.08
596.387	48191.8
596.746	48189.09
597.104	48179.37
597.463	48151.35
597.822	48140.73
598.18	48026.38
598.538	48047.62
598.897	48241.29
599.255	48038.81
599.613	48487.61
599.972	48249.65
600.33	48528.96
600.688	48113.61
601.046	48364.9
601.404	48579.81
601.762	48391.11
602.12	48615.97
602.478	48569.19
602.836	48606.25
603.194	48655.51
603.552	48657.77
603.91	48577.32
604.268	48732.12
604.625	48562.86
604.983	48820.48
605.341	48625.23
605.698	48896.19
606.056	48808.28
606.413	48759.01
606.771	48964.66
607.128	48946.13
607.485	48769.86
607.843	48816.41
608.2	49030.19
608.557	49088.05
608.914	48974.38
609.272	49227.7
609.629	49246.91
609.986	49270.19
610.343	49078.55
610.7	49330.52
611.057	49273.35
611.414	49212.11
611.771	49199
612.127	49414.82
612.484	49428.6
612.841	49669.95
613.198	49411.2
613.554	49540.46
613.911	49807.35
614.267	49743.17
614.624	49841.47
614.98	49831.3
615.337	49940.23
615.693	49997.63
616.05	49896.84
616.406	50191.07
616.762	50006.44
617.118	49952.88
617.475	49960.34
617.831	50090.96
618.187	50140.45
618.543	50091.63
618.899	50332.98
619.255	50175.93
619.611	50205.98
619.967	50365.98
620.323	50362.36
620.678	50294.57
621.034	50158.98
621.39	50151.07
621.746	50213.21
622.101	50596.25
622.457	50196.49
622.812	50356.49
623.168	50379.08
623.523	50377.05
623.879	50407.56
624.234	50190.16
624.589	50303.38
624.945	50409.37
625.3	50349.48
625.655	50351.06
626.01	50321.69
626.365	50326.43
626.72	50271.74
627.075	50362.59
627.43	50239.43
627.785	50224.06
628.14	50259.99
628.495	50314.45
628.85	50329.37
629.205	50152.88
629.559	50310.39
629.914	50142.93
630.269	50259.54
630.623	50083.05
630.978	50160.56
631.332	50223.83
631.687	50243.04
632.041	50007.57
632.396	50065.87
632.75	50037.4
633.104	49883.96
633.459	49833.34
633.813	49803.28
634.167	49840.79
634.521	49779.1
634.875	49674.24
635.229	49739.78
635.583	49534.14
635.937	49654.58
636.291	49489.16
636.645	49633.79
636.999	49424.99
637.352	49553.34
637.706	49347.02
638.06	49476.51
638.413	49365.33
638.767	49360.35
639.121	49417.75
639.474	48998.33
639.828	49056.41
640.181	48970.99
640.534	49154.26
640.888	48830.43
641.241	48718.34
641.594	48701.39
641.947	48802.86
642.301	48614.16
642.654	48512.69
643.007	48635.63
643.36	48492.58
643.713	48529.87
644.066	48546.59
644.419	48309.76
644.771	47996.32
645.124	47612.6
645.477	47587.52
645.83	47373.97
646.182	47298.04
646.535	47030.7
646.888	47167.87
647.24	46903.47
647.593	47125.61
647.945	46876.13
648.298	46748.9
648.65	46767.43
649.002	46588.9
649.355	46820.76
649.707	46670.71
650.059	46805.62
650.411	47235.44
650.763	47282.22
651.115	47632.04
651.467	47508.2
651.819	47486.96
652.171	47393.17
652.523	47288.32
652.875	47294.19
653.227	47145.27
653.578	47421.87
653.93	47255.55
654.282	47135.78
654.633	47046.29
654.985	47198.15
655.337	47041.77
655.688	47022.56
656.039	47066.63
656.391	46939.4
656.742	46838.61
657.094	46860.08
657.445	47011.49
657.796	46823.25
658.147	46755.9
658.498	46709.58
658.849	46807.88
659.2	46798.84
659.551	46647.21
659.902	46642.91
660.253	46720.2
660.604	46677.26
660.955	46489.7
661.306	46619.41
661.656	46562.91
662.007	46579.86
662.358	46421.22
662.708	46512.52
663.059	46450.6
663.409	46046.32
663.76	46521.11
664.11	46515.46
664.461	46496.7
664.811	46599.3
665.161	46336.93
665.511	46281.11
665.862	46435.01
666.212	46604.72
666.562	46408.12
666.912	46433.43
667.262	46276.59
667.612	46286.09
667.962	46347.1
668.312	46171.96
668.662	46495.8
669.011	46170.38
669.361	46040.67
669.711	46144.85
670.06	46100.55
670.41	46041.8
670.76	45961.12
671.109	46063.94
671.459	46001.35
671.808	45968.13
672.157	46021.91
672.507	45821.46
672.856	45853.55
673.205	45920.9
673.554	46081.12
673.904	45795.48
674.253	46088.12
674.602	45831.18
674.951	45343.29
675.3	45156.17
675.649	45760
675.998	45553.22
676.346	45608.59
676.695	45798.87
677.044	45513
677.393	45426.22
677.741	45539.21
678.09	45361.59
678.438	45249.5
678.787	45446.33
679.135	45354.81
679.484	45045.67
679.832	45264.19
680.181	44913.92
680.529	45135.61
680.877	44917.76
681.225	44868.5
681.573	45131.54
681.922	44787.82
682.27	44662.17
682.618	44805.67
682.966	44624.66
683.314	44750.08
683.661	44508.28
684.009	44297.44
684.357	44184.45
684.705	44116.2
685.053	44112.36
685.4	43972.7
685.748	43899.26
686.095	43865.81
686.443	43615.65
686.79	43663.78
687.138	43669.66
687.485	43712.14
687.832	43436.22
688.18	43472.15
688.527	43146.96
688.874	43301.08
689.221	43200.06
689.568	43097.24
689.915	43049.33
690.262	42853.86
690.609	42803.69
690.956	42700.87
691.303	42704.26
691.65	42609.8
691.997	42560.31
692.344	42130.04
692.69	42256.59
693.037	42175.23
693.383	41958.97
693.73	42073.99
694.077	41817.5
694.423	41868.57
694.769	41572.08
695.116	41669.94
695.462	41651.86
695.808	41582.93
696.155	41533.89
696.501	41185.65
696.847	41209.61
697.193	40926.68
697.539	41066.34
697.885	40680.81
698.231	40592
698.577	40644.2
698.923	40381.61
699.269	40262.74
699.614	40166.92
699.96	40028.4
700.306	40074.95
700.651	39911.56
700.997	39752.25
701.342	39704.11
701.688	39684.9
702.033	39377.34
702.379	39280.39
702.724	39298.92
703.069	39207.63
703.415	38874.3
703.76	38888.77
704.105	38848.77
704.45	38700.75
704.795	38508.44
705.14	38444.48
705.485	38471.6
705.83	38157.71
706.175	38326.97
706.52	38164.26
706.865	38049.24
707.209	37952.75
707.554	37832.3
707.899	37921.79
708.243	37567.22
708.588	37615.13
708.932	37502.36
709.277	37404.74
709.621	37435.02
709.966	37215.36
710.31	37183.05
710.654	37032.32
710.998	37016.05
711.342	37025.99
711.687	36923.62
712.031	36880.23
712.375	36545.1
712.719	36613.8
713.063	36633.46
713.407	36627.13
713.75	36485.66
714.094	36466.68
714.438	36328.83
714.782	36262.39
715.125	35986.02
715.469	36054.94
715.812	35889.07
716.156	35717.1
716.499	35788.28
716.843	35692.24
717.186	35684.56
717.53	35703.76
717.873	35702.63
718.216	35637.78
718.559	35450.21
718.902	35104.23
719.246	35235.75
719.589	35198.69
719.932	34968.42
720.275	35125.93
720.617	34988.3
720.96	34928.87
721.303	34899.94
721.646	34932.26
721.989	34656.56
722.331	34768.65
722.674	34687.97
723.016	34565.72
723.359	34491.14
723.701	34407.53
724.044	34180.64
724.386	34026.75
724.729	34178.83
725.071	34015.67
725.413	33963.7
725.755	33969.8
726.097	33722.8
726.439	33642.8
726.782	33673.76
727.124	33724.38
727.465	33522.8
727.807	33417.72
728.149	33401.68
728.491	33417.05
728.833	33355.8
729.175	33299.31
729.516	33163.94
729.858	33229.48
730.199	33171.63
730.541	33051.63
730.882	32915.59
731.224	33212.76
731.565	32916.95
731.906	32833.56
732.248	32745.2
732.589	32657.07
732.93	32563.73
733.271	32563.28
733.612	32653
733.953	32621.81
734.294	32363.29
734.635	32301.59
734.976	32452.55
735.317	32250.97
735.658	32250.3
735.999	32240.8
736.339	32037.87
736.68	32077.87
737.021	32009.4
737.361	31800.82
737.702	31984.31
738.042	31861.38
738.383	31782.29
738.723	31879.68
739.063	31749.52
739.404	31674.72
739.744	31711.78
740.084	31665
740.424	31495.51
740.764	31587.04
741.104	31558.34
741.444	31400.37
741.784	31242.64
742.124	31292.81
742.464	31207.39
742.804	31166.71
743.143	31060.95
743.483	31179.82
743.823	30975.53
744.162	30834.06
744.502	30938.24
744.841	30853.04
745.181	31011.01
745.52	30858.47
745.86	30801.29
746.199	30635.65
746.538	30645.14
746.877	30624.58
747.216	30597.23
747.556	30484.47
747.895	30660.06
748.234	30323.57
748.573	30251.25
748.911	30171.03
749.25	30248.09
749.589	30046.74
749.928	30151.37
750.267	30237.24
750.605	29860.3
750.944	29858.04
751.283	29708.44
751.621	29728.78
751.96	29622.34
752.298	29619.86
752.636	29528.33
752.975	29385.51
753.313	29246.31
753.651	29395.91
