Data from aluminium_surface_pro_back_FLMS001491_00013.txt Node
Date: Wed Feb 08 15:33:41 GMT 2017
User: dcchb
Spectrometer: FLMS00149
Trigger mode: 0
Integration Time (sec): 2.000000E-2
Scans to average: 10
Electric dark correction enabled: true
Nonlinearity correction enabled: false
Boxcar width: 0
XAxis mode: Wavelengths
Number of Pixels in Spectrum: 2048
>>>>>Begin Spectral Data<<<<<
341.393	-7.23
341.776	-7.23
342.16	-7.23
342.543	-60.56
342.927	-57.63
343.31	-68.25
343.693	-62.15
344.077	-63.05
344.46	-58.3
344.843	-46.33
345.226	-48.13
345.61	-40.45
345.993	-4.75
346.376	-16.95
346.759	12.2
347.142	23.95
347.525	29.15
347.908	62.6
348.291	79.32
348.674	97.4
349.057	103.73
349.44	110.51
349.823	145.53
350.206	163.61
350.588	197.96
350.971	207.23
351.354	241.12
351.737	244.51
352.119	253.1
352.502	281.35
352.884	295.81
353.267	319.77
353.65	330.16
354.032	330.84
354.414	322.03
354.797	328.8
355.179	354.34
355.562	352.99
355.944	339.65
356.326	348.01
356.709	357.96
357.091	348.69
357.473	353.66
357.855	375.36
358.238	368.35
358.62	393.21
359.002	378.75
359.384	347.56
359.766	368.35
360.148	375.81
360.53	374.23
360.912	374.45
361.294	366.09
361.676	367
362.057	355.02
362.439	365.19
362.821	368.13
363.203	367.67
363.584	366.77
363.966	362.02
364.348	395.24
364.729	370.84
365.111	367.67
365.493	357.73
365.874	357.96
366.256	360.22
366.637	365.64
367.019	349.37
367.4	355.24
367.781	372.65
368.163	361.35
368.544	365.64
368.925	366.77
369.306	364.28
369.688	392.31
370.069	354.57
370.45	368.58
370.831	378.07
371.212	385.53
371.593	394.34
371.974	392.31
372.355	374.68
372.736	363.61
373.117	347.34
373.498	356.15
373.879	361.8
374.26	376.04
374.641	381.46
375.021	381.01
375.402	397.96
375.783	394.79
376.163	409.93
376.544	411.74
376.925	389.37
377.305	401.12
377.686	404.51
378.066	416.49
378.447	409.71
378.827	419.42
379.208	420.33
379.588	413.1
379.968	451.74
380.349	429.82
380.729	444.06
381.109	421.01
381.489	440.67
381.87	439.54
382.25	444.96
382.63	446.09
383.01	455.81
383.39	457.84
383.77	452.87
384.15	467.78
384.53	457.62
384.91	464.17
385.29	493.32
385.67	490.83
386.049	493.32
386.429	477.95
386.809	485.64
387.189	523.15
387.568	508.01
387.948	507.11
388.328	512.98
388.707	515.92
389.087	536.94
389.466	522.25
389.846	524.05
390.225	542.58
390.605	568.8
390.984	544.39
391.363	561.57
391.743	559.53
392.122	564.28
392.501	580.32
392.881	594.79
393.26	600.44
393.639	600.21
394.018	610.15
394.397	606.54
394.776	607.67
395.155	622.81
395.534	633.43
395.913	643.15
396.292	660.77
396.671	645.41
397.05	668.91
397.429	650.6
397.808	687.89
398.186	674.56
398.565	672.52
398.944	689.47
399.323	711.17
399.701	720.21
400.08	729.47
400.458	727.89
400.837	752.97
401.215	710.72
401.594	762.69
401.972	755.01
402.351	735.12
402.729	779.19
403.107	772.41
403.486	775.8
403.864	794.56
404.242	818.51
404.62	810.6
404.999	820.32
405.377	833.65
405.755	850.6
406.133	839.07
406.511	860.99
406.889	874.55
407.267	867.32
407.645	881.56
408.023	899.41
408.401	916.59
408.779	927.66
409.156	955.46
409.534	953.2
409.912	948.9
410.29	996.58
410.667	1013.53
411.045	1007.88
411.422	1026.87
411.8	1035.23
412.178	1072.29
412.555	1083.59
412.933	1058.73
413.31	1086.75
413.687	1113.64
414.065	1110.03
414.442	1123.59
414.819	1163.81
415.197	1156.81
415.574	1142.12
415.951	1162.91
416.328	1162.23
416.705	1180.76
417.082	1184.38
417.46	1240.87
417.837	1217.82
418.214	1260.31
418.591	1258.05
418.967	1263.7
419.344	1293.07
419.721	1305.95
420.098	1314.09
420.475	1326.52
420.852	1334.65
421.228	1371.94
421.605	1367.87
421.982	1406.52
422.358	1388.44
422.735	1434.09
423.111	1399.51
423.488	1479.28
423.864	1453.3
424.241	1475.89
424.617	1510.69
424.994	1510.02
425.37	1533.07
425.746	1504.37
426.123	1553.18
426.499	1572.16
426.875	1593.86
427.251	1594.08
427.627	1651.03
428.003	1649
428.379	1656.45
428.756	1664.36
429.132	1734.64
429.507	1738.49
429.883	1776.22
430.259	1774.64
430.635	1801.53
431.011	1797.92
431.387	1887.41
431.763	1900.74
432.138	1917.24
432.514	1983
432.89	1933.06
433.265	1961.08
433.641	2003.11
434.016	2015.54
434.392	2107.06
434.767	2116.55
435.143	2106.39
435.518	2137.34
435.894	2152.71
436.269	2174.63
436.644	2181.41
437.02	2246.27
437.395	2246.27
437.77	2284.23
438.145	2329.88
438.52	2322.2
438.895	2325.81
439.271	2389.77
439.646	2413.95
440.021	2418.47
440.395	2440.39
440.77	2432.48
441.145	2482.19
441.52	2533.49
441.895	2515.64
442.27	2546.83
442.645	2548.41
443.019	2601.29
443.394	2562.87
443.769	2636.54
444.143	2615.3
444.518	2665.47
444.892	2663.43
445.267	2704.34
445.641	2719.02
446.016	2733.94
446.39	2757.22
446.764	2759.02
447.139	2770.77
447.513	2808.97
447.887	2797.89
448.262	2869.76
448.636	2847.16
449.01	2919.92
449.384	2927.15
449.758	2945.23
450.132	2988.62
450.506	3001.73
450.88	3014.38
451.254	3043.08
451.628	3105.91
452.002	3099.81
452.376	3178.45
452.75	3192.46
453.123	3180.03
453.497	3246.69
453.871	3287.15
454.244	3349.29
454.618	3370.98
454.992	3400.14
455.365	3454.37
455.739	3521.72
456.112	3541.38
456.486	3511.09
456.859	3620.7
457.232	3680.58
457.606	3660.69
457.979	3756.06
458.352	3814.36
458.725	3845.1
459.099	3855.04
459.472	3970.97
459.845	4028.37
460.218	4026.33
460.591	4072.66
460.964	4087.58
461.337	4205.09
461.71	4250.06
462.083	4334.8
462.456	4353.33
462.829	4382.94
463.201	4475.14
463.574	4486.21
463.947	4529.6
464.32	4615.02
464.692	4658.86
465.065	4727.33
465.438	4817.73
465.81	4851.17
466.183	4882.13
466.555	5003.03
466.928	5051.39
467.3	5058.17
467.672	5186.76
468.045	5218.39
468.417	5271.05
468.789	5303.14
469.161	5367.77
469.534	5466.52
469.906	5653.18
470.278	5614.09
470.65	5698.16
471.022	5847.76
471.394	5914.87
471.766	5992.84
472.138	6027.41
472.51	6179.72
472.882	6254.07
473.253	6313.96
473.625	6423.33
473.997	6520.05
474.369	6586.04
474.74	6749.88
475.112	6824.91
475.484	6965.69
475.855	7071.45
476.227	7118
476.598	7350.54
476.97	7427.6
477.341	7580.82
477.713	7646.35
478.084	7787.37
478.455	7941.26
478.827	8034.14
479.198	8310.29
479.569	8304.41
479.94	8500.34
480.311	8619.43
480.682	8774.23
481.053	9036.82
481.424	9163.83
481.795	9218.06
482.166	9326.76
482.537	9467.1
482.908	9712.74
483.279	9728.56
483.65	9964.71
484.021	10172.84
484.391	10304.81
484.762	10437.69
485.133	10554.52
485.503	10670.23
485.874	10889.21
486.244	10933.27
486.615	11233.15
486.985	11362.19
487.356	11522.63
487.726	11684.21
488.097	11899.35
488.467	11906.35
488.837	12114.03
489.207	12346.12
489.578	12568.71
489.948	12659.33
490.318	12800.57
490.688	12804.86
491.058	13041.01
491.428	13272.19
491.798	13441.23
492.168	13724.16
492.538	13727.77
492.908	13938.16
493.278	14096.35
493.648	14116.24
494.017	14417.47
494.387	14538.15
494.757	14667.64
495.126	14791.93
495.496	14876.67
495.866	14898.37
496.235	15133.16
496.605	15236.89
496.974	15439.82
497.344	15539.48
497.713	15578.8
498.082	15733.82
498.452	15966.13
498.821	16050.65
499.19	16139.24
499.559	16239.12
499.928	16361.83
500.298	16516.63
500.667	16767.24
501.036	16767.92
501.405	16969.5
501.774	17049.04
502.143	17117.29
502.512	17103.73
502.88	17345.31
503.249	17376.27
503.618	17531.52
503.987	17645.64
504.356	17784.17
504.724	17891.73
505.093	17922.01
505.462	17989.81
505.83	18223.7
506.199	18344.83
506.567	18561.09
506.936	18547.53
507.304	18825.04
507.672	18881.54
508.041	18961.31
508.409	19071.36
508.777	19330.57
509.145	19400.17
509.514	19491.69
509.882	19671.8
510.25	19821.63
510.618	19991.11
510.986	19964.67
511.354	20221.16
511.722	20399.46
512.09	20638.55
512.458	20586.58
512.826	20814.59
513.193	20872.67
513.561	21007.13
513.929	21162.83
514.297	21431.75
514.664	21528.7
515.032	21619.77
515.4	21942.02
515.767	22012.75
516.135	22069.93
516.502	22058.86
516.869	22582.91
517.237	22639.63
517.604	22665.84
517.972	22920.3
518.339	23069.68
518.706	23149.9
519.073	23289.56
519.44	23562.09
519.808	23735.87
520.175	23816.55
520.542	24177.9
520.909	24275.07
521.276	24337.67
521.643	24605
522.009	24856.3
522.376	24951.43
522.743	25128.15
523.11	25376.73
523.477	25718.87
523.843	25806.1
524.21	26204.73
524.577	26207.67
524.943	26411.51
525.31	26590.49
525.676	26829.35
526.043	27008.56
526.409	27229.11
526.776	27548.43
527.142	27607.18
527.508	27842.43
527.874	28097.34
528.241	28357.9
528.607	28312.93
528.973	28630.43
529.339	28654.84
529.705	28963.08
530.071	29289.4
530.437	29386.12
530.803	29596.96
531.169	29696.39
531.535	29749.95
531.901	29904.07
532.267	30102.94
532.632	30212.54
532.998	30357.62
533.364	30582.7
533.73	30655.01
534.095	30861.34
534.461	31108.56
534.826	31142.46
535.192	31339.29
535.557	31631.03
535.923	31602.78
536.288	31690.24
536.653	31823.12
537.019	31897.47
537.384	32120.96
537.749	32174.97
538.114	32339.26
538.479	32405.7
538.845	32696.09
539.21	32513.95
539.575	32678.24
539.94	32725.92
540.305	32949.19
540.67	32928.4
541.034	33044.55
541.399	33241.16
541.764	33362.51
542.129	33445.45
542.494	33618.1
542.858	33778.55
543.223	33809.28
543.587	33959.56
543.952	34030.29
544.316	34247.69
544.681	34153.45
545.045	34406.55
545.41	34530.39
545.774	34539.2
546.138	34644.96
546.503	34676.83
546.867	34761.35
547.231	35112.75
547.595	35235.01
547.959	35283.37
548.324	35415.34
548.688	35485.17
549.052	35625.5
549.416	35687.42
549.779	35779.85
550.143	35971.71
550.507	36284.02
550.871	36372.38
551.235	36370.34
551.599	36634.07
551.962	36591.81
552.326	36856.21
552.689	37079.48
553.053	36952.7
553.417	37041.29
553.78	37360.83
554.143	37326.48
554.507	37474.04
554.87	37698.9
555.234	38145.66
555.597	37881.26
555.96	38077.87
556.323	38274.25
556.686	38445.54
557.05	38756.27
557.413	38719.66
557.776	38820
558.139	39069.48
558.502	39275.13
558.865	39359.19
559.228	39578.39
559.59	39791.04
559.953	39807.77
560.316	40239.17
560.679	40287.75
561.041	40492.04
561.404	40816.55
561.767	40817.91
562.129	40807.74
562.492	41460.6
562.854	41344.68
563.217	41366.14
563.579	41693.14
563.941	41843.42
564.304	42032.79
564.666	42271.88
565.028	42358.43
565.39	42388.94
565.753	42710.29
566.115	42841.59
566.477	42979.43
566.839	43054.01
567.201	43528.57
567.563	43461.91
567.925	43769.7
568.287	43873.87
568.648	43889.69
569.01	44189.35
569.372	44446.29
569.734	44427.53
570.095	44688.99
570.457	44913.4
570.819	45179.83
571.18	45107.97
571.542	45412.14
571.903	45486.26
572.265	45594.51
572.626	45640.83
572.987	45844.67
573.349	46077.21
573.71	46288.27
574.071	46307.26
574.432	46452.56
574.794	46715.61
575.155	46723.97
575.516	46745.44
575.877	46857.07
576.238	46970.74
576.599	47146.33
576.96	47146.33
577.32	47133.22
577.681	47366.66
578.042	47523.72
578.403	47572.08
578.763	47582.03
579.124	47652.76
579.485	47852.3
579.845	48013.43
580.206	47897.95
580.566	48034.22
580.927	48043.26
581.287	48303.59
581.648	48052.52
582.008	48282.57
582.368	48288
582.728	48244.61
583.089	48355.11
583.449	48320.76
583.809	48435.11
584.169	48487.99
584.529	48361.44
584.889	48624.94
585.249	48509.91
585.609	48339.07
585.969	48635.33
586.329	48516.92
586.688	48617.93
587.048	48555.56
587.408	48448.22
587.768	48461.1
588.127	48485.5
588.487	48482.34
588.846	48709
589.206	48536.58
589.565	48553.75
589.925	48595.33
590.284	48630.59
590.643	48646.18
591.003	48842.11
591.362	48803.24
591.721	48812.28
592.08	48769.57
592.44	48824.25
592.799	48772.73
593.158	48776.12
593.517	48786.06
593.876	48740.64
594.235	48717.36
594.593	48872.16
594.952	48890.01
595.311	48712.17
595.67	48795.33
596.029	49073.74
596.387	48998.94
596.746	48909
597.104	48871.71
597.463	48994.19
597.822	49173.85
598.18	49021.76
598.538	49057.69
598.897	49166.84
599.255	48841.88
599.613	49466.72
599.972	49214.98
600.33	49369.55
600.688	49145.37
601.046	49272.38
601.404	49417.46
601.762	49405.48
602.12	49698.81
602.478	49690.9
602.836	49671.01
603.194	49501.52
603.552	49595.31
603.91	49525.93
604.268	49721.18
604.625	49639.37
604.983	49794.17
605.341	49675.98
605.698	49948.29
606.056	49968.63
606.413	49938.57
606.771	50049.31
607.128	50160.71
607.485	49958.69
607.843	50046.14
608.2	50180.83
608.557	50327.94
608.914	50135.86
609.272	50340.15
609.629	50361.61
609.986	50452.01
610.343	50284.55
610.7	50602.51
611.057	50476.86
611.414	50291.11
611.771	50396.19
612.127	50591.89
612.484	50587.6
612.841	50688.38
613.198	50591.89
613.554	50634.6
613.911	50799.79
614.267	50803.41
614.624	50649.52
614.98	50766.35
615.337	50964.08
615.693	50953.46
616.05	50944.2
616.406	51076.85
616.762	50893.58
617.118	50946.46
617.475	50895.84
617.831	51083.85
618.187	50976.96
618.543	51004.53
618.899	51320.91
619.255	51269.16
619.611	51180.58
619.967	51330.18
620.323	51366.11
620.678	51136.73
621.034	51182.16
621.39	51193
621.746	51216.28
622.101	51467.8
622.457	51198.88
622.812	51315.49
623.168	51402.04
623.523	51376.28
623.879	51454.92
624.234	51294.47
624.589	51342.83
624.945	51414.47
625.3	51417.86
625.655	51416.73
626.01	51374.47
626.365	51468.03
626.72	51400.23
627.075	51364.98
627.43	51442.72
627.785	51309.84
628.14	51364.98
628.495	51364.3
628.85	51281.36
629.205	51128.37
629.559	51287.92
629.914	51224.19
630.269	51240.01
630.623	51095.15
630.978	51041.37
631.332	51262.83
631.687	51194.59
632.041	51140.58
632.396	51085.44
632.75	51078.88
633.104	51225.09
633.459	50987.13
633.813	50988.04
634.167	50864.88
634.521	50933.35
634.875	50936.74
635.229	50910.98
635.583	50674.6
635.937	50687.71
636.291	50703.75
636.645	50690.87
636.999	50536.52
637.352	50711.21
637.706	50515.73
638.06	50620.36
638.413	50573.13
638.767	50328.17
639.121	50395.06
639.474	50205.01
639.828	50268.06
640.181	50215.63
640.534	50294.5
640.888	50215.85
641.241	50096.31
641.594	50046.37
641.947	50130.89
642.301	49994.84
642.654	50082.3
643.007	50001.62
643.36	49976.54
643.713	49847.5
644.066	50008.63
644.419	49810.89
644.771	49522.77
645.124	49195.54
645.477	49093.4
645.83	48863.35
646.182	48768.89
646.535	48677.36
646.888	48809.56
647.24	48445.28
647.593	48804.37
647.945	48593.3
648.298	48327.09
648.65	48279.86
649.002	48279.18
649.355	48414.77
649.707	48201.9
650.059	48382
650.411	48855.66
650.763	48810.24
651.115	49200.06
651.467	49026.51
651.819	48959.62
652.171	48921.65
652.523	48845.72
652.875	48871.26
653.227	48744.03
653.578	49095.88
653.93	48742.45
654.282	48606.63
654.633	48456.8
654.985	48583.81
655.337	48617.25
655.688	48539.74
656.039	48662.22
656.391	48283.02
656.742	48358.73
657.094	48392.17
657.445	48529.35
657.796	48383.36
658.147	48283.48
658.498	48312.18
658.849	48326.19
659.2	48225.4
659.551	48142.91
659.902	48324.38
660.253	48212.29
660.604	48383.36
660.955	48038.74
661.306	48203.48
661.656	48127.32
662.007	48165.74
662.358	48019.3
662.708	47997.61
663.059	47972.07
663.409	47815.24
663.76	48198.51
664.11	47964.39
664.461	48015.01
664.811	48052.07
665.161	48027.89
665.511	47920.1
665.862	47873.09
666.212	48075.57
666.562	47983.37
666.912	47835.58
667.262	47819.76
667.612	47695.24
667.962	47705.64
668.312	47624.74
668.662	47855.69
669.011	47669.26
669.361	47498.86
669.711	47549.71
670.06	47413.89
670.41	47408.24
670.76	47342.03
671.109	47464.51
671.459	47417.51
671.808	47396.95
672.157	47425.42
672.507	47048.93
672.856	47120.57
673.205	47127.57
673.554	47277.17
673.904	47186.1
674.253	47302.94
674.602	47240.57
674.951	46636.29
675.3	46417.31
675.649	47125.54
675.998	47049.16
676.346	47034.92
676.695	47092.55
677.044	46766.23
677.393	46907.02
677.741	47000.12
678.09	46810.52
678.438	46721.94
678.787	46898.43
679.135	46778.88
679.484	46653.69
679.832	46773.01
680.181	46640.58
680.529	46713.35
680.877	46329.86
681.225	46484.43
681.573	46624.99
681.922	46340.7
682.27	46204.66
682.618	46251.44
682.966	46174.15
683.314	46190.42
683.661	45959.02
684.009	45694.17
684.357	45753.15
684.705	45736.88
685.053	45674.51
685.4	45645.81
685.748	45498.24
686.095	45425.7
686.443	45367.62
686.79	45207.17
687.138	45416.43
687.485	45236.32
687.832	45179.15
688.18	45027.29
688.527	44868.88
688.874	45049.66
689.221	44846.28
689.568	44742.55
689.915	44555.89
690.262	44439.96
690.609	44343.24
690.956	44277.71
691.303	44295.11
691.65	44093.53
691.997	44016.92
692.344	43677.5
692.69	43812.63
693.037	43720.43
693.383	43401.12
693.73	43427.56
694.077	43204.74
694.423	43094.23
694.769	43065.53
695.116	43073.67
695.462	43079.32
695.808	42784.64
696.155	42891.3
696.501	42548.94
696.847	42578.32
697.193	42362.73
697.539	42413.35
697.885	42190.3
698.231	41950.54
698.577	41919.35
698.923	41917.54
699.269	41834.38
699.614	41543.54
699.96	41582.18
700.306	41428.97
700.651	41245.24
700.997	41156.43
701.342	41144.45
701.688	41038.24
702.033	40960.05
702.379	40824.01
702.724	40771.13
703.069	40939.71
703.415	40498.82
703.76	40474.42
704.105	40511.03
704.45	40265.16
704.795	40165.27
705.14	39881.66
705.485	40045.05
705.83	39748.33
706.175	39925.05
706.52	39730.93
706.865	39659.75
707.209	39564.16
707.554	39485.29
707.899	39403.94
708.243	39297.72
708.588	39196.03
708.932	39064.28
709.277	38905.87
709.621	38934.57
709.966	38657.29
710.31	38727.34
710.654	38455.26
710.998	38414.81
711.342	38481.25
711.687	38396.28
712.031	38187.7
712.375	38072.45
712.719	38281.03
713.063	38075.61
713.407	38063.63
713.75	37907.93
714.094	37935.95
714.438	37752.91
714.782	37847.59
715.125	37629.75
715.469	37663.87
715.812	37477.43
716.156	37257.1
716.499	37254.16
716.843	37399.47
717.186	37012.36
717.53	37216.2
717.873	37041.96
718.216	37075.64
718.559	36756.55
718.902	36550.9
719.246	36811.69
719.589	36609.21
719.932	36552.71
720.275	36487.85
720.617	36367.18
720.96	36227.3
721.303	36283.34
721.646	36401.98
721.989	35924.48
722.331	36144.13
722.674	35965.61
723.016	36035.44
723.359	35901.2
723.701	35893.29
724.044	35696.69
724.386	35465.73
724.729	35733.3
725.071	35512.51
725.413	35522.46
725.755	35450.59
726.097	35155.91
726.439	35078.85
726.782	35069.13
727.124	35178.06
727.465	34883.38
727.807	34950.04
728.149	34965.41
728.491	34689.48
728.833	34872.76
729.175	34677.73
729.516	34642.93
729.858	34527.68
730.199	34537.4
730.541	34390.51
730.882	34331.75
731.224	34327.91
731.565	34071.42
731.906	34163.17
732.248	34182.38
732.589	33956.17
732.93	33838.66
733.271	33852.22
733.612	34087.47
733.953	34060.57
734.294	33814.48
734.635	33721.83
734.976	33728.38
735.317	33553.47
735.658	33692.67
735.999	33583.98
736.339	33394.6
736.68	33683.18
737.021	33407.26
737.361	33353.25
737.702	33565.22
738.042	33481.15
738.383	33283.19
738.723	33312.12
739.063	33126.59
739.404	33033.93
739.744	33108.06
740.084	32815.18
740.424	32866.25
740.764	32760.27
741.104	32895.86
741.444	32738.8
741.784	32637.33
742.124	32681.85
742.464	32649.76
742.804	32454.29
743.143	32415.42
743.483	32482.31
743.823	32395.08
744.162	32210.45
744.502	32344.69
744.841	32167.29
745.181	32338.36
745.52	32181.3
745.86	32059.95
746.199	31984.02
746.538	31969.33
746.877	32024.47
747.216	31925.04
747.556	31888.65
747.895	31857.92
748.234	31721.2
748.573	31515.56
748.911	31627.42
749.25	31501.77
749.589	31337.03
749.928	31447.99
750.267	31499.96
750.605	31285.51
750.944	31231.27
751.283	31168.67
751.621	31079.86
751.96	30946.53
752.298	30974.33
752.636	30965.29
