Data from aluminium_surface_pro_back_FLMS001491_00073.txt Node
Date: Wed Feb 08 15:34:31 GMT 2017
User: dcchb
Spectrometer: FLMS00149
Trigger mode: 0
Integration Time (sec): 2.000000E-2
Scans to average: 10
Electric dark correction enabled: true
Nonlinearity correction enabled: false
Boxcar width: 0
XAxis mode: Wavelengths
Number of Pixels in Spectrum: 2048
>>>>>Begin Spectral Data<<<<<
341.393	-21.27
341.776	-21.27
342.16	-21.27
342.543	-61.5
342.927	-68.73
343.31	-55.62
343.693	-78.22
344.077	-62.17
344.46	-56.07
344.843	-63.98
345.226	-37.99
345.61	-21.04
345.993	-18.56
346.376	5.17
346.759	4.72
347.142	12.63
347.525	27.99
347.908	40.2
348.291	68.9
348.674	99.4
349.057	134.66
349.44	104.83
349.823	136.47
350.206	176.92
350.588	217.14
350.971	244.94
351.354	258.95
351.737	268.21
352.119	289.23
352.502	269.57
352.884	316.35
353.267	290.81
353.65	311.6
354.032	320.19
354.414	324.71
354.797	336.91
355.179	333.52
355.562	356.57
355.944	364.93
356.326	350.02
356.709	369.45
357.091	363.8
357.473	344.82
357.855	360.87
358.238	392.73
358.62	366.74
359.002	359.51
359.384	342.56
359.766	366.74
360.148	373.75
360.53	360.64
360.912	378.94
361.294	367.19
361.676	384.82
362.057	361.54
362.439	373.97
362.821	378.72
363.203	388.21
363.584	390.24
363.966	360.41
364.348	354.31
364.729	385.72
365.111	350.47
365.493	362.22
365.874	367.65
366.256	371.04
366.637	371.94
367.019	379.85
367.4	365.16
367.781	389.11
368.163	359.28
368.544	349.57
368.925	359.74
369.306	365.16
369.688	376.23
370.069	374.88
370.45	368.55
370.831	391.83
371.212	369
371.593	388.21
371.974	385.5
372.355	394.76
372.736	374.65
373.117	388.66
373.498	367.87
373.879	378.94
374.26	387.76
374.641	387.08
375.021	381.2
375.402	404.48
375.783	418.94
376.163	408.1
376.544	402.45
376.925	414.65
377.305	394.09
377.686	417.14
378.066	410.36
378.447	415.1
378.827	441.77
379.208	425.95
379.588	417.59
379.968	449.45
380.349	444.71
380.729	444.25
381.109	437.93
381.489	448.77
381.87	445.38
382.25	450.36
382.63	459.17
383.01	470.69
383.39	468.66
383.77	474.08
384.15	464.82
384.53	492.84
384.91	468.89
385.29	495.55
385.67	483.57
386.049	491.48
386.429	521.31
386.809	508.21
387.189	534.42
387.568	526.74
387.948	518.15
388.328	517.92
388.707	528.09
389.087	537.81
389.466	567.87
389.846	548.66
390.225	554.76
390.605	570.13
390.984	572.61
391.363	554.53
391.743	604.93
392.122	592.5
392.501	601.54
392.881	622.1
393.26	599.96
393.639	609.67
394.018	632.05
394.397	623.23
394.776	620.07
395.155	656.9
395.534	646.28
395.913	660.29
396.292	662.55
396.671	671.82
397.05	656.23
397.429	671.37
397.808	695.77
398.186	717.92
398.565	704.36
398.944	696.9
399.323	720.4
399.701	726.51
400.08	752.49
400.458	753.4
400.837	753.85
401.215	767.86
401.594	759.5
401.972	766.05
402.351	793.17
402.729	793.85
403.107	810.8
403.486	797.24
403.864	803.57
404.242	818.03
404.62	824.58
404.999	841.31
405.377	885.82
405.755	860.74
406.133	882.21
406.511	879.72
406.889	908.42
407.267	918.14
407.645	922.66
408.023	952.72
408.401	943.22
408.779	968.53
409.156	993.62
409.534	992.94
409.912	989.1
410.29	994.75
410.667	1018.7
411.045	1055.76
411.422	1057.57
411.8	1094.63
412.178	1089.89
412.555	1133.5
412.933	1126.5
413.31	1127.4
413.687	1166.04
414.065	1136.21
414.442	1164.01
414.819	1190.67
415.197	1191.13
415.574	1197.45
415.951	1226.15
416.328	1227.51
416.705	1270.22
417.082	1252.14
417.46	1278.36
417.837	1279.49
418.214	1302.31
418.591	1296.43
418.967	1331.91
419.344	1350.67
419.721	1361.74
420.098	1375.75
420.475	1328.98
420.852	1406.94
421.228	1423.89
421.605	1426.83
421.982	1434.06
422.358	1470.89
422.735	1464.79
423.111	1504.79
423.488	1510.67
423.864	1501.85
424.241	1542.3
424.617	1542.3
424.994	1557.44
425.37	1585.24
425.746	1566.71
426.123	1607.39
426.499	1638.35
426.875	1655.52
427.251	1690.77
427.627	1697.1
428.003	1754.28
428.379	1767.16
428.756	1774.84
429.132	1785.24
429.507	1808.06
429.883	1815.74
430.259	1860.26
430.635	1855.29
431.011	1905.01
431.387	1954.04
431.763	2001.28
432.138	1984.55
432.514	1995.85
432.89	1996.76
433.265	2063.65
433.641	2119.69
434.016	2120.14
434.392	2150.65
434.767	2191.78
435.143	2197.65
435.518	2205.79
435.894	2210.99
436.269	2265
436.644	2289.63
437.02	2314.94
437.395	2335.5
437.77	2352.68
438.145	2396.52
438.52	2407.59
438.895	2435.84
439.271	2476.06
439.646	2490.08
440.021	2521.94
440.395	2559.9
440.77	2529.4
441.145	2567.59
441.52	2602.84
441.895	2565.78
442.27	2636.29
442.645	2647.36
443.019	2658.66
443.394	2695.72
443.769	2708.15
444.143	2726.91
444.518	2782.72
444.892	2727.36
445.267	2778.2
445.641	2831.08
446.016	2843.06
446.39	2843.96
446.764	2856.62
447.139	2864.08
447.513	2914.7
447.887	2960.57
448.262	2923.51
448.636	2935.26
449.01	3034.47
449.384	3021.81
449.758	3035.37
450.132	3113.34
450.506	3096.39
450.88	3099.33
451.254	3122.83
451.628	3163.05
452.002	3233.11
452.376	3228.36
452.75	3240.79
453.123	3276.95
453.497	3361.92
453.871	3399.66
454.244	3447.56
454.618	3435.14
454.992	3531.86
455.365	3561.23
455.739	3636.71
456.112	3645.98
456.486	3662.93
456.859	3716.26
457.232	3816.59
457.606	3788.12
457.979	3820.21
458.352	3949.92
458.725	3998.51
459.099	3993.77
459.472	4125.06
459.845	4118.51
460.218	4110.6
460.591	4191.27
460.964	4274.66
461.337	4356.92
461.71	4406.41
462.083	4434.43
462.456	4455.67
462.829	4476.24
463.201	4563.69
463.574	4622.9
463.947	4669.68
464.32	4787.87
464.692	4770.92
465.065	4821.09
465.438	4960.97
465.81	4937.7
466.183	5001.42
466.555	5109.89
466.928	5175.65
467.3	5146.5
467.672	5226.73
468.045	5405.71
468.417	5472.14
468.789	5450
469.161	5529.54
469.534	5654.06
469.906	5764.34
470.278	5794.85
470.65	5905.58
471.022	5980.15
471.394	6085.24
471.766	6118.23
472.138	6192.35
472.51	6393.93
472.882	6458.78
473.253	6551.66
473.625	6576.52
473.997	6762.73
474.369	6793.47
474.74	6873.69
475.112	7030.07
475.484	7141.48
475.855	7238.43
476.227	7312.77
476.598	7530.4
476.97	7600.22
477.341	7713.22
477.713	7894.23
478.084	7920.89
478.455	8198.63
478.827	8242.24
479.198	8482.69
479.569	8458.73
479.94	8703.25
480.311	8816.24
480.682	9015.33
481.053	9223.91
481.424	9296.45
481.795	9421.64
482.166	9614.41
482.537	9706.84
482.908	9836.32
483.279	10035.64
483.65	10246.48
484.021	10419.58
484.391	10542.29
484.762	10642.63
485.133	10764.21
485.503	10858.44
485.874	11196.51
486.244	11229.73
486.615	11542.72
486.985	11566.67
487.356	11847.34
487.726	11924.4
488.097	12145.64
488.467	12281.68
488.837	12475.35
489.207	12586.31
489.578	12763.7
489.948	12895.9
490.318	13188.78
490.688	13257.93
491.058	13374.76
491.428	13605.94
491.798	13765.03
492.168	14030.11
492.538	14063.78
492.908	14228.07
493.278	14417.9
493.648	14470.33
494.017	14744.67
494.387	14778.79
494.757	14919.35
495.126	15045.45
495.496	15202.51
495.866	15310.53
496.235	15445.44
496.605	15673.68
496.974	15750.97
497.344	15896.5
497.713	16026.44
498.082	16030.06
498.452	16302.37
498.821	16427.79
499.19	16467.11
499.559	16592.08
499.928	16799.98
500.298	16855.57
500.667	17095.12
501.036	17074.55
501.405	17314.77
501.774	17385.05
502.143	17509.12
502.512	17573.07
502.88	17801.31
503.249	17794.98
503.618	18012.83
503.987	18031.36
504.356	18295.99
504.724	18237.46
505.093	18388.87
505.462	18485.36
505.83	18656.43
506.199	18909.08
506.567	19114.95
506.936	19151.11
507.304	19278.56
507.672	19425.45
508.041	19459.57
508.409	19691.43
508.777	19893.69
509.145	19911.54
509.514	19989.5
509.882	20157.86
510.25	20185.88
510.618	20312.43
510.986	20586.1
511.354	20821.8
511.722	20846.88
512.09	21197.61
512.458	21209.13
512.826	21320.99
513.193	21502.23
513.561	21622.45
513.929	21766.63
514.297	21977.7
514.664	22121.42
515.032	22268.54
515.4	22532.49
515.767	22708.98
516.135	22894.06
516.502	22833.04
516.869	23150.1
517.237	23363.88
517.604	23302.64
517.972	23615.4
518.339	23766.58
518.706	23896.97
519.073	24063.29
519.44	24242.05
519.808	24425.32
520.175	24514.58
520.542	24822.82
520.909	25042.03
521.276	25024.4
521.643	25324.73
522.009	25470.94
522.376	25717.26
522.743	25957.26
523.11	26202.45
523.477	26455.55
523.843	26613.06
524.21	26818.7
524.577	27102.08
524.943	27184.79
525.31	27273.15
525.676	27596.99
526.043	27864.32
526.409	27917.43
526.776	28293.47
527.142	28457.53
527.508	28664.08
527.874	28782.04
528.241	28827.46
528.607	29034.24
528.973	29286.21
529.339	29292.76
529.705	29685.29
530.071	29800.32
530.437	29902.91
530.803	30200.08
531.169	30265.62
531.535	30402.56
531.901	30470.13
532.267	30652.95
532.632	30936.33
532.998	31007.52
533.364	31318.7
533.73	31452.25
534.095	31516.21
534.461	31707.39
534.826	31951.67
535.192	31908.51
535.557	32358.44
535.923	32196.64
536.288	32411.55
536.653	32542.39
537.019	32637.53
537.384	32914.59
537.749	32921.82
538.114	33041.59
538.479	33203.62
538.845	33443.16
539.21	33411.3
539.575	33582.14
539.94	33684.28
540.305	33923.15
540.67	33821.91
541.034	34015.8
541.399	34164.05
541.764	34250.6
542.129	34341.89
542.494	34470.03
542.858	34578.95
543.223	34710.02
543.587	34870.24
543.952	34875.89
544.316	35107.3
544.681	35001.99
545.045	35296.44
545.41	35500.51
545.774	35536.44
546.138	35477.46
546.503	35628.64
546.867	35651.24
547.231	36100.27
547.595	36142.07
547.959	36310.2
548.324	36313.82
548.688	36543.87
549.052	36599.46
549.416	36697.76
549.779	36729.63
550.143	36886.91
550.507	37002.84
550.871	37182.95
551.235	37168.94
551.599	37551.3
551.962	37594.92
552.326	37746.78
552.689	38001.91
553.053	37796.27
553.417	37848.02
553.78	38608
554.143	38336.36
554.507	38540.2
554.87	38680.54
555.234	39029
555.597	38880.76
555.96	39123.01
556.323	39296.34
556.686	39376.56
557.05	39607.07
557.413	39810.22
557.776	39836.21
558.139	40038.69
558.502	40121.4
558.865	40440.49
559.228	40670.54
559.59	40715.06
559.953	40926.13
560.316	41379.9
560.679	41409.05
561.041	41602.72
561.404	41831.19
561.767	41941.02
562.129	41887.23
562.492	42329.93
562.854	42261.23
563.217	42493.54
563.579	42735.35
563.941	42848.56
564.304	43166.97
564.666	43499.84
565.028	43474.53
565.39	43726.73
565.753	43929.21
566.115	44031.81
566.477	44323.1
566.839	44437.22
567.201	44869.75
567.563	44919.24
567.925	45153.36
568.287	45037.21
568.648	45279.46
569.01	45378.21
569.372	45797.41
569.734	45650.75
570.095	46037.41
570.457	46147.23
570.819	46391.29
571.18	46438.75
571.542	46700.66
571.903	46764.17
572.265	46864.28
572.626	46965.74
572.987	47188.79
573.349	47361.21
573.71	47440.53
574.071	47661.09
574.432	47673.07
574.794	48059.73
575.155	47877.13
575.516	47893.4
575.877	48176.11
576.238	48152.6
576.599	48336.33
576.96	48337.01
577.32	48481.86
577.681	48583.33
578.042	48701.29
578.403	48747.62
578.763	48803.43
579.124	49027.84
579.485	49113.93
579.845	49329.75
580.206	49267.15
580.566	49188.06
580.927	49343.99
581.287	49568.61
581.648	49348.5
582.008	49647.03
582.368	49533.13
582.728	49576.52
583.089	49567.48
583.449	49482.74
583.809	49572.23
584.169	49788.27
584.529	49639.34
584.889	49916.4
585.249	49733.13
585.609	49693.81
585.969	49818.32
586.329	49736.52
586.688	49878.43
587.048	49886.34
587.408	49891.77
587.768	49828.04
588.127	49826.68
588.487	49862.62
588.846	50055.38
589.206	49789.85
589.565	49843.63
589.925	50101.03
590.284	49919.79
590.643	49935.16
591.003	50035.72
591.362	50189.61
591.721	50056.28
592.08	50161.14
592.44	50193.68
592.799	50198.65
593.158	50134.25
593.517	50103.74
593.876	50186.22
594.235	50234.36
594.593	50325.65
594.952	50305.32
595.311	50271.87
595.67	50283.62
596.029	50530.62
596.387	50573.78
596.746	50568.13
597.104	50360.46
597.463	50353
597.822	50476.84
598.18	50329.72
598.538	50486.55
598.897	50676.83
599.255	50281.14
599.613	50851.52
599.972	50603.16
600.33	50729.94
600.688	50605.19
601.046	50844.51
601.404	50909.37
601.762	50781.69
602.12	50956.6
602.478	50950.5
602.836	50898.29
603.194	50839.76
603.552	50886.77
603.91	50760.9
604.268	50967.67
604.625	50905.98
604.983	51080.89
605.341	50902.81
605.698	51123.15
606.056	51202.24
606.413	51099.42
606.771	51194.33
607.128	51336.25
607.485	51108.46
607.843	51042.25
608.2	51350.49
608.557	51438.62
608.914	51283.14
609.272	51472.06
609.629	51523.81
609.986	51577.82
610.343	51464.38
610.7	51649.69
611.057	51559.07
611.414	51524.04
611.771	51569.69
612.127	51660.99
612.484	51643.59
612.841	51677.71
613.198	51641.33
613.554	51698.73
613.911	51678.84
614.267	51842.22
614.624	51763.81
614.98	51755.22
615.337	51845.84
615.693	51939.62
616.05	51826.63
616.406	52072.5
616.762	51905.05
617.118	52045.61
617.475	51954.54
617.831	52098.04
618.187	51956.57
618.543	52090.13
618.899	52275.89
619.255	52095.33
619.611	52281.08
619.967	52330.12
620.323	52420.51
620.678	52179.84
621.034	52149.79
621.39	52222.33
621.746	52122.22
622.101	52562.88
622.457	52279.73
622.812	52356.11
623.168	52453.28
623.523	52435.66
623.879	52588.87
624.234	52339.16
624.589	52435.43
624.945	52375.77
625.3	52469.55
625.655	52379.61
626.01	52342.1
626.365	52455.09
626.72	52327.41
627.075	52347.52
627.43	52307.52
627.785	52210.58
628.14	52289.9
628.495	52355.21
628.85	52296
629.205	52216.23
629.559	52401.53
629.914	52190.24
630.269	52324.47
630.623	52138.04
630.978	52079.73
631.332	52321.76
631.687	52354.75
632.041	52182.33
632.396	52346.84
632.75	52080.18
633.104	52151.14
633.459	52072.05
633.813	52049
634.167	51979.17
634.521	51994.76
634.875	52009
635.229	51875.9
635.583	51723.58
635.937	51796.8
636.291	51617.82
636.645	51691.27
636.999	51651.95
637.352	51718.61
637.706	51496.02
638.06	51671.16
638.413	51515
638.767	51423.48
639.121	51588.22
639.474	51264.84
639.828	51339.64
640.181	51339.86
640.534	51321.33
640.888	51196.37
641.241	51024.62
641.594	51079.76
641.947	51193.43
642.301	51016.94
642.654	51198.85
643.007	51118.85
643.36	51050.83
643.713	51048.8
644.066	50986.65
644.419	50996.37
644.771	50623.5
645.124	50319.1
645.477	50146.45
645.83	50049.5
646.182	49910.75
646.535	49757.53
646.888	49860.58
647.24	49675.73
647.593	49907.59
647.945	49772.9
648.298	49501.95
648.65	49377.2
649.002	49327.71
649.355	49470.08
649.707	49306.92
650.059	49392.12
650.411	49878.66
650.763	49950.75
651.115	50175.83
651.467	50075.04
651.819	50101.03
652.171	49920.69
652.523	49977.87
652.875	49906
653.227	49912.11
653.578	50069.62
653.93	49964.53
654.282	49737.65
654.633	49702.62
654.985	49863.52
655.337	49722.05
655.688	49779.91
656.039	49915.27
656.391	49522.06
656.742	49571.55
657.094	49528.84
657.445	49603.41
657.796	49493.13
658.147	49427.82
658.498	49348.96
658.849	49366.36
659.2	49302.86
659.551	49319.13
659.902	49372.91
660.253	49278.68
660.604	49289.3
660.955	49117.32
661.306	49235.74
661.656	49275.29
662.007	49252.46
662.358	49227.15
662.708	49180.37
663.059	49064.22
663.409	48946.93
663.76	49301.95
664.11	49130.21
664.461	49195.97
664.811	49046.37
665.161	49165.68
665.511	49061.05
665.862	49168.62
666.212	49122.3
666.562	49116.65
666.912	49029.42
667.262	48881.4
667.612	48718.92
667.962	48839.14
668.312	48824
668.662	49107.61
669.011	48860.61
669.361	48805.92
669.711	48889.99
670.06	48746.71
670.41	48642.31
670.76	48542.2
671.109	48709.2
671.459	48772.02
671.808	48621.97
672.157	48692.48
672.507	48356.44
672.856	48544.01
673.205	48511.01
673.554	48595.98
673.904	48329.1
674.253	48566.38
674.602	48497.23
674.951	47880.75
675.3	47793.52
675.649	48334.97
675.998	48311.02
676.346	48147.41
676.695	48232.15
677.044	47906.96
677.393	48094.75
677.741	48180.4
678.09	48001.42
678.438	47911.71
678.787	47993.74
679.135	47874.42
679.484	47691.6
679.832	47774.99
680.181	47611.6
680.529	47754.42
680.877	47558.27
681.225	47564.82
681.573	47733.63
681.922	47416.8
682.27	47321.44
682.618	47327.54
682.966	47250.25
683.314	47363.25
683.661	47144.49
684.009	47001.22
684.357	46926.42
684.705	46908.57
685.053	46835.12
685.4	46763.26
685.748	46469.26
686.095	46514
686.443	46339.54
686.79	46241.47
687.138	46388.81
687.485	46377.06
687.832	46106.56
688.18	46199.43
688.527	46013.45
688.874	45932.55
689.221	45912.89
689.568	45898.88
689.915	45646.46
690.262	45692.56
690.609	45476.52
690.956	45441.26
691.303	45472.67
691.65	45227.26
691.997	45195.85
692.344	44767.61
692.69	44890.32
693.037	44858.91
693.383	44568.74
693.73	44653.03
694.077	44350.67
694.423	44250.11
694.769	44288.07
695.116	44185.02
695.462	44146.83
695.808	43975.76
696.155	43933.51
696.501	43561.31
696.847	43795.43
697.193	43439.96
697.539	43510.24
697.885	43327.87
698.231	43143.02
698.577	43184.37
698.923	43084.71
699.269	42879.52
699.614	42756.36
699.96	42725.63
700.306	42641.79
700.651	42448.8
700.997	42289.03
701.342	42366.77
701.688	42218.75
702.033	42061.24
702.379	41977.4
702.724	41731.98
703.069	41762.26
703.415	41488.15
703.76	41406.11
704.105	41344.2
704.45	41255.38
704.795	41145.1
705.14	40934.04
705.485	40915.28
705.83	40734.27
706.175	40802.06
706.52	40572.46
706.865	40529.98
707.209	40379.02
707.554	40187.62
707.899	40427.38
708.243	40209.31
708.588	40126.83
708.932	39852.26
709.277	39810.9
709.621	39706.05
709.966	39520.06
710.31	39637.8
710.654	39173.41
710.998	39390.8
711.342	39374.76
711.687	39199.84
712.031	39082.79
712.375	39031.04
712.719	39050.92
713.063	38936.58
713.407	38929.57
713.75	38742.46
714.094	38833.53
714.438	38563.03
714.782	38572.52
715.125	38335.91
715.469	38464.5
715.812	38366.19
716.156	38146.54
716.499	38086.88
716.843	38132.08
717.186	37892.31
717.53	38004.4
717.873	38079.87
718.216	37850.95
718.559	37642.37
718.902	37368.03
719.246	37589.27
719.589	37321.7
719.932	37273.34
720.275	37237.64
720.617	37174.81
720.96	37145.89
721.303	37095.27
721.646	37072.44
721.989	36975.27
722.331	37070.18
722.674	36863.64
723.016	36857.31
723.359	36700.25
723.701	36835.61
724.044	36459.35
724.386	36458.67
724.729	36730.98
725.071	36500.03
725.413	36367.15
725.755	36460.71
726.097	36182.07
726.439	36176.65
726.782	36159.47
727.124	36251
727.465	36133.48
727.807	35972.36
728.149	35945.69
728.491	35828.18
728.833	35857.56
729.175	35650.33
729.516	35522.88
729.858	35608.3
730.199	35693.04
730.541	35495.99
730.882	35423.9
731.224	35491.92
731.565	35268.42
731.906	35256.22
732.248	35379.61
732.589	35184.13
732.93	34930.35
733.271	34904.36
733.612	34930.8
733.953	34943.46
734.294	34709.34
734.635	34611.27
734.976	34675.9
735.317	34562.68
735.658	34408.33
735.999	34394.32
736.339	34330.37
736.68	34365.4
737.021	34349.58
737.361	34175.12
737.702	34301.67
738.042	34170.15
738.383	34018.06
738.723	34101.67
739.063	33962.24
739.404	33835.92
739.744	33731.29
740.084	33741.68
740.424	33647.45
740.764	33439.32
741.104	33719.54
741.444	33507.34
741.784	33368.81
742.124	33568.35
742.464	33315.71
742.804	33299.66
743.143	33257.4
743.483	33279.55
743.823	32974.02
744.162	33065.32
744.502	32988.03
744.841	32910.07
745.181	32986.22
745.52	32857.86
745.86	33014.02
746.199	32863.06
746.538	32647.7
746.877	32710.52
747.216	32686.34
747.556	32477.31
747.895	32451.55
748.234	32341.27
748.573	32228.73
748.911	32280.7
749.25	32300.14
749.589	32054.95
749.928	32023.54
750.267	32105.79
750.605	31894.27
750.944	32003.65
751.283	31551.91
751.621	31822.41
751.96	31568.86
752.298	31576.77
752.636	31540.39
752.975	31361.86
753.313	31258.81
