Data from aluminium_macbook_case_FLMS001491_007.txt Node
Date: Tue Feb 07 10:43:07 GMT 2017
User: dcchb
Spectrometer: FLMS00149
Trigger mode: 0
Integration Time (sec): 2.000000E-2
Scans to average: 10
Electric dark correction enabled: true
Nonlinearity correction enabled: false
Boxcar width: 0
XAxis mode: Wavelengths
Number of Pixels in Spectrum: 2048
>>>>>Begin Spectral Data<<<<<
341.393	9.72
341.776	9.72
342.16	9.72
342.543	-55.82
342.927	-67.34
343.31	-83.84
343.693	-61.02
344.077	-60.79
344.46	-47.46
344.843	-42.48
345.226	-47.68
345.61	-25.99
345.993	-28.93
346.376	-9.94
346.759	9.94
347.142	34.58
347.525	45.87
347.908	53.11
348.291	72.31
348.674	85.42
349.057	106.89
349.44	118.41
349.823	145.53
350.206	172.88
350.588	243.61
350.971	266.89
351.354	290.84
351.737	281.57
352.119	281.12
352.502	332.19
352.884	343.04
353.267	324.74
353.65	363.61
354.032	366.54
354.414	372.19
354.797	393.21
355.179	404.96
355.562	382.36
355.944	418.52
356.326	401.8
356.709	409.93
357.091	433.43
357.473	412.87
357.855	428.24
358.238	417.39
358.62	432.31
359.002	425.07
359.384	435.24
359.766	429.14
360.148	439.08
360.53	435.24
360.912	432.98
361.294	436.37
361.676	421.23
362.057	414
362.439	416.03
362.821	416.03
363.203	437.05
363.584	419.65
363.966	425.75
364.348	447.67
364.729	431.85
365.111	434.11
365.493	423.27
365.874	420.33
366.256	421.23
366.637	451.97
367.019	436.82
367.4	421.01
367.781	453.32
368.163	439.54
368.544	452.19
368.925	439.08
369.306	475.47
369.688	444.96
370.069	443.6
370.45	473.43
370.831	439.08
371.212	457.39
371.593	448.58
371.974	475.69
372.355	462.36
372.736	486.77
373.117	462.59
373.498	480.89
373.879	482.02
374.26	485.86
374.641	491.29
375.021	459.65
375.402	453.77
375.783	492.64
376.163	546.2
376.544	522.25
376.925	538.52
377.305	518.4
377.686	541.45
378.066	523.15
378.447	555.24
378.827	538.29
379.208	547.56
379.588	549.14
379.968	562.02
380.349	554.34
380.729	576.48
381.109	575.35
381.489	584.62
381.87	575.13
382.25	560.44
382.63	608.8
383.01	614
383.39	618.29
383.77	624.84
384.15	620.77
384.53	631.85
384.91	635.46
385.29	630.04
385.67	645.41
386.049	673.43
386.429	658.74
386.809	674.33
387.189	687.67
387.568	679.53
387.948	700.09
388.328	713.2
388.707	720.21
389.087	705.97
389.466	726.31
389.846	731.96
390.225	722.92
390.605	754.1
390.984	769.7
391.363	791.17
391.743	783.48
392.122	792.3
392.501	802.46
392.881	811.5
393.26	828
393.639	814.44
394.018	837.72
394.397	864.38
394.776	841.56
395.155	886.08
395.534	877.72
395.913	907.77
396.292	892.41
396.671	929.69
397.05	935.79
397.429	938.96
397.808	908.68
398.186	924.04
398.565	956.81
398.944	966.75
399.323	978.05
399.701	980.09
400.08	991.84
400.458	1007.21
400.837	1014.89
401.215	1021.22
401.594	1060.09
401.972	1044.04
402.351	1066.41
402.729	1074.32
403.107	1092.63
403.486	1116.13
403.864	1114.55
404.242	1131.72
404.62	1142.79
404.999	1164.04
405.377	1166.3
405.755	1166.75
406.133	1204.04
406.511	1214.21
406.889	1226.63
407.267	1245.62
407.645	1279.06
408.023	1295.79
408.401	1318.84
408.779	1303.02
409.156	1318.16
409.534	1372.39
409.912	1418.95
410.29	1391.15
410.667	1460.07
411.045	1438.61
411.422	1448.1
411.8	1512.5
412.178	1521.54
412.555	1566.06
412.933	1559.51
413.31	1592.73
413.687	1625.27
414.065	1625.49
414.442	1642.44
414.819	1649
415.197	1656.91
415.574	1740.75
415.951	1728.32
416.328	1776.45
416.705	1776.9
417.082	1800.4
417.46	1753.17
417.837	1835.88
418.214	1843.57
418.591	1825.04
418.967	1880.85
419.344	1879.27
419.721	1949.55
420.098	1917.46
420.475	1957.91
420.852	1982.09
421.228	2016.44
421.605	2050.12
421.982	2071.58
422.358	2067.52
422.735	2140.73
423.111	2101.19
423.488	2170.34
423.864	2153.62
424.241	2165.82
424.617	2259.83
424.994	2250.56
425.37	2277.45
425.746	2311.8
426.123	2331.69
426.499	2345.25
426.875	2383.44
427.251	2451.01
427.627	2459.82
428.003	2529.2
428.379	2563.32
428.756	2575.98
429.132	2626.15
429.507	2656.43
429.883	2726.03
430.259	2711.12
430.635	2743.2
431.011	2793.6
431.387	2873.6
431.763	2941.84
432.138	2937.32
432.514	2967.38
432.89	2993.59
433.265	3054.38
433.641	3121.5
434.016	3140.48
434.392	3183.65
434.767	3268.39
435.143	3224.77
435.518	3287.82
435.894	3307.94
436.269	3366.24
436.644	3459.8
437.02	3464.09
437.395	3471.55
437.77	3548.16
438.145	3560.81
438.52	3622.28
438.895	3695.95
439.271	3683.07
439.646	3775.27
440.021	3796.51
440.395	3836.96
440.77	3808.26
441.145	3895.04
441.52	3939.11
441.895	3973.91
442.27	3963.96
442.645	3996.51
443.019	4043.96
443.394	4081.25
443.769	4108.82
444.143	4080.34
444.518	4177.74
444.892	4188.36
445.267	4234.01
445.641	4241.92
446.016	4299.55
446.39	4331.41
446.764	4404.4
447.139	4403.27
447.513	4455.48
447.887	4490.73
448.262	4474.46
448.636	4500.67
449.01	4576.83
449.384	4666.77
449.758	4670.39
450.132	4786.31
450.506	4787.67
450.88	4808.24
451.254	4863.83
451.628	4883.04
452.002	4974.33
452.376	5000.55
452.75	5051.62
453.123	5103.82
453.497	5191.5
453.871	5199.19
454.244	5387.2
454.618	5421.78
454.992	5430.82
455.365	5427.65
455.739	5645.5
456.112	5659.29
456.486	5759.85
456.859	5765.95
457.232	5880.52
457.606	5952.84
457.979	6035.55
458.352	6168.88
458.725	6256.56
459.099	6327.74
459.472	6434.63
459.845	6513.05
460.218	6503.33
460.591	6585.59
460.964	6654.51
461.337	6787.62
461.71	6852.7
462.083	6974.73
462.456	6980.38
462.829	6985.58
463.201	7192.13
463.574	7238.68
463.947	7294.05
464.32	7564.55
464.692	7539.91
465.065	7655.84
465.438	7738.1
465.81	7872.11
466.183	7988.94
466.555	8201.14
466.928	8178.09
467.3	8233.46
467.672	8382.83
468.045	8564.29
468.417	8607.23
468.789	8669.38
469.161	8829.82
469.534	9012.87
469.906	9212.64
470.278	9288.8
470.65	9374.22
471.022	9540.31
471.394	9749.57
471.766	9798.16
472.138	9865.05
472.51	10089
472.882	10291.25
473.253	10339.16
473.625	10563.56
473.997	10804.91
474.369	10869.09
474.74	10915.87
475.112	11174.62
475.484	11406.93
475.855	11576.42
476.227	11700.94
476.598	12085.78
476.97	12181.15
477.341	12558.31
477.713	12763.96
478.084	12820.68
478.455	13187.45
478.827	13271.06
479.198	13622.92
479.569	13764.61
479.94	14091.15
480.311	14208.44
480.682	14545.83
481.053	14831.93
481.424	15226.04
481.795	15222.88
482.166	15483.43
482.537	15662.86
482.908	16059.69
483.279	16183.76
483.65	16464.88
484.021	16775.15
484.391	16926.11
484.762	17150.96
485.133	17414.46
485.503	17697.39
485.874	18004.5
486.244	18266.41
486.615	18684.48
486.985	18840.86
487.356	19184.81
487.726	19399.49
488.097	19781.63
488.467	19885.13
488.837	20275.63
489.207	20523.53
489.578	20870.41
489.948	21053.68
490.318	21391.53
490.688	21487.34
491.058	21784.29
491.428	22077.61
491.798	22323.03
492.168	22724.6
492.538	22803.47
492.908	23007.53
493.278	23320.06
493.648	23367.97
494.017	23768.87
494.387	23855.42
494.757	24093.15
495.126	24389.87
495.496	24384.22
495.866	24707.37
496.235	24965.22
496.605	25169.51
496.974	25299.22
497.344	25542.38
497.713	25776.27
498.082	26035.47
498.452	26258.29
498.821	26537.38
499.19	26612.63
499.559	26984.38
499.928	27137.59
500.298	27354.76
500.667	27682.66
501.036	27725.82
501.405	27888.08
501.774	28012.6
502.143	28251.46
502.512	28474.73
502.88	28706.14
503.249	28708.17
503.618	28963.53
503.987	29047.15
504.356	29342.28
504.724	29333.47
505.093	29572.56
505.462	29657.3
505.83	29918.31
506.199	30078.08
506.567	30621.79
506.936	30451.4
507.304	31017.26
507.672	31007.55
508.041	31147.88
508.409	31496.35
508.777	31794.64
509.145	32136.1
509.514	32081.64
509.882	32493.38
510.25	32656.09
510.618	32831
510.986	33011.56
511.354	33388.5
511.722	33617.2
512.09	34034.36
512.458	34099.67
512.826	34397.29
513.193	34611.52
513.561	34701.69
513.929	34947.56
514.297	35271.39
514.664	35614.2
515.032	35773.52
515.4	35997.02
515.767	36146.39
516.135	36481.53
516.502	36190.01
516.869	36914.28
517.237	36876.32
517.604	36830.9
517.972	37401.28
518.339	37641.04
518.706	37622.74
519.073	37965.1
519.44	38240.35
519.808	38580.68
520.175	38717.4
520.542	39280.32
520.909	39479.41
521.276	39459.98
521.643	40019.51
522.009	40382.22
522.376	40559.61
522.743	40898.59
523.11	41333.6
523.477	41759.81
523.843	41989.86
524.21	42350.07
524.577	42719.1
524.943	42883.62
525.31	43110.73
525.676	43674.11
526.043	43866.87
526.409	43996.81
526.776	44408.1
527.142	44507.76
527.508	44746.17
527.874	45091.24
528.241	45187.06
528.607	45315.19
528.973	45737.1
529.339	45815.52
529.705	46159.24
530.071	46330.08
530.437	46605.55
530.803	46739.79
531.169	46912.44
531.535	46900.46
531.901	47189.27
532.267	47391.97
532.632	47733.89
532.998	47833.32
533.364	48112.86
533.73	48264.27
534.095	48618.83
534.461	48676.23
534.826	48936.34
535.192	49225.6
535.557	49534.74
535.923	49603.22
536.288	49710.56
536.653	49860.61
537.019	49926.14
537.384	50186.7
537.749	50310.09
538.114	50503.3
538.479	50548.95
538.845	50705.11
539.21	50721.38
539.575	50871.88
539.94	51024.65
540.305	51231.42
540.67	51051.54
541.034	51077.75
541.399	51362.04
541.764	51351.87
542.129	51524.75
542.494	51563.39
542.858	51738.98
543.223	51774.46
543.587	51882.03
543.952	51839.54
544.316	51988.46
544.681	52030.04
545.045	52243.6
545.41	52394.1
545.774	52553.19
546.138	52538.05
546.503	52601.55
546.867	52787.09
547.231	53018.27
547.595	53005.16
547.959	53220.07
548.324	53268.2
548.688	53443.57
549.052	53669.55
549.416	53794.52
549.779	53795.65
550.143	53890.79
550.507	54136.88
550.871	54245.81
551.235	54171.23
551.599	54514.95
551.962	54500.71
552.326	54651.22
552.689	54769.18
553.053	54665.91
553.417	54761.95
553.78	55212.56
554.143	54971.21
554.507	55232.22
554.87	55243.75
555.234	55475.15
555.597	55284.65
555.96	55400.8
556.323	55441.48
556.686	55509.73
557.05	55686.67
557.413	55755.82
557.776	55827.46
558.139	56060.45
558.502	56149.94
558.865	56182.7
559.228	56351.51
559.59	56395.35
559.953	56523.03
560.316	56858.39
560.679	56822.01
561.041	56993.76
561.404	57113.3
561.767	57301.32
562.129	57228.78
562.492	57622.89
562.854	57492.95
563.217	57572.05
563.579	57770.01
563.941	57977.68
564.304	58065.37
564.666	58192.14
565.028	58321.18
565.39	58394.4
565.753	58545.13
566.115	58625.13
566.477	58715.07
566.839	58775.63
567.201	58927.04
567.563	58975.4
567.925	59148.05
568.287	59085.45
568.648	59144.89
569.01	59276.18
569.372	59362.28
569.734	59359.8
570.095	59497.87
570.457	59559.11
570.819	59596.4
571.18	59581.71
571.542	59689.28
571.903	59691.99
572.265	59856.05
572.626	59816.05
572.987	59881.14
573.349	59919.1
573.71	60103.96
574.071	60101.92
574.432	60248.81
574.794	60360.67
575.155	60332.2
575.516	60242.26
575.877	60403.61
576.238	60472.53
576.599	60596.15
576.96	60548.01
577.32	60732.41
577.681	60827.33
578.042	60890.15
578.403	60879.76
578.763	60868.46
579.124	61038.85
579.485	61016.93
579.845	61112.52
580.206	61102.35
580.566	61113.42
580.927	61197.03
581.287	61240.88
581.648	61189.13
582.008	61333.98
582.368	61232.74
582.728	61270.93
583.089	61266.64
583.449	61200.65
583.809	61236.58
584.169	61235.45
584.529	61197.71
584.889	61346.18
585.249	61142.57
585.609	61085.85
585.969	61203.59
586.329	61136.7
586.688	61191.39
587.048	61118.17
587.408	61106.19
587.768	61067.55
588.127	61106.19
588.487	61016.25
588.846	61180.99
589.206	61017.15
589.565	61094.44
589.925	61190.93
590.284	61104.61
590.643	61143.48
591.003	61248.33
591.362	61338.73
591.721	61253.76
592.08	61294.43
592.44	61395.9
592.799	61326.3
593.158	61301.89
593.517	61417.14
593.876	61436.12
594.235	61355.9
594.593	61491.26
594.952	61505.95
595.311	61448.78
595.67	61520.42
596.029	61648.55
596.387	61692.16
596.746	61725.16
597.104	61587.76
597.463	61521.77
597.822	61641.54
598.18	61564.93
598.538	61588.44
598.897	61701.2
599.255	61529.46
599.613	61804.25
599.972	61630.24
600.33	61683.8
600.688	61595.67
601.046	61671.6
601.404	61707.98
601.762	61674.99
602.12	61706.4
602.478	61756.79
602.836	61747.08
603.194	61548.66
603.552	61594.31
603.91	61572.17
604.268	61617.36
604.625	61596.35
604.983	61632.28
605.341	61547.08
605.698	61704.37
606.056	61741.2
606.413	61710.47
606.771	61788.43
607.128	61823.46
607.485	61732.16
607.843	61763.12
608.2	61992.04
608.557	62008.77
608.914	61962.66
609.272	62042.21
609.629	62116.78
609.986	62233.62
610.343	62138.25
610.7	62316.55
611.057	62291.47
611.414	62322.43
611.771	62316.78
612.127	62384.57
612.484	62393.84
612.841	62533.27
613.198	62436.32
613.554	62485.81
613.911	62615.98
614.267	62560.16
614.624	62484.01
614.98	62567.17
615.337	62629.54
615.693	62574.85
616.05	62571.69
616.406	62695.07
616.762	62574.17
617.118	62550.45
617.475	62498.02
617.831	62604
618.187	62547.51
618.543	62537.79
618.899	62678.8
619.255	62616.21
619.611	62590.44
619.967	62632.25
620.323	62680.16
620.678	62575.3
621.034	62519.49
621.39	62457.11
621.746	62488.98
622.101	62689.2
622.457	62446.49
622.812	62531.46
623.168	62634.29
623.523	62635.42
623.879	62724.9
624.234	62525.59
624.589	62601.29
624.945	62666.6
625.3	62739.37
625.655	62771.91
626.01	62727.39
626.365	62749.31
626.72	62697.56
627.075	62621.86
627.43	62713.38
627.785	62641.29
628.14	62714.28
628.495	62775.75
628.85	62728.75
629.205	62694.4
629.559	62819.82
629.914	62680.39
630.269	62735.53
630.623	62670.22
630.978	62605.36
631.332	62735.3
631.687	62781.4
632.041	62619.82
632.396	62710.67
632.75	62509.32
633.104	62552.25
633.459	62417.79
633.813	62393.84
634.167	62377.79
634.521	62353.61
634.875	62382.99
635.229	62352.26
635.583	62186.84
635.937	62213.05
636.291	62159.95
636.645	62116.78
636.999	61999.05
637.352	62071.14
637.706	61892.84
638.06	61987.3
638.413	61947.07
638.767	61803.35
639.121	61846.51
639.474	61739.17
639.828	61724.25
640.181	61743.01
640.534	61647.42
640.888	61628.66
641.241	61505.05
641.594	61460.98
641.947	61603.58
642.301	61582.79
642.654	61585.95
643.007	61539.62
643.36	61575.56
643.713	61556.12
644.066	61560.42
644.419	61369.46
644.771	61324.94
645.124	61175.79
645.477	61105.29
645.83	60973.99
646.182	60823.71
646.535	60788.23
646.888	60823.71
647.24	60666.2
647.593	60834.78
647.945	60809.02
648.298	60709.14
648.65	60701.23
649.002	60593.66
649.355	60694.9
649.707	60651.06
650.059	60784.16
650.411	61015.8
650.763	60998.62
651.115	61243.36
651.467	61166.08
651.819	61128.56
652.171	61053.99
652.523	61027.1
652.875	60953.2
653.227	60863.03
653.578	61044.72
653.93	60896.7
654.282	60725.63
654.633	60723.83
654.985	60723.38
655.337	60692.87
655.688	60704.39
656.039	60723.6
656.391	60495.58
656.742	60491.52
657.094	60401.58
657.445	60521.57
657.796	60441.35
658.147	60367.45
658.498	60360.22
658.849	60398.64
659.2	60330.17
659.551	60289.94
659.902	60318.19
660.253	60272.31
660.604	60319.09
660.955	60184.63
661.306	60298.3
661.656	60239.55
662.007	60218.3
662.358	60194.8
662.708	60217.63
663.059	60265.08
663.409	60164.97
663.76	60238.87
664.11	60237.96
664.461	60278.87
664.811	60280.9
665.161	60271.86
665.511	60244.97
665.862	60216.72
666.212	60310.05
666.562	60340.56
666.912	60281.8
667.262	60283.61
667.612	60291.07
667.962	60301.92
668.312	60243.84
668.662	60400.22
669.011	60251.98
669.361	60176.27
669.711	60192.77
670.06	60165.88
670.41	60176.5
670.76	60078.87
671.109	60153.67
671.459	60003.17
671.808	60061.92
672.157	60109.83
672.507	59898.31
672.856	59935.37
673.205	59899.22
673.554	59977.86
673.904	59906.67
674.253	59945.54
674.602	59915.03
674.951	59466.46
675.3	59301.04
675.649	59734.93
675.998	59595.04
676.346	59627.36
676.695	59701.03
677.044	59507.59
677.393	59501.49
677.741	59571.77
678.09	59479.57
678.438	59361.83
678.787	59419.23
679.135	59308.72
679.484	59189.86
679.832	59305.79
680.181	59110.99
680.529	59211.78
680.877	59077.09
681.225	59016.53
681.573	59229.18
681.922	59037.54
682.27	59026.02
682.618	58962.74
682.966	58959.13
683.314	59068.73
683.661	58845.46
684.009	58819.02
684.357	58777.89
684.705	58760.04
685.053	58801.17
685.4	58789.19
685.748	58661.28
686.095	58587.61
686.443	58544
686.79	58532.92
687.138	58615.86
687.485	58534.73
687.832	58523.66
688.18	58515.98
688.527	58335.87
688.874	58377.45
689.221	58352.82
689.568	58170.67
689.915	58091.81
690.262	58224.91
690.609	58059.49
690.956	58069.43
691.303	57988.98
691.65	57916.44
691.997	57863.34
692.344	57732.04
692.69	57687.97
693.037	57657.47
693.383	57481.88
693.73	57524.36
694.077	57343.12
694.423	57402.11
694.769	57258.61
695.116	57171.38
695.462	57192.17
695.808	57020.2
696.155	57000.31
696.501	56873.08
696.847	56779.75
697.193	56586.99
697.539	56633.31
697.885	56433.09
698.231	56386.99
698.577	56278.75
698.923	56260.44
699.269	56131.41
699.614	55912.88
699.96	55912.65
700.306	55909.49
700.651	55693
700.997	55639.67
701.342	55610.06
701.688	55533.91
702.033	55363.97
702.379	55377.75
702.724	55395.83
703.069	55318.77
703.415	55042.62
703.76	55108.61
704.105	54917.65
704.45	54861.16
704.795	54759.69
705.14	54746.58
705.485	54718.79
705.83	54587.94
706.175	54630.43
706.52	54481.51
706.865	54432.02
707.209	54414.39
707.554	54371
707.899	54400.6
708.243	54284.22
708.588	54238.8
708.932	54075.41
709.277	54095.07
709.621	54021.4
709.966	53815.76
710.31	54004.91
710.654	53610.57
710.998	53790.68
711.342	53839.49
711.687	53691.7
712.031	53575.99
712.375	53621.41
712.719	53568.76
713.063	53436.56
713.407	53581.64
713.75	53436.56
714.094	53395.43
714.438	53192.5
714.782	53267.53
715.125	53085.61
715.469	53165.16
715.812	52884.26
716.156	52850.14
716.499	52844.71
716.843	52824.83
717.186	52609.92
717.53	52680.2
717.873	52583.02
718.216	52424.16
718.559	52414.44
718.902	52140.32
719.246	52105.75
719.589	51981.68
719.932	51854.46
720.275	51855.59
720.617	51750.5
720.96	51726.78
721.303	51643.39
721.646	51726.32
721.989	51391.42
722.331	51381.47
722.674	51187.81
723.016	51266.9
723.359	51191.65
723.701	51130.18
724.044	50866.69
724.386	50630.08
724.729	50862.39
725.071	50649.74
725.413	50680.48
725.755	50559.8
726.097	50490.65
726.439	50374.72
726.782	50390.09
727.124	50390.54
727.465	50230.09
727.807	50131.11
728.149	50176.76
728.491	50002.3
728.833	50031.68
729.175	49941.74
729.516	49859.25
729.858	49863.55
730.199	49912.81
730.541	49756.88
730.882	49791.01
731.224	49815.64
731.565	49575.19
731.906	49615.42
732.248	49579.71
732.589	49518.92
732.93	49468.98
733.271	49460.39
733.612	49544.23
733.953	49491.13
734.294	49293.17
734.635	49160.74
734.976	49264.92
735.317	49237.35
735.658	49322.32
735.999	49214.3
736.339	49049.33
736.68	49134.3
737.021	49077.58
737.361	48884.36
737.702	49098.14
738.042	48944.25
738.383	48844.37
738.723	48971.14
739.063	48672.39
739.404	48796.01
739.744	48562.56
740.084	48440.31
740.424	48375.45
740.764	48211.39
741.104	48200.09
741.444	48072.63
741.784	47914.9
742.124	48042.58
742.464	47868.57
742.804	47724.39
743.143	47715.81
743.483	47686.2
743.823	47340.45
744.162	47266.78
744.502	47335.25
744.841	46962.16
745.181	47227.46
745.52	47038.54
745.86	47077.18
746.199	46867.69
746.538	46800.58
746.877	46718.09
747.216	46636.74
747.556	46451.21
747.895	46423.64
748.234	46200.59
748.573	46209.86
748.911	46005.34
749.25	46021.61
749.589	45794.5
749.928	45819.36
750.267	45872.24
750.605	45744.56
750.944	45675.64
751.283	45569.88
751.621	45484.91
751.96	45221.86
752.298	45171.02
