Data from aluminium_macbook_case_FLMS001491_073.txt Node
Date: Tue Feb 07 10:44:11 GMT 2017
User: dcchb
Spectrometer: FLMS00149
Trigger mode: 0
Integration Time (sec): 2.000000E-2
Scans to average: 10
Electric dark correction enabled: true
Nonlinearity correction enabled: false
Boxcar width: 0
XAxis mode: Wavelengths
Number of Pixels in Spectrum: 2048
>>>>>Begin Spectral Data<<<<<
341.393	-13.95
341.776	-13.95
342.16	-13.95
342.543	-47.4
342.927	-56.44
343.31	-88.98
343.693	-68.42
344.077	-75.87
344.46	-69.09
344.843	-49.66
345.226	-38.59
345.61	-18.25
345.993	-14.86
346.376	-10.11
346.759	-3.79
347.142	27.4
347.525	36.67
347.908	94.29
348.291	78.7
348.674	69.43
349.057	131.13
349.44	108.75
349.823	131.35
350.206	175.87
350.588	238.47
350.971	283.44
351.354	266.04
351.737	295.87
352.119	287.73
352.502	308.3
352.884	333.61
353.267	340.16
353.65	350.56
354.032	353.72
354.414	362.98
354.797	370.22
355.179	376.09
355.562	404.34
355.944	385.81
356.326	406.37
356.709	404.34
357.091	398.01
357.473	428.29
357.855	411.12
358.238	426.26
358.62	414.96
359.002	409.99
359.384	415.19
359.766	425.13
360.148	433.94
360.53	421.51
360.912	433.27
361.294	405.24
361.676	431.23
362.057	448.63
362.439	425.13
362.821	413.83
363.203	404.34
363.584	424.68
363.966	423.32
364.348	416.54
364.729	417.22
365.111	419.03
365.493	417.22
365.874	393.94
366.256	446.15
366.637	439.14
367.019	436.88
367.4	425.13
367.781	444.56
368.163	434.62
368.544	421.74
368.925	456.09
369.306	451.12
369.688	445.02
370.069	457.67
370.45	456.99
370.831	456.54
371.212	462.64
371.593	445.69
371.974	466.03
372.355	474.62
372.736	479.14
373.117	477.56
373.498	467.61
373.879	471.68
374.26	472.13
374.641	464.68
375.021	476.65
375.402	476.88
375.783	501.06
376.163	544.67
376.544	517.11
376.925	514.62
377.305	523.66
377.686	522.3
378.066	490.67
378.447	534.51
378.827	536.09
379.208	539.48
379.588	530.21
379.968	549.65
380.349	556.88
380.729	564.34
381.109	580.83
381.489	591.91
381.87	588.29
382.25	578.8
382.63	581.74
383.01	606.37
383.39	594.84
383.77	615.41
384.15	631.23
384.53	619.93
384.91	628.29
385.29	641.4
385.67	671
386.049	667.84
386.429	650.89
386.809	669.42
387.189	675.07
387.568	700.6
387.948	689.53
388.328	701.51
388.707	708.51
389.087	717.55
389.466	746.7
389.846	733.37
390.225	757.55
390.605	766.82
390.984	754.61
391.363	779.25
391.743	807.49
392.122	786.7
392.501	813.14
392.881	809.75
393.26	823.76
393.639	832.35
394.018	837.1
394.397	841.84
394.776	879.58
395.155	873.03
395.534	879.58
395.913	893.59
396.292	880.71
396.671	925.46
397.05	901.95
397.429	931.11
397.808	930.2
398.186	953.7
398.565	978.79
398.944	966.58
399.323	978.11
399.701	968.62
400.08	997.54
400.458	1005.23
400.837	1027.83
401.215	1030.09
401.594	1049.97
401.972	1076.41
402.351	1058.79
402.729	1082.51
403.107	1079.12
403.486	1100.82
403.864	1104.43
404.242	1132.23
404.62	1124.55
404.999	1147.82
405.377	1175.84
405.755	1203.41
406.133	1185.79
406.511	1217.43
406.889	1239.12
407.267	1249.52
407.645	1278.67
408.023	1278.89
408.401	1326.8
408.779	1317.99
409.156	1360.92
409.534	1342.39
409.912	1397.53
410.29	1412.22
410.667	1437.08
411.045	1457.65
411.422	1488.83
411.8	1487.93
412.178	1497.64
412.555	1530.64
412.933	1546
413.31	1591.43
413.687	1614.7
414.065	1617.87
414.442	1640.69
414.819	1666
415.197	1708.49
415.574	1743.29
415.951	1736.28
416.328	1733.8
416.705	1746.9
417.082	1783.51
417.46	1805.43
417.837	1842.95
418.214	1856.73
418.591	1855.6
418.967	1880.91
419.344	1868.03
419.721	1928.82
420.098	1956.39
420.475	1964.07
420.852	1994.35
421.228	2015.6
421.605	2040.45
421.982	2039.78
422.358	2090.85
422.735	2062.38
423.111	2115.93
423.488	2147.57
423.864	2122.03
424.241	2197.29
424.617	2233.67
424.994	2234.57
425.37	2288.13
425.746	2282.26
426.123	2323.39
426.499	2334.46
426.875	2381.01
427.251	2424.85
427.627	2442.03
428.003	2480.9
428.379	2536.94
428.756	2509.6
429.132	2594.79
429.507	2590.72
429.883	2682.92
430.259	2704.39
430.635	2726.99
431.011	2771.74
431.387	2826.42
431.763	2909.13
432.138	2920.66
432.514	2983.03
432.89	3000.43
433.265	3068.45
433.641	3094.21
434.016	3089.47
434.392	3197.94
434.767	3198.39
435.143	3262.12
435.518	3281.55
435.894	3302.57
436.269	3330.14
436.644	3394.77
437.02	3413.53
437.395	3445.39
437.77	3493.75
438.145	3551.83
438.52	3611.49
438.895	3619.62
439.271	3645.38
439.646	3719.73
440.021	3767.64
440.395	3789.11
440.77	3752.95
441.145	3834.53
441.52	3891.03
441.895	3929.44
442.27	4009.44
442.645	4001.99
443.019	4004.7
443.394	4008.54
443.769	4071.81
444.143	4038.59
444.518	4144.81
444.892	4153.39
445.267	4178.7
445.641	4244.92
446.016	4222.32
446.39	4312.26
446.764	4305.25
447.139	4356.33
447.513	4354.74
447.887	4422.31
448.262	4451.24
448.636	4457.34
449.01	4524.01
449.384	4571.69
449.758	4648.75
450.132	4688.52
450.506	4694.17
450.88	4754.51
451.254	4732.81
451.628	4868.63
452.002	4955.18
452.376	4914.73
452.75	5036.53
453.123	5038.34
453.497	5127.15
453.871	5168.06
454.244	5286.47
454.618	5277.88
454.992	5311.33
455.365	5413.02
455.739	5575.05
456.112	5592.68
456.486	5619.8
456.859	5690.75
457.232	5837.19
457.606	5844.65
457.979	5973.01
458.352	6063.17
458.725	6156.73
459.099	6179.33
459.472	6304.98
459.845	6361.92
460.218	6438.31
460.591	6455.25
460.964	6533.44
461.337	6633.55
461.71	6808.01
462.083	6787.22
462.456	6906.09
462.829	6955.13
463.201	7075.12
463.574	7080.1
463.947	7257.94
464.32	7412.06
464.692	7387.66
465.065	7533.87
465.438	7622.91
465.81	7738.38
466.183	7842.79
466.555	7987.64
466.928	8102.22
467.3	8085.95
467.672	8268.31
468.045	8409.78
468.417	8450.91
468.789	8608.42
469.161	8709.66
469.534	8866.26
469.906	8959.14
470.278	9051.8
470.65	9234.62
471.022	9339.7
471.394	9512.57
471.766	9644.1
472.138	9731.78
472.51	9947.59
472.882	10070.07
473.253	10240.92
473.625	10360.24
473.997	10559.78
474.369	10660.34
474.74	10809.26
475.112	11008.58
475.484	11238.18
475.855	11398.17
476.227	11508.23
476.598	11900.99
476.97	12009.01
477.341	12296.91
477.713	12447.64
478.084	12488.77
478.455	12967.85
478.827	13010.79
479.198	13450.1
479.569	13394.73
479.94	13818
480.311	13969.18
480.682	14303.18
481.053	14502.95
481.424	14794.02
481.795	14929.83
482.166	15099.55
482.537	15389.48
482.908	15667.22
483.279	15832.41
483.65	16114.66
484.021	16470.13
484.391	16700.41
484.762	16834.64
485.133	17002.32
485.503	17218.59
485.874	17739.48
486.244	17823.99
486.615	18216.3
486.985	18478.21
487.356	18877.3
487.726	18910.52
488.097	19418.75
488.467	19502.59
488.837	19795.69
489.207	20133.54
489.578	20388.22
489.948	20694.88
490.318	20839.28
490.688	20916.34
491.058	21258.48
491.428	21559.94
491.798	21846.49
492.168	22092.36
492.538	22276.31
492.908	22522.4
493.278	22847.14
493.648	22918.55
494.017	23191.76
494.387	23449.84
494.757	23568.02
495.126	23831.97
495.496	23922.37
495.866	24138.18
496.235	24422.47
496.605	24612.52
496.974	24797.37
497.344	25119.17
497.713	25229.45
498.082	25413.4
498.452	25766.38
498.821	25937.68
499.19	26060.84
499.559	26320.95
499.928	26483.88
500.298	26686.81
500.667	26962.96
501.036	26866.02
501.405	27195.73
501.774	27358.43
502.143	27514.81
502.512	27704.41
502.88	27914.8
503.249	28018.98
503.618	28216.94
503.987	28307.79
504.356	28660.32
504.724	28657.38
505.093	28885.85
505.462	28998.39
505.83	29230.93
506.199	29432.95
506.567	29886.73
506.936	29948.2
507.304	30153.16
507.672	30459.82
508.041	30587.95
508.409	30876.53
508.777	30978.45
509.145	31311.55
509.514	31409.85
509.882	31698.21
510.25	31862.04
510.618	32151.3
510.986	32223.39
511.354	32755.13
511.722	32863.83
512.09	33076.47
512.458	33023.82
512.826	33509.91
513.193	33563.47
513.561	33802.56
513.929	34032.16
514.297	34418.36
514.664	34600.95
515.032	34645.93
515.4	35031.68
515.767	35192.8
516.135	35450.65
516.502	35214.72
516.869	35956.85
517.237	36061.48
517.604	35975.16
517.972	36359.55
518.339	36715.02
518.706	36871.63
519.073	37081.57
519.44	37416.02
519.808	37624.6
520.175	37751.61
520.542	38346.84
520.909	38729.21
521.276	38711.58
521.643	39165.13
522.009	39457.32
522.376	39749.29
522.743	39933.24
523.11	40420.24
523.477	40826.55
523.843	40885.54
524.21	41286.43
524.577	41638.28
524.943	41784.04
525.31	42023.58
525.676	42470.58
526.043	42643.46
526.409	42743.79
526.776	43167.96
527.142	43402.08
527.508	43607.05
527.874	43954.61
528.241	44200.25
528.607	44355.73
528.973	44738.32
529.339	44695.83
529.705	45081.58
530.071	45380.56
530.437	45600.67
530.803	45816.03
531.169	46148.67
531.535	46039.75
531.901	46526.74
532.267	46553.18
532.632	46820.97
532.998	46971.02
533.364	47236.33
533.73	47301.64
534.095	47726.94
534.461	47863.88
534.826	48151.11
535.192	48158.56
535.557	48457.99
535.923	48525.56
536.288	48802.84
536.653	48891.65
537.019	48856.62
537.384	49022.72
537.749	49331.19
538.114	49453.22
538.479	49536.83
538.845	49648.02
539.21	49635.14
539.575	49697.96
539.94	50033.32
540.305	50109.02
540.67	50063.15
541.034	50291.62
541.399	50529.58
541.764	50479.41
542.129	50532.74
542.494	50726.18
542.858	50871.71
543.223	50927.53
543.587	51113.06
543.952	51197.13
544.316	51354.86
544.681	51386.95
545.045	51565.03
545.41	51746.27
545.774	51709.66
546.138	51851.35
546.503	52022.42
546.867	52032.59
547.231	52413.82
547.595	52366.36
547.959	52434.16
548.324	52551.67
548.688	52712.34
549.052	52792.57
549.416	52932.22
549.779	52989.85
550.143	53091.77
550.507	53303.51
550.871	53412.44
551.235	53463.74
551.599	53651.53
551.962	53680.9
552.326	53738.53
552.689	53953.44
553.053	53839.09
553.417	53949.37
553.78	54205.18
554.143	54231.17
554.507	54350.27
554.87	54369.93
555.234	54742.35
555.597	54519.3
555.96	54737.37
556.323	54873.19
556.686	54942.57
557.05	55105.5
557.413	55194.09
557.776	55255.1
558.139	55427.3
558.502	55502.1
558.865	55585.04
559.228	55755.88
559.59	55838.14
559.953	55860.28
560.316	56187.05
560.679	56195.64
561.041	56369.65
561.404	56472.92
561.767	56745.68
562.129	56661.84
562.492	56921.95
562.854	56951.1
563.217	56979.8
563.579	57150.64
563.941	57296.63
564.304	57342.96
564.666	57512.89
565.028	57564.42
565.39	57646.9
565.753	57801.7
566.115	57899.55
566.477	57964.86
566.839	58101.13
567.201	58210.96
567.563	58293.44
567.925	58370.95
568.287	58430.16
568.648	58488.01
569.01	58643.49
569.372	58747.66
569.734	58660.66
570.095	58888.23
570.457	58940.65
570.819	59010.26
571.18	59018.39
571.542	59133.87
571.903	59094.77
572.265	59284.6
572.626	59347.42
572.987	59351.94
573.349	59486.63
573.71	59588.55
574.071	59656.12
574.432	59691.82
574.794	59860.4
575.155	59870.57
575.516	59806.39
575.877	59916.22
576.238	59960.97
576.599	60063.79
576.96	60132.71
577.32	60160.06
577.681	60260.17
578.042	60280.28
578.403	60291.8
578.763	60320.05
579.124	60343.33
579.485	60488.64
579.845	60496.54
580.206	60487.96
580.566	60509.43
580.927	60478.01
581.287	60618.12
581.648	60521.63
582.008	60631.68
582.368	60582.42
582.728	60587.62
583.089	60516.21
583.449	60536.09
583.809	60647.73
584.169	60647.05
584.529	60572.25
584.889	60775.41
585.249	60559.59
585.609	60515.75
585.969	60629.65
586.329	60593.04
586.688	60665.81
587.048	60537.45
587.408	60590.78
587.768	60606.15
588.127	60620.84
588.487	60680.04
588.846	60732.92
589.206	60646.15
589.565	60692.25
589.925	60812.02
590.284	60691.79
590.643	60748.29
591.003	60781.06
591.362	60828.97
591.721	60810.66
592.08	60850.21
592.44	60889.75
592.799	60859.7
593.158	60776.54
593.517	60840.49
593.876	60974.5
594.235	60810.66
594.593	60863.99
594.952	60931.34
595.311	60820.15
595.67	60854.95
596.029	61035.51
596.387	60998.9
596.746	60993.93
597.104	60902.41
597.463	60935.4
597.822	61027.6
598.18	60871.68
598.538	60870.32
598.897	61066.25
599.255	60844.33
599.613	61092.69
599.972	60925.46
600.33	61063.08
600.688	60952.35
601.046	61033.48
601.404	61165
601.762	61023.08
602.12	61176.53
602.478	61085.91
602.836	61195.06
603.194	61024.89
603.552	61117.55
603.91	61075.74
604.268	61108.28
604.625	61135.85
604.983	61271.44
605.341	61139.47
605.698	61308.5
606.056	61288.39
606.413	61301.5
606.771	61412.9
607.128	61481.15
607.485	61371.55
607.843	61389.4
608.2	61505.33
608.557	61609.96
608.914	61456.07
609.272	61593.24
609.629	61688.6
609.986	61764.08
610.343	61589.4
610.7	61741.94
611.057	61741.48
611.414	61715.5
611.771	61722.73
612.127	61845.89
612.484	61835.49
612.841	61851.54
613.198	61741.71
613.554	61785.1
613.911	61943.96
614.267	61876.17
614.624	61885.43
614.98	61870.75
615.337	61927.02
615.693	61889.05
616.05	61893.8
616.406	61925.89
616.762	61946.22
617.118	61859.9
617.475	61970.4
617.831	61987.81
618.187	61939.9
618.543	61983.51
618.899	62087.01
619.255	62077.52
619.611	62048.82
619.967	62121.81
620.323	62113.9
620.678	62036.84
621.034	62008.6
621.39	62025.32
621.746	62045.2
622.101	62274.8
622.457	62045.88
622.812	62141.7
623.168	62226.44
623.523	62161.13
623.879	62269.61
624.234	62025.32
624.589	62206.56
624.945	62211.75
625.3	62236.39
625.655	62209.95
626.01	62282.26
626.365	62275.93
626.72	62222.38
627.075	62188.93
627.43	62222.83
627.785	62166.56
628.14	62191.19
628.495	62253.56
628.85	62193
629.205	62087.92
629.559	62236.84
629.914	62066.67
630.269	62070.51
630.623	62036.17
630.978	61969.05
631.332	62043.62
631.687	62101.02
632.041	61979.44
632.396	62029.39
632.75	61841.59
633.104	61868.71
633.459	61755.95
633.813	61711.43
634.167	61732.44
634.521	61646.57
634.875	61675.5
635.229	61647.48
635.583	61544.88
635.937	61503.98
636.291	61467.37
636.645	61492.9
636.999	61430.08
637.352	61489.51
637.706	61320.25
638.06	61446.35
638.413	61327.71
638.767	61392.34
639.121	61393.47
639.474	61209.97
639.828	61224.66
640.181	61267.37
640.534	61292.46
640.888	61104.44
641.241	61075.96
641.594	61226.47
641.947	61238.45
642.301	61092.24
642.654	61125
643.007	61092.24
643.36	61092.24
643.713	61069.86
644.066	61103.76
644.419	60979.24
644.771	60835.75
645.124	60559.82
645.477	60572.93
645.83	60456.77
646.182	60285.48
646.535	60246.38
646.888	60288.64
647.24	60141.98
647.593	60279.6
647.945	60179.72
648.298	60052.49
648.65	59998.48
649.002	59953.51
649.355	59985.37
649.707	59943.11
650.059	60063.56
650.411	60309.21
650.763	60323.22
651.115	60529.54
651.467	60427.85
651.819	60392.37
652.171	60286.38
652.523	60238.92
652.875	60276.21
653.227	60177.46
653.578	60285.7
653.93	60171.13
654.282	60050.68
654.633	59947.41
654.985	60007.74
655.337	60027.18
655.688	59999.38
656.039	60051.36
656.391	59871.02
656.742	59895.2
657.094	59866.73
657.445	59994.64
657.796	59929.1
658.147	59882.55
658.498	59881.87
658.849	59931.14
659.2	59889.78
659.551	59851.14
659.902	59811.82
660.253	59814.08
660.604	59837.58
660.955	59805.94
661.306	59888.43
661.656	59783.57
662.007	59814.75
662.358	59804.81
662.708	59830.57
663.059	59768.43
663.409	59661.76
663.76	59818.82
664.11	59751.03
664.461	59807.98
664.811	59801.2
665.161	59747.41
665.511	59640.52
665.862	59680.3
666.212	59770.91
666.562	59713.97
666.912	59669.45
667.262	59635.1
667.612	59527.53
667.962	59585.61
668.312	59545.61
668.662	59690.69
669.011	59546.74
669.361	59473.07
669.711	59485.72
670.06	59424.93
670.41	59379.74
670.76	59298.61
671.109	59410.7
671.459	59297.93
671.808	59308.1
672.157	59314.88
672.507	59139.74
672.856	59113.53
673.205	59120.08
673.554	59213.19
673.904	59163.7
674.253	59169.8
674.602	59137.48
674.951	58721.9
675.3	58575.47
675.649	59001.67
675.998	58907.89
676.346	58963.48
676.695	59038.05
677.044	58789.25
677.393	58908.11
677.741	58916.7
678.09	58892.75
678.438	58795.35
678.787	58792.86
679.135	58914.67
679.484	58678.74
679.832	58780.88
680.181	58678.74
680.529	58800.09
680.877	58645.75
681.225	58617.5
681.573	58773.2
681.922	58565.3
682.27	58507.22
682.618	58539.31
682.966	58465.86
683.314	58563.71
683.661	58462.93
684.009	58337.28
684.357	58327.34
684.705	58265.87
685.053	58314.68
685.4	58220.22
685.748	58055.03
686.095	58116.27
686.443	58050.96
686.79	57963.96
687.138	57984.07
687.485	58013.22
687.832	57847.12
688.18	57901.58
688.527	57730.97
688.874	57712.66
689.221	57689.61
689.568	57562.38
689.915	57493.69
690.262	57448.26
690.609	57330.98
690.956	57340.92
691.303	57257.31
691.65	57065.45
691.997	57015.05
692.344	56823.87
692.69	56869.07
693.037	56878.56
693.383	56572.35
693.73	56672.92
694.077	56524.9
694.423	56458.46
694.769	56386.14
695.116	56326.94
695.462	56312.93
695.808	56188.18
696.155	56205.36
696.501	56049.88
696.847	55990.9
697.193	55773.96
697.539	55873.62
697.885	55639.27
698.231	55530.35
698.577	55569.67
698.923	55530.12
699.269	55345.72
699.614	55205.38
699.96	55220.3
700.306	55253.52
700.651	55154.31
700.997	55050.59
701.342	55001.1
701.688	54941.66
702.033	54807.2
702.379	54811.95
702.724	54766.53
703.069	54855.11
703.415	54530.15
703.76	54516.59
704.105	54621.9
704.45	54474.78
704.795	54300.78
705.14	54213.32
705.485	54257.61
705.83	54107.56
706.175	54180.1
706.52	54162.02
706.865	53919.77
707.209	53884.29
707.554	53759.77
707.899	53937.62
708.243	53774.91
708.588	53682.49
708.932	53467.35
709.277	53443.85
709.621	53409.05
709.966	53274.36
710.31	53346.68
710.654	53006.12
710.998	53072.79
711.342	53035.05
711.687	52877.76
712.031	52813.81
712.375	52533.59
712.719	52641.84
713.063	52541.73
713.407	52675.06
713.75	52453.14
714.094	52357.32
714.438	52155.75
714.782	52189.64
715.125	51997.79
715.469	52007.5
715.812	51894.74
716.156	51725.7
716.499	51658.59
716.843	51681.18
717.186	51524.13
717.53	51667.4
717.873	51561.19
718.216	51475.99
718.559	51352.38
718.902	51099.05
719.246	51181.99
719.589	51075.78
719.932	50795.33
720.275	50909
720.617	50729.57
720.96	50702.9
721.303	50641.21
721.646	50659.06
721.989	50379.3
722.331	50554.66
722.674	50463.14
723.016	50447.54
723.359	50364.16
723.701	50391.95
724.044	50190.38
724.386	49998.06
724.729	50202.58
725.071	49995.35
725.413	49959.65
725.755	49995.8
726.097	49896.15
726.439	49717.85
726.782	49793.78
727.124	49954.45
727.465	49666.1
727.807	49723.95
728.149	49623.61
728.491	49577.74
728.833	49599.88
729.175	49487.57
729.516	49435.59
729.858	49322.38
730.199	49390.17
730.541	49225.43
730.882	49178.2
731.224	49261.36
731.565	48979.56
731.906	48961.48
732.248	49008.03
732.589	48707.7
732.93	48614.82
733.271	48669.29
733.612	48615.95
733.953	48714.71
734.294	48459.8
734.635	48402.85
734.976	48419.35
735.317	48146.36
735.658	48205.34
735.999	48210.09
736.339	48044.22
736.68	48082.41
737.021	47933.94
737.361	47625.47
737.702	47811.45
738.042	47666.15
738.383	47478.13
738.723	47521.07
739.063	47334.41
739.404	47269.1
739.744	47256.89
740.084	47043.11
740.424	47026.16
740.764	46866.85
741.104	46992.72
741.444	46905.04
741.784	46647.19
742.124	46616.91
742.464	46598.38
742.804	46565.39
743.143	46347.31
743.483	46389.8
743.823	46235.22
744.162	46094.66
744.502	46103.7
744.841	45942.13
745.181	46017.6
745.52	45879.3
745.86	45907.1
746.199	45749.14
746.538	45749.81
746.877	45705.3
747.216	45576.49
747.556	45444.96
747.895	45531.74
748.234	45403.61
748.573	45299.43
748.911	45299.66
749.25	45116.16
749.589	45080.23
749.928	44969.04
750.267	45158.19
750.605	44958.65
750.944	44926.11
751.283	44840.23
751.621	44995.03
751.96	44536.74
