Data from aluminium_macbook_case_FLMS001491_006.txt Node
Date: Tue Feb 07 10:43:07 GMT 2017
User: dcchb
Spectrometer: FLMS00149
Trigger mode: 0
Integration Time (sec): 2.000000E-2
Scans to average: 10
Electric dark correction enabled: true
Nonlinearity correction enabled: false
Boxcar width: 0
XAxis mode: Wavelengths
Number of Pixels in Spectrum: 2048
>>>>>Begin Spectral Data<<<<<
341.393	-7.7
341.776	-7.7
342.16	-7.7
342.543	-49.28
342.927	-73.91
343.31	-58.32
343.693	-82.5
344.077	-63.74
344.46	-65.32
344.843	-65.32
345.226	-52.89
345.61	-30.07
345.993	-9.51
346.376	-1.6
346.759	30.49
347.142	31.85
347.525	42.02
347.908	46.99
348.291	78.63
348.674	83.15
349.057	116.14
349.44	124.05
349.823	139.87
350.206	178.74
350.588	238.62
350.971	255.12
351.354	274.33
351.737	298.96
352.119	299.64
352.502	316.81
352.884	322.24
353.267	343.25
353.65	329.69
354.032	376.25
354.414	370.6
354.797	362.01
355.179	378.51
355.562	373.76
355.944	399.52
356.326	400.88
356.709	409.92
357.091	420.54
357.473	397.94
357.855	424.38
358.238	413.99
358.62	397.72
359.002	434.32
359.384	416.92
359.766	420.31
360.148	437.49
360.53	431.61
360.912	419.64
361.294	440.65
361.676	436.13
362.057	404.5
362.439	426.64
362.821	426.64
363.203	430.26
363.584	428.22
363.966	438.62
364.348	416.47
364.729	422.57
365.111	419.64
365.493	457.83
365.874	431.61
366.256	428.68
366.637	441.56
367.019	456.47
367.4	413.31
367.781	438.84
368.163	448.11
368.544	435.45
368.925	432.97
369.306	439.3
369.688	456.7
370.069	449.92
370.45	460.99
370.831	458.05
371.212	458.05
371.593	454.89
371.974	436.58
372.355	477.71
372.736	464.15
373.117	471.84
373.498	470.71
373.879	463.25
374.26	460.76
374.641	449.01
375.021	478.39
375.402	495.57
375.783	497.37
376.163	533.98
376.544	553.64
376.925	497.83
377.305	512.29
377.686	528.79
378.066	519.97
378.447	543.25
378.827	535.34
379.208	550.71
379.588	548.9
379.968	543.7
380.349	573.53
380.729	561.33
381.109	562.68
381.489	594.09
381.87	581.21
382.25	587.32
382.63	594.32
383.01	611.27
383.39	601.55
383.77	604.94
384.15	614.88
384.53	627.99
384.91	622.34
385.29	644.71
385.67	649.23
386.049	656.92
386.429	642
386.809	641.78
387.189	667.99
387.568	691.27
387.948	705.05
388.328	709.12
388.707	729.91
389.087	723.58
389.466	733.3
389.846	721.77
390.225	738.27
390.605	760.64
390.984	755.22
391.363	778.27
391.743	759.29
392.122	776.46
392.501	813.75
392.881	814.88
393.26	821.21
393.639	825.95
394.018	848.1
394.397	843.35
394.776	856.23
395.155	856.91
395.534	867.31
395.913	880.19
396.292	911.37
396.671	881.54
397.05	926.06
397.429	938.04
397.808	917.93
398.186	934.88
398.565	955.44
398.944	965.84
399.323	961.99
399.701	963.12
400.08	976.46
400.458	999.51
400.837	1016.91
401.215	1003.58
401.594	1045.61
401.972	1051.94
402.351	1062.1
402.729	1084.48
403.107	1100.3
403.486	1111.37
403.864	1090.8
404.242	1114.31
404.62	1139.84
404.999	1145.27
405.377	1152.5
405.755	1177.58
406.133	1173.29
406.511	1227.52
406.889	1244.7
407.267	1263
407.645	1269.33
408.023	1280.18
408.401	1306.17
408.779	1309.1
409.156	1358.37
409.534	1354.3
409.912	1375.54
410.29	1414.19
410.667	1433.17
411.045	1472.72
411.422	1441.98
411.8	1456.44
412.178	1506.61
412.555	1540.06
412.933	1550.45
413.31	1589.55
413.687	1614.41
414.065	1612.15
414.442	1667.96
414.819	1668.87
415.197	1703.44
415.574	1724.23
415.951	1754.06
416.328	1748.19
416.705	1790.67
417.082	1756.55
417.46	1804.46
417.837	1847.17
418.214	1851.01
418.591	1837.23
418.967	1867.96
419.344	1904.79
419.721	1922.2
420.098	1940.27
420.475	1928.3
420.852	1981.18
421.228	2011.91
421.605	2020.27
421.982	2060.5
422.358	2090.33
422.735	2115.64
423.111	2117.44
423.488	2155.64
423.864	2205.13
424.241	2200.15
424.617	2260.04
424.994	2247.38
425.37	2294.16
425.746	2271.11
426.123	2315.18
426.499	2335.07
426.875	2374.16
427.251	2475.18
427.627	2474.27
428.003	2483.31
428.379	2533.03
428.756	2577.77
429.132	2575.74
429.507	2662.51
429.883	2656.64
430.259	2747.48
430.635	2730.31
431.011	2764.43
431.387	2850.76
431.763	2906.12
432.138	2894.15
432.514	2965.11
432.89	2989.06
433.265	3076.52
433.641	3099.79
434.016	3140.24
434.392	3185.66
434.767	3244.19
435.143	3207.36
435.518	3284.19
435.894	3363.29
436.269	3384.3
436.644	3419.33
437.02	3445.54
437.395	3473.79
437.77	3547.92
438.145	3610.74
438.52	3606.9
438.895	3654.81
439.271	3669.95
439.646	3813.22
440.021	3811.19
440.395	3840.56
440.77	3826.1
441.145	3836.27
441.52	3942.03
441.895	3956.27
442.27	3993.55
442.645	4003.5
443.019	4036.49
443.394	4019.77
443.769	4160.1
444.143	4115.58
444.518	4172.08
444.892	4167.79
445.267	4212.53
445.641	4274
446.016	4311.28
446.39	4331.62
446.764	4399.42
447.139	4417.04
447.513	4467.44
447.887	4385.41
448.262	4471.96
448.636	4506.53
449.01	4588.79
449.384	4676.47
449.758	4692.74
450.132	4749.01
450.506	4777.04
450.88	4770.26
451.254	4815.23
451.628	4918.05
452.002	4949.91
452.376	4987.65
452.75	5083.02
453.123	5064.03
453.497	5201.66
453.871	5212.96
454.244	5356.68
454.618	5365.27
454.992	5458.83
455.365	5467.19
455.739	5631.02
456.112	5663.79
456.486	5723.23
456.859	5790.57
457.232	5921.86
457.606	5890.9
457.979	6008.19
458.352	6180.16
458.725	6222.65
459.099	6307.16
459.472	6435.52
459.845	6471.45
460.218	6525.92
460.591	6646.59
460.964	6594.84
461.337	6792.58
461.71	6859.92
462.083	6916.41
462.456	6961.16
462.829	7006.13
463.201	7157.09
463.574	7214.26
463.947	7304.88
464.32	7515.27
464.692	7548.71
465.065	7651.08
465.438	7747.35
465.81	7800.23
466.183	7899.44
466.555	8127.68
466.928	8209.71
467.3	8163.39
467.672	8376.49
468.045	8602.7
468.417	8633.21
468.789	8677.5
469.161	8816.25
469.534	9015.12
469.906	9190.03
470.278	9217.37
470.65	9408.33
471.022	9504.37
471.394	9686.96
471.766	9808.77
472.138	9875.66
472.51	10155.65
472.882	10242.2
473.253	10387.74
473.625	10511.35
473.997	10782.08
474.369	10818.68
474.74	11018.45
475.112	11177.32
475.484	11379.35
475.855	11524.65
476.227	11758.77
476.598	12057.07
476.97	12177.97
477.341	12525.76
477.713	12751.97
478.084	12787.67
478.455	13152.18
478.827	13239.19
479.198	13725.73
479.569	13694.77
479.94	14130.46
480.311	14271.7
480.682	14522.77
481.053	14962.53
481.424	15079.14
481.795	15205.24
482.166	15479.8
482.537	15666.01
482.908	15986.68
483.279	16122.05
483.65	16446.11
484.021	16758.19
484.391	17029.14
484.762	17184.62
485.133	17366.76
485.503	17643.14
485.874	18004.03
486.244	18307.08
486.615	18597.24
486.985	18813.73
487.356	19239.25
487.726	19355.86
488.097	19826.13
488.467	19900.25
488.837	20287.14
489.207	20603.51
489.578	20784.98
489.948	21073.1
490.318	21399.2
490.688	21395.13
491.058	21812.07
491.428	22104.94
491.798	22271.72
492.168	22741.31
492.538	22745.83
492.908	23089.77
493.278	23302.88
493.648	23432.14
494.017	23779.93
494.387	23868.28
494.757	24108.96
495.126	24415.62
495.496	24371.32
495.866	24619
496.235	24955.04
496.605	25154.58
496.974	25276.61
497.344	25574.68
497.713	25800.89
498.082	26086.76
498.452	26340.08
498.821	26413.98
499.19	26552.28
499.559	26947.98
499.928	27136.9
500.298	27279.49
500.667	27646.49
501.036	27602.65
501.405	27927.84
501.774	27933.71
502.143	28376.41
502.512	28413.02
502.88	28675.84
503.249	28629.29
503.618	28892.56
503.987	29015.27
504.356	29331.19
504.724	29441.25
505.093	29477.85
505.462	29603.05
505.83	29819.99
506.199	30141.11
506.567	30405.06
506.936	30494.55
507.304	30867.2
507.672	30959.4
508.041	31265.15
508.409	31601.19
508.777	31727.97
509.145	32005.47
509.514	32072.36
509.882	32471.45
510.25	32600.94
510.618	32897.65
510.986	33072.34
511.354	33356.85
511.722	33794.58
512.09	34026.44
512.458	33923.84
512.826	34449.48
513.193	34729.92
513.561	34694.67
513.929	34921.78
514.297	35384.82
514.664	35528.09
515.032	35638.82
515.4	35895.99
515.767	36189.77
516.135	36298.01
516.502	36110.9
516.869	36839.7
517.237	36878.79
517.604	36875.85
517.972	37290.08
518.339	37509.51
518.706	37719.45
519.073	37949.72
519.44	38140.9
519.808	38529.59
520.175	38728.23
520.542	39235.56
520.909	39441.89
521.276	39613.86
521.643	39959.61
522.009	40239.15
522.376	40598.01
522.743	40919.81
523.11	41407.71
523.477	41834.59
523.843	41869.39
524.21	42477.06
524.577	42716.15
524.943	42911.63
525.31	43261
525.676	43592.96
526.043	43895.78
526.409	44031.37
526.776	44347.75
527.142	44508.65
527.508	44834.74
527.874	45140.04
528.241	45265.69
528.607	45354.5
528.973	45699.58
529.339	45801.72
529.705	46130.52
530.071	46434.25
530.437	46525.77
530.803	46807.34
531.169	47004.85
531.535	46848.7
531.901	47130.27
532.267	47432.19
532.632	47820.2
532.998	47873.3
533.364	48071.49
533.73	48176.57
534.095	48765.26
534.461	48871.92
534.826	49009.54
535.192	49137.45
535.557	49527.27
535.923	49587.16
536.288	49765.23
536.653	49950.54
537.019	49927.49
537.384	50220.36
537.749	50342.39
538.114	50331.77
538.479	50443.18
538.845	50786.9
539.21	50716.39
539.575	50835.71
539.94	50983.05
540.305	51091.98
540.67	51117.74
541.034	51221.01
541.399	51389.37
541.764	51491.06
542.129	51526.31
542.494	51457.84
542.858	51659.87
543.223	51747.33
543.587	51892.63
543.952	51856.48
544.316	52021.89
544.681	51912.29
545.045	52227.54
545.41	52396.57
545.774	52497.81
546.138	52549.56
546.503	52670.01
546.867	52743.01
547.231	53013.51
547.595	53116.33
547.959	53254.4
548.324	53270.22
548.688	53425.7
549.052	53534.4
549.416	53649.87
549.779	53780.04
550.143	53827.72
550.507	54130.99
550.871	54243.98
551.235	54211.67
551.599	54462.51
551.962	54516.74
552.326	54584.31
552.689	54814.36
553.053	54643.29
553.417	54804.19
553.78	55057.52
554.143	54916.06
554.507	55133.23
554.87	55218.42
555.234	55426.78
555.597	55294.35
555.96	55420.45
556.323	55536.38
556.686	55563.27
557.05	55754
557.413	55796.26
557.776	55788.12
558.139	55960.77
558.502	55994.9
558.865	56122.8
559.228	56258.39
559.59	56412.51
559.953	56543.13
560.316	56804.37
560.679	56835.55
561.041	57005.27
561.404	57122.1
561.767	57295.88
562.129	57259.5
562.492	57547.17
562.854	57558.92
563.217	57603.67
563.579	57800.5
563.941	57905.58
564.304	58021.96
564.666	58229.64
565.028	58279.36
565.39	58369.3
565.753	58548.5
566.115	58604.55
566.477	58715.73
566.839	58783.52
567.201	58922.28
567.563	58947.81
567.925	59102.39
568.287	59143.52
568.648	59172.44
569.01	59268.94
569.372	59353.23
569.734	59359.78
570.095	59456.5
570.457	59536.05
570.819	59569.27
571.18	59583.05
571.542	59706.44
571.903	59722.48
572.265	59831.63
572.626	59907.56
572.987	59879.32
573.349	59903.95
573.71	60071.17
574.071	60113.21
574.432	60152.08
574.794	60340.77
575.155	60278.4
575.516	60223.49
575.877	60435.46
576.238	60465.29
576.599	60606.08
576.96	60577.83
577.32	60714.1
577.681	60799.29
578.042	60838.84
578.403	60877.03
578.763	60918.16
579.124	60922.9
579.485	61010.59
579.845	61064.37
580.206	61061.21
580.566	61124.03
580.927	61185.04
581.287	61232.05
581.648	61147.53
582.008	61178.94
582.368	61199.05
582.728	61244.93
583.089	61244.93
583.449	61258.71
583.809	61220.07
584.169	61230.01
584.529	61171.71
584.889	61331.93
585.249	61145.95
585.609	61124.71
585.969	61237.25
586.329	61137.36
586.688	61143.91
587.048	61143.01
587.408	61046.52
587.768	61094.88
588.127	61039.06
588.487	61024.6
588.846	61180.07
589.206	60971.72
589.565	61113.18
589.925	61102.56
590.284	61138.94
590.643	61154.99
591.003	61269.56
591.362	61342.78
591.721	61237.02
592.08	61250.58
592.44	61313.63
592.799	61325.38
593.158	61344.14
593.517	61380.29
593.876	61418.94
594.235	61402.89
594.593	61461.42
594.952	61534.19
595.311	61451.25
595.67	61545.94
596.029	61687.18
596.387	61653.51
596.746	61725.82
597.104	61566.05
597.463	61527.63
597.822	61669.32
598.18	61547.52
598.538	61573.51
598.897	61725.82
599.255	61512.72
599.613	61819.83
599.972	61604.92
600.33	61649.89
600.688	61488.09
601.046	61645.14
601.404	61678.36
601.762	61611.7
602.12	61750.45
602.478	61642.66
602.836	61681.75
603.194	61565.15
603.552	61641.53
603.91	61533.28
604.268	61640.85
604.625	61562.89
604.983	61634.75
605.341	61535.09
605.698	61692.6
606.056	61730.11
606.413	61677.46
606.771	61787.97
607.128	61842.2
607.485	61729.21
607.843	61828.42
608.2	61888.08
608.557	61984.57
608.914	61891.47
609.272	62056.89
609.629	62140.27
609.986	62242.64
610.343	62105.25
610.7	62314.05
611.057	62264.79
611.414	62268.18
611.771	62348.18
612.127	62463.43
612.484	62364.22
612.841	62494.16
613.198	62411.68
613.554	62414.39
613.911	62587.49
614.267	62526.03
614.624	62537.78
614.98	62538.68
615.337	62669.98
615.693	62547.04
616.05	62572.35
616.406	62669.75
616.762	62491
617.118	62521.73
617.475	62505.46
617.831	62558.57
618.187	62563.99
618.543	62588.62
618.899	62698.22
619.255	62606.7
619.611	62528.96
619.967	62670.88
620.323	62711.11
620.678	62546.36
621.034	62494.16
621.39	62509.3
621.746	62446.71
622.101	62723.53
622.457	62557.21
622.812	62559.92
623.168	62632.92
623.523	62622.52
623.879	62679.02
624.234	62491
624.589	62625.91
624.945	62648.51
625.3	62659.58
625.655	62695.29
626.01	62685.8
626.365	62733.48
626.72	62689.18
627.075	62725.12
627.43	62666.59
627.785	62633.82
628.14	62746.58
628.495	62721.95
628.85	62687.38
629.205	62706.13
629.559	62841.27
629.914	62727.83
630.269	62692.8
630.623	62660.49
630.978	62610.77
631.332	62668.62
631.687	62773.48
632.041	62595.63
632.396	62702.07
632.75	62524.44
633.104	62570.77
633.459	62479.25
633.813	62461.62
634.167	62402.86
634.521	62411.9
634.875	62392.7
635.229	62299.14
635.583	62147.05
635.937	62251.46
636.291	62194.06
636.645	62142.08
636.999	62004.23
637.352	62077.68
637.706	61913.39
638.06	61995.19
638.413	61891.01
638.767	61848.53
639.121	61823.45
639.474	61703.9
639.828	61736.22
640.181	61715.65
640.534	61653.28
640.888	61562.89
641.241	61473.4
641.594	61535.77
641.947	61561.76
642.301	61583.68
642.654	61569.89
643.007	61567.63
643.36	61531.7
643.713	61515.2
644.066	61590.23
644.419	61440.4
644.771	61298.04
645.124	61150.02
645.477	61089.23
645.83	60922.45
646.182	60884.03
646.535	60765.85
646.888	60858.27
647.24	60709.12
647.593	60879.29
647.945	60717.94
648.298	60650.82
648.65	60672.29
649.002	60638.62
649.355	60711.38
649.707	60648.33
650.059	60724.49
650.411	60994.09
650.763	61031.38
651.115	61222.56
651.467	61159.73
651.819	61127.19
652.171	60976.69
652.523	61016.23
652.875	60940.08
653.227	60876.35
653.578	61033.18
653.93	60887.42
654.282	60851.27
654.633	60643.59
654.985	60710.03
655.337	60755.22
655.688	60716.13
656.039	60735.34
656.391	60437.49
656.742	60479.75
657.094	60447.44
657.445	60566.75
657.796	60444.27
658.147	60385.29
658.498	60382.58
658.849	60366.53
659.2	60312.98
659.551	60301.45
659.902	60305.07
660.253	60311.62
660.604	60321.34
660.955	60155.01
661.306	60264.16
661.656	60203.6
662.007	60256.03
662.358	60219.19
662.708	60190.04
663.059	60321.11
663.409	60110.95
663.76	60233.2
664.11	60240.44
664.461	60323.15
664.811	60263.49
665.161	60229.59
665.511	60245.63
665.862	60251.96
666.212	60331.96
666.562	60321.79
666.912	60244.05
667.262	60276.37
667.612	60293.77
667.962	60269.36
668.312	60245.41
668.662	60387.32
669.011	60245.86
669.361	60253.32
669.711	60199.08
670.06	60105.52
670.41	60131.51
670.76	60060.55
671.109	60161.57
671.459	60091.51
671.808	60055.81
672.157	60132.64
672.507	59892.87
672.856	59949.82
673.205	59936.94
673.554	59968.58
673.904	59911.63
674.253	60010.16
674.602	59884.51
674.951	59479.78
675.3	59310.29
675.649	59667.34
675.998	59649.04
676.346	59676.38
676.695	59726.1
677.044	59473.22
677.393	59524.3
677.741	59555.03
678.09	59450.63
678.438	59350.29
678.787	59442.72
679.135	59387.35
679.484	59173.57
679.832	59299.44
680.181	59062.84
680.529	59155.04
680.877	59046.34
681.225	59015.38
681.573	59137.87
681.922	59044.08
682.27	58955.95
682.618	58997.76
682.966	58892.9
683.314	58975.16
683.661	58864.43
684.009	58809.96
684.357	58800.02
684.705	58757.99
685.053	58772.23
685.4	58759.57
685.748	58639.57
686.095	58634.6
686.443	58529.97
686.79	58507.15
687.138	58547.82
687.485	58553.7
687.832	58467.83
688.18	58545.57
688.527	58347.6
688.874	58397.32
689.221	58334.05
689.568	58211.11
689.915	58176.99
690.262	58214.27
690.609	58051.34
690.956	58073.94
691.303	58029.42
691.65	57845.24
691.997	57820.84
692.344	57695.19
692.69	57673.5
693.037	57631.46
693.383	57453.16
693.73	57518.93
694.077	57370.45
694.423	57333.85
694.769	57276.45
695.116	57168.2
695.462	57102.89
695.808	57009.33
696.155	57045.04
696.501	56839.85
696.847	56773.86
697.193	56688.89
697.539	56643.92
697.885	56401.89
698.231	56283.7
698.577	56256.81
698.923	56216.13
699.269	56028.12
699.614	55939.98
699.96	55914.9
700.306	55881.68
700.651	55733.44
700.997	55557.4
701.342	55516.49
701.688	55542.03
702.033	55380
702.379	55402.37
702.724	55338.64
703.069	55343.39
703.415	54997.64
703.76	55042.61
704.105	54981.37
704.45	54854.36
704.795	54743.18
705.14	54746.12
705.485	54694.37
705.83	54563.07
706.175	54562.62
706.52	54522.17
706.865	54403.53
707.209	54459.34
707.554	54344.77
707.899	54458.44
708.243	54281.72
708.588	54170.54
708.932	54077.43
709.277	54093.48
709.621	54048.73
709.966	53886.03
710.31	54011.45
710.654	53645.35
710.998	53816.42
711.342	53745.69
711.687	53636.32
712.031	53596.54
712.375	53531.23
712.719	53655.98
713.063	53462.31
713.407	53654.62
713.75	53386.38
714.094	53456.43
714.438	53205.59
714.782	53270.45
715.125	53033.62
715.469	53117.69
715.812	52880.18
716.156	52720.41
716.499	52766.28
716.843	52874.08
717.186	52586.17
717.53	52724.02
717.873	52661.2
718.216	52521.09
718.559	52368.55
718.902	52082.01
719.246	52110.03
719.589	52031.16
719.932	51882.92
720.275	51839.53
720.617	51774.22
720.96	51671.62
721.303	51635.69
721.646	51588.46
721.989	51451.74
722.331	51330.61
722.674	51267.34
723.016	51203.16
723.359	51109.15
723.701	51225.98
724.044	50966.33
724.386	50766.56
724.729	50758.65
725.071	50728.14
725.413	50588.71
725.755	50647.02
726.097	50449.73
726.439	50362.5
726.782	50288.83
727.124	50342.62
727.465	50193.92
727.807	50155.5
728.149	50154.6
728.491	50080.93
728.833	50077.54
729.175	49945.57
729.516	49957.09
729.858	49751.22
730.199	49830.09
730.541	49693.82
730.882	49743.08
731.224	49862.63
731.565	49668.51
731.906	49598
732.248	49706.48
732.589	49356.65
732.93	49442.75
733.271	49435.75
733.612	49437.56
733.953	49533.6
734.294	49321.17
734.635	49284.79
734.976	49263.55
735.317	49113.95
735.658	49223.32
735.999	49155.08
736.339	49217.67
736.68	49304.45
737.021	49171.35
737.361	48911.02
737.702	49021.97
738.042	48939.72
738.383	48840.06
738.723	48869.89
739.063	48647.07
739.404	48771.36
739.744	48595.32
740.084	48350.58
740.424	48416.79
740.764	48239.85
741.104	48347.87
741.444	48108.33
741.784	47980.65
742.124	47968.67
742.464	47992.4
742.804	47745.62
743.143	47837.15
743.483	47601.67
743.823	47332.98
744.162	47314.45
744.502	47350.38
744.841	47072.65
745.181	47317.39
745.52	47111.52
745.86	47013.21
746.199	46856.61
746.538	46798.3
746.877	46850.05
747.216	46678.98
747.556	46315.83
747.895	46545.2
748.234	46263.63
748.573	46164.87
748.911	46231.99
749.25	46075.16
749.589	45819.57
749.928	45897.08
750.267	45859.8
750.605	45732.34
750.944	45589.75
751.283	45487.83
751.621	45494.83
751.96	45156.99
