Data from aluminium_surface_pro_back_FLMS001491_00042.txt Node
Date: Wed Feb 08 15:34:06 GMT 2017
User: dcchb
Spectrometer: FLMS00149
Trigger mode: 0
Integration Time (sec): 2.000000E-2
Scans to average: 10
Electric dark correction enabled: true
Nonlinearity correction enabled: false
Boxcar width: 0
XAxis mode: Wavelengths
Number of Pixels in Spectrum: 2048
>>>>>Begin Spectral Data<<<<<
341.393	-15.1
341.776	-15.1
342.16	-15.1
342.543	-64.59
342.927	-75.21
343.31	-72.5
343.693	-65.04
344.077	-76.11
344.46	-54.65
344.843	-58.49
345.226	-50.58
345.61	-22.33
345.993	-18.94
346.376	-9.67
346.759	-3.57
347.142	20.38
347.525	51.34
347.908	55.18
348.291	76.42
348.674	111.9
349.057	116.65
349.44	111
349.823	139.7
350.206	147.84
350.588	225.35
350.971	224.44
351.354	231.22
351.737	266.93
352.119	280.26
352.502	273.48
352.884	281.84
353.267	300.37
353.65	318.45
354.032	301.73
354.414	322.97
354.797	336.98
355.179	333.82
355.562	325.91
355.944	352.12
356.326	348.06
356.709	341.73
357.091	342.63
357.473	346.7
357.855	362.74
358.238	366.36
358.62	376.98
359.002	358.45
359.384	364.55
359.766	352.35
360.148	376.53
360.53	368.62
360.912	365.46
361.294	356.19
361.676	361.84
362.057	378.56
362.439	344.89
362.821	354.38
363.203	363.87
363.584	353.48
363.966	325.23
364.348	371.33
364.729	349.64
365.111	380.15
365.493	367.94
365.874	348.06
366.256	362.29
366.637	344.21
367.019	331.79
367.4	365.46
367.781	342.18
368.163	364.55
368.544	349.41
368.925	362.97
369.306	358
369.688	365.23
370.069	367.04
370.45	373.37
370.831	380.6
371.212	376.76
371.593	358.68
371.974	361.16
372.355	370.43
372.736	365.46
373.117	398.45
373.498	385.79
373.879	353.71
374.26	372.24
374.641	377.21
375.021	378.11
375.402	390.54
375.783	383.31
376.163	415.62
376.544	404.33
376.925	409.3
377.305	390.99
377.686	404.78
378.066	417.21
378.447	428.05
378.827	415.85
379.208	421.27
379.588	418.34
379.968	416.08
380.349	429.86
380.729	453.36
381.109	436.19
381.489	437.77
381.87	429.86
382.25	434.38
382.63	451.1
383.01	439.35
383.39	458.79
383.77	441.39
384.15	454.04
384.53	477.77
384.91	459.92
385.29	464.89
385.67	480.71
386.049	494.94
386.429	481.61
386.809	480.03
387.189	478.45
387.568	486.81
387.948	494.72
388.328	493.81
388.707	528.39
389.087	506.47
389.466	527.71
389.846	519.58
390.225	540.14
390.605	531.55
390.984	539.01
391.363	541.95
391.743	574.49
392.122	574.26
392.501	581.5
392.881	582.63
393.26	578.11
393.639	576.3
394.018	589.63
394.397	598.67
394.776	603.87
395.155	599.57
395.534	593.25
395.913	623.53
396.292	652
396.671	626.92
397.05	637.77
397.429	643.64
397.808	666.24
398.186	669.63
398.565	672.34
398.944	671.89
399.323	697.88
399.701	689.29
400.08	698.33
400.458	697.88
400.837	736.07
401.215	734.49
401.594	747.37
401.972	746.46
402.351	724.77
402.729	759.12
403.107	760.25
403.486	760.25
403.864	777.88
404.242	773.58
404.62	799.12
404.999	799.34
405.377	805.22
405.755	829.17
406.133	816.29
406.511	829.63
406.889	865.33
407.267	844.09
407.645	833.24
408.023	897.42
408.401	912.33
408.779	911.2
409.156	913.24
409.534	917.08
409.912	931.32
410.29	935.61
410.667	955.72
411.045	966.8
411.422	1020.81
411.8	988.26
412.178	1002.28
412.555	1030.3
412.933	1029.62
413.31	1037.08
413.687	1080.69
414.065	1069.17
414.442	1084.99
414.819	1085.66
415.197	1126.79
415.574	1129.28
415.951	1134.93
416.328	1125.89
416.705	1158.43
417.082	1155.49
417.46	1183.74
417.837	1215.15
418.214	1232.78
418.591	1229.16
418.967	1282.95
419.344	1263.06
419.721	1279.33
420.098	1281.36
420.475	1288.82
420.852	1318.43
421.228	1307.8
421.605	1309.84
421.982	1364.3
422.358	1345.77
422.735	1376.28
423.111	1366.33
423.488	1388.25
423.864	1411.08
424.241	1463.05
424.617	1421.02
424.994	1456.5
425.37	1470.06
425.746	1484.75
426.123	1497.63
426.499	1513.22
426.875	1542.37
427.251	1571.07
427.627	1581.02
428.003	1610.85
428.379	1621.47
428.756	1631.19
429.132	1667.57
429.507	1667.57
429.883	1695.59
430.259	1752.99
430.635	1766.32
431.011	1742.82
431.387	1808.13
431.763	1849.03
432.138	1854
432.514	1857.17
432.89	1858.3
433.265	1934.68
433.641	1937.39
434.016	1941.23
434.392	1974.68
434.767	2071.63
435.143	2016.94
435.518	2061.23
435.894	2079.54
436.269	2113.21
436.644	2135.35
437.02	2169.02
437.395	2191.85
437.77	2196.14
438.145	2264.62
438.52	2256.71
438.895	2293.99
439.271	2293.54
439.646	2335.35
440.021	2329.47
440.395	2339.42
440.77	2332.86
441.145	2408.34
441.52	2434.1
441.895	2444.5
442.27	2440.43
442.645	2443.14
443.019	2484.04
443.394	2487.89
443.769	2520.88
444.143	2499.19
444.518	2568.56
444.892	2580.31
445.267	2646.75
445.641	2609.69
446.016	2678.62
446.39	2655.11
446.764	2686.3
447.139	2672.74
447.513	2729.01
447.887	2749.35
448.262	2736.02
448.636	2764.94
449.01	2811.95
449.384	2849.91
449.758	2848.1
450.132	2905.28
450.506	2909.8
450.88	2933.3
451.254	2917.25
451.628	2985.27
452.002	3007.42
452.376	3019.85
452.75	3099.4
453.123	3098.94
453.497	3139.17
453.871	3179.62
454.244	3248.09
454.618	3279.28
454.992	3306.4
455.365	3317.92
455.739	3400.4
456.112	3413.51
456.486	3479.72
456.859	3497.58
457.232	3569.89
457.606	3563.79
457.979	3600.85
458.352	3718.14
458.725	3717.23
459.099	3747.97
459.472	3847.85
459.845	3862.99
460.218	3910
460.591	3903.67
460.964	4006.49
461.337	4046.72
461.71	4151.8
462.083	4204
462.456	4170.78
462.829	4186.6
463.201	4307.5
463.574	4308.4
463.947	4344.33
464.32	4450.09
464.692	4448.74
465.065	4492.58
465.438	4588.85
465.81	4644.44
466.183	4713.82
466.555	4800.82
466.928	4823.64
467.3	4845.79
467.672	4952.68
468.045	5058.67
468.417	5017.54
468.789	5116.97
469.161	5165.78
469.534	5262.5
469.906	5359.45
470.278	5417.75
470.65	5511.99
471.022	5606.22
471.394	5668.59
471.766	5766.44
472.138	5872.88
472.51	5963.05
472.882	6074.23
473.253	6092.09
473.625	6182.03
473.997	6313.55
474.369	6358.97
474.74	6458.63
475.112	6593.99
475.484	6693.2
475.855	6774.1
476.227	6856.36
476.598	7045.73
476.97	7100.65
477.341	7204.37
477.713	7326.4
478.084	7389.45
478.455	7678.71
478.827	7685.72
479.198	7883.68
479.569	7981.3
479.94	8186.95
480.311	8246.15
480.682	8492.7
481.053	8626.26
481.424	8729.76
481.795	8840.71
482.166	8957.77
482.537	9144.43
482.908	9330.42
483.279	9413.35
483.65	9582.39
484.021	9800.01
484.391	9893.79
484.762	9990.74
485.133	10044.75
485.503	10195.93
485.874	10457.17
486.244	10468.47
486.615	10753.43
486.985	10895.12
487.356	11024.16
487.726	11170.14
488.097	11468.22
488.467	11444.26
488.837	11719.28
489.207	11808.09
489.578	11965.38
489.948	12116.33
490.318	12324.46
490.688	12412.15
491.058	12626.83
491.428	12755.87
491.798	12924.45
492.168	13091.22
492.538	13181.62
492.908	13334.61
493.278	13488.73
493.648	13558.78
494.017	13761.49
494.387	13821.37
494.757	14002.61
495.126	14231.08
495.496	14140.01
495.866	14241.48
496.235	14461.58
496.605	14636.27
496.974	14754.91
497.344	14833.55
497.713	14986.77
498.082	15033.09
498.452	15323.71
498.821	15342.69
499.19	15441.22
499.559	15623.81
499.928	15675.79
500.298	15796.92
500.667	15878.95
501.036	15928.89
501.405	15993.52
501.774	16162.56
502.143	16355.54
502.512	16328.65
502.88	16540.17
503.249	16673.5
503.618	16809.09
503.987	16899.71
504.356	17048.18
504.724	17065.36
505.093	17236.65
505.462	17260.61
505.83	17346.25
506.199	17536.08
506.567	17750.76
506.936	17834.83
507.304	18016.74
507.672	18062.39
508.041	18159.56
508.409	18243.63
508.777	18491.99
509.145	18647.69
509.514	18636.39
509.882	18814.69
510.25	18972.2
510.618	19044.29
510.986	19192.53
511.354	19383.71
511.722	19468.01
512.09	19724.04
512.458	19783.93
512.826	19933.53
513.193	20049.91
513.561	20137.82
513.929	20285.84
514.297	20477.02
514.664	20664.13
515.032	20811.7
515.4	21006.72
515.767	21023.9
516.135	21150.45
516.502	21144.35
516.869	21637.21
517.237	21673.14
517.604	21685.8
517.972	21861.16
518.339	22067.71
518.706	22242.85
519.073	22365.56
519.44	22482.84
519.808	22878.76
520.175	22802.61
520.542	23021.58
520.909	23265.87
521.276	23330.05
521.643	23546.09
522.009	23742.92
522.376	23885.06
522.743	24043.48
523.11	24262.23
523.477	24576.57
523.843	24698.15
524.21	24950.12
524.577	25170.68
524.943	25365.25
525.31	25458.13
525.676	25743.55
526.043	25926.82
526.409	26049.53
526.776	26269.41
527.142	26509.18
527.508	26610.19
527.874	26773.58
528.241	26927.24
528.607	27120.69
528.973	27324.75
529.339	27391.86
529.705	27611.29
530.071	27858.52
530.437	27997.5
530.803	28268.9
531.169	28435
531.535	28547.09
531.901	28590.7
532.267	28859.4
532.632	28930.13
532.998	29134.64
533.364	29220.97
533.73	29380.74
534.095	29640.62
534.461	29696.21
534.826	29932.59
535.192	30120.61
535.557	30330.77
535.923	30273.37
536.288	30351.33
536.653	30561.27
537.019	30525.57
537.384	30720.59
537.749	30911.09
538.114	30963.3
538.479	30904.54
538.845	31230.41
539.21	31150.64
539.575	31286.45
539.94	31320.35
540.305	31519.67
540.67	31604.86
541.034	31812.77
541.399	31869.03
541.764	31991.07
542.129	32066.77
542.494	32113.32
542.858	32133.89
543.223	32358.51
543.587	32516.7
543.952	32458.4
544.316	32735.23
544.681	32699.3
545.045	32799.18
545.41	32986.29
545.774	33047.76
546.138	33011.38
546.503	33221.32
546.867	33330.47
547.231	33711.47
547.595	33738.82
547.959	33654.75
548.324	33866.04
548.688	33895.42
549.052	34046.38
549.416	34205.7
549.779	34283.21
550.143	34527.5
550.507	34669.19
550.871	34701.5
551.235	34758.22
551.599	35025.34
551.962	35137.2
552.326	35251.77
552.689	35482.95
553.053	35454.48
553.417	35535.61
553.78	35971.53
554.143	35737.63
554.507	36065.99
554.87	36138.53
555.234	36544.17
555.597	36341.23
555.96	36561.57
556.323	36757.49
556.686	36764.5
557.05	36973.76
557.413	37214.66
557.776	37361.32
558.139	37416.69
558.502	37482.22
558.865	37655.78
559.228	38075.2
559.59	38086.27
559.953	38163.56
560.316	38623.21
560.679	38618.01
561.041	38979.81
561.404	38990.2
561.767	39298.9
562.129	39174.83
562.492	39483.98
562.854	39526.01
563.217	39499.34
563.579	39920.35
563.941	40045.54
564.304	40256.16
564.666	40441.69
565.028	40694.11
565.39	40752.19
565.753	41041.9
566.115	41145.18
566.477	41343.59
566.839	41574.77
567.201	41920.75
567.563	41912.84
567.925	42196.22
568.287	42211.14
568.648	42378.36
569.01	42653.84
569.372	42792.14
569.734	42798.24
570.095	43027.84
570.457	43266.93
570.819	43294.5
571.18	43392.8
571.542	43695.84
571.903	43745.56
572.265	44041.14
572.626	44141.03
572.987	44163.85
573.349	44317.75
573.71	44501.47
574.071	44560.23
574.432	44836.6
574.794	44847.22
575.155	44925.87
575.516	44961.8
575.877	45029.82
576.238	45339.19
576.599	45488.56
576.96	45461.67
577.32	45590.03
577.681	45692.85
578.042	45933.07
578.403	45904.6
578.763	45975.33
579.124	46104.82
579.485	46283.57
579.845	46484.24
580.206	46267.53
580.566	46436.34
580.927	46580.29
581.287	46627.06
581.648	46512.04
582.008	46777.57
582.368	46663.67
582.728	46807.85
583.089	46630.23
583.449	46876.1
583.809	46928.07
584.169	46982.08
584.529	46747.51
584.889	47057.11
585.249	46936.21
585.609	46963.78
585.969	47138.24
586.329	46981.41
586.688	47192.02
587.048	47075.87
587.408	46982.54
587.768	47002.2
588.127	47052.82
588.487	46994.51
588.846	47376.65
589.206	47137.11
589.565	47103.66
589.925	47354.5
590.284	47213.26
590.643	47279.03
591.003	47409.42
591.362	47434.73
591.721	47314.5
592.08	47275.86
592.44	47448.96
592.799	47444.44
593.158	47448.96
593.517	47316.54
593.876	47496.42
594.235	47399.93
594.593	47559.47
594.952	47544.55
595.311	47449.42
595.67	47524.22
596.029	47799.92
596.387	47720.6
596.746	47866.13
597.104	47600.37
597.463	47686.7
597.822	47902.51
598.18	47856.64
598.538	47720.37
598.897	48023.86
599.255	47718.11
599.613	48205.1
599.972	47992.68
600.33	48073.13
600.688	47890.53
601.046	47987.93
601.404	48257.3
601.762	48123.97
602.12	48291.43
602.478	48221.37
602.836	48346.12
603.194	47960.14
603.552	48237.42
603.91	48174.14
604.268	48296.63
604.625	48095.27
604.983	48359.22
605.341	48189.51
605.698	48461.37
606.056	48593.57
606.413	48475.83
606.771	48587.47
607.128	48592.44
607.485	48535.04
607.843	48645.99
608.2	48737.52
608.557	48851.64
608.914	48601.02
609.272	48961.69
609.629	49019.54
609.986	48969.83
610.343	48872.66
610.7	49067.45
611.057	49100.67
611.414	48982.03
611.771	49055.7
612.127	49172.31
612.484	49174.12
612.841	49307.9
613.198	49087.57
613.554	49105.19
613.911	49462.02
614.267	49335.02
614.624	49253.44
614.98	49439.42
615.337	49624.95
615.693	49601.68
616.05	49514.22
616.406	49675.8
616.762	49558.29
617.118	49580.66
617.475	49580.89
617.831	49806.19
618.187	49804.38
618.543	49768.68
618.899	49888.67
619.255	49850.03
619.611	49752.86
619.967	49799.64
620.323	50012.29
620.678	49944.49
621.034	49744.95
621.39	49937.49
621.746	49796.7
622.101	50183.36
622.457	49903.36
622.812	50065.17
623.168	50080.76
623.523	50001.67
623.879	50195.11
624.234	49979.07
624.589	50080.08
624.945	50076.01
625.3	50002.34
625.655	50113.3
626.01	50092.74
626.365	50066.3
626.72	49972.74
627.075	49913.76
627.43	49861.78
627.785	49846.87
628.14	50116.69
628.495	49931.38
628.85	49920.54
629.205	49786.98
629.559	49991.04
629.914	49846.42
630.269	49826.75
630.623	49678.28
630.978	49713.09
631.332	49894.1
631.687	49884.15
632.041	49751.95
632.396	49785.63
632.75	49625.63
633.104	49799.18
633.459	49488.23
633.813	49598.29
634.167	49537.5
634.521	49502.02
634.875	49510.15
635.229	49448.01
635.583	49195.81
635.937	49215.02
636.291	49108.81
636.645	49232.65
636.999	49194.91
637.352	49219.54
637.706	48927.57
638.06	49149.03
638.413	49008.02
638.767	48903.16
639.121	48939.77
639.474	48748.82
639.828	48714.69
640.181	48782.04
640.534	48737.29
640.888	48740.68
641.241	48504.08
641.594	48562.16
641.947	48749.04
642.301	48624.53
642.654	48593.11
643.007	48735.94
643.36	48491.65
643.713	48475.15
644.066	48618.65
644.419	48399.45
644.771	48018.89
645.124	47766.92
645.477	47752.01
645.83	47410.55
646.182	47212.81
646.535	47091.69
646.888	47021.18
647.24	47029.54
647.593	47112.48
647.945	46994.51
648.298	46943.67
648.65	46858.25
649.002	46678.14
649.355	46823.9
649.707	46734.86
650.059	46921.52
650.411	47303.43
650.763	47320.83
651.115	47728.5
651.467	47470.43
651.819	47602.63
652.171	47396.31
652.523	47425.91
652.875	47293.49
653.227	47243.32
653.578	47399.47
653.93	47154.06
654.282	46944.8
654.633	46851.47
654.985	47153.38
655.337	46937.57
655.688	46960.62
656.039	46947.96
656.391	46533.28
656.742	46690.34
657.094	46698.93
657.445	46870.67
657.796	46846.49
658.147	46735.99
658.498	46625.48
658.849	46671.58
659.2	46586.16
659.551	46521.08
659.902	46587.29
660.253	46690.57
660.604	46613.96
660.955	46291.03
661.306	46546.39
661.656	46511.59
662.007	46396.34
662.358	46426.62
662.708	46394.53
663.059	46402.89
663.409	46161.77
663.76	46405.83
664.11	46376.9
664.461	46458.48
664.811	46335.55
665.161	46276.11
665.511	46169.45
665.862	46274.98
666.212	46243.12
666.562	46280.86
666.912	46133.29
667.262	46132.61
667.612	46069.11
667.962	46086.97
668.312	45927.65
668.662	46153.18
669.011	46106.4
669.361	45973.3
669.711	45867.76
670.06	45786.41
670.41	45686.52
670.76	45788.44
671.109	45771.04
671.459	45794.54
671.808	45783.47
672.157	45864.37
672.507	45525.4
672.856	45663.93
673.205	45600.43
673.554	45728.11
673.904	45509.81
674.253	45766.75
674.602	45612.18
674.951	44975.36
675.3	44881.35
675.649	45400.2
675.998	45394.33
676.346	45316.82
676.695	45512.97
677.044	44977.39
677.393	45402.92
677.741	45314.56
678.09	45323.37
678.438	45163.37
678.787	45157.27
679.135	45283.37
679.484	45019.88
679.832	45131.74
680.181	44804.06
680.529	45016.94
680.877	44851.29
681.225	44831.18
681.573	45001.8
681.922	44731.07
682.27	44461.47
682.618	44558.64
682.966	44447.24
683.314	44583.28
683.661	44407.01
684.009	44221.48
684.357	44165.89
684.705	44036.17
685.053	44173.12
685.4	44169.73
685.748	43899.68
686.095	43875.5
686.443	43780.13
686.79	43707.14
687.138	43777.2
687.485	43723.41
687.832	43534.94
688.18	43608.61
688.527	43299.92
688.874	43287.04
689.221	43130.89
689.568	43101.28
689.915	42894.73
690.262	42705.13
690.609	42820.16
690.956	42597.57
691.303	42653.61
691.65	42434.41
691.997	42431.24
692.344	42133.85
692.69	42004.36
693.037	42143.79
693.383	41960.07
693.73	41865.83
694.077	41664.94
694.423	41775.67
694.769	41449.57
695.116	41413.87
695.462	41381.1
695.808	41183.14
696.155	41381.1
696.501	41072.18
696.847	40959.42
697.193	40604.4
697.539	40996.93
697.885	40587
698.231	40621.8
698.577	40476.49
698.923	40327.57
699.269	40357.63
699.614	39914.02
699.96	40017.52
700.306	39988.82
700.651	39834.48
700.997	39609.62
701.342	39657.98
701.688	39565.78
702.033	39229.29
702.379	39260.93
702.724	39044.67
703.069	39073.82
703.415	38854.84
703.76	38847.16
704.105	38848.96
704.45	38737.1
704.795	38585.02
705.14	38394.74
705.485	38408.07
705.83	38171.02
706.175	38269.54
706.52	38059.15
706.865	37970.34
707.209	37907.07
707.554	37779.84
707.899	37778.94
708.243	37699.84
708.588	37711.82
708.932	37333.75
709.277	37375.1
709.621	37423.47
709.966	37032.51
710.31	37134.89
710.654	36814.44
710.998	36854.44
711.342	36882.24
711.687	36769.02
712.031	36643.82
712.375	36446.99
712.719	36596.59
713.063	36400.89
713.407	36650.38
713.75	36341.23
714.094	36249.94
714.438	36114.35
714.782	36058.76
715.125	35825.54
715.469	35989.38
715.812	35707.35
716.156	35516.62
716.499	35670.97
716.843	35642.72
717.186	35410.18
717.53	35588.94
717.873	35487.7
718.216	35307.81
718.559	35242.96
718.902	35110.53
719.246	35036.64
719.589	34925.68
719.932	34801.39
720.275	35001.83
720.617	34787.15
720.96	34782.4
721.303	34727.26
721.646	34616.99
721.989	34364.34
722.331	34463.77
722.674	34314.17
723.016	34359.14
723.359	34245.7
723.701	34188.75
724.044	34075.76
724.386	33957.12
724.729	34047.73
725.071	33817.23
725.413	33914.18
725.755	33948.3
726.097	33696.11
726.439	33616.56
726.782	33503.34
727.124	33641.19
727.465	33605.94
727.807	33549.89
728.149	33556.9
728.491	33374.98
728.833	33445.72
729.175	33342.22
729.516	33232.16
729.858	33300.86
730.199	33250.69
730.541	33080.98
730.882	32959.4
731.224	33079.17
731.565	32842.12
731.906	32869.91
732.248	32885.96
732.589	32647.77
732.93	32639.64
733.271	32530.26
733.612	32613.87
733.953	32522.8
734.294	32485.74
734.635	32318.51
734.976	32321.23
735.317	32384.28
735.658	32161.23
735.999	32198.97
736.339	32064.06
736.68	32101.35
737.021	32015.47
737.361	31824.06
737.702	31926.66
738.042	31768.92
738.383	31841.24
738.723	31717.4
739.063	31664.07
739.404	31761.92
739.744	31543.39
740.084	31585.2
740.424	31485.54
740.764	31285.55
741.104	31410.29
741.444	31117.19
741.784	31215.27
742.124	31148.83
742.464	31063.63
742.804	31028.15
743.143	30971.88
743.483	31018.21
743.823	30796.29
744.162	30799.91
744.502	30833.58
744.841	30685.34
745.181	30762.85
745.52	30544.55
745.86	30629.75
746.199	30552.91
746.538	30529.86
746.877	30424.78
747.216	30439.47
747.556	30183.88
747.895	30337.1
748.234	30166.71
748.573	30118.12
748.911	30121.28
749.25	30091.23
749.589	29937.56
749.928	29948.86
750.267	30030.89
750.605	29972.36
750.944	29833.16
751.283	29696.89
751.621	29623.44
751.96	29541.19
752.298	29611.24
752.636	29596.55
752.975	29502.77
