Data from aluminium_macbook_case_FLMS001491_055.txt Node
Date: Tue Feb 07 10:43:50 GMT 2017
User: dcchb
Spectrometer: FLMS00149
Trigger mode: 0
Integration Time (sec): 2.000000E-2
Scans to average: 10
Electric dark correction enabled: true
Nonlinearity correction enabled: false
Boxcar width: 0
XAxis mode: Wavelengths
Number of Pixels in Spectrum: 2048
>>>>>Begin Spectral Data<<<<<
341.393	-7.92
341.776	-7.92
342.16	-7.92
342.543	-62.16
342.927	-77.3
343.31	-69.62
343.693	-75.94
344.077	-59
344.46	-64.87
344.843	-56.51
345.226	-56.28
345.61	-35.95
345.993	-16.51
346.376	0.44
346.759	10.83
347.142	46.09
347.525	48.35
347.908	49.7
348.291	78.85
348.674	88.8
349.057	111.62
349.44	116.14
349.823	155.91
350.206	178.74
350.588	247.44
350.971	262.35
351.354	282.01
351.737	294.22
352.119	325.4
352.502	333.54
352.884	307.32
353.267	361.78
353.65	358.62
354.032	370.37
354.414	383.7
354.797	366.98
355.179	382.35
355.562	384.61
355.944	388
356.326	417.38
356.709	407.66
357.091	385.96
357.473	418.73
357.855	419.41
358.238	428
358.62	425.74
359.002	424.38
359.384	419.86
359.766	441.56
360.148	422.57
360.53	442.01
360.912	434.55
361.294	410.14
361.676	410.37
362.057	432.97
362.439	432.97
362.821	407.66
363.203	417.6
363.584	437.94
363.966	421.44
364.348	438.39
364.729	437.04
365.111	435.45
365.493	444.27
365.874	418.73
366.256	434.55
366.637	430.93
367.019	441.56
367.4	425.96
367.781	462.12
368.163	456.25
368.544	453.53
368.925	432.29
369.306	465.96
369.688	438.84
370.069	445.85
370.45	473.65
370.831	447.88
371.212	456.7
371.593	469.35
371.974	451.73
372.355	461.44
372.736	479.3
373.117	497.37
373.498	473.87
373.879	484.27
374.26	466.41
374.641	476.58
375.021	449.24
375.402	489.46
375.783	486.53
376.163	526.75
376.544	523.81
376.925	522.68
377.305	533.08
377.686	525.17
378.066	559.07
378.447	526.75
378.827	553.87
379.208	535.34
379.588	565.17
379.968	561.33
380.349	564.04
380.729	589.8
381.109	576.47
381.489	562
381.87	569.01
382.25	583.25
382.63	592.06
383.01	592.74
383.39	625.51
383.77	616.69
384.15	616.24
384.53	618.73
384.91	659.63
385.29	635.22
385.67	673.64
386.049	691.72
386.429	651.27
386.809	655.56
387.189	720.42
387.568	703.24
387.948	695.79
388.328	719.06
388.707	716.8
389.087	747.99
389.466	729.91
389.846	751.15
390.225	763.13
390.605	771.72
390.984	791.38
391.363	767.42
391.743	789.12
392.122	820.76
392.501	818.72
392.881	834.09
393.26	840.42
393.639	860.75
394.018	857.36
394.397	875.67
394.776	880.41
395.155	894.2
395.534	879.06
395.913	905.5
396.292	918.61
396.671	930.81
397.05	943.01
397.429	940.53
397.808	953.86
398.186	952.5
398.565	989.34
398.944	988.89
399.323	987.76
399.701	997.02
400.08	1006.51
400.458	1042.9
400.837	1077.47
401.215	1054.87
401.594	1040.41
401.972	1096.23
402.351	1082.44
402.729	1122.89
403.107	1103.69
403.486	1126.28
403.864	1129
404.242	1147.53
404.62	1178.03
404.999	1186.85
405.377	1207.86
405.755	1189.56
406.133	1216.45
406.511	1255.32
406.889	1260.29
407.267	1297.58
407.645	1320.86
408.023	1318.14
408.401	1354.3
408.779	1355.66
409.156	1393.17
409.534	1397.24
409.912	1414.19
410.29	1438.59
410.667	1467.29
411.045	1476.11
411.422	1499.16
411.8	1538.7
412.178	1521.75
412.555	1579.38
412.933	1604.46
413.31	1615.99
413.687	1654.18
414.065	1688.98
414.442	1671.35
414.819	1692.37
415.197	1706.61
415.574	1772.14
415.951	1759.26
416.328	1799.49
416.705	1834.51
417.082	1826.15
417.46	1856.43
417.837	1855.08
418.214	1871.12
418.591	1908.64
418.967	1939.6
419.344	1964.91
419.721	1955.87
420.098	1983.89
420.475	2057.56
420.852	2019.37
421.228	2077.22
421.605	2079.48
421.982	2112.02
422.358	2175.97
422.735	2224.11
423.111	2173.94
423.488	2240.6
423.864	2244.67
424.241	2257.33
424.617	2291.9
424.994	2345.91
425.37	2328.74
425.746	2369.42
426.123	2394.95
426.499	2435.18
426.875	2469.98
427.251	2492.8
427.627	2549.52
428.003	2580.26
428.379	2603.53
428.756	2654.15
429.132	2700.93
429.507	2715.39
429.883	2754.26
430.259	2822.28
430.635	2799.01
431.011	2864.32
431.387	2936.63
431.763	3013.92
432.138	3020.02
432.514	3101.83
432.89	3093.69
433.265	3160.81
433.641	3160.35
434.016	3211.65
434.392	3296.62
434.767	3372.1
435.143	3346.79
435.518	3359.9
435.894	3466.34
436.269	3457.3
436.644	3539.55
437.02	3604.86
437.395	3597.41
437.77	3689.38
438.145	3694.8
438.52	3734.12
438.895	3778.64
439.271	3779.77
439.646	3873.56
440.021	3923.95
440.395	3960.11
440.77	3899.54
441.145	3982.25
441.52	4097.05
441.895	4055.02
442.27	4149.26
442.645	4104.74
443.019	4168.01
443.394	4201.68
443.769	4267.22
444.143	4215.02
444.518	4322.13
444.892	4350.15
445.267	4390.83
445.641	4392.41
446.016	4427.44
446.39	4488.68
446.764	4488
447.139	4513.31
447.513	4593.09
447.887	4575.23
448.262	4643.03
448.636	4670.82
449.01	4737.49
449.384	4785.62
449.758	4821.33
450.132	4937.03
450.506	4916.47
450.88	4975.9
451.254	4974.54
451.628	5070.36
452.002	5076.91
452.376	5163.47
452.75	5224.26
453.123	5276.23
453.497	5343.35
453.871	5350.81
454.244	5517.35
454.618	5532.95
454.992	5618.82
455.365	5632.61
455.739	5826.05
456.112	5873.5
456.486	5920.06
456.859	5961.64
457.232	6156.89
457.606	6093.84
457.979	6177.68
458.352	6317.11
458.725	6407.5
459.099	6446.6
459.472	6570.43
459.845	6638.91
460.218	6721.62
460.591	6800.94
460.964	6845
461.337	7024.66
461.71	7087.03
462.083	7237.08
462.456	7212
462.829	7283.41
463.201	7397.98
463.574	7436.85
463.947	7527.02
464.32	7757.97
464.692	7836.84
465.065	7928.59
465.438	8082.26
465.81	8143.95
466.183	8241.35
466.555	8433.66
466.928	8495.36
467.3	8497.62
467.672	8616.71
468.045	8916.59
468.417	8917.27
468.789	8976.25
469.161	9088.33
469.534	9263.47
469.906	9445.84
470.278	9515.67
470.65	9645.83
471.022	9851.93
471.394	10078.59
471.766	10042.66
472.138	10291.01
472.51	10449.88
472.882	10639.48
473.253	10770.32
473.625	10921.73
473.997	11201.05
474.369	11227.04
474.74	11369.63
475.112	11632.67
475.484	11748.15
475.855	12046.9
476.227	12130.97
476.598	12510.84
476.97	12643.27
477.341	12945.41
477.713	13193.99
478.084	13231.05
478.455	13551.72
478.827	13654.99
479.198	14123
479.569	14069.67
479.94	14579.26
480.311	14610.22
480.682	15001.17
481.053	15354.16
481.424	15597.32
481.795	15727.71
482.166	15971.54
482.537	16259.45
482.908	16586.44
483.279	16722.94
483.65	17053.77
484.021	17367.21
484.391	17541.67
484.762	17742.34
485.133	18041.09
485.503	18221.65
485.874	18710
486.244	18824.35
486.615	19221.63
486.985	19358.8
487.356	19768.96
487.726	19988.84
488.097	20355.83
488.467	20428.6
488.837	20947.46
489.207	21255.02
489.578	21509.7
489.948	21699.3
490.318	21991.05
490.688	22101.33
491.058	22392.39
491.428	22745.6
491.798	22998.7
492.168	23463.32
492.538	23453.38
492.908	23756.65
493.278	24143.76
493.648	24163.87
494.017	24393.69
494.387	24788.71
494.757	24944.41
495.126	25317.74
495.496	25439.99
495.866	25534.23
496.235	25916.82
496.605	26108.23
496.974	26296.47
497.344	26574.2
497.713	26559.06
498.082	26930.35
498.452	27330.79
498.821	27367.63
499.19	27494.4
499.559	27799.48
499.928	27935.97
500.298	28206.25
500.667	28389.52
501.036	28387.71
501.405	28798.32
501.774	28874.93
502.143	29084.42
502.512	29090.52
502.88	29584.07
503.249	29632.2
503.618	29826.77
503.987	29949.25
504.356	30184.95
504.724	30286.65
505.093	30511.27
505.462	30724.15
505.83	31012.5
506.199	31178.38
506.567	31791.01
506.936	31613.84
507.304	32021.52
507.672	32149.87
508.041	32435.74
508.409	32656.53
508.777	32895.84
509.145	33260.58
509.514	33265.33
509.882	33550.06
510.25	33561.59
510.618	34009.49
510.986	34075.7
511.354	34406.54
511.722	34741.45
512.09	35033.41
512.458	35009.46
512.826	35481.99
513.193	35579.16
513.561	35685.6
513.929	36045.82
514.297	36350.44
514.664	36441.51
515.032	36777.32
515.4	37072.46
515.767	37181.16
516.135	37485.1
516.502	37392.67
516.869	37956.5
517.237	38026.33
517.604	38110.85
517.972	38625.86
518.339	38775.69
518.706	39080.54
519.073	39332.96
519.44	39634.2
519.808	40014.3
520.175	40033.51
520.542	40576.32
520.909	40837.78
521.276	40793.94
521.643	41335.17
522.009	41696.06
522.376	42012.44
522.743	42268.7
523.11	42500.56
523.477	43084.5
523.843	43229.58
524.21	43632.96
524.577	43973.07
524.943	44071.6
525.31	44479.72
525.676	44725.82
526.043	45022.76
526.409	45221.62
526.776	45661.61
527.142	45709.52
527.508	45865.45
527.874	46136.4
528.241	46273.35
528.607	46642.38
528.973	46816.16
529.339	46889.6
529.705	47314.22
530.071	47807.77
530.437	47833.08
530.803	48113.98
531.169	48272.39
531.535	48504.25
531.901	48652.04
532.267	48890.9
532.632	49075.98
532.998	49353.49
533.364	49450.44
533.73	49601.85
534.095	49918.22
534.461	49937.66
534.826	50250.42
535.192	50412.22
535.557	50564.98
535.923	50632.78
536.288	50961.81
536.653	51056.04
537.019	50910.06
537.384	51138.98
537.749	51318.41
538.114	51453.32
538.479	51488.8
538.845	51751.85
539.21	51736.7
539.575	51705.07
539.94	51972.86
540.305	52049.69
540.67	52098.73
541.034	52143.02
541.399	52337.37
541.764	52376.91
542.129	52494.88
542.494	52599.05
542.858	52732.84
543.223	52865.71
543.587	52941.64
543.952	53009.44
544.316	53150.9
544.681	53240.62
545.045	53412.37
545.41	53568.52
545.774	53737.33
546.138	53723.55
546.503	53839.7
546.867	53870.43
547.231	54146.13
547.595	54195.17
547.959	54242.4
548.324	54342.51
548.688	54367.6
549.052	54554.03
549.416	54668.83
549.779	54763.29
550.143	54830.63
550.507	55003.06
550.871	55149.27
551.235	55141.13
551.599	55333.9
551.962	55427.91
552.326	55496.15
552.689	55603.5
553.053	55522.59
553.417	55617.73
553.78	55803.04
554.143	55805.98
554.507	55920.55
554.87	56054.11
555.234	56270.37
555.597	56067.66
555.96	56240.09
556.323	56430.59
556.686	56418.84
557.05	56617.71
557.413	56726.86
557.776	56732.51
558.139	57036.9
558.502	57064.7
558.865	57087.52
559.228	57335.2
559.59	57419.27
559.953	57461.53
560.316	57742.2
560.679	57754.4
561.041	57953.72
561.404	58091.34
561.767	58288.17
562.129	58151.9
562.492	58419.92
562.854	58481.16
563.217	58514.61
563.579	58615.39
563.941	58710.76
564.304	58823.75
564.666	58947.36
565.028	59018.55
565.39	59151.88
565.753	59283.62
566.115	59374.7
566.477	59560.45
566.839	59578.08
567.201	59707.12
567.563	59695.59
567.925	59896.72
568.287	59881.35
568.648	59918.41
569.01	60065.98
569.372	60203.15
569.734	60101.68
570.095	60252.86
570.457	60348
570.819	60375.57
571.18	60392.97
571.542	60516.81
571.903	60586.64
572.265	60702.34
572.626	60732.4
572.987	60788.22
573.349	60856.92
573.71	61011.04
574.071	61060.75
574.432	61141.2
574.794	61274.76
575.155	61267.98
575.516	61206.74
575.877	61345.49
576.238	61379.61
576.599	61472.49
576.96	61500.74
577.32	61513.62
577.681	61624.58
578.042	61684.69
578.403	61672.49
578.763	61723.79
579.124	61761.3
579.485	61832.94
579.845	61899.6
580.206	61779.15
580.566	61801.52
580.927	61914.97
581.287	61976.44
581.648	61902.54
582.008	61937.57
582.368	61980.05
582.728	61986.6
583.089	61966.72
583.449	61957
583.809	61998.36
584.169	62017.56
584.529	61975.98
584.889	62147.05
585.249	61963.55
585.609	61919.26
585.969	62071.35
586.329	61919.71
586.688	61991.12
587.048	61954.52
587.408	61986.38
587.768	62034.29
588.127	61973.95
588.487	61952.26
588.846	62104.34
589.206	62017.34
589.565	62002.42
589.925	62081.74
590.284	62049.2
590.643	62120.16
591.003	62203.55
591.362	62196.99
591.721	62169.42
592.08	62158.8
592.44	62250.33
592.799	62213.72
593.158	62179.14
593.517	62187.73
593.876	62251.46
594.235	62167.16
594.593	62223.66
594.952	62279.48
595.311	62168.75
595.67	62293.94
596.029	62339.82
596.387	62381.17
596.746	62414.39
597.104	62286.03
597.463	62327.16
597.822	62427.95
598.18	62359.02
598.538	62326.48
598.897	62466.59
599.255	62246.26
599.613	62580.71
599.972	62439.25
600.33	62413.03
600.688	62356.54
601.046	62431.56
601.404	62487.38
601.762	62483.31
602.12	62577.32
602.478	62528.06
602.836	62495.74
603.194	62393.83
603.552	62464.33
603.91	62413.71
604.268	62517.44
604.625	62448.97
604.983	62621.39
605.341	62510.43
605.698	62617.77
606.056	62740.48
606.413	62706.13
606.771	62763.99
607.128	62800.59
607.485	62693.93
607.843	62635.18
608.2	62854.6
608.557	62840.59
608.914	62807.6
609.272	62954.26
609.629	63009.85
609.986	63056.63
610.343	63020.48
610.7	63138.21
611.057	63118.33
611.414	63074.03
611.771	63121.04
612.127	63161.26
612.484	63116.07
612.841	63177.53
613.198	63153.58
613.554	63159.91
613.911	63194.93
614.267	63195.16
614.624	63182.05
614.98	63195.61
615.337	63195.84
615.693	63189.96
616.05	63195.84
616.406	63195.84
616.762	63195.84
617.118	63195.84
617.475	63195.84
617.831	63195.84
618.187	63195.84
618.543	63195.84
618.899	63195.84
619.255	63195.84
619.611	63195.84
619.967	63195.84
620.323	63195.84
620.678	63195.84
621.034	63195.84
621.39	63194.26
621.746	63195.84
622.101	63195.84
622.457	63195.84
622.812	63195.84
623.168	63195.84
623.523	63195.84
623.879	63195.84
624.234	63195.84
624.589	63195.84
624.945	63195.84
625.3	63195.84
625.655	63195.84
626.01	63195.84
626.365	63195.84
626.72	63195.84
627.075	63195.84
627.43	63195.84
627.785	63195.84
628.14	63195.84
628.495	63195.84
628.85	63195.84
629.205	63195.84
629.559	63195.84
629.914	63195.84
630.269	63195.84
630.623	63195.84
630.978	63195.84
631.332	63195.84
631.687	63195.84
632.041	63195.61
632.396	63195.84
632.75	63195.84
633.104	63195.84
633.459	63151.09
633.813	63166.91
634.167	63161.94
634.521	63076.75
634.875	63119.91
635.229	63016.63
635.583	62943.19
635.937	62914.04
636.291	62865.45
636.645	62904.09
636.999	62859.35
637.352	62821.16
637.706	62709.52
638.06	62795.4
638.413	62754.04
638.767	62637.66
639.121	62703.2
639.474	62556.53
639.828	62553.6
640.181	62633.82
640.534	62567.83
640.888	62576.65
641.241	62505.91
641.594	62506.36
641.947	62544.56
642.301	62415.07
642.654	62442.19
643.007	62429.3
643.36	62459.13
643.713	62377.33
644.066	62491
644.419	62353.6
644.771	62211.91
645.124	61935.76
645.477	61935.53
645.83	61798.59
646.182	61702.77
646.535	61608.54
646.888	61578.71
647.24	61386.17
647.593	61519.05
647.945	61528.31
648.298	61431.36
648.65	61376.23
649.002	61262.33
649.355	61423.23
649.707	61389.33
650.059	61488.31
650.411	61757.23
650.763	61773.05
651.115	61986.15
651.467	61833.84
651.819	61859.15
652.171	61784.58
652.523	61741.87
652.875	61739.83
653.227	61583.23
653.578	61694.63
653.93	61646.73
654.282	61504.81
654.633	61496.22
654.985	61506.62
655.337	61458.93
655.688	61458.26
656.039	61494.19
656.391	61234.31
656.742	61322.67
657.094	61302.1
657.445	61363.12
657.796	61290.8
658.147	61270.47
658.498	61222.56
658.849	61192.05
659.2	61217.81
659.551	61093.07
659.902	61238.83
660.253	61187.08
660.604	61220.75
660.955	61091.71
661.306	61147.3
661.656	61166.51
662.007	61141.88
662.358	61140.3
662.708	61165.16
663.059	61110.24
663.409	61011.04
663.76	61179.39
664.11	61140.75
664.461	61204.93
664.811	61172.84
665.161	61130.81
665.511	61078.61
665.862	61020.08
666.212	61094.2
666.562	61073.18
666.912	61049.68
667.262	60983.69
667.612	61018.95
667.962	60990.7
668.312	60900.98
668.662	61096.68
669.011	61044.93
669.361	60923.81
669.711	60877.26
670.06	60925.39
670.41	60870.93
670.76	60837.93
671.109	60842
671.459	60814.21
671.808	60800.65
672.157	60830.25
672.507	60668.67
672.856	60669.35
673.205	60685.85
673.554	60755.22
673.904	60609.69
674.253	60688.33
674.602	60568.34
674.951	60149.36
675.3	60004.51
675.649	60355.46
675.998	60348
676.346	60353.43
676.695	60432.07
677.044	60223.49
677.393	60302.58
677.741	60330.6
678.09	60207.89
678.438	60156.82
678.787	60274.11
679.135	60247.44
679.484	60064.4
679.832	60144.62
680.181	60072.76
680.529	60182.81
680.877	60128.57
681.225	60036.37
681.573	60195.24
681.922	59980.78
682.27	59956.83
682.618	59971.29
682.966	59913.21
683.314	59952.08
683.661	59913.89
684.009	59758.19
684.357	59715.03
684.705	59695.14
685.053	59677.06
685.4	59754.8
685.748	59585.76
686.095	59579.89
686.443	59501.02
686.79	59397.29
687.138	59550.96
687.485	59448.37
687.832	59317.3
688.18	59419.21
688.527	59269.84
688.874	59239.56
689.221	59170.86
689.568	59134.02
689.915	59021.48
690.262	59020.35
690.609	58940.81
690.956	58906.91
691.303	58810.87
691.65	58647.26
691.997	58672.79
692.344	58460.14
692.69	58456.3
693.037	58421.73
693.383	58218.79
693.73	58310.54
694.077	58151.23
694.423	58050.21
694.769	57981.51
695.116	57923.89
695.462	57860.84
695.808	57706.94
696.155	57734.74
696.501	57523.22
696.847	57524.8
697.193	57352.6
697.539	57410.45
697.885	57235.77
698.231	57127.98
698.577	57108.99
698.923	56969.79
699.269	56901.54
699.614	56803.24
699.96	56727.31
700.306	56817.02
700.651	56672.85
700.997	56572.74
701.342	56516.47
701.688	56603.7
702.033	56352.63
702.379	56395.11
702.724	56316.92
703.069	56395.57
703.415	56023.82
703.76	56118.28
704.105	56128.45
704.45	56088.68
704.795	55922.58
705.14	55934.79
705.485	55807.78
705.83	55693.21
706.175	55776.37
706.52	55743.6
706.865	55560.33
707.209	55657.28
707.554	55438.53
707.899	55535.02
708.243	55314.69
708.588	55378.19
708.932	55025.21
709.277	55076.73
709.621	55076.28
709.966	54824.31
710.31	55002.38
710.654	54646.01
710.998	54690.07
711.342	54732.11
711.687	54663.63
712.031	54495.28
712.375	54490.98
712.719	54531.43
713.063	54418.89
713.407	54467.71
713.75	54210.09
714.094	54266.36
714.438	54085.12
714.782	54156.3
715.125	53887.16
715.469	54032.69
715.812	53877.67
716.156	53714.73
716.499	53721.29
716.843	53741.4
717.186	53419.37
717.53	53486.94
717.873	53530.33
718.216	53407.17
718.559	53247.17
718.902	53060.06
719.246	53093.96
719.589	52981.87
719.932	52848.31
720.275	52825.72
720.617	52812.83
720.96	52803.57
721.303	52630.24
721.646	52661.65
721.989	52329.91
722.331	52377.14
722.674	52418.72
723.016	52458.04
723.359	52308.67
723.701	52301.89
724.044	52082.46
724.386	51900.54
724.729	52112.97
725.071	52031.61
725.413	51977.6
725.755	51835.23
726.097	51794.78
726.439	51622.13
726.782	51630.94
727.124	51899.41
727.465	51644.28
727.807	51630.27
728.149	51666.65
728.491	51662.13
728.833	51528.12
729.175	51428.24
729.516	51436.6
729.858	51236.38
730.199	51282.71
730.541	51167.45
730.882	51267.79
731.224	51308.02
731.565	51080.9
731.906	51098.98
732.248	51065.08
732.589	50922.04
732.93	50816.28
733.271	50776.5
733.612	50847.69
733.953	50710.97
734.294	50589.62
734.635	50634.59
734.976	50744.64
735.317	50545.1
735.658	50586.45
735.999	50390.07
736.339	50390.3
736.68	50347.59
737.021	50153.47
737.361	50002.29
737.702	50287.25
738.042	49911.89
738.383	49802.52
738.723	49941.5
739.063	49741.95
739.404	49899.69
739.744	49647.49
740.084	49481.62
740.424	49557.55
740.764	49448.18
741.104	49493.83
741.444	49270.78
741.784	49073.95
742.124	49193.72
742.464	48948.76
742.804	48865.59
743.143	48738.59
743.483	48908.08
743.823	48636
744.162	48543.79
744.502	48602.1
744.841	48281.2
745.181	48387.41
745.52	48281.2
745.86	48245.72
746.199	48117.82
746.538	47951.95
746.877	48121.43
747.216	48074.65
747.556	47904.94
747.895	48014.32
748.234	47737.71
748.573	47630.6
748.911	47602.35
749.25	47491.39
749.589	47383.37
749.928	47311.74
750.267	47496.36
750.605	47345.41
750.944	47297.05
751.283	47159.65
751.621	47142.48
751.96	46933.22
752.298	46916.94
