Data from aluminium_macbook_case_FLMS001491_058.txt Node
Date: Tue Feb 07 10:43:50 GMT 2017
User: dcchb
Spectrometer: FLMS00149
Trigger mode: 0
Integration Time (sec): 2.000000E-2
Scans to average: 10
Electric dark correction enabled: true
Nonlinearity correction enabled: false
Boxcar width: 0
XAxis mode: Wavelengths
Number of Pixels in Spectrum: 2048
>>>>>Begin Spectral Data<<<<<
341.393	-23.83
341.776	-23.83
342.16	-23.83
342.543	-62.92
342.927	-50.27
343.31	-74.67
343.693	-76.26
344.077	-60.66
344.46	-52.07
344.843	-53.66
345.226	-29.25
345.61	-20.21
345.993	-24.51
346.376	-12.98
346.759	6.23
347.142	29.05
347.525	35.38
347.908	64.53
348.291	79
348.674	83.51
349.057	106.56
349.44	127.36
349.823	153.12
350.206	167.58
350.588	244.41
350.971	263.85
351.354	266.79
351.737	293.23
352.119	289.61
352.502	309.72
352.884	316.05
353.267	325.54
353.65	376.39
354.032	333.9
354.414	374.13
354.797	348.14
355.179	398.53
355.562	395.37
355.944	384.75
356.326	398.31
356.709	407.12
357.091	408.93
357.473	418.2
357.855	417.29
358.238	395.6
358.62	392.89
359.002	417.74
359.384	455.71
359.766	425.65
360.148	421.81
360.53	443.51
360.912	426.78
361.294	409.38
361.676	408.03
362.057	427.91
362.439	407.57
362.821	432.88
363.203	394.47
363.584	438.53
363.966	429.49
364.348	419.55
364.729	434.69
365.111	423.17
365.493	439.21
365.874	448.93
366.256	426.1
366.637	453.67
367.019	449.83
367.4	429.49
367.781	440.79
368.163	427.01
368.544	450.74
368.925	442.6
369.306	464.07
369.688	441.92
370.069	458.65
370.45	474.01
370.831	463.84
371.212	459.78
371.593	459.78
371.974	445.09
372.355	451.41
372.736	460.91
373.117	483.5
373.498	487.35
373.879	464.97
374.26	470.4
374.641	461.36
375.021	476.05
375.402	493.22
375.783	516.95
376.163	540.45
376.544	522.83
376.925	523.96
377.305	522.6
377.686	509.94
378.066	527.8
378.447	525.54
378.827	523.96
379.208	525.54
379.588	550.85
379.968	558.98
380.349	558.98
380.729	585.65
381.109	568.93
381.489	574.12
381.87	582.94
382.25	613.44
382.63	591.3
383.01	601.02
383.39	616.38
383.77	625.87
384.15	620.22
384.53	621.81
384.91	634.01
385.29	636.72
385.67	657.51
386.049	652.54
386.429	675.14
386.809	681.47
387.189	676.27
387.568	686.21
387.948	709.71
388.328	703.16
388.707	713.33
389.087	724.63
389.466	718.75
389.846	736.6
390.225	739.54
390.605	737.96
390.984	774.8
391.363	776.15
391.743	785.42
392.122	778.19
392.501	809.37
392.881	810.95
393.26	824.51
393.639	824.74
394.018	839.88
394.397	863.83
394.776	863.38
395.155	876.04
395.534	891.63
395.913	897.05
396.292	909.71
396.671	922.36
397.05	911.74
397.429	955.13
397.808	930.95
398.186	944.06
398.565	962.36
398.944	980.67
399.323	994.23
399.701	983.6
400.08	1007.11
400.458	1026.77
400.837	1053.88
401.215	1067.9
401.594	1048.91
401.972	1116.48
402.351	1097.05
402.729	1113.32
403.107	1115.8
403.486	1110.15
403.864	1128.46
404.242	1150.15
404.62	1170.04
404.999	1182.92
405.377	1184.05
405.755	1216.59
406.133	1221.79
406.511	1226.08
406.889	1283.26
407.267	1276.93
407.645	1301.79
408.023	1332.97
408.401	1346.31
408.779	1340.2
409.156	1402.35
409.534	1414.1
409.912	1407.55
410.29	1439.41
410.667	1479.18
411.045	1489.58
411.422	1492.29
411.8	1488.9
412.178	1566.41
412.555	1561.22
412.933	1571.84
413.31	1611.16
413.687	1643.47
414.065	1656.58
414.442	1669.69
414.819	1711.72
415.197	1726.41
415.574	1756.01
415.951	1814.99
416.328	1795.33
416.705	1807.76
417.082	1831.49
417.46	1864.71
417.837	1857.25
418.214	1871.26
418.591	1901.55
418.967	1928.21
419.344	1969.57
419.721	1975.67
420.098	1968.66
420.475	2018.61
420.852	2060.86
421.228	2028.77
421.605	2078.72
421.982	2106.29
422.358	2127.75
422.735	2151.26
423.111	2201.2
423.488	2224.02
423.864	2251.37
424.241	2275.1
424.617	2279.16
424.994	2301.76
425.37	2327.07
425.746	2365.49
426.123	2445.49
426.499	2364.81
426.875	2448.65
427.251	2492.26
427.627	2553.05
428.003	2576.33
428.379	2632.6
428.756	2634.41
429.132	2694.52
429.507	2689.77
429.883	2749.89
430.259	2815.19
430.635	2828.98
431.011	2881.63
431.387	2953.27
431.763	2979.94
432.138	3002.31
432.514	3047.05
432.89	3053.61
433.265	3160.95
433.641	3179.25
434.016	3208.18
434.392	3292.24
434.767	3369.76
435.143	3346.48
435.518	3403.2
435.894	3425.35
436.269	3475.52
436.644	3528.4
437.02	3569.75
437.395	3576.3
437.77	3617.89
438.145	3727.71
438.52	3765
438.895	3791.21
439.271	3766.58
439.646	3906.69
440.021	3893.81
440.395	3958.44
440.77	3939.68
441.145	3948.05
441.52	4086.8
441.895	4027.82
442.27	4130.19
442.645	4114.14
443.019	4184.65
443.394	4164.09
443.769	4267.81
444.143	4218.32
444.518	4316.17
444.892	4288.83
445.267	4354.59
445.641	4459.22
446.016	4428.03
446.39	4469.84
446.764	4539.44
447.139	4578.31
447.513	4584.41
447.887	4609.95
448.262	4626.45
448.636	4627.12
449.01	4748.02
449.384	4795.93
449.758	4842.03
450.132	4893.56
450.506	4934.23
450.88	4979.66
451.254	4974.91
451.628	5061.24
452.002	5127.22
452.376	5191.63
452.75	5210.61
453.123	5262.14
453.497	5357.05
453.871	5414
454.244	5572.41
454.618	5549.36
454.992	5658.96
455.365	5654.89
455.739	5809.01
456.112	5863.02
456.486	5890.37
456.859	6002.46
457.232	6158.84
457.606	6113.41
457.979	6195.9
458.352	6347.98
458.725	6366.51
459.099	6434.99
459.472	6605.15
459.845	6708.2
460.218	6740.97
460.591	6776.22
460.964	6792.94
461.337	6996.78
461.71	7075.2
462.083	7196.32
462.456	7206.49
462.829	7267.96
463.201	7405.58
463.574	7461.4
463.947	7586.59
464.32	7782.3
464.692	7812.35
465.065	7919.01
465.438	7994.27
465.81	8122.17
466.183	8173.02
466.555	8385.67
466.928	8416.18
467.3	8488.49
467.672	8654.81
468.045	8860.46
468.417	8927.8
468.789	9003.51
469.161	9138.64
469.534	9309.71
469.906	9502.93
470.278	9542.25
470.65	9591.74
471.022	9836.93
471.394	10026.53
471.766	10161.22
472.138	10277.82
472.51	10509.46
472.882	10619.73
473.253	10761.2
473.625	10934.08
473.997	11152.15
474.369	11234.63
474.74	11407.74
475.112	11596.43
475.484	11812.7
475.855	12043.43
476.227	12150.32
476.598	12489.29
476.97	12635.5
477.341	12975.38
477.713	13160.46
478.084	13190.29
478.455	13682.03
478.827	13630.96
479.198	14141.22
479.569	14141
479.94	14560.2
480.311	14607.88
480.682	14962.22
481.053	15392.49
481.424	15528.53
481.795	15783.89
482.166	15894.85
482.537	16135.52
482.908	16605.79
483.279	16699.8
483.65	17043.29
484.021	17503.17
484.391	17533.45
484.762	17845.08
485.133	17987.9
485.503	18296.37
485.874	18663.59
486.244	18855.45
486.615	19092.73
486.985	19491.14
487.356	19800.28
487.726	19946.95
488.097	20387.84
488.467	20470.78
488.837	20940.59
489.207	21209.29
489.578	21555.72
489.948	21706.22
490.318	21961.81
490.688	22093.11
491.058	22431.4
491.428	22795.01
491.798	22946.64
492.168	23426.63
492.538	23525.16
492.908	23652.84
493.278	24043.56
493.648	24079.95
494.017	24464.12
494.387	24638.35
494.757	24921.05
495.126	25181.39
495.496	25330.76
495.866	25655.95
496.235	25945.66
496.605	26105.43
496.974	26302.03
497.344	26509.94
497.713	26772.98
498.082	26892.53
498.452	27260.88
498.821	27390.59
499.19	27339.75
499.559	27779.51
499.928	28004.59
500.298	28235.77
500.667	28516.67
501.036	28503.56
501.405	28769.54
501.774	28846.6
502.143	29235.52
502.512	29276.19
502.88	29580.37
503.249	29629.63
503.618	29746.24
503.987	29932.45
504.356	30083.4
504.724	30246.56
505.093	30489.49
505.462	30701.92
505.83	30871.18
506.199	31157.5
506.567	31520.43
506.936	31686.3
507.304	32164.93
507.672	32339.39
508.041	32391.82
508.409	32516.56
508.777	32937.57
509.145	33191.12
509.514	33191.57
509.882	33616.42
510.25	33686.25
510.618	33983.87
510.986	34020.25
511.354	34399.22
511.722	34670.85
512.09	34960.56
512.458	34902.71
512.826	35496.59
513.193	35465.64
513.561	35717.83
513.929	36099.52
514.297	36298.83
514.664	36660.86
515.032	36695.43
515.4	36960.06
515.767	37156.21
516.135	37414.28
516.502	37204.12
516.869	37936.98
517.237	38026.02
517.604	38096.53
517.972	38499.45
518.339	38906.9
518.706	39025.54
519.073	39320
519.44	39660.78
519.808	39990.04
520.175	40013.76
520.542	40531.94
520.909	40795.44
521.276	40799.73
521.643	41283.79
522.009	41594.06
522.376	42015.97
522.743	42122.18
523.11	42727.82
523.477	42991.09
523.843	43225.66
524.21	43603.27
524.577	43973.21
524.943	44269.02
525.31	44436.7
525.676	44769.35
526.043	45038.26
526.409	45130.69
526.776	45675.08
527.142	45672.82
527.508	45951.91
527.874	46330.66
528.241	46446.36
528.607	46660.82
528.973	46916.41
529.339	46971.1
529.705	47338.32
530.071	47673.45
530.437	47811.3
530.803	48153.44
531.169	48376.93
531.535	48421.23
531.901	48674.78
532.267	48877.49
532.632	49142.79
532.998	49277.25
533.364	49534.19
533.73	49652.83
534.095	49974.41
534.461	49924.92
534.826	50265.02
535.192	50399.25
535.557	50675.86
535.923	50612.81
536.288	50907.94
536.653	50956.75
537.019	50941.16
537.384	51204.66
537.749	51364.65
538.114	51421.6
538.479	51461.82
538.845	51679.45
539.21	51630.63
539.575	51833.11
539.94	51868.82
540.305	52118.76
540.67	52041.92
541.034	52269.49
541.399	52344.06
541.764	52400.78
542.129	52495.24
542.494	52558.07
542.858	52757.84
543.223	52797.38
543.587	53005.97
543.952	53007.32
544.316	53146.98
544.681	53232.85
545.045	53414.54
545.41	53579.96
545.774	53638.26
546.138	53785.83
546.503	53809.33
546.867	53899.5
547.231	54148.53
547.595	54161.64
547.959	54244.58
548.324	54361.18
548.688	54373.39
549.052	54612.25
549.416	54580.16
549.779	54717.33
550.143	54801.62
550.507	55011.79
550.871	55123.65
551.235	55069.64
551.599	55401.16
551.962	55397.09
552.326	55447.03
552.689	55560.25
553.053	55521.83
553.417	55548.95
553.78	55957.53
554.143	55813.12
554.507	55958.66
554.87	55962.05
555.234	56293.11
555.597	56154.36
555.96	56298.08
556.323	56359.55
556.686	56405.65
557.05	56655.59
557.413	56687.68
557.776	56814.45
558.139	56943.71
558.502	57016.48
558.865	57050.38
559.228	57293.54
559.59	57404.49
559.953	57474.77
560.316	57735.56
560.679	57746.86
561.041	57900.98
561.404	58014.19
561.767	58161.76
562.129	58171.03
562.492	58467.52
562.854	58357.91
563.217	58438.82
563.579	58609.66
563.941	58777.11
564.304	58868.18
564.666	58961.74
565.028	59048.07
565.39	59185.92
565.753	59332.58
566.115	59358.34
566.477	59443.76
566.839	59511.78
567.201	59694.83
567.563	59695.96
567.925	59888.27
568.287	59848.05
568.648	59906.12
569.01	60036.51
569.372	60149.28
569.734	60014.37
570.095	60236.06
570.457	60379.56
570.819	60352.89
571.18	60365.77
571.542	60489.16
571.903	60573.22
572.265	60627.23
572.626	60697.29
572.987	60784.29
573.349	60907.9
573.71	60982.25
574.071	61028.8
574.432	61097.05
574.794	61257.05
575.155	61221.79
575.516	61190.38
575.877	61368.91
576.238	61368.01
576.599	61465.63
576.96	61505.85
577.32	61526.87
577.681	61596.47
578.042	61679.64
578.403	61637.15
578.763	61698.39
579.124	61766.64
579.485	61845.05
579.845	61916.92
580.206	61868.1
580.566	61805.73
580.927	61876.01
581.287	61957.37
581.648	61887.99
582.008	62000.3
582.368	62012.73
582.728	61980.42
583.089	61959.63
583.449	61955.33
583.809	62013.64
584.169	61980.64
584.529	61979.06
584.889	62117.82
585.249	61964.37
585.609	61930.48
585.969	62001.89
586.329	61936.13
586.688	61975.22
587.048	61978.38
587.408	61965.96
587.768	62023.13
588.127	61969.35
588.487	61948.33
588.846	62124.37
589.206	61989.68
589.565	62009.8
589.925	62120.98
590.284	62054.31
590.643	62120.3
591.003	62125.95
591.362	62172.05
591.721	62171.37
592.08	62214.31
592.44	62188.1
592.799	62231.49
593.158	62205.5
593.517	62232.84
593.876	62244.14
594.235	62145.61
594.593	62201.88
594.952	62256.57
595.311	62158.49
595.67	62222.67
596.029	62398.94
596.387	62349.22
596.746	62356
597.104	62332.95
597.463	62287.3
597.822	62445.72
598.18	62269.22
598.538	62387.41
598.897	62398.94
599.255	62267.64
599.613	62573.85
599.972	62406.85
600.33	62464.7
600.688	62378.15
601.046	62461.08
601.404	62520.07
601.762	62369.11
602.12	62528.88
602.478	62533.85
602.836	62531.14
603.194	62434.42
603.552	62454.08
603.91	62410.24
604.268	62556.22
604.625	62451.37
604.983	62573.85
605.341	62476.68
605.698	62631.93
606.056	62722.55
606.413	62750.79
606.771	62782.88
607.128	62777.91
607.485	62659.04
607.843	62660.85
608.2	62849.55
608.557	62901.07
608.914	62851.81
609.272	62958.25
609.629	62999.6
609.986	62999.6
610.343	62928.42
610.7	63081.18
611.057	63081.86
611.414	63071.01
611.771	63100.39
612.127	63169.99
612.484	63148.98
612.841	63182.42
613.198	63133.61
613.554	63148.98
613.911	63189.43
614.267	63186.04
614.624	63189.43
614.98	63182.19
615.337	63189.43
615.693	63184.23
616.05	63189.43
616.406	63189.43
616.762	63189.43
617.118	63188.97
617.475	63177.67
617.831	63189.43
618.187	63183.1
618.543	63189.43
618.899	63189.43
619.255	63189.43
619.611	63187.39
619.967	63189.43
620.323	63189.43
620.678	63189.43
621.034	63189.43
621.39	63189.43
621.746	63188.97
622.101	63189.43
622.457	63189.43
622.812	63189.43
623.168	63189.43
623.523	63189.43
623.879	63189.43
624.234	63189.43
624.589	63189.43
624.945	63189.43
625.3	63189.43
625.655	63189.43
626.01	63189.43
626.365	63189.43
626.72	63189.43
627.075	63189.43
627.43	63189.43
627.785	63189.43
628.14	63189.43
628.495	63189.43
628.85	63189.43
629.205	63189.43
629.559	63189.43
629.914	63189.43
630.269	63189.43
630.623	63189.43
630.978	63189.43
631.332	63189.43
631.687	63189.43
632.041	63189.43
632.396	63189.43
632.75	63188.52
633.104	63189.43
633.459	63162.31
633.813	63148.75
634.167	63137
634.521	63075.76
634.875	63087.28
635.229	63034.4
635.583	62964.57
635.937	62884.12
636.291	62884.35
636.645	62903.56
636.999	62852.94
637.352	62892.94
637.706	62695.43
638.06	62779.04
638.413	62727.07
638.767	62658.37
639.121	62706.5
639.474	62575.66
639.828	62570.23
640.181	62544.02
640.534	62601.64
640.888	62560.29
641.241	62457.92
641.594	62503.12
641.947	62488.43
642.301	62451.14
642.654	62449.56
643.007	62444.59
643.36	62459.5
643.713	62425.6
644.066	62441.88
644.419	62300.41
644.771	62143.58
645.124	61999.85
645.477	61979.74
645.83	61728
646.182	61636.47
646.535	61580.43
646.888	61587.89
647.24	61452.52
647.593	61555.12
647.945	61477.15
648.298	61412.07
648.65	61390.15
649.002	61266.09
649.355	61400.09
649.707	61410.49
650.059	61466.08
650.411	61744.27
650.763	61752.18
651.115	61990.14
651.467	61867.88
651.819	61854.77
652.171	61761.67
652.523	61709.24
652.875	61727.32
653.227	61549.02
653.578	61733.87
653.93	61611.16
654.282	61492.07
654.633	61492.3
654.985	61527.55
655.337	61469.7
655.688	61444.39
656.039	61474.44
656.391	61231.96
656.742	61296.59
657.094	61251.17
657.445	61363.94
657.796	61311.74
658.147	61189.25
658.498	61160.1
658.849	61176.6
659.2	61215.92
659.551	61177.73
659.902	61258.86
660.253	61153.32
660.604	61212.98
660.955	61077.62
661.306	61180.21
661.656	61144.73
662.007	61223.38
662.358	61143.15
662.708	61155.13
663.059	61141.34
663.409	61044.4
663.76	61162.59
664.11	61187.67
664.461	61204.85
664.811	61141.57
665.161	61146.99
665.511	61025.19
665.862	60989.71
666.212	61121.23
666.562	61092.76
666.912	61045.3
667.262	61019.54
667.612	61027.22
667.962	61003.95
668.312	60911.97
668.662	61060.67
669.011	60981.8
669.361	60864.06
669.711	60907.68
670.06	60870.84
670.41	60828.36
670.76	60830.39
671.109	60899.99
671.459	60795.59
671.808	60741.81
672.157	60798.08
672.507	60675.82
672.856	60672.43
673.205	60721.47
673.554	60721.24
673.904	60601.02
674.253	60705.65
674.602	60601.02
674.951	60150.86
675.3	60032.45
675.649	60379.78
675.998	60368.26
676.346	60370.07
676.695	60412.1
677.044	60279.67
677.393	60327.81
677.741	60298.43
678.09	60225.89
678.438	60128.72
678.787	60289.39
679.135	60247.81
679.484	60082.62
679.832	60193.57
680.181	60031.09
680.529	60101.82
680.877	60057.08
681.225	60021.83
681.573	60198.77
681.922	60017.08
682.27	59945.22
682.618	59999.91
682.966	59932.34
683.314	59921.04
683.661	59879.23
684.009	59761.72
684.357	59743.87
684.705	59676.75
685.053	59759.69
685.4	59686.47
685.748	59595.4
686.095	59585.68
686.443	59443.99
686.79	59399.92
687.138	59465.68
687.485	59482.4
687.832	59334.39
688.18	59380.94
688.527	59209.87
688.874	59162.64
689.221	59205.12
689.568	59086.26
689.915	59036.99
690.262	58974.4
690.609	58879.71
690.956	58873.38
691.303	58796.77
691.65	58677.68
691.997	58595.65
692.344	58511.58
692.69	58310.68
693.037	58320.4
693.383	58192.95
693.73	58268.43
694.077	58105.49
694.423	58110.01
694.769	57991.6
695.116	57969.22
695.462	57711.15
695.808	57723.58
696.155	57792.96
696.501	57604.94
696.847	57561.1
697.193	57338.05
697.539	57456.7
697.885	57188
698.231	57131.28
698.577	57198.62
698.923	57044.95
699.269	56892.64
699.614	56765.41
699.96	56697.39
700.306	56730.39
700.651	56633.21
700.997	56533.78
701.342	56519.09
701.688	56523.16
702.033	56441.81
702.379	56400.23
702.724	56355.03
703.069	56406.1
703.415	56114.81
703.76	56145.54
704.105	56078.65
704.45	56017.86
704.795	55936.96
705.14	55873.46
705.485	55863.74
705.83	55754.37
706.175	55759.56
706.52	55576.29
706.865	55639.34
707.209	55508.05
707.554	55461.72
707.899	55491.1
708.243	55434.38
708.588	55272.8
708.932	55157.32
709.277	55101.73
709.621	55082.75
709.966	54838.01
710.31	54946.93
710.654	54700.16
710.998	54798.91
711.342	54799.36
711.687	54640.72
712.031	54615.41
712.375	54460.84
712.719	54518.92
713.063	54464.68
713.407	54506.72
713.75	54236.44
714.094	54244.12
714.438	54024.24
714.782	54093.39
715.125	53966.39
715.469	53965.71
715.812	53800.29
716.156	53702.22
716.499	53669.45
716.843	53629.45
717.186	53457.48
717.53	53594.88
717.873	53454.77
718.216	53421.32
718.559	53212.51
718.902	53023.14
719.246	53171.84
719.589	52972.29
719.932	52814.56
720.275	52757.84
720.617	52777.27
720.96	52711.28
721.303	52656.37
721.646	52567.78
721.989	52400.78
722.331	52436.94
722.674	52356.49
723.016	52342.93
723.359	52234.91
723.701	52223.16
724.044	52130.96
724.386	51860.01
724.729	52110.62
725.071	51970.29
725.413	51906.78
725.755	51926.45
726.097	51799.9
726.439	51690.52
726.782	51603.29
727.124	51857.97
727.465	51672.21
727.807	51668.37
728.149	51658.66
728.491	51592.67
728.833	51608.94
729.175	51440.81
729.516	51368.72
729.858	51334.6
730.199	51329.62
730.541	51171.21
730.882	51186.58
731.224	51353.81
731.565	50991.33
731.906	51103.19
732.248	51168.5
732.589	50986.13
732.93	50837.89
733.271	50851.45
733.612	50723.77
733.953	50851.45
734.294	50545.24
734.635	50592.92
734.976	50618.68
735.317	50511.34
735.658	50464.79
735.999	50516.31
736.339	50303.21
736.68	50345.47
737.021	50119.26
737.361	49992.48
737.702	50184.12
738.042	49988.87
738.383	49870.68
738.723	49946.16
739.063	49758.82
739.404	49747.29
739.744	49541.88
740.084	49519.5
740.424	49526.96
740.764	49479.73
741.104	49560.18
741.444	49185.27
741.784	49113.19
742.124	49224.82
742.464	48983.25
742.804	48881.1
743.143	48689.24
743.483	48849.69
743.823	48613.31
744.162	48642.46
744.502	48630.94
744.841	48403.6
745.181	48329.25
745.52	48220.55
745.86	48142.36
746.199	48010.84
746.538	48091.52
746.877	47997.06
747.216	48028.02
747.556	47876.16
747.895	47828.7
748.234	47680.46
748.573	47734.47
748.911	47631.87
749.25	47606.11
749.589	47245.44
749.928	47425.77
750.267	47469.39
750.605	47329.05
750.944	47364.08
751.283	47152.56
751.621	47230.3
