Data from aluminium_surface_pro_back_FLMS001491_00067.txt Node
Date: Wed Feb 08 15:34:24 GMT 2017
User: dcchb
Spectrometer: FLMS00149
Trigger mode: 0
Integration Time (sec): 2.000000E-2
Scans to average: 10
Electric dark correction enabled: true
Nonlinearity correction enabled: false
Boxcar width: 0
XAxis mode: Wavelengths
Number of Pixels in Spectrum: 2048
>>>>>Begin Spectral Data<<<<<
341.393	1.84
341.776	1.84
342.16	1.84
342.543	-72.74
342.927	-63.25
343.31	-76.58
343.693	-67.77
344.077	-75
344.46	-78.84
344.843	-55.34
345.226	-43.13
345.61	-37.03
345.993	-30.93
346.376	-26.86
346.759	32.8
347.142	46.13
347.525	37.54
347.908	70.08
348.291	86.81
348.674	99.01
349.057	119.12
349.44	119.35
349.823	149.18
350.206	177.65
350.588	227.59
350.971	233.47
351.354	250.42
351.737	273.02
352.119	297.65
352.502	288.16
352.884	308.95
353.267	295.61
353.65	339
354.032	332.22
354.414	326.57
354.797	355.5
355.179	369.74
355.562	349.85
355.944	381.94
356.326	356.63
356.709	377.19
357.091	385.33
357.473	390.98
357.855	372.22
358.238	403.41
358.62	393.24
359.002	376.06
359.384	376.06
359.766	376.74
360.148	390.07
360.53	377.65
360.912	369.74
361.294	394.59
361.676	374.71
362.057	382.84
362.439	365.67
362.821	391.88
363.203	380.13
363.584	368.61
363.966	374.71
364.348	368.83
364.729	357.31
365.111	376.97
365.493	360.24
365.874	366.8
366.256	376.74
366.637	372.67
367.019	388.94
367.4	370.64
367.781	377.42
368.163	375.16
368.544	370.87
368.925	400.92
369.306	389.17
369.688	381.71
370.069	377.42
370.45	382.62
370.831	387.14
371.212	396.63
371.593	400.24
371.974	362.05
372.355	405.22
372.736	383.52
373.117	388.04
373.498	407.93
373.879	398.44
374.26	411.09
374.641	380.13
375.021	402.28
375.402	393.92
375.783	419.45
376.163	433.01
376.544	446.12
376.925	405.44
377.305	403.41
377.686	441.37
378.066	440.92
378.447	411.54
378.827	442.95
379.208	456.74
379.588	448.83
379.968	463.07
380.349	471.43
380.729	452.22
381.109	465.33
381.489	444.76
381.87	466.23
382.25	482.05
382.63	488.38
383.01	457.42
383.39	469.62
383.77	477.08
384.15	500.58
384.53	493.35
384.91	482.28
385.29	496.51
385.67	499.9
386.049	519.34
386.429	519.79
386.809	530.41
387.189	522.5
387.568	517.3
387.948	529.28
388.328	535.16
388.707	546.91
389.087	550.07
389.466	564.76
389.846	558.43
390.225	555.72
390.605	578.32
390.984	570.41
391.363	573.57
391.743	580.8
392.122	610.86
392.501	596.62
392.881	609.73
393.26	639.56
393.639	639.79
394.018	650.41
394.397	646.56
394.776	662.16
395.155	619.67
395.534	665.1
395.913	658.99
396.292	650.41
396.671	675.04
397.05	667.13
397.429	689.05
397.808	673.91
398.186	696.96
398.565	700.12
398.944	696.73
399.323	727.24
399.701	739.9
400.08	713.68
400.458	732.66
400.837	751.42
401.215	751.42
401.594	778.76
401.972	798.2
402.351	780.35
402.729	806.79
403.107	806.33
403.486	803.4
403.864	831.42
404.242	825.54
404.62	824.19
404.999	865.77
405.377	844.98
405.755	890.4
406.133	905.77
406.511	884.75
406.889	887.24
407.267	913.9
407.645	930.85
408.023	923.62
408.401	952.32
408.779	958.87
409.156	988.02
409.534	1003.84
409.912	990.06
410.29	1029.15
410.667	1012.21
411.045	1040.23
411.422	1084.52
411.8	1088.14
412.178	1113.22
412.555	1115.03
412.933	1108.93
413.31	1137.85
413.687	1117.06
414.065	1157.96
414.442	1167.46
414.819	1189.83
415.197	1202.03
415.574	1219.66
415.951	1230.05
416.328	1236.61
416.705	1248.58
417.082	1265.31
417.46	1269.15
417.837	1289.71
418.214	1317.28
418.591	1298.3
418.967	1333.78
419.344	1342.14
419.721	1362.25
420.098	1380.1
420.475	1415.13
420.852	1370.39
421.228	1420.33
421.605	1424.62
421.982	1426.88
422.358	1459.88
422.735	1460.78
423.111	1469.14
423.488	1510.95
423.864	1500.55
424.241	1529.25
424.617	1540.78
424.994	1557.73
425.37	1580.33
425.746	1592.53
426.123	1598.86
426.499	1605.64
426.875	1635.69
427.251	1672.75
427.627	1701.9
428.003	1708.46
428.379	1767.67
428.756	1737.84
429.132	1799.53
429.507	1795.46
429.883	1851.96
430.259	1894.89
430.635	1911.39
431.011	1893.99
431.387	1949.81
431.763	1964.04
432.138	1967.66
432.514	2036.36
432.89	2030.03
433.265	2073.19
433.641	2084.27
434.016	2136.02
434.392	2154.77
434.767	2192.74
435.143	2190.71
435.518	2220.08
435.894	2214.89
436.269	2279.97
436.644	2307.54
437.02	2292.85
437.395	2342.57
437.77	2368.33
438.145	2404.48
438.52	2414.65
438.895	2431.15
439.271	2455.33
439.646	2522
440.021	2533.29
440.395	2532.17
440.77	2510.7
441.145	2571.49
441.52	2613.29
441.895	2624.37
442.27	2629.56
442.645	2669.79
443.019	2682.67
443.394	2698.94
443.769	2726.28
444.143	2711.6
444.518	2780.52
444.892	2779.62
445.267	2801.31
445.641	2854.64
446.016	2853.74
446.39	2867.52
446.764	2872.27
447.139	2884.25
447.513	2931.93
447.887	2943.23
448.262	2919.5
448.636	2980.51
449.01	3037.01
449.384	3004.7
449.758	3071.13
450.132	3108.2
450.506	3109.55
450.88	3152.26
451.254	3162.2
451.628	3198.14
452.002	3239.04
452.376	3282.88
452.75	3301.64
453.123	3340.28
453.497	3388.41
453.871	3430.22
454.244	3474.51
454.618	3533.95
454.992	3527.39
455.365	3572.36
455.739	3658.69
456.112	3715.41
456.486	3712.25
456.859	3778.91
457.232	3831.34
457.606	3848.97
457.979	3868.4
458.352	3952.47
458.725	4003.76
459.099	4038.34
459.472	4101.62
459.845	4163.76
460.218	4205.79
460.591	4262.29
460.964	4207.15
461.337	4385.68
461.71	4461.83
462.083	4507.48
462.456	4500.02
462.829	4537.99
463.201	4615.27
463.574	4634.03
463.947	4693.01
464.32	4783.41
464.692	4858.21
465.065	4871.54
465.438	4944.08
465.81	5002.83
466.183	5038.77
466.555	5166.22
466.928	5259.1
467.3	5238.99
467.672	5322.6
468.045	5452.31
468.417	5494.12
468.789	5492.31
469.161	5600.11
469.534	5739.31
469.906	5814.11
470.278	5863.38
470.65	5907.9
471.022	6009.81
471.394	6122.35
471.766	6173.88
472.138	6195.35
472.51	6418.16
472.882	6499.52
473.253	6611.15
473.625	6652.96
473.997	6821.32
474.369	6821.32
474.74	6927.3
475.112	7098.82
475.484	7173.85
475.855	7295.43
476.227	7383.34
476.598	7643.67
476.97	7628.75
477.341	7826.04
477.713	8002.53
478.084	8066.03
478.455	8247.04
478.827	8316.42
479.198	8551.89
479.569	8610.65
479.94	8860.36
480.311	8925.44
480.682	9109.39
481.053	9315.49
481.424	9491.53
481.795	9521.59
482.166	9732.43
482.537	9768.13
482.908	10089.48
483.279	10199.76
483.65	10397.72
484.021	10540.77
484.391	10723.36
484.762	10803.81
485.133	10864.38
485.503	11015.78
485.874	11298.94
486.244	11370.58
486.615	11571.25
486.985	11712.26
487.356	11998.13
487.726	12054.4
488.097	12415.07
488.467	12428.18
488.837	12660.03
489.207	12812.57
489.578	13006.24
489.948	13204.88
490.318	13347.47
490.688	13406
491.058	13659.78
491.428	13838.53
491.798	14021.13
492.168	14261.35
492.538	14319.65
492.908	14479.2
493.278	14678.74
493.648	14736.59
494.017	14932.07
494.387	15071.04
494.757	15146.07
495.126	15409.79
495.496	15420.19
495.866	15564.14
496.235	15748.54
496.605	15837.35
496.974	15994.41
497.344	16153.73
497.713	16229.88
498.082	16224.23
498.452	16513.04
498.821	16647.27
499.19	16684.34
499.559	16897.66
499.928	17055.17
500.298	17198.9
500.667	17234.83
501.036	17279.57
501.405	17410.19
501.774	17421.49
502.143	17601.6
502.512	17865.1
502.88	17883.17
503.249	17967.24
503.618	18089.04
503.987	18282.71
504.356	18363.84
504.724	18517.28
505.093	18600.44
505.462	18772.42
505.83	18831.62
506.199	18930.15
506.567	19213.31
506.936	19222.57
507.304	19438.39
507.672	19655.78
508.041	19641.09
508.409	19915.44
508.777	19979.39
509.145	20216.9
509.514	20343
509.882	20582.31
510.25	20498.02
510.618	20694.63
510.986	20860.04
511.354	21016.65
511.722	21188.17
512.09	21363.31
512.458	21432.23
512.826	21676.29
513.193	21729.85
513.561	21918.77
513.929	22117.86
514.297	22182.04
514.664	22418.87
515.032	22507.23
515.4	22791.75
515.767	22843.04
516.135	23009.37
516.502	22895.7
516.869	23385.4
517.237	23493.87
517.604	23562.57
517.972	23851.83
518.339	23944.48
518.706	24015.44
519.073	24217.24
519.44	24408.88
519.808	24713.28
520.175	24733.39
520.542	25101.29
520.909	25219.93
521.276	25393.03
521.643	25480.94
522.009	25710.31
522.376	25988.95
522.743	26206.8
523.11	26345.55
523.477	26628.71
523.843	26777.18
524.21	27206.77
524.577	27382.59
524.943	27479.31
525.31	27491.51
525.676	27935.56
526.043	28129.68
526.409	28186.18
526.776	28522.44
527.142	28689.44
527.508	28774.86
527.874	29016.89
528.241	29201.75
528.607	29379.82
528.973	29583.21
529.339	29601.06
529.705	29886.93
530.071	30246.24
530.437	30436.74
530.803	30464.54
531.169	30648.26
531.535	30810.52
531.901	30991.98
532.267	31084.86
532.632	31382.48
532.998	31486.21
533.364	31560.1
533.73	31774.56
534.095	32090.71
534.461	32099.3
534.826	32283.93
535.192	32433.07
535.557	32711.94
535.923	32618.15
536.288	32744.93
536.653	32900.86
537.019	32882.1
537.384	33222.66
537.749	33242.32
538.114	33413.61
538.479	33477.34
538.845	33811.79
539.21	33790.78
539.575	34019.25
539.94	34119.58
540.305	34346.02
540.67	34168.17
541.034	34371.1
541.399	34569.97
541.764	34567.25
542.129	34783.29
542.494	34863.52
542.858	34935.83
543.223	35011.54
543.587	35212.66
543.952	35267.8
544.316	35448.36
544.681	35442.03
545.045	35528.81
545.41	35769.71
545.774	35798.86
546.138	35818.97
546.503	36162.69
546.867	36159.76
547.231	36379.64
547.595	36536.24
547.959	36705.28
548.324	36778.72
548.688	36701.89
549.052	37005.16
549.416	37132.16
549.779	37156.79
550.143	37249.44
550.507	37491.47
550.871	37648.3
551.235	37538.25
551.599	37972.82
551.962	38025.24
552.326	38007.62
552.689	38338
553.053	38274.28
553.417	38303.88
553.78	38925.11
554.143	38787.48
554.507	38943.19
554.87	39060.24
555.234	39436.28
555.597	39332.78
555.96	39599.66
556.323	39827.46
556.686	39800.56
557.05	40093.44
557.413	40290.27
557.776	40367.33
558.139	40649.35
558.502	40710.14
558.865	40874.89
559.228	41086.63
559.59	41232.62
559.953	41382.67
560.316	41868.76
560.679	41941.3
561.041	42131.58
561.404	42345.13
561.767	42679.36
562.129	42490.66
562.492	43124.32
562.854	42984.89
563.217	43046.58
563.579	43315.27
563.941	43616.06
564.304	43751.65
564.666	44046.1
565.028	44163.39
565.39	44410.39
565.753	44506.65
566.115	44573.09
566.477	44738.96
566.839	45068.45
567.201	45222.34
567.563	45377.14
567.925	45605.16
568.287	45711.82
568.648	45728.32
569.01	46036.56
569.372	46429.32
569.734	46327.62
570.095	46738.69
570.457	46924.67
570.819	47016.87
571.18	47022.29
571.542	47204.66
571.903	47444.2
572.265	47477.42
572.626	47607.14
572.987	47786.57
573.349	47965.77
573.71	48078.99
574.071	48248.7
574.432	48255.71
574.794	48638.52
575.155	48552.88
575.516	48531.86
575.877	48693.89
576.238	48781.8
576.599	49034.9
576.96	49074.44
577.32	48980.44
577.681	49270.37
578.042	49416.13
578.403	49442.57
578.763	49562.34
579.124	49609.57
579.485	49746.06
579.845	49827.87
580.206	49796.91
580.566	49923.24
580.927	49877.13
581.287	49982.44
581.648	49960.07
582.008	50155.09
582.368	49955.78
582.728	50091.59
583.089	50052.27
583.449	50121.42
583.809	50223.34
584.169	50224.24
584.529	50142.21
584.889	50439.61
585.249	50323.22
585.609	50140.4
585.969	50331.13
586.329	50306.5
586.688	50294.53
587.048	50337.91
587.408	50228.31
587.768	50137.02
588.127	50210.69
588.487	50151.25
588.846	50518.7
589.206	50259.5
589.565	50272.6
589.925	50569.77
590.284	50536.33
590.643	50569.32
591.003	50469.21
591.362	50646.38
591.721	50594.4
592.08	50522.99
592.44	50680.96
592.799	50638.24
593.158	50674.18
593.517	50659.26
593.876	50744.23
594.235	50703.55
594.593	50752.82
594.952	50855.87
595.311	50806.6
595.67	50790.56
596.029	50968.63
596.387	51006.14
596.746	51106.48
597.104	50948.07
597.463	50884.11
597.822	51019.48
598.18	50877.79
598.538	50978.12
598.897	51114.62
599.255	50807.73
599.613	51368.17
599.972	51125.24
600.33	51189.19
600.688	51130.66
601.046	51312.13
601.404	51373.82
601.762	51275.06
602.12	51436.64
602.478	51420.37
602.836	51434.38
603.194	51305.57
603.552	51445.91
603.91	51350.09
604.268	51462.18
604.625	51425.79
604.983	51553.02
605.341	51406.36
605.698	51648.39
606.056	51720.7
606.413	51598.45
606.771	51782.62
607.128	51753.02
607.485	51635.51
607.843	51662.4
608.2	51804.99
608.557	51935.84
608.914	51840.02
609.272	52088.15
609.629	51982.39
609.986	52114.36
610.343	51865.56
610.7	52030.75
611.057	52236.62
611.414	52137.41
611.771	52120.24
612.127	52164.08
612.484	52220.58
612.841	52335.15
613.198	52287.02
613.554	52254.47
613.911	52566.1
614.267	52463.96
614.624	52504.64
614.98	52576.27
615.337	52647.01
615.693	52631.19
616.05	52540.79
616.406	52768.36
616.762	52526.33
617.118	52527.01
617.475	52609.04
617.831	52660.11
618.187	52725.42
618.543	52782.14
618.899	52823.05
619.255	52847.9
619.611	52787.57
619.967	52916.6
620.323	53014.45
620.678	52836.15
621.034	52726.1
621.39	52729.72
621.746	52708.92
622.101	53052.19
622.457	52809.04
622.812	52866.89
623.168	52872.54
623.523	52934.91
623.879	52985.75
624.234	52850.62
624.589	53007.22
624.945	52898.98
625.3	53034.11
625.655	52845.87
626.01	52928.13
626.365	52890.16
626.72	52828.92
627.075	52781.24
627.43	52866.21
627.785	52736.04
628.14	52855.14
628.495	52844.29
628.85	52839.32
629.205	52675.93
629.559	52861.46
629.914	52627.8
630.269	52785.08
630.623	52742.6
630.978	52682.48
631.332	52843.38
631.687	52918.18
632.041	52702.82
632.396	52859.43
632.75	52652.43
633.104	52795.25
633.459	52628.93
633.813	52585.31
634.167	52627.35
634.521	52423.51
634.875	52517.29
635.229	52472.55
635.583	52249.5
635.937	52305.09
636.291	52257.64
636.645	52328.6
636.999	52228.71
637.352	52395.71
637.706	52144.87
638.06	52346.22
638.413	52071.2
638.767	52056.74
639.121	52063.97
639.474	51877.08
639.828	51980.36
640.181	51954.37
640.534	51951.43
640.888	51851.77
641.241	51664.88
641.594	51766.35
641.947	51805.67
642.301	51666.47
642.654	51690.42
643.007	51665.56
643.36	51550.09
643.713	51542.63
644.066	51620.37
644.419	51364.78
644.771	51253.14
645.124	50832.59
645.477	50927.5
645.83	50642.09
646.182	50544.46
646.535	50430.57
646.888	50541.98
647.24	50386.95
647.593	50527.29
647.945	50419.95
648.298	50144.7
648.65	50127.52
649.002	49975.66
649.355	50236.45
649.707	50164.81
650.059	50266.73
650.411	50649.32
650.763	50637.57
651.115	50960.5
651.467	50850.44
651.819	50744.23
652.171	50769.09
652.523	50643.22
652.875	50671.46
653.227	50432.6
653.578	50738.81
653.93	50587.62
654.282	50476.89
654.633	50383.79
654.985	50410.45
655.337	50417.46
655.688	50376.33
656.039	50439.61
656.391	50207.52
656.742	50241.19
657.094	50200.06
657.445	50359.38
657.796	50355.54
658.147	50119.84
658.498	50144.92
658.849	50197.8
659.2	50139.95
659.551	50135.43
659.902	50176.79
660.253	50130.24
660.604	50067.19
660.955	49854.54
661.306	50061.54
661.656	49914.2
662.007	50012.95
662.358	49907.87
662.708	49921.65
663.059	50013.63
663.409	49707.65
663.76	50006.4
664.11	49883.46
664.461	50070.35
664.811	49903.57
665.161	49902.67
665.511	49772.05
665.862	49927.3
666.212	49928.21
666.562	49914.42
666.912	49796.69
667.262	49831.26
667.612	49809.34
667.962	49836.46
668.312	49720.98
668.662	49844.37
669.011	49780.64
669.361	49631.72
669.711	49671.04
670.06	49516.69
670.41	49457.71
670.76	49486.64
671.109	49592.17
671.459	49507.88
671.808	49339.07
672.157	49518.73
672.507	49396.24
672.856	49147.66
673.205	49438.95
673.554	49389.46
673.904	49236.25
674.253	49325.51
674.602	49291.16
674.951	48581.35
675.3	48532.99
675.649	49057.95
675.998	49118.51
676.346	49059.53
676.695	49139.08
677.044	48711.52
677.393	48815.92
677.741	48901.57
678.09	48756.94
678.438	48742.02
678.787	48753.32
679.135	48772.31
679.484	48384.74
679.832	48608.92
680.181	48353.79
680.529	48437.17
680.877	48358.53
681.225	48351.53
681.573	48512.42
681.922	48083.96
682.27	48095.03
682.618	48144.07
682.966	48141.59
683.314	48084.41
683.661	48049.84
684.009	47872.89
684.357	47865.89
684.705	47768.26
685.053	47789.28
685.4	47787.25
685.748	47625.44
686.095	47498.44
686.443	47431.32
686.79	47314.72
687.138	47408.95
687.485	47566.69
687.832	47210.76
688.18	47387.03
688.527	47095.06
688.874	46991.11
689.221	47007.15
689.568	46900.49
689.915	46633.38
690.262	46681.06
690.609	46454.85
690.956	46395.19
691.303	46547.96
691.65	46283.11
691.997	46190
692.344	45935.32
692.69	45974.19
693.037	45905.94
693.383	45764.47
693.73	45724.02
694.077	45559.96
694.423	45625.04
694.769	45406.97
695.116	45432.51
695.462	45254.66
695.808	44969.69
696.155	45130.59
696.501	44818.06
696.847	44861.67
697.193	44505.98
697.539	44782.13
697.885	44418.75
698.231	44199.77
698.577	44239.09
698.923	44168.36
699.269	43996.39
699.614	43821.02
699.96	43747.58
700.306	43815.37
700.651	43686.56
700.997	43409.73
701.342	43310.53
701.688	43262.17
702.033	43085
702.379	43088.16
702.724	42942.4
703.069	43057.43
703.415	42667.38
703.76	42617.44
704.105	42565.91
704.45	42428.07
704.795	42166.38
705.14	42063.1
705.485	42135.64
705.83	41906.27
706.175	41991.24
706.52	41929.55
706.865	41753.28
707.209	41577.47
707.554	41526.85
707.899	41492.72
708.243	41299.28
708.588	41249.11
708.932	40939.29
709.277	41076.69
709.621	41135.67
709.966	40863.81
710.31	40871.72
710.654	40571.39
710.998	40726.87
711.342	40724.16
711.687	40545.4
712.031	40425.63
712.375	40278.07
712.719	40258.86
713.063	40233.32
713.407	40404.39
713.75	40099.09
714.094	40173.66
714.438	39949.26
714.782	39891.86
715.125	39783.16
715.469	39826.78
715.812	39505.43
716.156	39414.13
716.499	39360.8
716.843	39382.04
717.186	39130.07
717.53	39313.57
717.873	39268.15
718.216	39020.92
718.559	38958.33
718.902	38781.38
719.246	38753.36
719.589	38514.72
719.932	38472.46
720.275	38453.93
720.617	38097.11
720.96	38382.75
721.303	38287.84
721.646	38348.62
721.989	37869.09
722.331	38104.34
722.674	37992.93
723.016	37947.28
723.359	37864.57
723.701	37829.09
724.044	37660.28
724.386	37482.66
724.729	37563.79
725.071	37412.38
725.413	37422.55
725.755	37358.59
726.097	37382.32
726.439	37200.18
726.782	37112.5
727.124	37336
727.465	37185.04
727.807	37125.38
728.149	36918.15
728.491	36914.76
728.833	36915.67
729.175	36707.31
729.516	36674.32
729.858	36527.2
730.199	36668.67
730.541	36436.81
730.882	36602
731.224	36516.58
731.565	36126.31
731.906	36295.35
732.248	36242.92
732.589	35930.83
732.93	35939.65
733.271	36082.02
733.612	35956.14
733.953	35913.43
734.294	35844.96
734.635	35642.03
734.976	35741.01
735.317	35520.45
735.658	35568.81
735.999	35503.95
736.339	35425.76
736.68	35500.11
737.021	35304.18
737.361	35238.88
737.702	35333.34
738.042	35048.15
738.383	35052.21
738.723	35061.25
739.063	35005.44
739.404	35057.19
739.744	34942.84
740.084	34816.74
740.424	34883.4
740.764	34710.75
741.104	34856.74
741.444	34626.69
741.784	34515.73
742.124	34536.75
742.464	34511.66
742.804	34356.86
743.143	34175.17
743.483	34290.65
743.823	34001.39
744.162	33983.54
744.502	34100.6
744.841	34112.13
745.181	33967.72
745.52	33904.67
745.86	33812.7
746.199	33818.12
746.538	33808.4
746.877	33943.32
747.216	33796.88
747.556	33615.87
747.895	33602.31
748.234	33494.29
748.573	33499.71
748.911	33386.5
749.25	33341.52
749.589	33193.51
749.928	33300.85
750.267	33221.75
750.605	33153.73
750.944	33122.1
751.283	32906.73
751.621	32806.17
751.96	32743.57
752.298	32789.45
752.636	32801.65
