Data from aluminium_surface_pro_back_FLMS001491_00064.txt Node
Date: Wed Feb 08 15:34:23 GMT 2017
User: dcchb
Spectrometer: FLMS00149
Trigger mode: 0
Integration Time (sec): 2.000000E-2
Scans to average: 10
Electric dark correction enabled: true
Nonlinearity correction enabled: false
Boxcar width: 0
XAxis mode: Wavelengths
Number of Pixels in Spectrum: 2048
>>>>>Begin Spectral Data<<<<<
341.393	-24.8
341.776	-24.8
342.16	-24.8
342.543	-58.93
342.927	-72.26
343.31	-62.77
343.693	-65.03
344.077	-72.26
344.46	-52.37
344.843	-65.25
345.226	-41.3
345.61	-31.36
345.993	-3.33
346.376	-5.37
346.759	5.25
347.142	26.95
347.525	45.93
347.908	65.37
348.291	67.85
348.674	82.77
349.057	104.91
349.44	121.64
349.823	141.07
350.206	156.21
350.588	215.64
350.971	226.49
351.354	254.74
351.737	255.42
352.119	287.05
352.502	288.64
352.884	308.52
353.267	285.25
353.65	321.4
354.032	321.86
354.414	316.66
354.797	344.91
355.179	341.06
355.562	345.13
355.944	347.62
356.326	358.69
356.709	347.17
357.091	353.95
357.473	399.59
357.855	391.68
358.238	363.66
358.62	377.9
359.002	372.7
359.384	362.76
359.766	389.88
360.148	366.83
360.53	392.59
360.912	369.54
361.294	362.08
361.676	385.36
362.057	373.83
362.439	381.52
362.821	358.01
363.203	363.66
363.584	345.81
363.966	363.21
364.348	362.76
364.729	377.67
365.111	371.57
365.493	375.87
365.874	370.67
366.256	362.98
366.637	354.4
367.019	357.34
367.4	358.24
367.781	379.93
368.163	350.33
368.544	348.75
368.925	384.45
369.306	390.78
369.688	367.5
370.069	373.15
370.45	340.39
370.831	368.63
371.212	377.9
371.593	362.53
371.974	381.29
372.355	373.38
372.736	377.67
373.117	398.69
373.498	402.76
373.879	396.2
374.26	389.2
374.641	394.85
375.021	366.6
375.402	390.55
375.783	390.1
376.163	424
376.544	426.71
376.925	415.19
377.305	421.06
377.686	419.03
378.066	424.45
378.447	454.96
378.827	415.86
379.208	432.14
379.588	437.56
379.968	421.97
380.349	436.88
380.729	443.66
381.109	443.43
381.489	445.69
381.87	440.5
382.25	449.54
382.63	451.8
383.01	449.76
383.39	456.99
383.77	477.56
384.15	448.41
384.53	479.82
384.91	471.68
385.29	483.66
385.67	518.01
386.049	501.06
386.429	510.33
386.809	493.38
387.189	513.26
387.568	520.49
387.948	513.04
388.328	534.28
388.707	525.69
389.087	514.39
389.466	522.98
389.846	536.99
390.225	557.1
390.605	562.75
390.984	557.33
391.363	597.55
391.743	578.12
392.122	586.03
392.501	603.66
392.881	587.16
393.26	610.89
393.639	608.18
394.018	619.25
394.397	619.02
394.776	622.19
395.155	644.11
395.534	629.87
395.913	637.78
396.292	645.46
396.671	677.1
397.05	672.13
397.429	659.25
397.808	678.23
398.186	713.03
398.565	669.42
398.944	707.61
399.323	719.36
399.701	725.46
400.08	714.39
400.458	728.17
400.837	725.46
401.215	761.39
401.594	729.3
401.972	774.5
402.351	756.87
402.729	777.66
403.107	809.3
403.486	802.52
403.864	804.78
404.242	811.33
404.62	826.02
404.999	837.55
405.377	847.27
405.755	850.2
406.133	862.41
406.511	878.68
406.889	890.88
407.267	906.02
407.645	914.61
408.023	923.2
408.401	920.03
408.779	952.8
409.156	979.24
409.534	970.2
409.912	987.6
410.29	998
410.667	1016.75
411.045	1047.03
411.422	1048.84
411.8	1052.91
412.178	1082.74
412.555	1079.35
412.933	1100.37
413.31	1132.68
413.687	1145.34
414.065	1153.02
414.442	1184.88
414.819	1159.8
415.197	1184.88
415.574	1208.61
415.951	1210.42
416.328	1194.6
416.705	1219.69
417.082	1232.11
417.46	1239.12
417.837	1259.91
418.214	1302.85
418.591	1293.13
418.967	1291.55
419.344	1350.08
419.721	1340.59
420.098	1333.58
420.475	1357.08
420.852	1362.73
421.228	1389.62
421.605	1402.51
421.982	1430.75
422.358	1441.37
422.735	1489.73
423.111	1466.46
423.488	1479.79
423.864	1479.34
424.241	1551.43
424.617	1549.85
424.994	1560.24
425.37	1512.56
425.746	1566.57
426.123	1605.66
426.499	1604.53
426.875	1665.1
427.251	1690.18
427.627	1697.64
428.003	1726.79
428.379	1715.49
428.756	1732.89
429.132	1769.28
429.507	1809.95
429.883	1799.78
430.259	1827.81
430.635	1879.33
431.011	1901.25
431.387	1951.42
431.763	1975.37
432.138	1977.18
432.514	1988.03
432.89	2032.77
433.265	2048.59
433.641	2090.62
434.016	2082.49
434.392	2125.65
434.767	2140.11
435.143	2170.62
435.518	2179.66
435.894	2217.63
436.269	2242.71
436.644	2284.97
437.02	2308.92
437.395	2312.99
437.77	2343.72
438.145	2384.85
438.52	2409.48
438.895	2460.56
439.271	2438.86
439.646	2499.88
440.021	2498.97
440.395	2512.31
440.77	2545.3
441.145	2529.03
441.52	2592.76
441.895	2601.34
442.27	2637.95
442.645	2648.12
443.019	2705.97
443.394	2679.99
443.769	2726.31
444.143	2718.63
444.518	2757.5
444.892	2728.8
445.267	2794.79
445.641	2796.82
446.016	2846.76
446.39	2891.05
446.764	2893.09
447.139	2894.9
447.513	2915.23
447.887	2912.75
448.262	2939.87
448.636	2960.88
449.01	3007.89
449.384	3029.58
449.758	3047.89
450.132	3079.07
450.506	3150.93
450.88	3123.14
451.254	3133.53
451.628	3221.89
452.002	3271.61
452.376	3249.01
452.75	3299.4
453.123	3326.07
453.497	3382.11
453.871	3368.78
454.244	3458.72
454.618	3511.6
454.992	3546.4
455.365	3551.6
455.739	3640.64
456.112	3660.98
456.486	3726.06
456.859	3781.88
457.232	3818.71
457.606	3819.62
457.979	3902.33
458.352	3968.31
458.725	4002.21
459.099	4050.57
459.472	4119.72
459.845	4150.68
460.218	4143.22
460.591	4273.84
460.964	4257.57
461.337	4334.86
461.71	4388.64
462.083	4483.55
462.456	4513.38
462.829	4533.27
463.201	4616.66
463.574	4589.77
463.947	4732.59
464.32	4753.83
464.692	4797.44
465.065	4866.82
465.438	4964.67
465.81	5003.09
466.183	5071.11
466.555	5187.49
466.928	5227.26
467.3	5198.34
467.672	5309.07
468.045	5415.96
468.417	5422.96
468.789	5529.18
469.161	5551.1
469.534	5662.96
469.906	5764.65
470.278	5776.85
470.65	5893.91
471.022	6034.02
471.394	6098.88
471.766	6145.21
472.138	6230.18
472.51	6356.05
472.882	6507.46
473.253	6582.26
473.625	6660.67
473.997	6862.47
474.369	6854.79
474.74	6925.3
475.112	7063.15
475.484	7152.41
475.855	7307.21
476.227	7312.86
476.598	7605.96
476.97	7638.05
477.341	7812.96
477.713	7946.29
478.084	7994.65
478.455	8270.12
478.827	8345.37
479.198	8541.98
479.569	8525.48
479.94	8915.75
480.311	8901.74
480.682	9141.74
481.053	9296.54
481.424	9480.26
481.795	9517.77
482.166	9717.77
482.537	9822.85
482.908	10029.62
483.279	10096.29
483.65	10292.67
484.021	10572.66
484.391	10687.23
484.762	10844.52
485.133	10867.79
485.503	11025.76
485.874	11256.03
486.244	11445.86
486.615	11599.75
486.985	11722.46
487.356	11989.12
487.726	12051.49
488.097	12419.84
488.467	12418.49
488.837	12645.6
489.207	12797.91
489.578	12956.78
489.948	13055.31
490.318	13372.13
490.688	13423.21
491.058	13574.39
491.428	13799.02
491.798	13953.14
492.168	14222.96
492.538	14273.13
492.908	14398.1
493.278	14674.25
493.648	14660.69
494.017	14930.74
494.387	15054.8
494.757	15182.71
495.126	15274.01
495.496	15377.51
495.866	15570.27
496.235	15708.8
496.605	15840.32
496.974	15911.5
497.344	16052.97
497.713	16172.51
498.082	16291.61
498.452	16530.24
498.821	16634.87
499.19	16639.62
499.559	16841.65
499.928	17028.31
500.298	17127.97
500.667	17299.71
501.036	17202.32
501.405	17458.58
501.774	17482.08
502.143	17705.35
502.512	17850.66
502.88	17959.13
503.249	18029.86
503.618	18091.11
503.987	18094.95
504.356	18387.6
504.724	18438.22
505.093	18492
505.462	18615.61
505.83	18784.87
506.199	19007.24
506.567	19198.42
506.936	19244.97
507.304	19515.7
507.672	19484.52
508.041	19643.38
508.409	19872.98
508.777	19993.66
509.145	20173.76
509.514	20239.98
509.882	20394.55
510.25	20411.05
510.618	20650.81
510.986	20764.26
511.354	21025.27
511.722	21231.81
512.09	21396.56
512.458	21416.89
512.826	21597.45
513.193	21788.86
513.561	21860.72
513.929	22034.51
514.297	22259.13
514.664	22508.84
515.032	22511.33
515.4	22732.34
515.767	22794.26
516.135	23050.75
516.502	22941.83
516.869	23459.33
517.237	23525.77
517.604	23451.42
517.972	23854.57
518.339	24048.01
518.706	23947.68
519.073	24163.26
519.44	24415.01
519.808	24722.57
520.175	24775.22
520.542	25128.44
520.909	25192.39
521.276	25324.81
521.643	25529.55
522.009	25684.13
522.376	25863.78
522.743	26104
523.11	26404.56
523.477	26644.1
523.843	26825.57
524.21	27150.53
524.577	27278.89
524.943	27477.3
525.31	27509.62
525.676	27860.11
526.043	27956.38
526.409	28063.05
526.776	28522.47
527.142	28708.23
527.508	28629.59
527.874	28992.74
528.241	29208.1
528.607	29278.38
528.973	29582.1
529.339	29604.02
529.705	29925.6
530.071	30172.6
530.437	30449.88
530.803	30445.58
531.169	30742.98
531.535	30810.55
531.901	31056.42
532.267	31130.09
532.632	31354.26
532.998	31332.34
533.364	31654.82
533.73	31795.6
534.095	31846.68
534.461	32027.24
534.826	32235.14
535.192	32387.45
535.557	32664.96
535.923	32640.1
536.288	32659.31
536.653	32953.77
537.019	33011.84
537.384	33169.13
537.749	33263.59
538.114	33308.56
538.479	33477.14
538.845	33629
539.21	33679.4
539.575	33872.84
539.94	34002.78
540.305	34293.39
540.67	34076.22
541.034	34386.05
541.399	34439.15
541.764	34664
542.129	34629.43
542.494	34853.6
542.858	34906.26
543.223	34993.49
543.587	35258.11
543.952	35281.61
544.316	35342.86
544.681	35369.3
545.045	35665.11
545.41	35882.28
545.774	35844.99
546.138	35870.3
546.503	36004.08
546.867	36094.02
547.231	36345.77
547.595	36628.25
547.959	36679.54
548.324	36673.44
548.688	36795.25
549.052	36947.56
549.416	36945.07
549.779	37030.95
550.143	37328.79
550.507	37457.83
550.871	37601.1
551.235	37581.89
551.599	37846.07
551.962	37835.9
552.326	38071.15
552.689	38307.07
553.053	38045.16
553.417	38432.49
553.78	38828.87
554.143	38734.63
554.507	38963.1
554.87	39032.93
555.234	39487.15
555.597	39321.73
555.96	39589.07
556.323	39711.33
556.686	39740.93
557.05	40170.53
557.413	40179.11
557.776	40434.7
558.139	40586.56
558.502	40898.87
558.865	40865.87
559.228	41229.93
559.59	41373.21
559.953	41351.74
560.316	41886.41
560.679	41834.21
561.041	42097.25
561.404	42347.42
561.767	42623.57
562.129	42508.77
562.492	42998.93
562.854	42961.64
563.217	43055.42
563.579	43359.37
563.941	43692.02
564.304	43729.3
564.666	43953.25
565.028	44126.35
565.39	44206.13
565.753	44588.49
566.115	44496.51
566.477	44757.75
566.839	44845.21
567.201	45263.05
567.563	45363.38
567.925	45595.92
568.287	45677.5
568.648	45794.78
569.01	46132.18
569.372	46279.29
569.734	46251.5
570.095	46550.24
570.457	46967.41
570.819	46940.07
571.18	47034.75
571.542	47230.45
571.903	47350
572.265	47422.76
572.626	47638.8
572.987	47675.87
573.349	47895.52
573.71	48103.65
574.071	48201.5
574.432	48187.26
574.794	48531.44
575.155	48530.53
575.516	48651.21
575.877	48662.51
576.238	48759.68
576.599	48998.54
576.96	49003.06
577.32	49111.08
577.681	49257.97
578.042	49304.3
578.403	49357.85
578.763	49464.97
579.124	49545.19
579.485	49628.81
579.845	49841.23
580.206	49768.69
580.566	49794.91
580.927	49844.85
581.287	49923.04
581.648	49921.46
582.008	50078.51
582.368	50022.24
582.728	50138.4
583.089	50148.12
583.449	50199.87
583.809	50136.82
584.169	50242.13
584.529	50087.33
584.889	50407.77
585.249	50172.3
585.609	50139.98
585.969	50289.36
586.329	50209.58
586.688	50271.05
587.048	50214.1
587.408	50131.62
587.768	50178.62
588.127	50118.96
588.487	50157.83
588.846	50483.47
589.206	50222.01
589.565	50311.73
589.925	50438.73
590.284	50493.19
590.643	50467.2
591.003	50507.88
591.362	50591.04
591.721	50561.44
592.08	50596.47
592.44	50674.2
592.799	50600.76
593.158	50675.33
593.517	50543.36
593.876	50684.6
594.235	50658.16
594.593	50760.53
594.952	50849.79
595.311	50742.23
595.67	50751.72
596.029	51016.57
596.387	51010.92
596.746	50952.39
597.104	50795.78
597.463	50937.02
597.822	51026.74
598.18	50921.88
598.538	50830.58
598.897	51131.14
599.255	50760.76
599.613	51346.5
599.972	51112.61
600.33	51182.21
600.688	51049.34
601.046	51216.79
601.404	51256.11
601.762	51228.54
602.12	51423.56
602.478	51397.58
602.836	51451.36
603.194	51278.03
603.552	51360.97
603.91	51287.97
604.268	51440.06
604.625	51344.47
604.983	51550.79
605.341	51400.29
605.698	51543.56
606.056	51617.91
606.413	51612.71
606.771	51756.21
607.128	51701.3
607.485	51650.68
607.843	51762.09
608.2	51826.49
608.557	51953.49
608.914	51778.13
609.272	51970.67
609.629	51951.68
609.986	52127.5
610.343	51896.32
610.7	52183.32
611.057	52142.19
611.414	52058.12
611.771	52028.97
612.127	52135.18
612.484	52194.84
612.841	52353.48
613.198	52265.12
613.554	52234.16
613.911	52528.84
614.267	52448.17
614.624	52431.22
614.98	52552.8
615.337	52563.87
615.693	52555.74
616.05	52466.25
616.406	52761.83
616.762	52558.67
617.118	52672.8
617.475	52532.69
617.831	52672.8
618.187	52694.72
618.543	52650.88
618.899	52917.99
619.255	52777.2
619.611	52723.64
619.967	52953.24
620.323	52968.16
620.678	52830.08
621.034	52661.72
621.39	52773.58
621.746	52733.81
622.101	53077.76
622.457	52792.11
622.812	52809.29
623.168	52929.51
623.523	52896.29
623.879	52979.91
624.234	52741.95
624.589	52912.11
624.945	52928.16
625.3	52935.84
625.655	52857.42
626.01	52828.05
626.365	52839.8
626.72	52873.24
627.075	52784.66
627.43	52818.78
627.785	52733.36
628.14	52706.47
628.495	52855.16
628.85	52779.46
629.205	52657.65
629.559	52892
629.914	52749.4
630.269	52762.74
630.623	52696.3
630.978	52614.04
631.332	52809.97
631.687	52855.62
632.041	52774.49
632.396	52832.34
632.75	52762.06
633.104	52681.84
633.459	52544.89
633.813	52467.83
634.167	52506.7
634.521	52507.83
634.875	52498.79
635.229	52491.33
635.583	52250.43
635.937	52209.98
636.291	52278.46
636.645	52251.56
636.999	52197.78
637.352	52314.16
637.706	52050.67
638.06	52272.58
638.413	52077.11
638.767	52080.5
639.121	52044.79
639.474	51859.03
639.828	51876.88
640.181	51931.8
640.534	51922.99
640.888	51758.47
641.241	51564.12
641.594	51689.77
641.947	51713.05
642.301	51554.18
642.654	51745.14
643.007	51597.57
643.36	51549.89
643.713	51464.69
644.066	51642.31
644.419	51463.11
644.771	51114.87
645.124	50898.83
645.477	50800.08
645.83	50640.08
646.182	50505.85
646.535	50490.25
646.888	50453.65
647.24	50279.86
647.593	50455.23
647.945	50368.22
648.298	50166.42
648.65	50159.87
649.002	50050.27
649.355	50238.96
649.707	50105.86
650.059	50171.17
650.411	50616.13
650.763	50627.43
651.115	50966.4
651.467	50802.79
651.819	50744.71
652.171	50664.71
652.523	50742
652.875	50676.01
653.227	50484.83
653.578	50775.22
653.93	50665.84
654.282	50464.72
654.633	50403.7
654.985	50434.66
655.337	50462.46
655.688	50390.37
656.039	50404.38
656.391	50220.2
656.742	50153.31
657.094	50245.52
657.445	50261.33
657.796	50188.57
658.147	50104.5
658.498	50151.73
658.849	50242.35
659.2	50078.51
659.551	49968.46
659.902	50149.7
660.253	50070.15
660.604	50100.21
660.955	49914.9
661.306	50043.94
661.656	49940.89
662.007	50004.17
662.358	50039.64
662.708	49997.84
663.059	49862.93
663.409	49687.34
663.76	49902.7
664.11	49930.27
664.461	49895.69
664.811	49960.32
665.161	49937.05
665.511	49905.41
665.862	49771.63
666.212	49895.24
666.562	49919.42
666.912	49806.2
667.262	49760.1
667.612	49785.64
667.962	49749.71
668.312	49593.78
668.662	49845.53
669.011	49743.61
669.361	49746.09
669.711	49572.09
670.06	49481.24
670.41	49513.1
670.76	49393.56
671.109	49615.02
671.459	49461.35
671.808	49504.07
672.157	49455.25
672.507	49142.72
672.856	49220.68
673.205	49331.19
673.554	49341.58
673.904	49253
674.253	49324.64
674.602	49209.16
674.951	48630.42
675.3	48481.72
675.649	49029.05
675.998	48968.49
676.346	48937.07
676.695	49065.43
677.044	48651.21
677.393	48851.43
677.741	48795.16
678.09	48723.75
678.438	48678.32
678.787	48664.77
679.135	48568.72
679.484	48478.78
679.832	48497.31
680.181	48361.5
680.529	48380.93
680.877	48359.46
681.225	48334.38
681.573	48552.45
681.922	48155.17
682.27	48153.14
682.618	48148.85
682.966	48088.51
683.314	48260.48
683.661	48025.23
684.009	47793.6
684.357	47760.16
684.705	47594.06
685.053	47870.89
685.4	47734.62
685.748	47477.68
686.095	47452.14
686.443	47499.82
686.79	47247.85
687.138	47292.82
687.485	47321.75
687.832	47206.5
688.18	47215.54
688.527	47088.31
688.874	46990.23
689.221	46931.25
689.568	46664.37
689.915	46647.64
690.262	46620.98
690.609	46523.13
690.956	46416.01
691.303	46544.37
691.65	46176.92
691.997	46238.61
692.344	45905.52
692.69	46035.23
693.037	46069.81
693.383	45544.17
693.73	45780.55
694.077	45467.79
694.423	45511.63
694.769	45371.07
695.116	45348.69
695.462	45250.84
695.808	45141.24
696.155	45085.42
696.501	44724.76
696.847	44824.87
697.193	44469.17
697.539	44692.44
697.885	44450.41
698.231	44252.45
698.577	44167.93
698.923	44098.78
699.269	43922.74
699.614	43821.73
699.96	43646.82
700.306	43774.27
700.651	43556.43
700.997	43394.17
701.342	43225.59
701.688	43237.56
702.033	43128.64
702.379	43015.2
702.724	43062.43
703.069	42898.14
703.415	42486.17
703.76	42697.24
704.105	42459.28
704.45	42387.87
704.795	42312.16
705.14	42174.31
705.485	42118.27
705.83	41925.73
706.175	41927.99
706.52	41878.05
706.865	41574.1
707.209	41501.11
707.554	41476.25
707.899	41490.49
708.243	41266.09
708.588	41316.71
708.932	41107
709.277	41052.08
709.621	41048.92
709.966	40816.61
710.31	40864.07
710.654	40496.39
710.998	40741.13
711.342	40716.95
711.687	40632.89
712.031	40525.09
712.375	40239.68
712.719	40326.23
713.063	40336.62
713.407	40307.02
713.75	40180.92
714.094	40152.67
714.438	39824.32
714.782	39901.83
715.125	39789.07
715.469	39692.8
715.812	39633.59
716.156	39323.99
716.499	39320.15
716.843	39443.54
717.186	39219.82
717.53	39311.57
717.873	39117.45
718.216	39023.21
718.559	38997.68
718.902	38663.45
719.246	38690.34
719.589	38631.13
719.932	38421.42
720.275	38470.01
720.617	38269.56
720.96	38263.23
721.303	38225.49
721.646	38216.23
721.989	38010.13
722.331	38122.9
722.674	37911.83
723.016	37977.59
723.359	37817.82
723.701	37828.89
724.044	37473.42
724.386	37438.62
724.729	37650.14
725.071	37433.87
725.413	37497.38
725.755	37457.83
726.097	37291.73
726.439	37178.29
726.782	37112.75
727.124	37292.86
727.465	37094.67
727.807	37010.16
728.149	36849.03
728.491	36742.82
728.833	36920.44
729.175	36800.67
729.516	36718.87
729.858	36530.4
730.199	36611.98
730.541	36444.07
730.882	36363.62
731.224	36438.87
731.565	36084.08
731.906	36206.79
732.248	36127.02
732.589	36195.71
732.93	35893.58
733.271	36073.23
733.612	35903.29
733.953	35895.84
734.294	35642.51
734.635	35710.76
734.976	35664.88
735.317	35591.66
735.658	35550.08
735.999	35617.2
736.339	35513.7
736.68	35603.41
737.021	35190.32
737.361	35125.23
737.702	35343.76
738.042	35189.87
738.383	35075.52
738.723	35071.45
739.063	35007.05
739.404	35106.25
739.744	34934.51
740.084	34731.57
740.424	34833.72
740.764	34689.54
741.104	34659.71
741.444	34565.7
741.784	34367.74
742.124	34652.93
742.464	34284.58
742.804	34345.82
743.143	34236.9
743.483	34353.05
743.823	33995.09
744.162	34008.88
744.502	34218.82
744.841	33947.19
745.181	33997.81
745.52	33814.08
745.86	33838.94
746.199	33802.56
746.538	33704.48
746.877	33773.41
747.216	33750.81
747.556	33516.92
747.895	33557.82
748.234	33508.1
748.573	33420.42
748.911	33392.4
749.25	33225.62
749.589	33111.73
749.928	33213.42
750.267	33290.03
750.605	33058.62
750.944	32983.6
751.283	32842.81
751.621	32983.14
751.96	32751.51
752.298	32752.42
752.636	32707.9
752.975	32642.36
753.313	32444.4
