Data from aluminium_macbook_case_FLMS001491_017.txt Node
Date: Tue Feb 07 10:43:17 GMT 2017
User: dcchb
Spectrometer: FLMS00149
Trigger mode: 0
Integration Time (sec): 2.000000E-2
Scans to average: 10
Electric dark correction enabled: true
Nonlinearity correction enabled: false
Boxcar width: 0
XAxis mode: Wavelengths
Number of Pixels in Spectrum: 2048
>>>>>Begin Spectral Data<<<<<
341.393	-8.21
341.776	-8.21
342.16	-8.21
342.543	-66.06
342.927	-60.18
343.31	-68.77
343.693	-68.54
344.077	-50.24
344.46	-59.05
344.843	-43.46
345.226	-50.46
345.61	-47.98
345.993	-14.08
346.376	-19.28
346.759	28.4
347.142	6.03
347.525	31.79
347.908	49.42
348.291	86.03
348.674	102.07
349.057	118.12
349.44	113.37
349.823	148.17
350.206	184.11
350.588	239.7
350.971	263.2
351.354	278.11
351.737	283.76
352.119	291.45
352.502	308.4
352.884	311.79
353.267	339.81
353.65	365.12
354.032	343.88
354.414	359.02
354.797	346.81
355.179	369.86
355.562	385.91
355.944	374.83
356.326	401.27
356.709	403.76
357.091	397.21
357.473	393.82
357.855	408.51
358.238	391.56
358.62	418.22
359.002	405.34
359.384	403.08
359.766	409.18
360.148	436.53
360.53	408.05
360.912	410.09
361.294	442.18
361.676	406.02
362.057	422.97
362.439	421.39
362.821	411.67
363.203	398.11
363.584	426.13
363.966	436.08
364.348	406.47
364.729	432.01
365.111	422.07
365.493	421.61
365.874	424.33
366.256	424.78
366.637	431.1
367.019	420.48
367.4	416.87
367.781	430.65
368.163	419.58
368.544	439.92
368.925	439.47
369.306	426.81
369.688	419.35
370.069	441.05
370.45	449.18
370.831	447.6
371.212	430.65
371.593	437.66
371.974	467.26
372.355	476.08
372.736	454.15
373.117	456.19
373.498	453.48
373.879	455.96
374.26	469.3
374.641	435.4
375.021	467.04
375.402	462.74
375.783	487.15
376.163	519.92
376.544	507.71
376.925	522.18
377.305	492.57
377.686	516.3
378.066	509.75
378.447	504.32
378.827	515.17
379.208	516.53
379.588	532.57
379.968	541.84
380.349	544.1
380.729	560.82
381.109	560.82
381.489	565.79
381.87	551.55
382.25	581.38
382.63	561.95
383.01	579.58
383.39	583.42
383.77	578.9
384.15	603.3
384.53	628.84
384.91	615.51
385.29	643.08
385.67	629.97
386.049	632
386.429	610.53
386.809	641.95
387.189	646.69
387.568	654.15
387.948	680.14
388.328	703.87
388.707	688.5
389.087	717.65
389.466	697.99
389.846	707.48
390.225	727.59
390.605	707.26
390.984	733.02
391.363	758.55
391.743	758.33
392.122	757.42
392.501	778.21
392.881	763.75
393.26	781.6
393.639	796.07
394.018	812.11
394.397	846.46
394.776	837.2
395.155	832.45
395.534	842.39
395.913	845.56
396.292	872.22
396.671	869.51
397.05	895.95
397.429	914.93
397.808	911.77
398.186	919.45
398.565	920.81
398.944	946.8
399.323	947.7
399.701	950.41
400.08	955.61
400.458	958.77
400.837	997.42
401.215	1024.31
401.594	1029.51
401.972	1038.55
402.351	1069.51
402.729	1057.98
403.107	1061.37
403.486	1060.01
403.864	1089.39
404.242	1101.37
404.62	1090.3
404.999	1123.29
405.377	1133.46
405.755	1143.4
406.133	1149.73
406.511	1163.51
406.889	1195.6
407.267	1214.36
407.645	1196.73
408.023	1253.68
408.401	1241.48
408.779	1276.28
409.156	1338.88
409.534	1286
409.912	1336.84
410.29	1391.31
410.667	1384.98
411.045	1394.92
411.422	1416.39
411.8	1439.67
412.178	1465.2
412.555	1485.09
412.933	1515.6
413.31	1505.2
413.687	1527.8
414.065	1559.21
414.442	1558.31
414.819	1584.07
415.197	1609.38
415.574	1642.15
415.951	1661.81
416.328	1663.16
416.705	1685.53
417.082	1723.05
417.46	1752.2
417.837	1752.2
418.214	1772.31
418.591	1765.08
418.967	1841.01
419.344	1829.94
419.721	1838.53
420.098	1848.69
420.475	1877.85
420.852	1909.71
421.228	1937.73
421.605	1956.49
421.982	1988.58
422.358	1991.74
422.735	2035.13
423.111	2014.79
423.488	2054.79
423.864	2096.6
424.241	2104.96
424.617	2158.29
424.994	2140.21
425.37	2180.21
425.746	2180.89
426.123	2243.94
426.499	2248.23
426.875	2285.97
427.251	2330.26
427.627	2359.19
428.003	2393.99
428.379	2423.59
428.756	2469.24
429.132	2522.35
429.507	2521.67
429.883	2538.85
430.259	2618.62
430.635	2637.6
431.011	2659.97
431.387	2745.39
431.763	2786.3
432.138	2786.07
432.514	2847.76
432.89	2825.84
433.265	2922.79
433.641	2969.79
434.016	2968.21
434.392	3033.07
434.767	3091.37
435.143	3105.38
435.518	3125.04
435.894	3185.38
436.269	3256.11
436.644	3266.28
437.02	3310.12
437.395	3334.3
437.77	3423.34
438.145	3418.82
438.52	3440.06
438.895	3464.25
439.271	3536.79
439.646	3569.1
440.021	3608.2
440.395	3661.98
440.77	3580.4
441.145	3699.72
441.52	3746.72
441.895	3810.68
442.27	3815.2
442.645	3846.38
443.019	3877.12
443.394	3908.98
443.769	3962.31
444.143	3981.52
444.518	3978.13
444.892	4004.8
445.267	4012.25
445.641	4104.45
446.016	4067.62
446.39	4134.06
446.764	4137.45
447.139	4171.12
447.513	4215.64
447.887	4276.43
448.262	4234.85
448.636	4288.4
449.01	4407.27
449.384	4468.51
449.758	4413.82
450.132	4499.7
450.506	4511.9
450.88	4549.41
451.254	4609.75
451.628	4664.67
452.002	4703.53
452.376	4734.95
452.75	4847.94
453.123	4846.58
453.497	4967.71
453.871	4932.23
454.244	5087.48
454.618	5137.87
454.992	5210.41
455.365	5229.4
455.739	5384.65
456.112	5449.73
456.486	5430.07
456.859	5518.65
457.232	5599.78
457.606	5552.1
457.979	5688.82
458.352	5888.14
458.725	5924.52
459.099	5965.65
459.472	6101.46
459.845	6104.4
460.218	6148.24
460.591	6231.4
460.964	6287.67
461.337	6481.11
461.71	6494.9
462.083	6607.67
462.456	6672.52
462.829	6705.29
463.201	6824.16
463.574	6822.12
463.947	6956.36
464.32	7114.77
464.692	7123.13
465.065	7224.6
465.438	7343.24
465.81	7510.92
466.183	7524.25
466.555	7703.46
466.928	7719.73
467.3	7739.39
467.672	7906.39
468.045	8115.2
468.417	8123.78
468.789	8154.29
469.161	8313.38
469.534	8448.52
469.906	8670.21
470.278	8752.92
470.65	8877.89
471.022	9048.73
471.394	9197.65
471.766	9250.53
472.138	9459.57
472.51	9603.07
472.882	9735.94
473.253	9857.75
473.625	10019.55
473.997	10216.84
474.369	10252.54
474.74	10405.31
475.112	10652.98
475.484	10778.63
475.855	10957.61
476.227	11140.65
476.598	11403.02
476.97	11486.18
477.341	11734.31
477.713	11921.88
478.084	12122.1
478.455	12406.38
478.827	12474.4
479.198	12890.44
479.569	12963.43
479.94	13266.47
480.311	13396.41
480.682	13766.12
481.053	14045.44
481.424	14299.44
481.795	14479.55
482.166	14669.6
482.537	14874.11
482.908	15140.77
483.279	15313.2
483.65	15587.54
484.021	15886.29
484.391	16059.39
484.762	16160.41
485.133	16328.54
485.503	16660.73
485.874	17065.02
486.244	17135.07
486.615	17557.21
486.985	17679.01
487.356	18035.84
487.726	18136.85
488.097	18558.99
488.467	18702.71
488.837	19070.39
489.207	19404.16
489.578	19573.88
489.948	19848
490.318	20234.65
490.688	20207.76
491.058	20597.58
491.428	20863.79
491.798	21106.72
492.168	21484.11
492.538	21593.26
492.908	21913.93
493.278	22171.55
493.648	22136.75
494.017	22538.09
494.387	22619.9
494.757	22749.16
495.126	23121.58
495.496	23212.2
495.866	23289.26
496.235	23676.82
496.605	23812.18
496.974	24009.69
497.344	24221.89
497.713	24311.15
498.082	24573.75
498.452	24885.6
498.821	24962.89
499.19	25115.65
499.559	25355.42
499.928	25495.98
500.298	25694.62
500.667	25989.98
501.036	26050.09
501.405	26495.28
501.774	26355.85
502.143	26629.06
502.512	26877.64
502.88	27038.54
503.249	27205.32
503.618	27317.18
503.987	27485.08
504.356	27715.36
504.724	27919.2
505.093	27933.43
505.462	28072.64
505.83	28312.18
506.199	28496.13
506.567	28879.17
506.936	29017.25
507.304	29209.33
507.672	29427.4
508.041	29416.56
508.409	29797.34
508.777	30020.61
509.145	30298.12
509.514	30264.9
509.882	30607.49
510.25	30609.52
510.618	30943.97
510.986	31230.75
511.354	31528.37
511.722	31618.53
512.09	32087.45
512.458	32128.8
512.826	32448.12
513.193	32683.14
513.561	32775.56
513.929	33086.07
514.297	33330.35
514.664	33643.79
515.032	33710
515.4	34037.23
515.767	34225.24
516.135	34303.21
516.502	34202.19
516.869	34880.37
517.237	34939.12
517.604	34993.36
517.972	35333.24
518.339	35722.15
518.706	35678.09
519.073	36067
519.44	36206.66
519.808	36605.07
520.175	36631.28
520.542	37152.85
520.909	37473.75
521.276	37494.76
521.643	37858.59
522.009	38143.11
522.376	38526.6
522.743	38766.59
523.11	39090.43
523.477	39627.59
523.843	39753.01
524.21	40110.06
524.577	40521.12
524.943	40708.92
525.31	41006.53
525.676	41307.32
526.043	41634.77
526.409	41737.14
526.776	42303.22
527.142	42261.42
527.508	42557.68
527.874	42723.1
528.241	42961.51
528.607	43147.72
528.973	43539.35
529.339	43508.39
529.705	44068.38
530.071	44337.07
530.437	44363.73
530.803	44668.36
531.169	44960.78
531.535	44877.17
531.901	45099.76
532.267	45340.88
532.632	45654.55
532.998	45707.43
533.364	45941.77
533.73	46123.01
534.095	46497.24
534.461	46610.23
534.826	46834.86
535.192	46927.96
535.557	47421.51
535.923	47390.55
536.288	47680.71
536.653	47877.99
537.019	47852.91
537.384	48208.61
537.749	48329.73
538.114	48374.02
538.479	48526.56
538.845	48693.34
539.21	48684.52
539.575	48866.67
539.94	48945.99
540.305	49172.65
540.67	49199.31
541.034	49432.75
541.399	49333.32
541.764	49556.14
542.129	49653.77
542.494	49696.48
542.858	50037.26
543.223	49837.04
543.587	50166.07
543.952	50167.2
544.316	50362.9
544.681	50292.17
545.045	50580.52
545.41	50745.94
545.774	50803.57
546.138	50868.42
546.503	51040.85
546.867	51042.66
547.231	51389.09
547.595	51377.11
547.959	51552.7
548.324	51638.12
548.688	51744.78
549.052	51892.58
549.416	52071.78
549.779	52092.12
550.143	52280.81
550.507	52547.25
550.871	52630.41
551.235	52580.69
551.599	52858.88
551.962	52929.61
552.326	53089.15
552.689	53264.74
553.053	52991.98
553.417	53174.58
553.78	53574.57
554.143	53428.36
554.507	53470.16
554.87	53750.15
555.234	53943.6
555.597	53713.09
555.96	53822.24
556.323	54066.08
556.686	54056.36
557.05	54286.64
557.413	54350.14
557.776	54478.04
558.139	54644.59
558.502	54685.72
558.865	54772.5
559.228	55033.51
559.59	55051.14
559.953	55182.89
560.316	55387.17
560.679	55422.88
561.041	55695.41
561.404	55754.17
561.767	56003.43
562.129	55872.36
562.492	56151.9
562.854	56147.61
563.217	56340.37
563.579	56370.88
563.941	56640.25
564.304	56784.2
564.666	56908.72
565.028	56910.07
565.39	57114.36
565.753	57208.59
566.115	57307.12
566.477	57399.55
566.839	57449.72
567.201	57663.5
567.563	57573.56
567.925	57735.13
568.287	57827.56
568.648	57831.63
569.01	57954.79
569.372	58059.65
569.734	58079.76
570.095	58246.08
570.457	58233.65
570.819	58272.97
571.18	58349.13
571.542	58474.78
571.903	58520.2
572.265	58641.33
572.626	58634.09
572.987	58756.12
573.349	58787.54
573.71	58917.7
574.071	58907.76
574.432	59031.82
574.794	59220.97
575.155	59202.44
575.516	59091.03
575.877	59200.63
576.238	59344.58
576.599	59416.9
576.96	59487.86
577.32	59472.26
577.681	59632.94
578.042	59651.24
578.403	59692.6
578.763	59738.92
579.124	59829.54
579.485	59868.64
579.845	59928.07
580.206	59946.83
580.566	59968.52
580.927	59957.9
581.287	59997
581.648	60007.84
582.008	60085.58
582.368	60035.41
582.728	60088.07
583.089	60017.56
583.449	59977.79
583.809	60000.39
584.169	60094.17
584.529	59950.22
584.889	60200.38
585.249	59922.42
585.609	59895.98
585.969	60025.02
586.329	59977.11
586.688	60055.75
587.048	60003.78
587.408	59959.93
587.768	59934.17
588.127	59969.43
588.487	59980.95
588.846	60088.52
589.206	59941.18
589.565	59962.42
589.925	60078.35
590.284	59971.01
590.643	60088.29
591.003	60128.07
591.362	60166.93
591.721	60117.44
592.08	60147.5
592.44	60250.77
592.799	60180.49
593.158	60196.09
593.517	60254.39
593.876	60259.81
594.235	60294.16
594.593	60241.96
594.952	60356.53
595.311	60262.98
595.67	60288.74
596.029	60424.33
596.387	60436.76
596.746	60467.04
597.104	60448.51
597.463	60373.71
597.822	60489.19
598.18	60404.44
598.538	60360.38
598.897	60487.15
599.255	60278.12
599.613	60602.63
599.972	60417.1
600.33	60504.1
600.688	60444.44
601.046	60518.56
601.404	60522.86
601.762	60531.22
602.12	60593.82
602.478	60567.38
602.836	60622.29
603.194	60487.6
603.552	60562.4
603.91	60488.51
604.268	60628.84
604.625	60545.23
604.983	60653.25
605.341	60529.86
605.698	60651.22
606.056	60649.63
606.413	60692.12
606.771	60766.24
607.128	60783.87
607.485	60684.21
607.843	60784.09
608.2	60834.71
608.557	60906.58
608.914	60812.79
609.272	60975.05
609.629	61068.83
609.986	61175.27
610.343	61024.31
610.7	61281.48
611.057	61175.95
611.414	61104.99
611.771	61185.44
612.127	61284.19
612.484	61222.05
612.841	61354.25
613.198	61288.49
613.554	61242.16
613.911	61391.08
614.267	61380.24
614.624	61337.53
614.98	61402.38
615.337	61478.54
615.693	61458.2
616.05	61356.51
616.406	61507.24
616.762	61439.67
617.118	61420.69
617.475	61419.56
617.831	61449.39
618.187	61470.18
618.543	61499.78
618.899	61637.18
619.255	61527.35
619.611	61538.65
619.967	61568.03
620.323	61604.86
620.678	61438.77
621.034	61458.65
621.39	61525.09
621.746	61393.57
622.101	61658.65
622.457	61473.34
622.812	61507.24
623.168	61546.33
623.523	61529.84
623.879	61655.71
624.234	61492.55
624.589	61560.57
624.945	61544.75
625.3	61623.39
625.655	61602.38
626.01	61545.88
626.365	61619.1
626.72	61531.87
627.075	61561.7
627.43	61556.5
627.785	61577.75
628.14	61568.93
628.495	61598.54
628.85	61584.52
629.205	61517.41
629.559	61655.48
629.914	61561.25
630.269	61569.38
630.623	61519.67
630.978	61453.23
631.332	61521.7
631.687	61538.2
632.041	61461.14
632.396	61519.44
632.75	61383.17
633.104	61342.5
633.459	61239.45
633.813	61247.58
634.167	61228.6
634.521	61232.44
634.875	61228.38
635.229	61182.05
635.583	61069.51
635.937	61060.24
636.291	61047.59
636.645	60996.52
636.999	60961.26
637.352	60972.56
637.706	60773.02
638.06	60957.2
638.413	60835.84
638.767	60788.61
639.121	60817.31
639.474	60669.29
639.828	60672.68
640.181	60637.66
640.534	60629.97
640.888	60537.55
641.241	60541.16
641.594	60437.89
641.947	60534.61
642.301	60439.92
642.654	60425.91
643.007	60443.31
643.36	60363.09
643.713	60305.46
644.066	60434.95
644.419	60208.97
644.771	60145.47
645.124	59940.73
645.477	59867.73
645.83	59703.44
646.182	59605.14
646.535	59619.6
646.888	59672.94
647.24	59537.8
647.593	59641.75
647.945	59499.38
648.298	59434.98
648.65	59436.33
649.002	59342.55
649.355	59449.44
649.707	59428.42
650.059	59539.38
650.411	59844.68
650.763	59810.56
651.115	60012.59
651.467	59943.66
651.819	59875.42
652.171	59819.6
652.523	59805.14
652.875	59757.91
653.227	59643.78
653.578	59741.86
653.93	59717.68
654.282	59592.71
654.633	59537.8
654.985	59670
655.337	59589.1
655.688	59543.9
656.039	59615.99
656.391	59398.59
656.742	59409.67
657.094	59415.09
657.445	59497.57
657.796	59366.05
658.147	59328.09
658.498	59328.54
658.849	59303
659.2	59359.95
659.551	59136.45
659.902	59322.44
660.253	59188.43
660.604	59212.61
660.955	59075.21
661.306	59202.21
661.656	59138.94
662.007	59121.76
662.358	59065.95
662.708	59084.93
663.059	59016.91
663.409	58863.01
663.76	59042.44
664.11	59020.75
664.461	59023.69
664.811	59073.63
665.161	58987.98
665.511	58974.2
665.862	59031.15
666.212	59058.94
666.562	59106.17
666.912	59072.27
667.262	59039.05
667.612	59076.57
667.962	59044.7
668.312	59019.39
668.662	59080.64
669.011	59000.41
669.361	58988.89
669.711	59022.78
670.06	58979.62
670.41	58884.71
670.76	58858.27
671.109	58922.9
671.459	58888.55
671.808	58855.33
672.157	58847.2
672.507	58695.11
672.856	58632.96
673.205	58771.72
673.554	58765.16
673.904	58663.02
674.253	58825.28
674.602	58620.08
674.951	58338.06
675.3	58175.12
675.649	58567.2
675.998	58519.07
676.346	58478.17
676.695	58592.97
677.044	58338.73
677.393	58392.74
677.741	58394.1
678.09	58342.8
678.438	58295.57
678.787	58275.91
679.135	58326.53
679.484	58094.67
679.832	58195.46
680.181	57986.88
680.529	58084.96
680.877	58056.03
681.225	57959.31
681.573	58069.36
681.922	57853.78
682.27	57718.41
682.618	57827.79
682.966	57739.88
683.314	57723.84
683.661	57631.86
684.009	57498.53
684.357	57465.76
684.705	57430.51
685.053	57520.45
685.4	57402.94
685.748	57339.66
686.095	57247.01
686.443	57270.29
686.79	57162.49
687.138	57168.6
687.485	57334.24
687.832	57121.59
688.18	57197.97
688.527	56936.29
688.874	57042.27
689.221	57027.58
689.568	56876.17
689.915	56885.44
690.262	56934.48
690.609	56864.2
690.956	56729.06
691.303	56707.14
691.65	56618.78
691.997	56541.04
692.344	56396.19
692.69	56443.64
693.037	56382.4
693.383	56192.12
693.73	56246.36
694.077	56091.56
694.423	56007.72
694.769	55844.34
695.116	55890.89
695.462	55836.65
695.808	55724.34
696.155	55799.59
696.501	55517.11
696.847	55505.59
697.193	55320.73
697.539	55437.34
697.885	55236.67
698.231	55084.13
698.577	54941.54
698.923	54955.09
699.269	54844.36
699.614	54619.28
699.96	54573.18
700.306	54586.52
700.651	54485.05
700.997	54304.94
701.342	54244.83
701.688	54185.62
702.033	54079.19
702.379	54059.07
702.724	53968.45
703.069	54055.91
703.415	53655.47
703.76	53607.33
704.105	53635.81
704.45	53506.55
704.795	53278.08
705.14	53250.96
705.485	53253.9
705.83	53137.06
706.175	53208.25
706.52	53086.67
706.865	52894.81
707.209	52877.41
707.554	52765.77
707.899	52741.14
708.243	52594.48
708.588	52553.12
708.932	52494.14
709.277	52474.48
709.621	52417.99
709.966	52296.63
710.31	52355.61
710.654	52084.89
710.998	52208.95
711.342	52182.74
711.687	52197.88
712.031	52053.7
712.375	51861.62
712.719	51985.46
713.063	51842.41
713.407	51986.13
713.75	51722.41
714.094	51751.11
714.438	51653.94
714.782	51638.12
715.125	51466.37
715.469	51472.7
715.812	51326.72
716.156	51168.75
716.499	51158.36
716.843	51147.96
717.186	50994.07
717.53	51041.98
717.873	51184.35
718.216	50921.75
718.559	50710.23
718.902	50504.36
719.246	50545.27
719.589	50389.56
719.932	50344.82
720.275	50253.75
720.617	50192.96
720.96	50171.27
721.303	50131.72
721.646	50080.65
721.989	49787.77
722.331	49952.97
722.674	49751.62
723.016	49783.25
723.359	49538.74
723.701	49661.45
724.044	49384.39
724.386	49279.54
724.729	49319.76
725.071	49200.9
725.413	49082.93
725.755	49159.99
726.097	48821.02
726.439	48582.15
726.782	48714.81
727.124	48893.11
727.465	48555.71
727.807	48233.46
728.149	48342.39
728.491	48188.72
728.833	48344.65
729.175	48147.36
729.516	48000.02
729.858	47950.31
730.199	47946.01
730.541	47846.58
730.882	47656.53
731.224	47962.51
731.565	47608.17
731.906	47710.31
732.248	47755.28
732.589	47601.62
732.93	47332.7
733.271	47520.94
733.612	47531.79
733.953	47520.26
734.294	47368.85
734.635	47270.55
734.976	47314.39
735.317	47167.28
735.658	47189.2
735.999	47176.77
736.339	47076.43
736.68	47340.15
737.021	47100.16
737.361	46913.5
737.702	47116.88
738.042	46941.52
738.383	46848.64
738.723	46925.25
739.063	46817.23
739.404	46685.48
739.744	46620.62
740.084	46480.06
740.424	46526.62
740.764	46360.29
741.104	46388.77
741.444	46324.36
741.784	46094.99
742.124	46322.1
742.464	46049.79
742.804	45951.94
743.143	45806.41
743.483	45826.07
743.823	45606.64
744.162	45493.2
744.502	45680.99
744.841	45350.6
745.181	45548.34
745.52	45289.81
745.86	45251.17
746.199	45225.18
746.538	44952.19
746.877	45033.55
747.216	44887.11
747.556	44808.47
747.895	44782.93
748.234	44652.09
748.573	44420.23
748.911	44439.89
749.25	44369.16
749.589	44107.24
749.928	44179.56
750.267	44179.11
750.605	43873.8
750.944	43831.77
751.283	43697.99
751.621	43673.13
751.96	43345.91
