Data from aluminium_surface_pro_back_FLMS001491_00056.txt Node
Date: Wed Feb 08 15:34:15 GMT 2017
User: dcchb
Spectrometer: FLMS00149
Trigger mode: 0
Integration Time (sec): 2.000000E-2
Scans to average: 10
Electric dark correction enabled: true
Nonlinearity correction enabled: false
Boxcar width: 0
XAxis mode: Wavelengths
Number of Pixels in Spectrum: 2048
>>>>>Begin Spectral Data<<<<<
341.393	-6.1
341.776	-6.1
342.16	-6.1
342.543	-51.98
342.927	-48.13
343.31	-81.81
343.693	-64.63
344.077	-49.26
344.46	-56.04
344.843	-47
345.226	-51.07
345.61	-29.6
345.993	-23.05
346.376	-16.04
346.759	13.78
347.142	12.43
347.525	50.62
347.908	56.27
348.291	63.05
348.674	89.94
349.057	132.43
349.44	112.77
349.823	152.31
350.206	192.76
350.588	226.43
350.971	257.85
351.354	251.29
351.737	268.24
352.119	309.6
352.502	289.48
352.884	312.31
353.267	320.9
353.65	323.16
354.032	323.83
354.414	344.4
354.797	348.69
355.179	352.53
355.562	356.37
355.944	364.51
356.326	375.58
356.709	362.93
357.091	353.44
357.473	403.38
357.855	354.79
358.238	387.79
358.62	370.84
359.002	382.59
359.384	389.37
359.766	377.17
360.148	368.13
360.53	379.43
360.912	383.49
361.294	376.26
361.676	403.15
362.057	359.09
362.439	375.81
362.821	383.72
363.203	386.66
363.584	393.89
363.966	368.58
364.348	371.97
364.729	385.98
365.111	359.99
365.493	378.07
365.874	362.7
366.256	369.71
366.637	376.04
367.019	381.01
367.4	364.51
367.781	348.24
368.163	367.45
368.544	366.09
368.925	362.02
369.306	381.01
369.688	390.5
370.069	388.01
370.45	384.62
370.831	389.59
371.212	403.61
371.593	414.45
371.974	395.92
372.355	370.39
372.736	392.98
373.117	386.66
373.498	418.07
373.879	412.87
374.26	386.2
374.641	384.4
375.021	390.27
375.402	417.39
375.783	395.24
376.163	417.84
376.544	425.3
376.925	407.45
377.305	417.39
377.686	453.77
378.066	434.34
378.447	435.92
378.827	423.04
379.208	437.05
379.588	443.15
379.968	419.42
380.349	439.31
380.729	434.11
381.109	445.41
381.489	471.17
381.87	452.19
382.25	456.03
382.63	451.97
383.01	458.97
383.39	477.73
383.77	500.78
384.15	479.54
384.53	478.18
384.91	491.06
385.29	488.57
385.67	512.98
386.049	500.33
386.429	495.58
386.809	519.76
387.189	513.88
387.568	533.77
387.948	526.54
388.328	545.97
388.707	524.28
389.087	525.18
389.466	546.2
389.846	551.62
390.225	566.76
390.605	557.05
390.984	564.28
391.363	585.75
391.743	579.42
392.122	595.24
392.501	598.63
392.881	606.09
393.26	628.91
393.639	596.14
394.018	603.37
394.397	622.13
394.776	653.32
395.155	630.94
395.534	648.12
395.913	632.53
396.292	656.25
396.671	654.9
397.05	662.58
397.429	674.78
397.808	674.11
398.186	686.31
398.565	686.54
398.944	687.44
399.323	725.4
399.701	715.91
400.08	720.66
400.458	713.88
400.837	751.84
401.215	748.91
401.594	735.57
401.972	754.56
402.351	775.57
402.729	751.17
403.107	813.31
403.486	805.4
403.864	804.27
404.242	824.84
404.62	853.31
404.999	836.14
405.377	872.97
405.755	843.82
406.133	852.18
406.511	849.02
406.889	900.77
407.267	890.15
407.645	916.36
408.023	923.82
408.401	947.09
408.779	966.98
409.156	953.87
409.534	953.87
409.912	983.93
410.29	978.96
410.667	1000.65
411.045	1040.65
411.422	1045.4
411.8	1053.98
412.178	1050.59
412.555	1109.35
412.933	1097.37
413.31	1103.02
413.687	1130.14
414.065	1113.19
414.442	1140.53
414.819	1173.3
415.197	1147.54
415.574	1218.05
415.951	1181.89
416.328	1224.37
416.705	1206.75
417.082	1222.11
417.46	1223.24
417.837	1247.42
418.214	1266.18
418.591	1282
418.967	1283.36
419.344	1310.93
419.721	1359.51
420.098	1334.2
420.475	1350.02
420.852	1337.14
421.228	1374.88
421.605	1382.11
421.982	1424.14
422.358	1407.42
422.735	1436.35
423.111	1452.84
423.488	1494.2
423.864	1458.27
424.241	1491.94
424.617	1490.13
424.994	1541.65
425.37	1551.15
425.746	1569.45
426.123	1586.4
426.499	1612.39
426.875	1601.31
427.251	1651.71
427.627	1681.31
428.003	1697.81
428.379	1713.63
428.756	1718.6
429.132	1764.25
429.507	1785.72
429.883	1791.14
430.259	1809.9
430.635	1818.71
431.011	1827.3
431.387	1908.88
431.763	1947.52
432.138	1911.14
432.514	1963.56
432.89	1993.17
433.265	1997.46
433.641	2025.71
434.016	2073.84
434.392	2091.7
434.767	2100.51
435.143	2163.33
435.518	2150.23
435.894	2178.7
436.269	2214.86
436.644	2223.67
437.02	2265.03
437.395	2266.16
437.77	2291.24
438.145	2312.48
438.52	2373.27
438.895	2418.02
439.271	2431.12
439.646	2487.62
440.021	2480.84
440.395	2466.6
440.77	2462.76
441.145	2505.24
441.52	2584.34
441.895	2563.77
442.27	2589.08
442.645	2594.96
443.019	2627.05
443.394	2624.56
443.769	2661.85
444.143	2695.52
444.518	2709.99
444.892	2673.15
445.267	2722.64
445.641	2728.74
446.016	2776.2
446.39	2820.72
446.764	2805.35
447.139	2834.05
447.513	2882.41
447.887	2882.18
448.262	2877.21
448.636	2899.58
449.01	2980.26
449.384	2984.78
449.758	2981.39
450.132	3031.11
450.506	3046.93
450.88	3035.63
451.254	3092.35
451.628	3158.11
452.002	3150.2
452.376	3219.12
452.75	3268.16
453.123	3265.45
453.497	3298.9
453.871	3350.65
454.244	3340.93
454.618	3415.96
454.992	3460.47
455.365	3444.88
455.739	3577.08
456.112	3598.55
456.486	3627.7
456.859	3637.42
457.232	3740.01
457.606	3748.15
457.979	3812.78
458.352	3849.16
458.725	3936.85
459.099	3960.12
459.472	4048.93
459.845	4081.25
460.218	4106.33
460.591	4105.88
460.964	4154.69
461.337	4287.34
461.71	4332.77
462.083	4383.84
462.456	4401.24
462.829	4442.82
463.201	4526.43
463.574	4536.38
463.947	4601.69
464.32	4711.06
464.692	4723.72
465.065	4799.2
465.438	4930.49
465.81	4946.99
466.183	4980.66
466.555	5065.4
466.928	5144.95
467.3	5125.74
467.672	5220.65
468.045	5296.36
468.417	5351.05
468.789	5395.56
469.161	5462.23
469.534	5567.09
469.906	5641.43
470.278	5763.01
470.65	5798.72
471.022	5871.71
471.394	6012.72
471.766	6063.57
472.138	6141.99
472.51	6287.97
472.882	6373.39
473.253	6478.02
473.625	6592.14
473.997	6668.75
474.369	6684.8
474.74	6749.43
475.112	6944
475.484	7041.62
475.855	7175.63
476.227	7174.95
476.598	7435.96
476.97	7499.46
477.341	7668.95
477.713	7798.67
478.084	7885.44
478.455	8101.26
478.827	8113.01
479.198	8411.3
479.569	8382.83
479.94	8670.96
480.311	8722.48
480.682	8961.12
481.053	9123.15
481.424	9289.47
481.795	9295.12
482.166	9540.31
482.537	9599.07
482.908	9827.54
483.279	9920.19
483.65	10134.2
484.021	10328.32
484.391	10410.57
484.762	10558.59
485.133	10648.53
485.503	10785.25
485.874	11010.11
486.244	11058.24
486.615	11391.56
486.985	11465.69
487.356	11747.71
487.726	11702.74
488.097	12013.47
488.467	12024.77
488.837	12372.33
489.207	12517.86
489.578	12676.95
489.948	12706.11
490.318	13068.58
490.688	13051.41
491.058	13153.55
491.428	13495.92
491.798	13508.35
492.168	13871.27
492.538	13906.98
492.908	14088.22
493.278	14196.91
493.648	14273.07
494.017	14550.58
494.387	14683.68
494.757	14767.75
495.126	14968.19
495.496	15000.51
495.866	15183.1
496.235	15382.19
496.605	15546.26
496.974	15663.54
497.344	15786.7
497.713	15936.3
498.082	15989.41
498.452	16235.73
498.821	16313.92
499.19	16480.47
499.559	16610.86
499.928	16631.88
500.298	16758.88
500.667	16891.99
501.036	16936.05
501.405	17084.52
501.774	17179.66
502.143	17339.21
502.512	17402.93
502.88	17627.79
503.249	17680.89
503.618	17866.2
503.987	17872.98
504.356	18064.16
504.724	18123.59
505.093	18284.72
505.462	18316.81
505.83	18435.22
506.199	18573.97
506.567	18771.26
506.936	18895.1
507.304	19059.16
507.672	19114.53
508.041	19150.91
508.409	19428.64
508.777	19522.65
509.145	19722.42
509.514	19794.96
509.882	19949.98
510.25	20020.72
510.618	20243.31
510.986	20338.67
511.354	20535.51
511.722	20794.03
512.09	20892.33
512.458	20921.03
512.826	21130.97
513.193	21280.34
513.561	21354.47
513.929	21513.78
514.297	21817.73
514.664	21956.71
515.032	22038.06
515.4	22177.27
515.767	22438.51
516.135	22521.89
516.502	22411.39
516.869	22878.04
517.237	23025.61
517.604	22955.55
517.972	23355.09
518.339	23446.62
518.706	23560.06
519.073	23621.53
519.44	23737.68
519.808	24056.54
520.175	24178.8
520.542	24434.16
520.909	24568.62
521.276	24707.82
521.643	24935.84
522.009	25004.99
522.376	25264.87
522.743	25461.25
523.11	25753
523.477	26012.2
523.843	26174.68
524.21	26517.95
524.577	26741.9
524.943	26872.29
525.31	27137.59
525.676	27369.22
526.043	27520.86
526.409	27603.57
526.776	27914.97
527.142	28015.31
527.508	28295.75
527.874	28408.52
528.241	28597.67
528.607	28657.33
528.973	29034.72
529.339	28972.12
529.705	29267.48
530.071	29552.44
530.437	29697.98
530.803	29839.44
531.169	30048.93
531.535	29994.92
531.901	30238.07
532.267	30420.22
532.632	30606.43
532.998	30605.07
533.364	30912.63
533.73	30857.49
534.095	31108.33
534.461	31259.74
534.826	31480.08
535.192	31549.45
535.557	31821.76
535.923	31721.65
536.288	31917.58
536.653	32090
537.019	32053.62
537.384	32219.04
537.749	32594.4
538.114	32544
538.479	32621.97
538.845	32813.37
539.21	32799.36
539.575	33044.55
539.94	33054.5
540.305	33313.25
540.67	33344.21
541.034	33423.75
541.399	33611.55
541.764	33602.51
542.129	33955.04
542.494	33932.67
542.858	34072.55
543.223	34105.32
543.587	34312.54
543.952	34275.48
544.316	34411.98
544.681	34402.94
545.045	34751.85
545.41	34826.65
545.774	34893.09
546.138	34900.78
546.503	35218.28
546.867	35057.38
547.231	35394.78
547.595	35524.04
547.959	35642.68
548.324	35557.48
548.688	35723.35
549.052	35935.78
549.416	35927.19
549.779	36054.42
550.143	36068.43
550.507	36526.72
550.871	36407.18
551.235	36513.16
551.599	36767.62
551.962	36910.22
552.326	37070.89
552.689	37318.34
553.053	37232.02
553.417	37238.57
553.78	37753.36
554.143	37764.2
554.507	37877.2
554.87	37989.74
555.234	38436.05
555.597	38189.05
555.96	38445.09
556.323	38545.88
556.686	38814.35
557.05	38965.53
557.413	39046.66
557.776	39146.77
558.139	39590.6
558.502	39550.37
558.865	39689.13
559.228	39969.57
559.59	40093.86
559.953	40184.25
560.316	40689.1
560.679	40707.4
561.041	40858.13
561.404	41177.67
561.767	41216.77
562.129	41279.14
562.492	41633.26
562.854	41640.49
563.217	41645.68
563.579	41991.66
563.941	42240.02
564.304	42387.59
564.666	42578.99
565.028	42802.26
565.39	43061.47
565.753	43279.54
566.115	43112.54
566.477	43506.43
566.839	43544.62
567.201	43835.01
567.563	43986.87
567.925	44340.3
568.287	44327.87
568.648	44536.91
569.01	44784.81
569.372	45033.84
569.734	44887.86
570.095	45228.42
570.457	45380.95
570.819	45511.35
571.18	45517
571.542	45954.05
571.903	45924.89
572.265	46227.26
572.626	46158.11
572.987	46427.25
573.349	46570.98
573.71	46726.91
574.071	46931.87
574.432	46964.41
574.794	47269.94
575.155	47270.85
575.516	47229.94
575.877	47370.73
576.238	47452.09
576.599	47505.19
576.96	47650.05
577.32	47710.38
577.681	47808.69
578.042	48020.21
578.403	48055.23
578.763	48122.8
579.124	48263.36
579.485	48407.77
579.845	48476.01
580.206	48539.51
580.566	48603.24
580.927	48489.35
581.287	48796.68
581.648	48637.14
582.008	48869
582.368	48713.97
582.728	48837.81
583.089	48749.9
583.449	48841.88
583.809	48912.16
584.169	48983.57
584.529	48739.96
584.889	49226.28
585.249	48974.31
585.609	48832.84
585.969	49239.38
586.329	49099.27
586.688	49123.68
587.048	49062.21
587.408	49100.18
587.768	49020.41
588.127	49107.86
588.487	49080.07
588.846	49292.49
589.206	49071.25
589.565	49160.74
589.925	49381.3
590.284	49236.22
590.643	49301.75
591.003	49327.29
591.362	49432.82
591.721	49352.6
592.08	49367.74
592.44	49418.59
592.799	49599.6
593.158	49462.88
593.517	49363.45
593.876	49573.84
594.235	49382.43
594.593	49631.92
594.952	49658.36
595.311	49366.39
595.67	49551.92
596.029	49830.55
596.387	49914.39
596.746	49790.33
597.104	49557.57
597.463	49720.95
597.822	49686.15
598.18	49604.12
598.538	49567.06
598.897	49819.48
599.255	49500.62
599.613	50080.27
599.972	49761.63
600.33	49890.89
600.688	49779.26
601.046	49936.99
601.404	50009.98
601.762	49972.02
602.12	50207.95
602.478	50032.58
602.836	50107.16
603.194	49968.18
603.552	50055.63
603.91	49894.28
604.268	50248.85
604.625	50116.87
604.983	50245.91
605.341	50127.95
605.698	50299.47
606.056	50423.98
606.413	50360.94
606.771	50463.31
607.128	50537.88
607.485	50355.51
607.843	50366.13
608.2	50501.95
608.557	50580.36
608.914	50506.24
609.272	50576.07
609.629	50603.19
609.986	50771.77
610.343	50604.77
610.7	50853.8
611.057	50893.8
611.414	50746.24
611.771	50770.64
612.127	50947.36
612.484	50891.09
612.841	50962.73
613.198	50914.14
613.554	51023.29
613.911	51157.98
614.267	51219.67
614.624	51131.54
614.98	51196.39
615.337	51345.54
615.693	51325.2
616.05	51192.55
616.406	51531.98
616.762	51354.13
617.118	51463.51
617.475	51447.91
617.831	51544.63
618.187	51518.87
618.543	51553.22
618.899	51648.36
619.255	51603.61
619.611	51622.6
619.967	51660.34
620.323	51784.63
620.678	51660.11
621.034	51480.91
621.39	51569.94
621.746	51542.15
622.101	51849.94
622.457	51576.27
622.812	51741.46
623.168	51789.6
623.523	51836.6
623.879	51974
624.234	51653.11
624.589	51772.2
624.945	51893.1
625.3	51818.75
625.655	51728.13
626.01	51804.06
626.365	51859.43
626.72	51738.53
627.075	51778.75
627.43	51757.51
627.785	51660.79
628.14	51750.73
628.495	51846.77
628.85	51713.44
629.205	51620.79
629.559	51770.39
629.914	51470.51
630.269	51614.01
630.623	51534.01
630.978	51451.98
631.332	51647
631.687	51560
632.041	51359.1
632.396	51508.48
632.75	51353.23
633.104	51320.46
633.459	51170.86
633.813	51138.99
634.167	51171.08
634.521	51143.51
634.875	51162.5
635.229	51088.6
635.583	50903.52
635.937	50988.49
636.291	50935.84
636.645	50957.08
636.999	50845.89
637.352	50991.65
637.706	50759.12
638.06	50799.57
638.413	50603.87
638.767	50729.97
639.121	50713.69
639.474	50428.73
639.828	50528.16
640.181	50579.24
640.534	50469.86
640.888	50410.2
641.241	50304.21
641.594	50348.51
641.947	50458.11
642.301	50409.3
642.654	50348.96
643.007	50254.27
643.36	50218.34
643.713	50184.44
644.066	50338.56
644.419	50167.95
644.771	49718.69
645.124	49350.79
645.477	49297.69
645.83	49038.48
646.182	48955.55
646.535	48846.4
646.888	48863.8
647.24	48718.04
647.593	48833.74
647.945	48762.79
648.298	48630.13
648.65	48569.12
649.002	48440.08
649.355	48623.13
649.707	48490.93
650.059	48810.24
650.411	49076.22
650.763	49162.55
651.115	49508.53
651.467	49397.12
651.819	49285.71
652.171	49170.91
652.523	49115.32
652.875	49071.48
653.227	48950.35
653.578	49163
653.93	48984.25
654.282	48888.43
654.633	48678.72
654.985	48776.34
655.337	48667.19
655.688	48724.82
656.039	48704.93
656.391	48411.61
656.742	48643.69
657.094	48534.09
657.445	48555.56
657.796	48458.39
658.147	48289.13
658.498	48395.56
658.849	48539.74
659.2	48322.8
659.551	48186.53
659.902	48461.1
660.253	48268.34
660.604	48426.75
660.955	48132.07
661.306	48317.6
661.656	48384.26
662.007	48214.78
662.358	48309.01
662.708	48166.42
663.059	48229.92
663.409	47985.18
663.76	48152.41
664.11	48233.99
664.461	48233.53
664.811	48283.48
665.161	48122.35
665.511	48093.65
665.862	48189.02
666.212	48062.47
666.562	48125.74
666.912	48125.97
667.262	48034.67
667.612	48006.42
667.962	47987.21
668.312	47997.61
668.662	48202.57
669.011	48078.28
669.361	47977.5
669.711	47938.17
670.06	47998.29
670.41	47894.79
670.76	47826.31
671.109	48024.73
671.459	47925.07
671.808	47939.53
672.157	47932.52
672.507	47660.67
672.856	47794.45
673.205	47735.02
673.554	47886.65
673.904	47745.86
674.253	47876.71
674.602	47693.89
674.951	47029.05
675.3	46895.49
675.649	47552.2
675.998	47528.24
676.346	47439.2
676.695	47702.93
677.044	47135.71
677.393	47246.22
677.741	47392.65
678.09	47149.49
678.438	47179.55
678.787	47247.8
679.135	47242.15
679.484	47047.12
679.832	47082.6
680.181	46890.07
680.529	46918.54
680.877	46890.07
681.225	46878.32
681.573	46966.67
681.922	46688.72
682.27	46546.35
682.618	46777.53
682.966	46447.14
683.314	46619.11
683.661	46357.43
684.009	46129.86
684.357	46141.84
684.705	46065
685.053	46076.53
685.4	46015.29
685.748	45934.39
686.095	45690.78
686.443	45554.73
686.79	45565.36
687.138	45678.35
687.485	45555.19
687.832	45462.76
688.18	45472.93
688.527	45300.96
688.874	45255.31
689.221	45153.84
689.568	45106.38
689.915	44933.28
690.262	44855.09
690.609	44772.38
690.956	44773.51
691.303	44769.22
691.65	44453.07
691.997	44412.39
692.344	44156.13
692.69	44178.73
693.037	44192.28
693.383	43877.26
693.73	44049.69
694.077	43739.87
694.423	43743.26
694.769	43571.96
695.116	43490.83
695.462	43509.82
695.808	43241.57
696.155	43234.34
696.501	43014.01
696.847	43045.65
697.193	42761.59
697.539	42782.83
697.885	42557.07
698.231	42278.21
698.577	42384.65
698.923	42153.47
699.269	42201.15
699.614	41874.61
699.96	41830.99
700.306	41950.08
700.651	41686.59
700.997	41519.81
701.342	41539.02
701.688	41397.33
702.033	41368.18
702.379	41239.14
702.724	41096.32
703.069	41246.15
703.415	40748.76
703.76	40793.73
704.105	40845.48
704.45	40652.26
704.795	40398.94
705.14	40278.94
705.485	40126.4
705.83	40071.94
706.175	40168.44
706.52	40006.18
706.865	39743.36
707.209	39788.11
707.554	39503.37
707.899	39659.3
708.243	39434.9
708.588	39397.16
708.932	39117.84
709.277	39125.3
709.621	39003.95
709.966	38759.88
710.31	38833.78
710.654	38542.26
710.998	38632.2
711.342	38448.48
711.687	38500.91
712.031	38232.44
712.375	38217.07
712.719	38202.61
713.063	38135.72
713.407	38272.21
713.75	38062.95
714.094	38000.81
714.438	37735.5
714.782	37849.63
715.125	37645.79
715.469	37770.31
715.812	37488.51
716.156	37292.58
716.499	37261.85
716.843	37428.62
717.186	37182.75
717.53	37458.9
717.873	37232.02
718.216	37132.81
718.559	37067.73
718.902	36810.11
719.246	36788.41
719.589	36793.38
719.932	36463.67
720.275	36509.32
720.617	36531.02
720.96	36432.94
721.303	36343.9
721.646	36298.93
721.989	36166.05
722.331	36277.46
722.674	36120.41
723.016	36073.18
723.359	35971.48
723.701	35917.93
724.044	35745.05
724.386	35547.77
724.729	35721.09
725.071	35682.68
725.413	35528.11
725.755	35472.74
726.097	35366.98
726.439	35243.14
726.782	35167.89
727.124	35303.03
727.465	35195.68
727.807	35145.52
728.149	34878.4
728.491	35012.41
728.833	34975.35
729.175	34794.34
729.516	34761.8
729.858	34690.16
730.199	34687
730.541	34567
730.882	34484.07
731.224	34746.21
731.565	34514.35
731.906	34480.22
732.248	34409.26
732.589	34287.91
732.93	34161.59
733.271	34180.57
733.612	34177.41
733.953	34265.99
734.294	34031.87
734.635	33833.46
734.976	33955.27
735.317	33714.59
735.658	33852.9
735.999	33837.98
736.339	33685.67
736.68	33689.51
737.021	33577.65
737.361	33457.2
737.702	33659.91
738.042	33374.49
738.383	33303.98
738.723	33404.32
739.063	33134.72
739.404	33390.99
739.744	33136.08
740.084	32979.02
740.424	33064.89
740.764	32958.23
741.104	32949.87
741.444	32861.51
741.784	32783.77
742.124	32761.62
742.464	32598.69
742.804	32664.45
743.143	32565.02
743.483	32446.38
743.823	32379.71
744.162	32286.38
744.502	32171.36
744.841	32173.39
745.181	32195.99
745.52	31987.63
745.86	32029.89
746.199	31875.09
746.538	31969.55
746.877	31899.5
747.216	31932.49
747.556	31830.35
747.895	31888.65
748.234	31664.03
748.573	31629.68
748.911	31583.8
749.25	31506.97
749.589	31332.28
749.928	31434.43
750.267	31518.27
750.605	31362.79
750.944	31248.9
751.283	31132.29
751.621	31156.02
751.96	30874.44
752.298	31005.06
752.636	30970.94
752.975	30807.1
