Data from aluminium_macbook_case_FLMS001491_048.txt Node
Date: Tue Feb 07 10:43:41 GMT 2017
User: dcchb
Spectrometer: FLMS00149
Trigger mode: 0
Integration Time (sec): 2.000000E-2
Scans to average: 10
Electric dark correction enabled: true
Nonlinearity correction enabled: false
Boxcar width: 0
XAxis mode: Wavelengths
Number of Pixels in Spectrum: 2048
>>>>>Begin Spectral Data<<<<<
341.393	-19
341.776	-19
342.16	-19
342.543	-44.53
342.927	-80.69
343.31	-47.47
343.693	-61.71
344.077	-62.39
344.46	-67.81
344.843	-61.03
345.226	-44.53
345.61	-39.34
345.993	-14.03
346.376	2.7
346.759	-8.6
347.142	30.27
347.525	41.11
347.908	61.91
348.291	81.79
348.674	84.5
349.057	104.62
349.44	151.39
349.823	127.44
350.206	160.43
350.588	240.66
350.971	267.32
351.354	278.62
351.737	302.8
352.119	302.8
352.502	313.42
352.884	310.03
353.267	323.37
353.65	329.69
354.032	360.2
354.414	366.08
354.797	363.14
355.179	386.42
355.562	370.6
355.944	393.65
356.326	393.65
356.709	407.66
357.091	411.73
357.473	409.69
357.855	404.5
358.238	418.05
358.62	409.24
359.002	416.02
359.384	395.68
359.766	424.16
360.148	431.39
360.53	406.98
360.912	424.38
361.294	388.68
361.676	408.79
362.057	405.85
362.439	409.92
362.821	439.97
363.203	423.03
363.584	412.63
363.966	436.13
364.348	429.13
364.729	419.86
365.111	405.4
365.493	410.37
365.874	398.85
366.256	430.71
366.637	418.05
367.019	428.45
367.4	404.27
367.781	416.92
368.163	403.14
368.544	437.94
368.925	421.67
369.306	439.97
369.688	416.47
370.069	449.69
370.45	455.57
370.831	442.01
371.212	439.3
371.593	446.53
371.974	452.86
372.355	458.05
372.736	452.63
373.117	470.48
373.498	471.39
373.879	468.9
374.26	456.25
374.641	467.77
375.021	465.06
375.402	447.21
375.783	490.59
376.163	518.16
376.544	513.87
376.925	492.4
377.305	530.82
377.686	496.47
378.066	512.74
378.447	489.92
378.827	503.25
379.208	511.38
379.588	513.42
379.968	525.17
380.349	543.7
380.729	563.36
381.109	564.72
381.489	537.37
381.87	554.32
382.25	567.65
382.63	579.18
383.01	575.79
383.39	590.48
383.77	585.73
384.15	604.04
384.53	588.22
384.91	590.03
385.29	626.41
385.67	603.36
386.049	631.61
386.429	652.62
386.809	642
387.189	673.41
387.568	655.34
387.948	657.14
388.328	668.22
388.707	688.1
389.087	689.01
389.466	694.88
389.846	684.71
390.225	697.82
390.605	736.92
390.984	742.34
391.363	748.21
391.743	769.91
392.122	753.19
392.501	769.01
392.881	781.43
393.26	787.08
393.639	795.22
394.018	783.47
394.397	817.59
394.776	830.25
395.155	848.55
395.534	839.96
395.913	850.13
396.292	850.81
396.671	885.16
397.05	871.6
397.429	880.64
397.808	918.38
398.186	897.36
398.565	895.1
398.944	905.72
399.323	922.67
399.701	944.37
400.08	959.96
400.458	950.92
400.837	989.79
401.215	981.43
401.594	998.38
401.972	1001.54
402.351	993.18
402.729	1026.17
403.107	1061.88
403.486	1063.91
403.864	1075.44
404.242	1093.29
404.62	1091.93
404.999	1113.63
405.377	1113.85
405.755	1117.24
406.133	1151.37
406.511	1152.5
406.889	1193.17
407.267	1214.42
407.645	1201.31
408.023	1250.12
408.401	1263.68
408.779	1271.14
409.156	1305.94
409.534	1311.82
409.912	1300.29
410.29	1335.09
410.667	1366.28
411.045	1382.77
411.422	1404.02
411.8	1435.2
412.178	1434.52
412.555	1443.79
412.933	1468.87
413.31	1516.56
413.687	1536.44
414.065	1528.53
414.442	1562.66
414.819	1559.94
415.197	1590.45
415.574	1604.24
415.951	1627.97
416.328	1639.72
416.705	1679.04
417.082	1699.6
417.46	1725.82
417.837	1724.46
418.214	1761.52
418.591	1787.74
418.967	1765.14
419.344	1824.8
419.721	1807.17
420.098	1835.19
420.475	1825.7
420.852	1859.37
421.228	1925.58
421.605	1935.53
421.982	1952.93
422.358	1987.28
422.735	2023.89
423.111	1993.61
423.488	2076.32
423.864	2052.81
424.241	2055.3
424.617	2127.39
424.994	2133.04
425.37	2164.67
425.746	2188.18
426.123	2219.36
426.499	2211.45
426.875	2220.49
427.251	2338.91
427.627	2337.55
428.003	2365.12
428.379	2391.79
428.756	2400.83
429.132	2454.84
429.507	2496.64
429.883	2514.27
430.259	2579.81
430.635	2594.95
431.011	2609.41
431.387	2728.5
431.763	2718.56
432.138	2753.81
432.514	2790.19
432.89	2806.24
433.265	2903.64
433.641	2924.65
434.016	2944.32
434.392	3032.67
434.767	3064.09
435.143	3073.13
435.518	3105.67
435.894	3122.16
436.269	3164.2
436.644	3262.72
437.02	3276.74
437.395	3283.29
437.77	3333.68
438.145	3406.45
438.52	3444.19
438.895	3416.17
439.271	3515.15
439.646	3566.45
440.021	3581.59
440.395	3580.23
440.77	3553.56
441.145	3648.7
441.52	3733
441.895	3709.04
442.27	3772.77
442.645	3764.18
443.019	3827.46
443.394	3829.49
443.769	3860
444.143	3877.62
444.518	3981.12
444.892	3962.59
445.267	3979.54
445.641	3982.93
446.016	4031.07
446.39	4082.14
446.764	4078.52
447.139	4104.06
447.513	4217.95
447.887	4167.79
448.262	4203.72
448.636	4241.23
449.01	4302.92
449.384	4376.14
449.758	4376.37
450.132	4442.81
450.506	4491.85
450.88	4533.2
451.254	4535.91
451.628	4597.61
452.002	4631.73
452.376	4716.25
452.75	4760.76
453.123	4837.37
453.497	4863.81
453.871	4877.15
454.244	5020.64
454.618	5084.6
454.992	5103.81
455.365	5152.17
455.739	5268.32
456.112	5302.67
456.486	5427.87
456.859	5397.13
457.232	5552.83
457.606	5568.43
457.979	5639.61
458.352	5738.82
458.725	5867.85
459.099	5842.54
459.472	5975.42
459.845	6049.54
460.218	6040.96
460.591	6155.3
460.964	6166.6
461.337	6372.25
461.71	6456.54
462.083	6560.49
462.456	6576.76
462.829	6508.06
463.201	6688.85
463.574	6727.49
463.947	6827.15
464.32	7028.95
464.692	6993.7
465.065	7103.53
465.438	7200.47
465.81	7345.78
466.183	7436.4
466.555	7586.91
466.928	7679.56
467.3	7650.86
467.672	7849.95
468.045	7970.4
468.417	8014.24
468.789	8058.53
469.161	8193.22
469.534	8373.55
469.906	8511.17
470.278	8639.53
470.65	8742.13
471.022	8900.54
471.394	9018.96
471.766	9127.66
472.138	9216.01
472.51	9425.5
472.882	9587.98
473.253	9686.74
473.625	9778.03
473.997	9923.79
474.369	10137.35
474.74	10227.06
475.112	10427.06
475.484	10596.09
475.855	10780.72
476.227	10905.69
476.598	11206.02
476.97	11280.82
477.341	11530.98
477.713	11719
478.084	11820.01
478.455	12196.5
478.827	12337.51
479.198	12719.88
479.569	12712.65
479.94	13042.81
480.311	13135.91
480.682	13482.34
481.053	13758.04
481.424	13939.28
481.795	14103.12
482.166	14312.38
482.537	14566.83
482.908	14914.17
483.279	15044.34
483.65	15340.6
484.021	15590.99
484.391	15785.79
484.762	15927.93
485.133	16161.59
485.503	16370.85
485.874	16704.18
486.244	16933.78
486.615	17230.49
486.985	17489.92
487.356	17718.84
487.726	17898.27
488.097	18313.85
488.467	18323.8
488.837	18794.97
489.207	19002.2
489.578	19252.14
489.948	19413.03
490.318	19762.4
490.688	19789.07
491.058	20203.07
491.428	20453.46
491.798	20642.15
492.168	21053.22
492.538	21019.77
492.908	21314.91
493.278	21605.97
493.648	21678.29
494.017	21991.95
494.387	22257.25
494.757	22287.76
495.126	22597.13
495.496	22643.01
495.866	22773.4
496.235	23180.39
496.605	23384.91
496.974	23508.07
497.344	23787.83
497.713	23927.04
498.082	24136.53
498.452	24449.51
498.821	24573.8
499.19	24716.62
499.559	24864.42
499.928	25088.37
500.298	25294.24
500.667	25508.47
501.036	25539.88
501.405	25816.71
501.774	25783.71
502.143	26144.38
502.512	26139.41
502.88	26412.17
503.249	26557.93
503.618	26764.25
503.987	26771.49
504.356	27078.37
504.724	27208.99
505.093	27338.25
505.462	27552.71
505.83	27702.53
506.199	27976.88
506.567	28226.14
506.936	28317.89
507.304	28709.97
507.672	28774.82
508.041	29008.71
508.409	29148.6
508.777	29330.29
509.145	29756.94
509.514	29803.95
509.882	30011.85
510.25	30229.02
510.618	30366.19
510.986	30573.42
511.354	30902.22
511.722	31172.27
512.09	31432.83
512.458	31420.85
512.826	31794.4
513.193	31859.04
513.561	32042.31
513.929	32278.46
514.297	32577.21
514.664	32839.35
515.032	32854.04
515.4	33230.3
515.767	33384.42
516.135	33561.82
516.502	33380.13
516.869	34223.72
517.237	34188.69
517.604	34258.97
517.972	34533.32
518.339	34838.62
518.706	34978.05
519.073	35324.48
519.44	35372.39
519.808	35929.21
520.175	35793.17
520.542	36441.74
520.909	36648.74
521.276	36641.28
521.643	37084.21
522.009	37441.26
522.376	37782.95
522.743	38088.25
523.11	38352.2
523.477	38712.19
523.843	38920.09
524.21	39255.45
524.577	39587.42
524.943	39695.67
525.31	39823.57
525.676	40160.51
526.043	40582.87
526.409	40768.63
526.776	40981.51
527.142	41209.07
527.508	41329.07
527.874	41716.18
528.241	41960.92
528.607	42072.1
528.973	42443.16
529.339	42598.41
529.705	42937.84
530.071	43218.96
530.437	43395
530.803	43745.95
531.169	44019.85
531.535	44063.91
531.901	44108.43
532.267	44389.55
532.632	44778.24
532.998	44933.95
533.364	45144.56
533.73	45355.18
534.095	45609.63
534.461	45738.44
534.826	45940.7
535.192	46136.85
535.557	46507.24
535.923	46536.39
536.288	46700.9
536.653	46860.67
537.019	46762.82
537.384	46950.84
537.749	47222.92
538.114	47272.64
538.479	47360.32
538.845	47622.69
539.21	47592.41
539.575	47633.99
539.94	47932.28
540.305	48089.57
540.67	48206.4
541.034	48200.98
541.399	48441.88
541.764	48548.99
542.129	48697.91
542.494	48800.06
542.858	48938.59
543.223	48977.46
543.587	49266.49
543.952	49231.23
544.316	49441.4
544.681	49560.72
545.045	49711.67
545.41	49794.83
545.774	49952.34
546.138	50058.78
546.503	50260.81
546.867	50227.59
547.231	50504.19
547.595	50653.8
547.959	50771.53
548.324	50785.54
548.688	50940.34
549.052	51086.33
549.416	51214.68
549.779	51251.97
550.143	51355.7
550.507	51513.43
550.871	51656.48
551.235	51677.95
551.599	51960.2
551.962	51973.08
552.326	51997.04
552.689	52253.98
553.053	52150.03
553.417	52207.43
553.78	52681.76
554.143	52497.14
554.507	52708.2
554.87	52814.42
555.234	53012.6
555.597	52869.33
555.96	53137.35
556.323	53258.47
556.686	53223.45
557.05	53472.25
557.413	53607.39
557.776	53716.31
558.139	53900.49
558.502	53927.16
558.865	54066.36
559.228	54263.87
559.59	54366.24
559.953	54489.17
560.316	54812.1
560.679	54721.71
561.041	55010.29
561.404	55122.83
561.767	55295.93
562.129	55175.94
562.492	55530.73
562.854	55501.58
563.217	55488.02
563.579	55673.78
563.941	55942.24
564.304	56022.47
564.666	56193.99
565.028	56153.09
565.39	56268.34
565.753	56342.23
566.115	56444.38
566.477	56626.97
566.839	56616.12
567.201	56891.6
567.563	56860.64
567.925	57065.38
568.287	57011.82
568.648	57027.41
569.01	57213.4
569.372	57336.11
569.734	57253.85
570.095	57483.45
570.457	57610
570.819	57614.74
571.18	57616.32
571.542	57774.06
571.903	57827.62
572.265	57853.61
572.626	57992.59
572.987	58130.21
573.349	58177.44
573.71	58280.94
574.071	58324.1
574.432	58368.39
574.794	58566.13
575.155	58490.88
575.516	58510.54
575.877	58602.29
576.238	58662.4
576.599	58749.63
576.96	58777.88
577.32	58868.72
577.681	58894.71
578.042	59023.29
578.403	58960.7
578.763	58985.33
579.124	59101.71
579.485	59136.96
579.845	59211.08
580.206	59163.63
580.566	59155.27
580.927	59179.67
581.287	59333.79
581.648	59151.88
582.008	59228.26
582.368	59214.93
582.728	59320.46
583.089	59226.45
583.449	59220.35
583.809	59268.94
584.169	59293.57
584.529	59279.33
584.889	59366.79
585.249	59161.59
585.609	59130.63
585.969	59301.93
586.329	59308.93
586.688	59319.33
587.048	59273.23
587.408	59184.42
587.768	59237.07
588.127	59314.58
588.487	59259.67
588.846	59436.39
589.206	59218.54
589.565	59341.02
589.925	59409.27
590.284	59340.35
590.643	59425.77
591.003	59454.69
591.362	59486.33
591.721	59509.38
592.08	59524.97
592.44	59527.23
592.799	59551.19
593.158	59517.07
593.517	59540.12
593.876	59585.99
594.235	59517.52
594.593	59563.84
594.952	59506.44
595.311	59532.21
595.67	59597.51
596.029	59740.11
596.387	59697.17
596.746	59647.68
597.104	59540.79
597.463	59564.07
597.822	59616.05
598.18	59601.81
598.538	59515.03
598.897	59691.3
599.255	59451.08
599.613	59834.34
599.972	59745.08
600.33	59741.92
600.688	59579.21
601.046	59757.28
601.404	59753.67
601.762	59717.74
602.12	59832.08
602.478	59858.07
602.836	59838.86
603.194	59724.74
603.552	59797.96
603.91	59672.54
604.268	59888.58
604.625	59839.77
604.983	59926.55
605.341	59881.12
605.698	60014.23
606.056	60050.84
606.413	60037.96
606.771	60088.12
607.128	60029.37
607.485	60032.53
607.843	60019.65
608.2	60178.52
608.557	60308.68
608.914	60166.09
609.272	60343.71
609.629	60355.69
609.986	60373.31
610.343	60283.15
610.7	60431.39
611.057	60383.71
611.414	60399.75
611.771	60406.99
612.127	60534.21
612.484	60380.55
612.841	60548.9
613.198	60502.58
613.554	60444.5
613.911	60614.89
614.267	60563.82
614.624	60526.98
614.98	60554.55
615.337	60637.94
615.693	60570.82
616.05	60636.58
616.406	60679.52
616.762	60620.76
617.118	60625.51
617.475	60608.56
617.831	60684.27
618.187	60687.66
618.543	60704.6
618.899	60791.16
619.255	60758.61
619.611	60789.8
619.967	60813.3
620.323	60885.39
620.678	60854.88
621.034	60853.53
621.39	60782.79
621.746	60798.39
622.101	60966.74
622.457	60822.12
622.812	60909.34
623.168	60938.04
623.523	60951.15
623.879	60986.18
624.234	60887.88
624.589	60915.67
624.945	60932.4
625.3	60897.37
625.655	60959.06
626.01	60969.46
626.365	60958.16
626.72	60952.28
627.075	60902.79
627.43	60901.66
627.785	60857.59
628.14	60799.07
628.495	60886.07
628.85	60839.52
629.205	60754.09
629.559	60943.92
629.914	60775.56
630.269	60813.75
630.623	60659.86
630.978	60648.11
631.332	60724.49
631.687	60765.85
632.041	60661.89
632.396	60641.33
632.75	60492.41
633.104	60488.79
633.459	60432.3
633.813	60380.32
634.167	60440.2
634.521	60430.49
634.875	60418.06
635.229	60378.06
635.583	60267.55
635.937	60294.67
636.291	60185.75
636.645	60204.96
636.999	60120.66
637.352	60239.31
637.706	60045.64
638.06	60142.59
638.413	60096.71
638.767	59982.14
639.121	60034.79
639.474	59887.9
639.828	59915.02
640.181	59963.15
640.534	59894.46
640.888	59802.26
641.241	59687.23
641.594	59852.88
641.947	59877.06
642.301	59784.63
642.654	59770.84
643.007	59822.37
643.36	59779.88
643.713	59695.59
644.066	59780.33
644.419	59626.67
644.771	59444.75
645.124	59240.69
645.477	59166.57
645.83	59006.12
646.182	58892.22
646.535	58823.52
646.888	58861.04
647.24	58646.58
647.593	58892.22
647.945	58803.64
648.298	58609.29
648.65	58590.76
649.002	58496.75
649.355	58601.83
649.707	58601.61
650.059	58643.64
650.411	58849.29
650.763	58950.75
651.115	59051.31
651.467	59032.33
651.819	58925.44
652.171	58836.4
652.523	58867.59
652.875	58796.63
653.227	58763.19
653.578	58892.67
653.93	58876.18
654.282	58735.62
654.633	58590.54
654.985	58691.1
655.337	58626.69
655.688	58627.14
656.039	58725.45
656.391	58521.38
656.742	58538.11
657.094	58578.11
657.445	58679.12
657.796	58623.98
658.147	58557.77
658.498	58490.43
658.849	58533.14
659.2	58471.22
659.551	58384.44
659.902	58536.07
660.253	58389.19
660.604	58520.03
660.955	58369.07
661.306	58417.21
661.656	58403.42
662.007	58374.04
662.358	58334.95
662.708	58323.65
663.059	58371.78
663.409	58107.38
663.76	58372.24
664.11	58315.74
664.461	58260.15
664.811	58312.12
665.161	58200.94
665.511	58098.35
665.862	58228.96
666.212	58309.19
666.562	58284.56
666.912	58200.26
667.262	58249.53
667.612	58187.61
667.962	58209.3
668.312	58078.01
668.662	58184.9
669.011	58030.55
669.361	58046.82
669.711	57979.93
670.06	57985.35
670.41	57897.9
670.76	57862.42
671.109	57960.72
671.459	57899.25
671.808	57824
672.157	57825.81
672.507	57703.33
672.856	57697.9
673.205	57733.61
673.554	57769.31
673.904	57661.97
674.253	57784.68
674.602	57729.32
674.951	57349.44
675.3	57159.39
675.649	57585.82
675.998	57529.55
676.346	57544.69
676.695	57623.1
677.044	57390.12
677.393	57500.62
677.741	57459.72
678.09	57415.2
678.438	57406.84
678.787	57390.34
679.135	57443.9
679.484	57295.65
679.832	57347.86
680.181	57252.49
680.529	57245.03
680.877	57161.87
681.225	57101.76
681.573	57254.75
681.922	57057.02
682.27	57102.44
682.618	56976.34
682.966	56940.18
683.314	56987.19
683.661	56906.29
684.009	56689.34
684.357	56602.11
684.705	56582.68
685.053	56693.41
685.4	56573.64
685.748	56435.34
686.095	56492.74
686.443	56401.89
686.79	56344.49
687.138	56301.78
687.485	56359.63
687.832	56185.4
688.18	56216.36
688.527	56027.21
688.874	56072.41
689.221	55964.39
689.568	55904.5
689.915	55786.77
690.262	55801.91
690.609	55716.71
690.956	55617.05
691.303	55641.46
691.65	55442.6
691.997	55409.15
692.344	55222.94
692.69	55200.34
693.037	55231.53
693.383	55001.48
693.73	55094.58
694.077	54879.45
694.423	54926.9
694.769	54837.19
695.116	54662.28
695.462	54646.68
695.808	54618.66
696.155	54569.62
696.501	54375.51
696.847	54406.01
697.193	54207.15
697.539	54305.45
697.885	54067.94
698.231	53946.82
698.577	53957.21
698.923	53941.17
699.269	53747.95
699.614	53600.84
699.96	53543.44
700.306	53609.88
700.651	53384.8
700.997	53317.45
701.342	53251.47
701.688	53207.17
702.033	53093.73
702.379	53087.63
702.724	52931.25
703.069	53106.84
703.415	52689.9
703.76	52687.87
704.105	52634.53
704.45	52539.4
704.795	52364.26
705.14	52248.1
705.485	52178.05
705.83	52059.18
706.175	52154.77
706.52	52029.58
706.865	51925.4
707.209	51905.74
707.554	51696.71
707.899	51874.55
708.243	51685.86
708.588	51605.41
708.932	51374
709.277	51275.47
709.621	51331.07
709.966	51144.63
710.31	51178.98
710.654	50865.99
710.998	50951.41
711.342	50894.69
711.687	50767.46
712.031	50618.32
712.375	50531.99
712.719	50582.61
713.063	50468.49
713.407	50565.44
713.75	50253.81
714.094	50292.67
714.438	50149.18
714.782	50199.34
715.125	49905.34
715.469	49936.07
715.812	49813.59
716.156	49670.54
716.499	49599.36
716.843	49693.59
717.186	49462.64
717.53	49515.29
717.873	49492.7
718.216	49451.79
718.559	49276.66
718.902	48961.86
719.246	49228.97
719.589	49074.85
719.932	48786.73
720.275	48904.91
720.617	48819.27
720.96	48655.43
721.303	48533.17
721.646	48683.45
721.989	48414.08
722.331	48532.72
722.674	48405.49
723.016	48516.45
723.359	48289.11
723.701	48347.87
724.044	48061.55
724.386	47836.69
724.729	47905.62
725.071	47802.12
725.413	47859.29
725.755	47783.59
726.097	47488.45
726.439	47313.32
726.782	47411.62
727.124	47537.04
727.465	47247.33
727.807	47149.48
728.149	47162.81
728.491	47024.06
728.833	46984.74
729.175	46868.13
729.516	46738.19
729.858	46589.95
730.199	46749.04
730.541	46662.49
730.882	46568.7
731.224	46615.94
731.565	46273.8
731.906	46250.07
732.248	46250.3
732.589	46024.99
732.93	45856.86
733.271	45945.44
733.612	46061.6
733.953	45838.33
734.294	45619.58
734.635	45783.87
734.976	45778.22
735.317	45672.01
735.658	45586.13
735.999	45490.77
736.339	45423.2
736.68	45657.09
737.021	45197.67
737.361	45191.79
737.702	45377.55
738.042	45251.45
738.383	45073.6
738.723	45121.29
739.063	44907.28
739.404	45052.36
739.744	44894.17
740.084	44867.73
740.424	44709.77
740.764	44654.4
741.104	44748.64
741.444	44510.45
741.784	44422.32
742.124	44500.28
742.464	44372.6
742.804	44443.11
743.143	44159.95
743.483	44180.07
743.823	44106.62
744.162	43957.25
744.502	44072.73
744.841	43785.5
745.181	43827.76
745.52	43724.03
745.86	43678.16
746.199	43632.74
746.538	43541.67
746.877	43504.38
747.216	43465.74
747.556	43234.33
747.895	43353.42
748.234	43181
748.573	43010.15
748.911	42819.2
749.25	42861.46
749.589	42691.97
749.928	42670.95
750.267	42738.3
750.605	42558.41
750.944	42510.05
751.283	42242.26
751.621	42336.73
751.96	42032.55
752.298	42130.63
