Data from aluminium_surface_pro_back_FLMS001491_00029.txt Node
Date: Wed Feb 08 15:33:50 GMT 2017
User: dcchb
Spectrometer: FLMS00149
Trigger mode: 0
Integration Time (sec): 2.000000E-2
Scans to average: 10
Electric dark correction enabled: true
Nonlinearity correction enabled: false
Boxcar width: 0
XAxis mode: Wavelengths
Number of Pixels in Spectrum: 2048
>>>>>Begin Spectral Data<<<<<
341.393	-3.76
341.776	-3.76
342.16	-3.76
342.543	-81.95
342.927	-79.91
343.31	-58.67
343.693	-54.15
344.077	-86.92
344.46	-75.85
344.843	-52.8
345.226	-35.39
345.61	-26.58
345.993	-18.9
346.376	-11.44
346.759	18.16
347.142	33.53
347.525	34.66
347.908	52.06
348.291	87.54
348.674	84.38
349.057	110.36
349.44	129.35
349.823	134.54
350.206	172.74
350.588	208.21
350.971	243.69
351.354	251.6
351.737	274.65
352.119	301.77
352.502	277.82
352.884	308.78
353.267	311.49
353.65	332.73
354.032	322.79
354.414	337.7
354.797	347.65
355.179	355.78
355.562	342.22
355.944	371.15
356.326	371.6
356.709	359.17
357.091	360.3
357.473	363.47
357.855	364.14
358.238	356.69
358.62	391.03
359.002	363.24
359.384	361.88
359.766	352.39
360.148	356.69
360.53	379.06
360.912	377.93
361.294	364.59
361.676	373.63
362.057	388.55
362.439	367.98
362.821	354.88
363.203	372.5
363.584	366.63
363.966	372.5
364.348	368.44
364.729	358.95
365.111	374.99
365.493	363.01
365.874	374.76
366.256	357.59
366.637	349.91
367.019	367.08
367.4	367.08
367.781	357.36
368.163	351.04
368.544	352.84
368.925	376.12
369.306	386.74
369.688	377.7
370.069	385.16
370.45	379.51
370.831	368.21
371.212	351.49
371.593	369.57
371.974	387.87
372.355	386.97
372.736	365.72
373.117	382
373.498	376.8
373.879	380.19
374.26	381.54
374.641	370.02
375.021	393.75
375.402	396.46
375.783	393.75
376.163	411.6
376.544	414.31
376.925	412.05
377.305	434.2
377.686	402.79
378.066	424.48
378.447	410.02
378.827	423.12
379.208	425.84
379.588	436.01
379.968	443.01
380.349	458.15
380.729	443.24
381.109	422.45
381.489	445.72
381.87	457.25
382.25	467.42
382.63	469.22
383.01	450.69
383.39	469.68
383.77	459.73
384.15	471.71
384.53	494.76
384.91	475.78
385.29	487.08
385.67	479.17
386.049	487.08
386.429	500.18
386.809	506.51
387.189	494.99
387.568	506.74
387.948	515.1
388.328	530.69
388.707	532.73
389.087	550.58
389.466	527.3
389.846	567.08
390.225	545.61
390.605	560.75
390.984	567.3
391.363	563.91
391.743	571.82
392.122	604.36
392.501	584.25
392.881	614.98
393.26	589.22
393.639	618.37
394.018	614.98
394.397	637.36
394.776	613.4
395.155	630.35
395.534	630.35
395.913	643.01
396.292	644.14
396.671	661.31
397.05	691.82
397.429	661.54
397.808	678.26
398.186	690.24
398.565	683.46
398.944	704.7
399.323	700.41
399.701	710.35
400.08	738.37
400.458	737.69
400.837	766.62
401.215	733.4
401.594	772.27
401.972	767.75
402.351	763.91
402.729	779.95
403.107	809.1
403.486	797.8
403.864	822.44
404.242	821.98
404.62	836.45
404.999	853.62
405.377	838.48
405.755	856.33
406.133	860.85
406.511	875.77
406.889	874.86
407.267	883.45
407.645	916.9
408.023	919.61
408.401	920.96
408.779	943.56
409.156	963
409.534	968.19
409.912	1003.67
410.29	1023.56
410.667	1040.74
411.045	1040.51
411.422	1033.5
411.8	1050.45
412.178	1066.27
412.555	1062.88
412.933	1112.6
413.31	1107.4
413.687	1123.45
414.065	1120.96
414.442	1157.12
414.819	1158.25
415.197	1166.61
415.574	1208.64
415.951	1212.26
416.328	1205.93
416.705	1222.2
417.082	1238.92
417.46	1245.7
417.837	1281.18
418.214	1280.96
418.591	1272.82
418.967	1287.51
419.344	1344
419.721	1348.3
420.098	1331.8
420.475	1353.27
420.852	1390.33
421.228	1417.22
421.605	1399.82
421.982	1425.13
422.358	1429.43
422.735	1435.98
423.111	1451.8
423.488	1518.24
423.864	1462.65
424.241	1497.67
424.617	1513.72
424.994	1538.12
425.37	1572.92
425.746	1546.71
426.123	1608.86
426.499	1583.77
426.875	1630.32
427.251	1676.88
427.627	1675.75
428.003	1706.25
428.379	1700.38
428.756	1740.83
429.132	1738.8
429.507	1793.94
429.883	1803.88
430.259	1836.42
430.635	1836.42
431.011	1872.13
431.387	1913.71
431.763	1930.2
432.138	1922.75
432.514	1965.91
432.89	1996.42
433.265	2013.14
433.641	2093.36
434.016	2088.17
434.392	2097.88
434.767	2175.85
435.143	2147.82
435.518	2175.17
435.894	2206.35
436.269	2248.16
436.644	2277.09
437.02	2273.47
437.395	2299.23
437.77	2341.72
438.145	2381.27
438.52	2389.63
438.895	2395.5
439.271	2426.24
439.646	2494.93
440.021	2475.73
440.395	2496.29
440.77	2513.24
441.145	2523.63
441.52	2546.46
441.895	2581.71
442.27	2600.69
442.645	2604.99
443.019	2637.98
443.394	2628.72
443.769	2686.12
444.143	2691.77
444.518	2716.85
444.892	2729.73
445.267	2753.68
445.641	2776.51
446.016	2805.89
446.39	2791.65
446.764	2842.5
447.139	2844.76
447.513	2873
447.887	2896.28
448.262	2903.74
448.636	2902.16
449.01	2985.99
449.384	3001.14
449.758	2991.19
450.132	3067.35
450.506	3088.59
450.88	3107.12
451.254	3078.2
451.628	3144.86
452.002	3201.58
452.376	3229.83
452.75	3248.36
453.123	3249.04
453.497	3334.69
453.871	3327.45
454.244	3398.19
454.618	3424.63
454.992	3498.75
455.365	3512.31
455.739	3615.81
456.112	3596.37
456.486	3674.79
456.859	3676.6
457.232	3724.05
457.606	3741.68
457.979	3816.03
458.352	3904.16
458.725	3936.93
459.099	3983.03
459.472	4065.51
459.845	4077.04
460.218	4137.83
460.591	4162.01
460.964	4208.79
461.337	4273.87
461.71	4347.09
462.083	4426.18
462.456	4430.25
462.829	4449.69
463.201	4541.89
463.574	4562
463.947	4611.94
464.32	4737.59
464.692	4757.25
465.065	4821.88
465.438	4858.49
465.81	4951.82
466.183	5003.57
466.555	5086.28
466.928	5158.37
467.3	5120.18
467.672	5216.22
468.045	5419.15
468.417	5370.11
468.789	5447.4
469.161	5502.54
469.534	5567.4
469.906	5744.79
470.278	5706.15
470.65	5802.87
471.022	5952.02
471.394	6043.77
471.766	6074.73
472.138	6198.34
472.51	6304.55
472.882	6349.3
473.253	6446.24
473.625	6576.86
473.997	6723.3
474.369	6757.87
474.74	6808.95
475.112	6981.6
475.484	7061.14
475.855	7177.98
476.227	7300.23
476.598	7521.24
476.97	7496.61
477.341	7711.75
477.713	7750.16
478.084	7906.77
478.455	8106.31
478.827	8155.35
479.198	8384.72
479.569	8422.46
479.94	8673.08
480.311	8734.32
480.682	8963.46
481.053	9149
481.424	9298.6
481.795	9407.52
482.166	9518.7
482.537	9646.16
482.908	9824.69
483.279	9972.03
483.65	10152.59
484.021	10307.38
484.391	10447.72
484.762	10535.85
485.133	10804.77
485.503	10900.36
485.874	11045.9
486.244	11218.55
486.615	11398.66
486.985	11477.98
487.356	11728.82
487.726	11803.84
488.097	12122.48
488.467	12134.23
488.837	12397.05
489.207	12576.93
489.578	12690.15
489.948	12890.37
490.318	13080.87
490.688	13038.84
491.058	13363.35
491.428	13503.01
491.798	13602.66
492.168	13872.71
492.538	13954.29
492.908	14049.88
493.278	14348.41
493.648	14352.02
494.017	14604.22
494.387	14681.05
494.757	14878.11
495.126	15092.57
495.496	15115.62
495.866	15266.35
496.235	15422.5
496.605	15568.94
496.974	15642.84
497.344	15807.35
497.713	15981.59
498.082	16020.23
498.452	16218.87
498.821	16267.45
499.19	16371.86
499.559	16523.04
499.928	16631.74
500.298	16722.36
500.667	17004.61
501.036	16948.11
501.405	17095.45
501.774	17164.83
502.143	17392.85
502.512	17431.04
502.88	17606.4
503.249	17638.72
503.618	17824.02
503.987	17865.83
504.356	17938.14
504.724	18080.06
505.093	18130.23
505.462	18310.79
505.83	18453.38
506.199	18614.74
506.567	18783.09
506.936	18820.61
507.304	19098.34
507.672	19150.32
508.041	19275.06
508.409	19498.1
508.777	19568.61
509.145	19745.55
509.514	19893.12
509.882	20010.18
510.25	20154.13
510.618	20217.63
510.986	20321.81
511.354	20551.86
511.722	20705.76
512.09	20941.91
512.458	20935.81
512.826	21189.36
513.193	21187.32
513.561	21338.96
513.929	21532.63
514.297	21783.47
514.664	21914.99
515.032	21970.35
515.4	22180.29
515.767	22392.49
516.135	22519.94
516.502	22485.6
516.869	22711.13
517.237	22965.36
517.604	22907.51
517.972	23215.29
518.339	23431.33
518.706	23506.81
519.073	23585.23
519.44	23669.07
519.808	24097.08
520.175	24177.08
520.542	24480.57
520.909	24634.47
521.276	24623.17
521.643	25000.11
522.009	25132.31
522.376	25367.55
522.743	25548.57
523.11	25833.76
523.477	26151.26
523.843	26162.79
524.21	26491.59
524.577	26724.58
524.943	26765.03
525.31	26968.19
525.676	27329.76
526.043	27535.86
526.409	27642.3
526.776	27893.59
527.142	27956.64
527.508	28096.52
527.874	28346.91
528.241	28456.06
528.607	28667.13
528.973	28923.62
529.339	28857.63
529.705	29117.29
530.071	29580.1
530.437	29594.79
530.803	29756.82
531.169	30017.83
531.535	29849.24
531.901	29990.71
532.267	30401.32
532.632	30477.25
532.998	30769.22
533.364	30860.52
533.73	30961.08
534.095	31300.73
534.461	31304.8
534.826	31500.05
535.192	31623.21
535.557	31795.41
535.923	31753.83
536.288	31863.65
536.653	32047.38
537.019	31982.97
537.384	32262.51
537.749	32297.54
538.114	32458.67
538.479	32553.81
538.845	32701.15
539.21	32648.04
539.575	32990.4
539.94	32981.59
540.305	33337.29
540.67	33122.6
541.034	33305.65
541.399	33524.18
541.764	33512.65
542.129	33685.98
542.494	33862.7
542.858	33744.51
543.223	34012.98
543.587	34232.18
543.952	34309.47
544.316	34390.59
544.681	34417.48
545.045	34493.64
545.41	34665.16
545.774	34823.35
546.138	34873.07
546.503	34927.3
546.867	35011.59
547.231	35373.17
547.595	35511.47
547.959	35515.76
548.324	35531.81
548.688	35699.26
549.052	35903.32
549.416	35780.61
549.779	35953.94
550.143	36018.35
550.507	36390.09
550.871	36405.91
551.235	36463.98
551.599	36711.21
551.962	36835.27
552.326	36985.55
552.689	37130.41
553.053	37014.48
553.417	37236.85
553.78	37715.25
554.143	37517.06
554.507	37642.94
554.87	37875.93
555.234	38263.26
555.597	38116.82
555.96	38291.73
556.323	38627.32
556.686	38446.76
557.05	38938.5
557.413	38904.6
557.776	39192.95
558.139	39333.97
558.502	39427.07
558.865	39546.62
559.228	39871.13
559.59	40062.53
559.953	40040.16
560.316	40590.2
560.679	40503.65
561.041	40682.18
561.404	40935.96
561.767	41132.11
562.129	41047.59
562.492	41475.38
562.854	41503.4
563.217	41634.7
563.579	41779.1
563.941	42097.51
564.304	42245.53
564.666	42547.21
565.028	42671.05
565.39	42789.24
565.753	43086.41
566.115	43189.01
566.477	43440.75
566.839	43577.47
567.201	43847.75
567.563	43998.93
567.925	44223.1
568.287	44219.04
568.648	44290.9
569.01	44623.77
569.372	44848.62
569.734	44832.58
570.095	45111.44
570.457	45444.99
570.819	45519.57
571.18	45502.17
571.542	45899.44
571.903	45892.89
572.265	46045.2
572.626	46141.02
572.987	46240.68
573.349	46433.67
573.71	46697.61
574.071	46750.49
574.432	46666.2
574.794	47071.62
575.155	46931.96
575.516	47007.21
575.877	47304.38
576.238	47309.8
576.599	47467.31
576.96	47589.12
577.32	47622.79
577.681	47846.28
578.042	47941.88
578.403	47933.06
578.763	47953.63
579.124	48144.13
579.485	48300.51
579.845	48288.08
580.206	48336.21
580.566	48287.4
580.927	48408.98
581.287	48547.73
581.648	48452.82
582.008	48569.2
582.368	48545.93
582.728	48585.7
583.089	48666.15
583.449	48700.95
583.809	48631.12
584.169	48799.71
584.529	48681.29
584.889	49010.77
585.249	48864.56
585.609	48775.98
585.969	49102.3
586.329	48944.56
586.688	48991.56
587.048	49019.59
587.408	48911.34
587.768	48924.9
588.127	48904.11
588.487	48778.46
588.846	49010.55
589.206	48939.36
589.565	48824.11
589.925	49037.67
590.284	48928.06
590.643	49137.32
591.003	49018.68
591.362	49155.85
591.721	49097.32
592.08	49171
592.44	49244.21
592.799	49284.21
593.158	49138
593.517	49257.32
593.876	49409.18
594.235	49344.32
594.593	49289.18
594.952	49372.35
595.311	49109.08
595.67	49403.31
596.029	49638.78
596.387	49620.93
596.746	49604.88
597.104	49562.62
597.463	49461.84
597.822	49615.05
598.18	49474.04
598.538	49585.22
598.897	49690.08
599.255	49378.67
599.613	49976.4
599.972	49657.99
600.33	49841.26
600.688	49725.1
601.046	49848.72
601.404	49943.18
601.762	49963.74
602.12	50111.08
602.478	50100.69
602.836	50041.48
603.194	49919
603.552	49975.49
603.91	49870.64
604.268	50159.9
604.625	49978.43
604.983	50078.54
605.341	50016.4
605.698	50280.57
606.056	50182.27
606.413	50151.99
606.771	50256.39
607.128	50262.72
607.485	50182.04
607.843	50283.51
608.2	50474.01
608.557	50643.72
608.914	50528.02
609.272	50741.58
609.629	50753.55
609.986	50898.41
610.343	50749.26
610.7	50956.94
611.057	50856.15
611.414	50882.81
611.771	50830.84
612.127	50853.44
612.484	50971.17
612.841	51022.92
613.198	50949.93
613.554	51072.41
613.911	51270.83
614.267	51137.72
614.624	51077.84
614.98	51218.17
615.337	51391.95
615.693	51320.77
616.05	51194.44
616.406	51495
616.762	51437.38
617.118	51265.18
617.475	51325.29
617.831	51460.2
618.187	51422.01
618.543	51468.11
618.899	51695.22
619.255	51512.18
619.611	51519.18
619.967	51600.08
620.323	51630.14
620.678	51622.68
621.034	51501.78
621.39	51502.01
621.746	51463.82
622.101	51665.39
622.457	51467.21
622.812	51565.51
623.168	51705.17
623.523	51669.46
623.879	51716.01
624.234	51481.22
624.589	51657.03
624.945	51647.77
625.3	51738.16
625.655	51678.95
626.01	51690.48
626.365	51687.77
626.72	51594.21
627.075	51485.51
627.43	51473.99
627.785	51557.83
628.14	51573.42
628.495	51608.67
628.85	51559.63
629.205	51458.39
629.559	51683.47
629.914	51453.2
630.269	51412.97
630.623	51373.65
630.978	51287.78
631.332	51404.61
631.687	51484.83
632.041	51325.51
632.396	51408.22
632.75	51222.24
633.104	51349.02
633.459	51245.07
633.813	51154.67
634.167	51223.37
634.521	51201.22
634.875	51266.76
635.229	51166.2
635.583	51055.69
635.937	51030.38
636.291	51004.85
636.645	50899.99
636.999	50822.48
637.352	50941.34
637.706	50703.16
638.06	50822.93
638.413	50624.06
638.767	50650.05
639.121	50684.18
639.474	50523.05
639.828	50430.17
640.181	50431.75
640.534	50543.84
640.888	50346.78
641.241	50305.2
641.594	50349.72
641.947	50409.61
642.301	50293.45
642.654	50223.85
643.007	50233.57
643.36	50203.96
643.713	50036.28
644.066	50222.04
644.419	49730.98
644.771	49513.81
645.124	49228.39
645.477	49244.67
645.83	49017.1
646.182	48900.95
646.535	48674.74
646.888	48874.73
647.24	48594.74
647.593	48836.09
647.945	48683.78
648.298	48572.37
648.65	48507.96
649.002	48438.59
649.355	48526.94
649.707	48496.44
650.059	48637
650.411	49035.41
650.763	48934.17
651.115	49342.52
651.467	49216.42
651.819	49130.77
652.171	49170.09
652.523	49073.6
652.875	49018.68
653.227	48876.99
653.578	49096.65
653.93	48964.45
654.282	48815.52
654.633	48633.83
654.985	48621.86
655.337	48736.88
655.688	48669.31
656.039	48836.09
656.391	48462.54
656.742	48595.64
657.094	48664.79
657.445	48714.06
657.796	48551.12
658.147	48448.08
658.498	48545.93
658.849	48554.74
659.2	48479.49
659.551	48403.33
659.902	48537.79
660.253	48485.14
660.604	48446.72
660.955	48172.6
661.306	48196.33
661.656	48216.67
662.007	48177.8
662.358	48246.5
662.708	48227.52
663.059	48265.93
663.409	47965.15
663.76	48246.05
664.11	48299.83
664.461	48158.37
664.811	48222.09
665.161	48153.62
665.511	47949.78
665.862	47980.52
666.212	48138.48
666.562	48055.77
666.912	48132.83
667.262	47973.29
667.612	47871.59
667.962	47947.52
668.312	47986.17
668.662	48050.35
669.011	47990.24
669.361	47830.69
669.711	47850.8
670.06	47733.52
670.41	47651.71
670.76	47624.6
671.109	47816.91
671.459	47646.74
671.808	47625.95
672.157	47679.06
672.507	47422.57
672.856	47462.57
673.205	47431.38
673.554	47576.46
673.904	47416.01
674.253	47692.62
674.602	47403.58
674.951	46868.23
675.3	46748.46
675.649	47254.44
675.998	47159.75
676.346	47281.78
676.695	47253.76
677.044	46992.3
677.393	46914.78
677.741	47142.8
678.09	46983.26
678.438	46840.21
678.787	46922.47
679.135	46917.27
679.484	46801.57
679.832	46743.26
680.181	46617.62
680.529	46727.22
680.877	46604.06
681.225	46498.52
681.573	46640.67
681.922	46382.59
682.27	46382.82
682.618	46406.1
682.966	46160.23
683.314	46172.43
683.661	46092.88
684.009	45845.66
684.357	45953.9
684.705	45714.36
685.053	45750.75
685.4	45695.38
685.748	45552.33
686.095	45503.97
686.443	45412.45
686.79	45319.57
687.138	45393.92
687.485	45439.12
687.832	45167.71
688.18	45095.62
688.527	44859.02
688.874	44874.16
689.221	44878.23
689.568	44688.18
689.915	44614.96
690.262	44614.5
690.609	44423.78
690.956	44367.96
691.303	44450.44
691.65	44227.62
691.997	44261.75
692.344	43958.02
692.69	44054.07
693.037	43970.91
693.383	43648.43
693.73	43780.63
694.077	43443.01
694.423	43543.8
694.769	43358.72
695.116	43254.09
695.462	43213.41
695.808	43136.58
696.155	43045.51
696.501	42769.81
696.847	42721.22
697.193	42596.93
697.539	42730.49
697.885	42352.19
698.231	42249.82
698.577	42222.93
698.923	42112.88
699.269	41958.76
699.614	41889.15
699.96	41699.1
700.306	41642.38
700.651	41560.35
700.997	41360.81
701.342	41306.12
701.688	41281.71
702.033	41162.62
702.379	41159.45
702.724	40915.17
703.069	41104.54
703.415	40646.02
703.76	40555.63
704.105	40561.5
704.45	40561.73
704.795	40399.7
705.14	40120.61
705.485	40138.92
705.83	40117
706.175	40112.48
706.52	39888.98
706.865	39723.33
707.209	39785.93
707.554	39456.9
707.899	39599.95
708.243	39401.31
708.588	39279.28
708.932	38988.44
709.277	39039.28
709.621	38948.89
709.966	38787.09
710.31	38868.22
710.654	38516.81
710.998	38677.49
711.342	38655.11
711.687	38609.47
712.031	38327.44
712.375	38337.61
712.719	38399.75
713.063	38221.23
713.407	38443.14
713.75	38074.56
714.094	38091.74
714.438	37863.5
714.782	37860.56
715.125	37738.3
715.469	37828.69
715.812	37594.12
716.156	37374.02
716.499	37364.98
716.843	37553.9
717.186	37330.63
717.53	37361.59
717.873	37409.04
718.216	37171.08
718.559	37150.07
718.902	36756.86
719.246	36920.7
719.589	36896.06
719.932	36565.68
720.275	36748.5
720.617	36577.2
720.96	36551.21
721.303	36597.31
721.646	36666.01
721.989	36271.9
722.331	36425.57
722.674	36433.48
723.016	36326.36
723.359	36316.19
723.701	36165.91
724.044	36004.56
724.386	35722.08
724.729	36066.03
725.071	35730.9
725.413	35707.85
725.755	35708.52
726.097	35553.05
726.439	35516.44
726.782	35379.04
727.124	35548.98
727.465	35298.59
727.807	35338.36
728.149	35221.98
728.491	35085.72
728.833	35136.56
729.175	35032.61
729.516	34947.41
729.858	34956.45
730.199	34864.93
730.541	34896.12
730.882	34821.77
731.224	34935.66
731.565	34713.75
731.906	34672.39
732.248	34707.87
732.589	34536.8
732.93	34425.62
733.271	34418.61
733.612	34450.03
733.953	34409.35
734.294	34178.17
734.635	34068.34
734.976	34094.1
735.317	34002.35
735.658	33928.01
735.999	33877.16
736.339	33759.42
736.68	33888.01
737.021	33852.75
737.361	33660.44
737.702	33703.61
738.042	33695.7
738.383	33700.44
738.723	33605.75
739.063	33560.11
739.404	33414.12
739.744	33424.29
740.084	33287.12
740.424	33257.06
740.764	33196.05
741.104	33354.69
741.444	33117.86
741.784	32865.21
742.124	33006.9
742.464	33055.26
742.804	33023.4
743.143	32944.53
743.483	32885.55
743.823	32694.14
744.162	32663.41
744.502	32655.05
744.841	32592.22
745.181	32713.35
745.52	32531.88
745.86	32648.94
746.199	32535.05
746.538	32372.11
746.877	32396.75
747.216	32333.02
747.556	32281.27
747.895	32295.51
748.234	31973.48
748.573	32039.69
748.911	31901.62
749.25	31924.67
749.589	31699.36
749.928	31669.08
750.267	31733.04
750.605	31631.34
750.944	31477
751.283	31440.39
751.621	31510.22
751.96	31295.08
752.298	31359.03
752.636	31351.35
752.975	31064.35
753.313	30958.59
