Data from aluminium_macbook_case_FLMS001491_029.txt Node
Date: Tue Feb 07 10:43:27 GMT 2017
User: dcchb
Spectrometer: FLMS00149
Trigger mode: 0
Integration Time (sec): 2.000000E-2
Scans to average: 10
Electric dark correction enabled: true
Nonlinearity correction enabled: false
Boxcar width: 0
XAxis mode: Wavelengths
Number of Pixels in Spectrum: 2048
>>>>>Begin Spectral Data<<<<<
341.393	-4
341.776	-4
342.16	-4
342.543	-74.96
342.927	-55.3
343.31	-85.58
343.693	-54.84
344.077	-67.95
344.46	-74.05
344.843	-45.13
345.226	-39.02
345.61	-34.05
345.993	-1.74
346.376	-4.22
346.759	10.92
347.142	25.38
347.525	44.14
347.908	64.7
348.291	62.89
348.674	77.58
349.057	120.97
349.44	118.26
349.823	134.76
350.206	162.55
350.588	228.54
350.971	255.43
351.354	270.12
351.737	277.8
352.119	270.57
352.502	311.02
352.884	325.71
353.267	337.46
353.65	325.94
354.032	351.02
354.414	340.85
354.797	375.65
355.179	370.46
355.562	380.63
355.944	382.89
356.326	389.21
356.709	394.64
357.091	377.46
357.473	403.45
357.855	413.85
358.238	420.17
358.62	391.47
359.002	421.75
359.384	408.65
359.766	398.25
360.148	401.87
360.53	408.87
360.912	420.62
361.294	408.2
361.676	417.69
362.057	410.46
362.439	420.4
362.821	426.05
363.203	422.66
363.584	432.6
363.966	422.66
364.348	413.62
364.729	421.53
365.111	429.44
365.493	415.43
365.874	407.07
366.256	430.57
366.637	435.99
367.019	402.55
367.4	396.67
367.781	413.85
368.163	419.49
368.544	417.23
368.925	428.31
369.306	428.76
369.688	441.64
370.069	418.82
370.45	425.6
370.831	419.04
371.212	448.65
371.593	435.31
371.974	452.04
372.355	456.33
372.736	467.4
373.117	480.28
373.498	472.37
373.879	451.13
374.26	451.13
374.641	437.8
375.021	428.76
375.402	478.25
375.783	487.29
376.163	512.6
376.544	511.47
376.925	511.47
377.305	504.46
377.686	486.61
378.066	514.41
378.447	506.27
378.827	522.09
379.208	516.22
379.588	501.75
379.968	532.26
380.349	533.39
380.729	552.82
381.109	555.08
381.489	541.3
381.87	555.76
382.25	571.36
382.63	553.5
383.01	576.1
383.39	589.21
383.77	586.27
384.15	600.05
384.53	599.6
384.91	591.92
385.29	591.92
385.67	609.77
386.049	625.14
386.429	619.94
386.809	610.68
387.189	631.24
387.568	643.22
387.948	656.78
388.328	676.89
388.707	667.62
389.087	657.68
389.466	689.09
389.846	710.79
390.225	719.83
390.605	729.09
390.984	745.81
391.363	743.1
391.743	760.05
392.122	761.86
392.501	752.14
392.881	778.36
393.26	783.1
393.639	781.52
394.018	832.82
394.397	792.14
394.776	820.84
395.155	844.79
395.534	821.07
395.913	817.45
396.292	861.52
396.671	838.92
397.05	870.1
397.429	876.88
397.808	880.5
398.186	905.58
398.565	904.23
398.944	887.05
399.323	926.83
399.701	910.1
400.08	968.41
400.458	946.71
400.837	972.7
401.215	965.24
401.594	965.02
401.972	997.11
402.351	1016.32
402.729	1021.96
403.107	1041.4
403.486	1041.17
403.864	1055.41
404.242	1066.48
404.62	1084.79
404.999	1097.67
405.377	1073.26
405.755	1096.54
406.133	1147.61
406.511	1155.52
406.889	1150.1
407.267	1184.45
407.645	1205.91
408.023	1237.1
408.401	1229.87
408.779	1243.88
409.156	1280.26
409.534	1275.07
409.912	1313.26
410.29	1329.3
410.667	1353.71
411.045	1360.49
411.422	1365.91
411.8	1379.47
412.178	1420.15
412.555	1452.91
412.933	1438.9
413.31	1463.76
413.687	1505.57
414.065	1519.13
414.442	1531.1
414.819	1553.48
415.197	1593.93
415.574	1642.29
415.951	1616.53
416.328	1651.78
416.705	1666.69
417.082	1658.33
417.46	1660.37
417.837	1708.5
418.214	1729.06
418.591	1769.74
418.967	1729.29
419.344	1790.53
419.721	1798.44
420.098	1844.54
420.475	1861.26
420.852	1893.58
421.228	1893.13
421.605	1932
421.982	1933.35
422.358	1943.75
422.735	1981.94
423.111	1958.44
423.488	2016.06
423.864	2028.94
424.241	2049.96
424.617	2109.85
424.994	2128.83
425.37	2149.84
425.746	2149.17
426.123	2160.24
426.499	2172.89
426.875	2221.03
427.251	2311.87
427.627	2302.38
428.003	2321.59
428.379	2411.76
428.756	2406.11
429.132	2467.12
429.507	2491.53
429.883	2536.73
430.259	2554.58
430.635	2583.51
431.011	2621.7
431.387	2666.89
431.763	2740.34
432.138	2720.45
432.514	2785.76
432.89	2823.27
433.265	2875.48
433.641	2878.64
434.016	2895.81
434.392	2982.82
434.767	3029.14
435.143	3043.15
435.518	3083.15
435.894	3126.99
436.269	3175.35
436.644	3257.84
437.02	3222.81
437.395	3270.95
437.77	3306.88
438.145	3368.12
438.52	3418.96
438.895	3412.18
439.271	3452.64
439.646	3580.77
440.021	3511.84
440.395	3525.63
440.77	3515.46
441.145	3585.29
441.52	3671.84
441.895	3686.98
442.27	3728.11
442.645	3716.36
443.019	3792.51
443.394	3806.52
443.769	3806.98
444.143	3829.35
444.518	3865.51
444.892	3888.56
445.267	3950.7
445.641	3988.89
446.016	4025.5
446.39	4093.75
446.764	4066.63
447.139	4128.32
447.513	4152.28
447.887	4173.07
448.262	4234.76
448.636	4237.93
449.01	4308.43
449.384	4301.65
449.758	4386.62
450.132	4400.63
450.506	4425.72
450.88	4487.41
451.254	4485.15
451.628	4589.1
452.002	4639.72
452.376	4587.29
452.75	4701.64
453.123	4757.23
453.497	4883.78
453.871	4858.25
454.244	4964.91
454.618	5047.4
454.992	5097.34
455.365	5107.96
455.739	5291.91
456.112	5289.65
456.486	5359.7
456.859	5347.95
457.232	5487.16
457.606	5516.76
457.979	5564.67
458.352	5660.94
458.725	5709.07
459.099	5787.49
459.472	5882.85
459.845	5981.16
460.218	5999.46
460.591	6142.28
460.964	6138.67
461.337	6263.41
461.71	6356.51
462.083	6496.4
462.456	6483.74
462.829	6535.94
463.201	6747.92
463.574	6691.65
463.947	6786.78
464.32	6957.85
464.692	7020
465.065	7140.67
465.438	7215.25
465.81	7345.64
466.183	7356.94
466.555	7587.89
466.928	7599.64
467.3	7592.64
467.672	7773.88
468.045	7886.42
468.417	8019.75
468.789	8054.55
469.161	8136.13
469.534	8306.29
469.906	8483.46
470.278	8577.7
470.65	8635.55
471.022	8907.41
471.394	9003.9
471.766	9038.93
472.138	9242.31
472.51	9427.85
472.882	9542.19
473.253	9693.38
473.625	9837.33
473.997	10094.04
474.369	10118.9
474.74	10272.57
475.112	10503.3
475.484	10584.43
475.855	10763.86
476.227	10942.83
476.598	11277.06
476.97	11337.17
477.341	11479.77
477.713	11720.44
478.084	11795.92
478.455	12096.93
478.827	12292.85
479.198	12576.01
479.569	12585.95
479.94	12890.81
480.311	13124.7
480.682	13468.19
481.053	13756.32
481.424	13951.34
481.795	14063.43
482.166	14392.01
482.537	14534.6
482.908	14938.89
483.279	15124.87
483.65	15317.18
484.021	15638.08
484.391	15823.61
484.762	16032.87
485.133	16177.05
485.503	16410.94
485.874	16767.99
486.244	16899.06
486.615	17319.16
486.985	17456.56
487.356	17742.88
487.726	17932.25
488.097	18305.58
488.467	18321.85
488.837	18669.86
489.207	18934.26
489.578	19214.03
489.948	19359.56
490.318	19695.6
490.688	19813.11
491.058	20095.36
491.428	20294.9
491.798	20637.49
492.168	20973.53
492.538	21103.7
492.908	21456.91
493.278	21724.92
493.648	21832.49
494.017	22140.28
494.387	22252.37
494.757	22542.08
495.126	22790.21
495.496	22870.43
495.866	23044.66
496.235	23295.96
496.605	23546.57
496.974	23683.97
497.344	23858.88
497.713	24015.26
498.082	24181.58
498.452	24382.48
498.821	24599.42
499.19	24655.24
499.559	24902.01
499.928	25029.47
500.298	25173.65
500.667	25533.18
501.036	25551.04
501.405	25769.56
501.774	25861.31
502.143	26059.05
502.512	26205.03
502.88	26573.38
503.249	26606.38
503.618	26879.59
503.987	26975.18
504.356	27241.39
504.724	27435.73
505.093	27608.61
505.462	27869.85
505.83	27986.23
506.199	28208.14
506.567	28527
506.936	28533.78
507.304	28960.21
507.672	29034.56
508.041	29154.78
508.409	29250.37
508.777	29626.64
509.145	29692.4
509.514	29899.17
509.882	30045.83
510.25	30123.12
510.618	30439.72
510.986	30656.21
511.354	30922.2
511.722	31146.6
512.09	31393.6
512.458	31368.74
512.826	31702.97
513.193	31926.24
513.561	32118.32
513.929	32293.01
514.297	32724.86
514.664	32883.27
515.032	32953.1
515.4	33394.9
515.767	33704.04
516.135	33843.25
516.502	33671.95
516.869	34427.19
517.237	34536.34
517.604	34591.48
517.972	35024.01
518.339	35127.73
518.706	35452.7
519.073	35474.62
519.44	35864.89
519.808	36229.63
520.175	36113.25
520.542	36688.82
520.909	36862.83
521.276	36829.61
521.643	37244.06
522.009	37478.18
522.376	37774.9
522.743	38070.26
523.11	38317.03
523.477	38645.61
523.843	38891.25
524.21	39298.25
524.577	39535.75
524.943	39692.59
525.31	40139.35
525.676	40338.22
526.043	40603.97
526.409	40767.59
526.776	41377.74
527.142	41463.39
527.508	41873.32
527.874	42180.2
528.241	42325.29
528.607	42600.53
528.973	43011.37
529.339	43020.41
529.705	43481.19
530.071	43742.88
530.437	43906.94
530.803	44191.45
531.169	44447.72
531.535	44377.43
531.901	44589.41
532.267	44733.36
532.632	45069.85
532.998	45056.06
533.364	45305.09
533.73	45338.31
534.095	45667.8
534.461	45841.13
534.826	46153.43
535.192	46122.93
535.557	46556.36
535.923	46489.92
536.288	46642.91
536.653	46987.31
537.019	46785.73
537.384	46948.89
537.749	47128.1
538.114	47435.89
538.479	47465.26
538.845	47699.38
539.21	47715.65
539.575	47954.52
539.94	48207.84
540.305	48356.77
540.67	48495.07
541.034	48625.91
541.399	48742.74
541.764	48911.33
542.129	49090.98
542.494	49179.79
542.858	49410.97
543.223	49561.71
543.587	49621.14
543.952	49575.49
544.316	49760.34
544.681	49757.18
545.045	50045.08
545.41	50203.5
545.774	50314.91
546.138	50243.04
546.503	50294.12
546.867	50329.14
547.231	50688
547.595	50752.86
547.959	50762.58
548.324	50863.14
548.688	51003.02
549.052	51079.86
549.416	51108.78
549.779	51235.33
550.143	51377.25
550.507	51594.19
550.871	51693.85
551.235	51728.65
551.599	51950.57
551.962	52032.15
552.326	52058.59
552.689	52311.46
553.053	52230.11
553.417	52429.65
553.78	52831.68
554.143	52722.3
554.507	52969.3
554.87	53046.13
555.234	53325
555.597	53231.67
555.96	53405.67
556.323	53526.57
556.686	53566.8
557.05	53814.7
557.413	53941.03
557.776	53998.65
558.139	54172.66
558.502	54229.15
558.865	54280.45
559.228	54435.48
559.59	54511.41
559.953	54634.79
560.316	54868.23
560.679	54794.79
561.041	54995.23
561.404	55161.56
561.767	55384.38
562.129	55236.13
562.492	55529.46
562.854	55523.36
563.217	55574.88
563.579	55706.85
563.941	55874.08
564.304	55944.36
564.666	56122.66
565.028	56245.82
565.39	56291.02
565.753	56515.42
566.115	56586.61
566.477	56677.22
566.839	56740.95
567.201	56954.28
567.563	56881.96
567.925	57182.3
568.287	57149.98
568.648	57259.13
569.01	57453.25
569.372	57573.25
569.734	57506.58
570.095	57753.58
570.457	57842.17
570.819	57862.28
571.18	57901.15
571.542	58008.26
571.903	58068.15
572.265	58165.09
572.626	58235.38
572.987	58254.13
573.349	58260.23
573.71	58376.39
574.071	58340.23
574.432	58494.58
574.794	58629.04
575.155	58556.95
575.516	58468.14
575.877	58605.31
576.238	58688.7
576.599	58739.09
576.96	58857.96
577.32	58851.18
577.681	58904.06
578.042	58940.22
578.403	58883.04
578.763	58970.27
579.124	59027.9
579.485	59130.04
579.845	59147.22
580.206	59171.4
580.566	59147.22
580.927	59260.21
581.287	59323.93
581.648	59229.7
582.008	59395.35
582.368	59325.74
582.728	59369.36
583.089	59429.69
583.449	59477.6
583.809	59473.99
584.169	59475.34
584.529	59499.3
584.889	59674.89
585.249	59494.78
585.609	59516.7
585.969	59558.28
586.329	59507.88
586.688	59638.05
587.048	59576.81
587.408	59546.75
587.768	59472.18
588.127	59526.87
588.487	59397.38
588.846	59649.58
589.206	59371.39
589.565	59402.58
589.925	59528.9
590.284	59417.72
590.643	59416.81
591.003	59435.8
591.362	59495.91
591.721	59504.27
592.08	59462.46
592.44	59479.64
592.799	59542.23
593.158	59457.49
593.517	59463.14
593.876	59545.17
594.235	59487.32
594.593	59507.43
594.952	59582.68
595.311	59503.59
595.67	59607.99
596.029	59699.07
596.387	59699.07
596.746	59751.04
597.104	59639.63
597.463	59724.38
597.822	59792.85
598.18	59678.73
598.538	59742
598.897	59925.73
599.255	59768.89
599.613	60125.72
599.972	59914.43
600.33	59989.45
600.688	59881.89
601.046	59967.76
601.404	60058.38
601.762	60047.08
602.12	60124.14
602.478	60134.53
602.836	60084.82
603.194	59974.54
603.552	60053.41
603.91	59929.12
604.268	60109.45
604.625	60034.42
604.983	60145.16
605.341	59952.39
605.698	60029.45
606.056	60050.24
606.413	60037.81
606.771	60144.03
607.128	60106.29
607.485	60029.23
607.843	60060.86
608.2	60137.7
608.557	60230.13
608.914	60101.99
609.272	60245.04
609.629	60280.75
609.986	60374.53
610.343	60257.24
610.7	60425.83
611.057	60244.81
611.414	60381.53
611.771	60339.95
612.127	60495.88
612.484	60488.88
612.841	60551.7
613.198	60554.64
613.554	60591.47
613.911	60669.66
614.267	60675.99
614.624	60692.94
614.98	60743.78
615.337	60898.81
615.693	60817.45
616.05	60880.5
616.406	60932.93
616.762	60865.81
617.118	60886.38
617.475	60933.16
617.831	60965.7
618.187	60929.99
618.543	60963.44
618.899	61069.65
619.255	61042.08
619.611	61024.91
619.967	61048.63
620.323	61067.17
620.678	61050.44
621.034	61018.58
621.39	60971.57
621.746	60959.82
622.101	61116.88
622.457	60921.63
622.812	60906.04
623.168	60986.94
623.523	60910.33
623.879	60949.65
624.234	60775.65
624.589	60826.04
624.945	60851.35
625.3	60898.58
625.655	60753.73
626.01	60819.94
626.365	60800.73
626.72	60777.23
627.075	60795.31
627.43	60792.6
627.785	60736.78
628.14	60773.84
628.495	60789.21
628.85	60770.22
629.205	60664.01
629.559	60807.74
629.914	60736.78
630.269	60787.4
630.623	60714.86
630.978	60687.97
631.332	60759.6
631.687	60812.26
632.041	60696.55
632.396	60768.42
632.75	60684.35
633.104	60715.31
633.459	60610
633.813	60565.03
634.167	60670.79
634.521	60656.1
634.875	60674.41
635.229	60659.72
635.583	60543.79
635.937	60488.2
636.291	60464.7
636.645	60492.94
636.999	60344.7
637.352	60474.86
637.706	60278.26
638.06	60425.15
638.413	60295.21
638.767	60268.77
639.121	60283.46
639.474	60053.41
639.828	60094.31
640.181	60193.52
640.534	60044.14
640.888	59950.81
641.241	59826.52
641.594	59845.28
641.947	59907.87
642.301	59741.32
642.654	59730.03
643.007	59699.52
643.36	59705.39
643.713	59605.73
644.066	59632.63
644.419	59489.35
644.771	59344.72
645.124	59150.38
645.477	59041.23
645.83	58863.16
646.182	58837.62
646.535	58725.76
646.888	58772.08
647.24	58601.92
647.593	58789.03
647.945	58653.9
648.298	58614.35
648.65	58575.48
649.002	58450.96
649.355	58620
649.707	58542.26
650.059	58658.19
650.411	59002.36
650.763	59043.94
651.115	59270.15
651.467	59157.39
651.819	59230.6
652.171	59173.66
652.523	59160.32
652.875	59083.71
653.227	58963.27
653.578	59172.53
653.93	59130.27
654.282	59007.78
654.633	59006.65
654.985	58982.7
655.337	58972.08
655.688	58969.14
656.039	59050.95
656.391	58815.02
656.742	58783.61
657.094	58798.3
657.445	58895.47
657.796	58769.82
658.147	58736.61
658.498	58731.63
658.849	58767.34
659.2	58644.86
659.551	58553.56
659.902	58672.2
660.253	58541.58
660.604	58539.55
660.955	58433.56
661.306	58531.86
661.656	58371.87
662.007	58392.89
662.358	58325.32
662.708	58273.11
663.059	58277.86
663.409	58032.89
663.76	58236.73
664.11	58180.01
664.461	58206.68
664.811	58151.31
665.161	58051.43
665.511	58043.52
665.862	58032.22
666.212	58136.17
666.562	58119.9
666.912	58103.85
667.262	58100.24
667.612	58080.13
667.962	58105.44
668.312	58097.07
668.662	58233.57
669.011	58168.71
669.361	58087.58
669.711	58213.23
670.06	58075.83
670.41	58087.81
670.76	58094.59
671.109	58135.04
671.459	58147.47
671.808	58101.82
672.157	58162.38
672.507	57966.46
672.856	57950.41
673.205	57984.99
673.554	58035.83
673.904	57999.22
674.253	58108.37
674.602	58020.92
674.951	57614.6
675.3	57474.72
675.649	57921.94
675.998	57859.34
676.346	57850.53
676.695	57967.36
677.044	57747.7
677.393	57820.92
677.741	57747.03
678.09	57674.26
678.438	57632.23
678.787	57690.31
679.135	57619.8
679.484	57457.54
679.832	57552.23
680.181	57314.04
680.529	57339.13
680.877	57248.51
681.225	57203.31
681.573	57356.3
681.922	57104.56
682.27	57005.58
682.618	57021.85
682.966	56881.29
683.314	56992.47
683.661	56834.96
684.009	56619.37
684.357	56606.72
684.705	56587.06
685.053	56644.23
685.4	56453.05
685.748	56392.94
686.095	56395.65
686.443	56298.48
686.79	56299.83
687.138	56228.87
687.485	56223.9
687.832	56175.09
688.18	56232.72
688.527	56032.04
688.874	56067.3
689.221	56011.25
689.568	55944.14
689.915	55881.77
690.262	55865.72
690.609	55835.44
690.956	55787.53
691.303	55772.39
691.65	55661.66
691.997	55691.04
692.344	55465.05
692.69	55411.49
693.037	55444.49
693.383	55214.66
693.73	55387.99
694.077	55171.5
694.423	55138.06
694.769	55160.2
695.116	55066.19
695.462	55024.61
695.808	54885.18
696.155	54901.45
696.501	54748.24
696.847	54737.16
697.193	54534.46
697.539	54628.92
697.885	54362.03
698.231	54358.64
698.577	54374.46
698.923	54251.53
699.269	54162.49
699.614	53983.96
699.96	53854.02
700.306	53930.63
700.651	53726.34
700.997	53536.74
701.342	53475.73
701.688	53403.41
702.033	53335.84
702.379	53254.26
702.724	53157.09
703.069	53154.38
703.415	52817.44
703.76	52826.48
704.105	52757.33
704.45	52588.74
704.795	52490.89
705.14	52295.19
705.485	52240.96
705.83	52054.75
706.175	52146.04
706.52	52044.13
706.865	51859.95
707.209	51787.18
707.554	51647.75
707.899	51697.69
708.243	51544.48
708.588	51434.2
708.932	51222.45
709.277	51230.14
709.621	51295.67
709.966	51107.43
710.31	51177.03
710.654	50862.69
710.998	50922.35
711.342	51009.12
711.687	50902.01
712.031	50781.11
712.375	50617.72
712.719	50676.93
713.063	50569.36
713.407	50712.41
713.75	50581.79
714.094	50530.04
714.438	50432.64
714.782	50364.4
715.125	50339.54
715.469	50391.97
715.812	50295.7
716.156	49970.96
716.499	50097.96
716.843	50093.89
717.186	49782.04
717.53	49959.21
717.873	49881.47
718.216	49864.97
718.559	49650.97
718.902	49504.53
719.246	49533.23
719.589	49313.35
719.932	49184.77
720.275	49253.01
720.617	49134.37
720.96	48987.94
721.303	48945
721.646	49038.33
721.989	48737.77
722.331	48976.41
722.674	48783.65
723.016	48732.35
723.359	48633.82
723.701	48611
724.044	48467.72
724.386	48056.43
724.729	48240.16
725.071	48168.75
725.413	48025.93
725.755	48048.75
726.097	48024.12
726.439	47689.66
726.782	47457.35
727.124	47668.87
727.465	47428.2
727.807	47382.78
728.149	47290.13
728.491	47258.26
728.833	47171.49
729.175	46850.14
729.516	46762.91
729.858	46773.3
730.199	46821.21
730.541	46601.33
730.882	46486.53
731.224	46568.79
731.565	46351.17
731.906	46461.9
732.248	46405.4
732.589	46066.43
732.93	46056.03
733.271	45969.71
733.612	46211.74
733.953	46042.25
734.294	46022.14
734.635	45750.73
734.976	45847.23
735.317	45640.45
735.658	45461.93
735.999	45613.33
736.339	45525.88
736.68	45549.38
737.021	45559.55
737.361	45411.76
737.702	45524.75
738.042	45243.85
738.383	45357.3
738.723	45462.6
739.063	45218.09
739.404	45405.2
739.744	45177.41
740.084	45018.1
740.424	45094.03
740.764	44924.09
741.104	45102.84
741.444	44770.64
741.784	44845.45
742.124	44883.41
742.464	44579.92
742.804	44555.51
743.143	44487.49
743.483	44684.77
743.823	44269.87
744.162	44396.42
744.502	44387.15
744.841	44034.39
745.181	44128.4
745.52	44098.12
745.86	44057.44
746.199	43886.15
746.538	43905.36
746.877	43768.86
747.216	43745.81
747.556	43652.93
747.895	43620.84
748.234	43497.91
748.573	43460.85
748.911	43283.68
749.25	43162.78
749.589	43046.4
749.928	43032.61
750.267	42974.99
750.605	42727.53
750.944	42755.56
751.283	42572.96
751.621	42557.37
751.96	42381.1
752.298	42481.21
