Data from aluminium_surface_pro_back_FLMS001491_00027.txt Node
Date: Wed Feb 08 15:33:50 GMT 2017
User: dcchb
Spectrometer: FLMS00149
Trigger mode: 0
Integration Time (sec): 2.000000E-2
Scans to average: 10
Electric dark correction enabled: true
Nonlinearity correction enabled: false
Boxcar width: 0
XAxis mode: Wavelengths
Number of Pixels in Spectrum: 2048
>>>>>Begin Spectral Data<<<<<
341.393	-10.66
341.776	-10.66
342.16	-10.66
342.543	-68.06
342.927	-71.23
343.31	-70.32
343.693	-73.94
344.077	-38.91
344.46	-52.92
344.843	-59.25
345.226	-49.08
345.61	-19.93
345.993	-7.05
346.376	5.61
346.759	-0.72
347.142	4.93
347.525	54.65
347.908	51.03
348.291	73.18
348.674	75.66
349.057	107.07
349.44	118.6
349.823	144.13
350.206	167.64
350.588	220.29
350.971	220.52
351.354	264.36
351.737	246.96
352.119	272.04
352.502	301.19
352.884	307.52
353.267	313.85
353.65	310.23
354.032	336.22
354.414	314.3
354.797	323.11
355.179	346.39
355.562	367.18
355.944	349.55
356.326	365.37
356.709	376.9
357.091	387.97
357.473	397.69
357.855	369.44
358.238	375.31
358.62	387.29
359.002	362.89
359.384	400.85
359.766	381.87
360.148	364.69
360.53	403.11
360.912	369.89
361.294	379.16
361.676	367.18
362.057	380.51
362.439	374.41
362.821	363.34
363.203	394.3
363.584	387.52
363.966	354.75
364.348	364.47
364.729	373.73
365.111	370.8
365.493	347.52
365.874	352.26
366.256	367.63
366.637	373.28
367.019	378.25
367.4	378.93
367.781	359.04
368.163	373.28
368.544	373.73
368.925	386.39
369.306	360.4
369.688	385.94
370.069	377.12
370.45	360.85
370.831	373.96
371.212	393.39
371.593	375.31
371.974	371.93
372.355	382.77
372.736	399.5
373.117	382.09
373.498	388.87
373.879	364.47
374.26	378.93
374.641	391.36
375.021	378.7
375.402	380.29
375.783	390.91
376.163	414.64
376.544	417.57
376.925	413.28
377.305	434.07
377.686	415.54
378.066	423
378.447	432.71
378.827	436.56
379.208	436.33
379.588	448.31
379.968	438.36
380.349	429.55
380.729	465.71
381.109	438.14
381.489	471.13
381.87	449.89
382.25	439.95
382.63	476.33
383.01	467.97
383.39	459.38
383.77	451.02
384.15	469.1
384.53	499.15
384.91	486.05
385.29	499.15
385.67	503
386.049	507.74
386.429	490.11
386.809	510.68
387.189	529.89
387.568	515.88
387.948	525.82
388.328	536.44
388.707	535.99
389.087	546.61
389.466	539.38
389.846	568.53
390.225	562.65
390.605	558.59
390.984	567.85
391.363	564.46
391.743	586.16
392.122	582.54
392.501	589.55
392.881	600.62
393.26	598.13
393.639	601.3
394.018	622.99
394.397	641.75
394.776	622.31
395.155	648.98
395.534	656.66
395.913	629.09
396.292	648.75
396.671	678.58
397.05	693.05
397.429	670.67
397.808	655.99
398.186	696.44
398.565	707.96
398.944	715.19
399.323	710.67
399.701	708.64
400.08	734.85
400.458	735.98
400.837	741.86
401.215	766.94
401.594	772.14
401.972	780.05
402.351	761.75
402.729	789.32
403.107	791.58
403.486	774.85
403.864	803.55
404.242	814.4
404.62	839.94
404.999	861.63
405.377	850.33
405.755	858.47
406.133	871.8
406.511	879.71
406.889	900.95
407.267	924.23
407.645	950.22
408.023	931.23
408.401	935.3
408.779	959.48
409.156	959.71
409.534	973.04
409.912	999.71
410.29	998.58
410.667	1029.76
411.045	1060.72
411.422	1054.62
411.8	1033.6
412.178	1076.77
412.555	1089.87
412.933	1097.78
413.31	1110.66
413.687	1115.63
414.065	1168.74
414.442	1158.57
414.819	1128.52
415.197	1173.71
415.574	1194.05
415.951	1218.46
416.328	1208.51
416.705	1226.82
417.082	1215.97
417.46	1262.75
417.837	1230.89
418.214	1271.34
418.591	1248.74
418.967	1328.96
419.344	1292.13
419.721	1316.53
420.098	1325.8
420.475	1362.86
420.852	1348.62
421.228	1388.4
421.605	1385.68
421.982	1431.33
422.358	1390.2
422.735	1479.24
423.111	1459.58
423.488	1476.98
423.864	1498.9
424.241	1520.37
424.617	1522.63
424.994	1536.41
425.37	1541.39
425.746	1554.72
426.123	1589.07
426.499	1584.32
426.875	1626.58
427.251	1669.07
427.627	1677.2
428.003	1704.77
428.379	1741.83
428.756	1742.51
429.132	1767.14
429.507	1794.03
429.883	1796.75
430.259	1838.55
430.635	1874.26
431.011	1872.45
431.387	1928.27
431.763	1947.48
432.138	1969.85
432.514	2014.14
432.89	2032.45
433.265	2043.29
433.641	2065.21
434.016	2100.24
434.392	2128.04
434.767	2159.45
435.143	2148.6
435.518	2193.35
435.894	2234.7
436.269	2222.27
436.644	2253.01
437.02	2295.72
437.395	2293.68
437.77	2352.66
438.145	2367.8
438.52	2386.79
438.895	2436.73
439.271	2412.78
439.646	2485.99
440.021	2492.1
440.395	2505.43
440.77	2485.77
441.145	2521.93
441.52	2572.32
441.895	2590.17
442.27	2628.14
442.645	2616.61
443.019	2650.06
443.394	2643.5
443.769	2709.26
444.143	2670.4
444.518	2721.69
444.892	2720.79
445.267	2775.93
445.641	2784.07
446.016	2795.59
446.39	2792.88
446.764	2821.58
447.139	2853.67
447.513	2903.16
447.887	2866.1
448.262	2918.52
448.636	2942.25
449.01	3007.56
449.384	2982.93
449.758	3014.12
450.132	3085.98
450.506	3086.43
450.88	3137.95
451.254	3129.59
451.628	3183.6
452.002	3180.89
452.376	3247.78
452.75	3240.1
453.123	3261.57
453.497	3334.33
453.871	3353.09
454.244	3403.94
454.618	3461.34
454.992	3462.47
455.365	3491.62
455.739	3631.05
456.112	3599.19
456.486	3622.24
456.859	3674.66
457.232	3754.89
457.606	3756.92
457.979	3852.96
458.352	3879.86
458.725	3978.61
459.099	3978.16
459.472	4073.75
459.845	4088.44
460.218	4094.31
460.591	4178.6
460.964	4206.85
461.337	4278.04
461.71	4329.11
462.083	4408.43
462.456	4440.07
462.829	4478.03
463.201	4525.94
463.574	4543.12
463.947	4623.34
464.32	4747.63
464.692	4732.04
465.065	4800.96
465.438	4908.08
465.81	4960.73
466.183	5051.8
466.555	5142.65
466.928	5144.46
467.3	5180.39
467.672	5238.69
468.045	5353.94
468.417	5392.81
468.789	5449.76
469.161	5512.58
469.534	5620.83
469.906	5745.34
470.278	5771.56
470.65	5901.05
471.022	5921.38
471.394	5987.6
471.766	6123.19
472.138	6173.13
472.51	6297.42
472.882	6372.22
473.253	6510.07
473.625	6513.23
473.997	6675.04
474.369	6743.28
474.74	6848.59
475.112	6916.61
475.484	7081.13
475.855	7228.92
476.227	7291.29
476.598	7451.06
476.97	7538.74
477.341	7679.3
477.713	7852.18
478.084	7866.87
478.455	8109.57
478.827	8199.06
479.198	8403.13
479.569	8419.17
479.94	8680.63
480.311	8742.78
480.682	8973.96
481.053	9140.51
481.424	9241.07
481.795	9345.47
482.166	9540.95
482.537	9662.98
482.908	9888.96
483.279	9975.51
483.65	10157.2
484.021	10352.45
484.391	10462.96
484.762	10513.81
485.133	10622.28
485.503	10825.66
485.874	11098.65
486.244	11183.84
486.615	11412.54
486.985	11526.66
487.356	11744.51
487.726	11889.36
488.097	12111.5
488.467	12151.28
488.837	12385.85
489.207	12598.72
489.578	12671.04
489.948	12880.52
490.318	13003.01
490.688	13093.62
491.058	13353.96
491.428	13496.33
491.798	13644.12
492.168	13915.3
492.538	13952.36
492.908	14212.47
493.278	14283.88
493.648	14367.26
494.017	14618.33
494.387	14708.05
494.757	14887.48
495.126	15069.39
495.496	15108.94
495.866	15296.73
496.235	15371.3
496.605	15575.59
496.974	15652.65
497.344	15766.77
497.713	15910.95
498.082	16065.3
498.452	16191.85
498.821	16315.91
499.19	16331.96
499.559	16581.44
499.928	16711.38
500.298	16723.59
500.667	16952.28
501.036	17069.11
501.405	17087.19
501.774	17143.01
502.143	17342.78
502.512	17412.61
502.88	17575.54
503.249	17560.17
503.618	17759.04
503.987	17760.62
504.356	18066.83
504.724	18090.1
505.093	18150.67
505.462	18267.95
505.83	18481.28
506.199	18688.28
506.567	18875.17
506.936	18782.29
507.304	19147.02
507.672	19179.57
508.041	19308.38
508.409	19459.11
508.777	19698.2
509.145	19813
509.514	19792.66
509.882	20056.83
510.25	20057.51
510.618	20252.53
510.986	20407.56
511.354	20610.94
511.722	20806.42
512.09	20947.43
512.458	20919.18
512.826	21169.34
513.193	21216.12
513.561	21307.87
513.929	21631.71
514.297	21747.41
514.664	21911.02
515.032	21942.88
515.4	22227.62
515.767	22341.29
516.135	22491.12
516.502	22509.87
516.869	22886.36
517.237	23029.18
517.604	22894.27
517.972	23240.7
518.339	23446.12
518.706	23522.73
519.073	23468.72
519.44	23751.42
519.808	24003.62
520.175	24067.8
520.542	24477.51
520.909	24510.5
521.276	24656.71
521.643	25009.47
522.009	25127.43
522.376	25397.93
522.743	25638.38
523.11	25865.72
523.477	26066.84
523.843	26197.69
524.21	26514.51
524.577	26742.08
524.943	26858.46
525.31	27050.32
525.676	27224.33
526.043	27455.51
526.409	27626.12
526.776	27844.42
527.142	27917.64
527.508	28154.92
527.874	28399.21
528.241	28431.53
528.607	28458.19
528.973	28862.25
529.339	28911.74
529.705	29163.94
530.071	29424.72
530.437	29521.44
530.803	29773.41
531.169	29946.97
531.535	29865.84
531.901	30054.08
532.267	30283.23
532.632	30457.01
532.998	30678.47
533.364	30845.93
533.73	30924.79
534.095	31214.5
534.461	31322.07
534.826	31452.69
535.192	31636.41
535.557	31721.16
535.923	31831.66
536.288	31912.34
536.653	32160.02
537.019	31994.37
537.384	32288.15
537.749	32445.43
538.114	32439.56
538.479	32627.35
538.845	32763.16
539.21	32634.81
539.575	32930.62
539.94	33048.58
540.305	33194.57
540.67	33145.3
541.034	33395.92
541.399	33604.95
541.764	33389.81
542.129	33702.57
542.494	33819.41
542.858	33943.92
543.223	34094.65
543.587	34214.65
543.952	34204.48
544.316	34382.1
544.681	34324.03
545.045	34531.03
545.41	34771.25
545.774	34815.99
546.138	34912.49
546.503	35102.54
546.867	34996.1
547.231	35385.69
547.595	35385.24
547.959	35589.3
548.324	35492.13
548.688	35702.97
549.052	35854.16
549.416	35850.31
549.779	36046.92
550.143	36199.91
550.507	36303.41
550.871	36452.78
551.235	36440.81
551.599	36733.68
551.962	36778.88
552.326	36944.52
552.689	37195.82
553.053	37103.84
553.417	37160.56
553.78	37816.59
554.143	37476.49
554.507	37652.75
554.87	37888
555.234	38233.98
555.597	37942.24
555.96	38335.9
556.323	38641.43
556.686	38713.52
557.05	38899.73
557.413	38905.38
557.776	39118.48
558.139	39387.85
558.502	39505.59
558.865	39532.93
559.228	39838.91
559.59	39878.23
559.953	40096.76
560.316	40463.3
560.679	40627.82
561.041	40779.45
561.404	41056.05
561.767	41310.74
562.129	41231.64
562.492	41490.84
562.854	41617.39
563.217	41599.77
563.579	41850.83
563.941	41991.62
564.304	42148.23
564.666	42429.35
565.028	42728.55
565.39	42788.44
565.753	43095.32
566.115	43159.05
566.477	43343.45
566.839	43448.76
567.201	43858.24
567.563	43880.61
567.925	44253.48
568.287	44200.15
568.648	44412.58
569.01	44644.43
569.372	44943.63
569.734	44851.21
570.095	45284.42
570.457	45341.59
570.819	45382.95
571.18	45543.84
571.542	45898.64
571.903	45882.59
572.265	45961.46
572.626	46137.5
572.987	46220.44
573.349	46416.14
573.71	46494.78
574.071	46661.56
574.432	46846.18
574.794	47122.79
575.155	47073.07
575.516	47005.5
575.877	47263.12
576.238	47351.25
576.599	47426.06
576.96	47442.78
577.32	47657.46
577.681	47786.05
578.042	47915.99
578.403	48026.49
578.763	48094.29
579.124	48169.09
579.485	48228.52
579.845	48365.01
580.206	48278.91
580.566	48337.44
580.927	48463.09
581.287	48576.76
581.648	48381.74
582.008	48744.89
582.368	48632.58
582.728	48607.27
583.089	48592.8
583.449	48572.92
583.809	48720.26
584.169	48861.27
584.529	48741.95
584.889	49056.52
585.249	48876.64
585.609	48770.43
585.969	48996.64
586.329	48927.26
586.688	48963.64
587.048	48991.66
587.408	48905.79
587.768	48931.55
588.127	48790.54
588.487	48864.21
588.846	49030.53
589.206	48898.11
589.565	48889.97
589.925	49166.35
590.284	48942.17
590.643	49017.88
591.003	49043.41
591.362	49121.83
591.721	49214.03
592.08	49211.32
592.44	49247.02
592.799	49267.81
593.158	49228.49
593.517	49270.07
593.876	49249.96
594.235	49261.94
594.593	49233.69
594.952	49402.5
595.311	49199.79
595.67	49470.75
596.029	49535.83
596.387	49642.04
596.746	49549.39
597.104	49393.46
597.463	49372.67
597.822	49584.42
598.18	49471.43
598.538	49579.22
598.897	49774.02
599.255	49528.82
599.613	50051.97
599.972	49750.29
600.33	49934.92
600.688	49703.06
601.046	49840.46
601.404	50029.83
601.762	49832.55
602.12	50093.56
602.478	50057.17
602.836	50133.1
603.194	49973.11
603.552	49929.72
603.91	49872.54
604.268	50063.05
604.625	50037.96
604.983	50135.59
605.341	50037.96
605.698	50129.49
606.056	50320.22
606.413	50178.53
606.771	50285.42
607.128	50377.84
607.485	50272.53
607.843	50335.58
608.2	50624.39
608.557	50587.1
608.914	50554.33
609.272	50671.62
609.629	50703.48
609.986	50817.6
610.343	50733.31
610.7	50854.21
611.057	50851.73
611.414	50832.52
611.771	50796.59
612.127	51007.43
612.484	50985.06
612.841	51109.57
613.198	50883.82
613.554	51076.35
613.911	51221.89
614.267	51188.67
614.624	51180.98
614.98	51180.76
615.337	51333.75
615.693	51247.42
616.05	51346.63
616.406	51457.59
616.762	51237.03
617.118	51403.13
617.475	51301.43
617.831	51472.73
618.187	51405.84
618.543	51512.05
618.899	51678.37
619.255	51605.15
619.611	51521.54
619.967	51605.61
620.323	51730.35
620.678	51579.39
621.034	51471.37
621.39	51468.43
621.746	51517.47
622.101	51815.32
622.457	51402.22
622.812	51572.84
623.168	51621.65
623.523	51675.89
623.879	51651.03
624.234	51551.14
624.589	51589.11
624.945	51677.69
625.3	51661.2
625.655	51652.16
626.01	51603.12
626.365	51623.91
626.72	51595.89
627.075	51582.78
627.43	51599.96
627.785	51496
628.14	51548.88
628.495	51546.62
628.85	51538.94
629.205	51427.08
629.559	51619.84
629.914	51429.57
630.269	51418.49
630.623	51273.86
630.978	51241.32
631.332	51489.45
631.687	51478.38
632.041	51307.54
632.396	51337.82
632.75	51298.5
633.104	51251.27
633.459	51165.39
633.813	51165.17
634.167	51176.24
634.521	51232.73
634.875	51182.34
635.229	51196.35
635.583	51034.55
635.937	51023.25
636.291	51041.33
636.645	51048.56
636.999	50821.9
637.352	50903.03
637.706	50591.62
638.06	50720.43
638.413	50738.28
638.767	50652.41
639.121	50616.03
639.474	50431.85
639.828	50463.94
640.181	50598.18
640.534	50501.68
640.888	50434.11
641.241	50306.66
641.594	50330.84
641.947	50371.51
642.301	50364.28
642.654	50317.28
643.007	50284.96
643.36	50219.43
643.713	50085.87
644.066	50176.72
644.419	49871.64
644.771	49575.83
645.124	49253.8
645.477	49239.79
645.83	48875.73
646.182	48823.31
646.535	48703.54
646.888	48870.54
647.24	48727.26
647.593	48654.95
647.945	48757.77
648.298	48540.83
648.65	48475.97
649.002	48438.01
649.355	48579.02
649.707	48391.23
650.059	48493.82
650.411	48979.01
650.763	49026.69
651.115	49364.76
651.467	49254.71
651.819	49206.12
652.171	49021.72
652.523	49046.13
652.875	49107.37
653.227	48936.52
653.578	48971.78
653.93	48998.67
654.282	48669.64
654.633	48756.87
654.985	48623.54
655.337	48752.8
655.688	48782.18
656.039	48865.34
656.391	48471
656.742	48666.47
657.094	48723.42
657.445	48773.59
657.796	48732.91
658.147	48507.61
658.498	48418.57
658.849	48692.91
659.2	48405.92
659.551	48416.76
659.902	48538.79
660.253	48396.2
660.604	48516.42
660.955	48210.44
661.306	48296.77
661.656	48297.67
662.007	48231.23
662.358	48182.87
662.708	48124.34
663.059	48197.56
663.409	47999.15
663.76	48270.33
664.11	48202.31
664.461	48226.03
664.811	48125.25
665.161	48149.43
665.511	47939.49
665.862	48088.86
666.212	48084.34
666.562	48217.22
666.912	48003.67
667.262	47976.55
667.612	47945.36
667.962	48021.07
668.312	47903.56
668.662	48131.35
669.011	47891.13
669.361	47986.94
669.711	47804.35
670.06	47677.35
670.41	47619.72
670.76	47563.23
671.109	47842.09
671.459	47647.07
671.808	47490.46
672.157	47816.55
672.507	47469.44
672.856	47482.1
673.205	47519.16
673.554	47638.71
673.904	47462.66
674.253	47665.82
674.602	47451.14
674.951	46989.68
675.3	46766.41
675.649	47426.28
675.998	47186.74
676.346	47253.18
676.695	47343.57
677.044	47058.83
677.393	47063.8
677.741	47102.9
678.09	46878.95
678.438	46907.88
678.787	46996.46
679.135	46955.79
679.484	46699.75
679.832	46863.58
680.181	46597.15
680.529	46741.1
680.877	46565.06
681.225	46542.69
681.573	46666.75
681.922	46356.93
682.27	46259.08
682.618	46268.35
682.966	46200.32
683.314	46188.57
683.661	46053.44
684.009	45812.09
684.357	45725.76
684.705	45839.2
685.053	45748.36
685.4	45777.06
685.748	45481.7
686.095	45611.87
686.443	45345.88
686.79	45328.03
687.138	45459.78
687.485	45195.61
687.832	45156.96
688.18	45163.74
688.527	44883.98
688.874	44960.36
689.221	44780.02
689.568	44857.76
689.915	44651.21
690.262	44688.27
690.609	44481.73
690.956	44425.91
691.303	44450.09
691.65	44175.07
691.997	44273.14
692.344	43879.03
692.69	44022.75
693.037	44059.59
693.383	43733.5
693.73	43837
694.077	43519.27
694.423	43511.13
694.769	43376.22
695.116	43455.76
695.462	43317.46
695.808	43113.85
696.155	43165.6
696.501	42817.81
696.847	42758.61
697.193	42486.52
697.539	42674.54
697.885	42375.79
698.231	42320.2
698.577	42356.13
698.923	42104.16
699.269	41922.25
699.614	41772.42
699.96	41633.89
700.306	41645.42
700.651	41380.34
700.997	41378.3
701.342	41321.81
701.688	41298.53
702.033	41221.47
702.379	41134.47
702.724	40958.2
703.069	41023.29
703.415	40565.44
703.76	40649.28
704.105	40705.1
704.45	40578.33
704.795	40281.16
705.14	40183.76
705.485	40233.02
705.83	40041.39
706.175	39960.26
706.52	39850.21
706.865	39719.82
707.209	39666.49
707.554	39499.71
707.899	39561.63
708.243	39271.47
708.588	39333.84
708.932	39125.26
709.277	39136.56
709.621	39045.71
709.966	38721.88
710.31	38955.32
710.654	38478.72
710.998	38652.95
711.342	38507.65
711.687	38455.44
712.031	38466.52
712.375	38323.7
712.719	38316.01
713.063	38282.79
713.407	38348.1
713.75	38146.98
714.094	37973.2
714.438	37912.41
714.782	37942.46
715.125	37661.57
715.469	37890.03
715.812	37503.15
716.156	37389.26
716.499	37413.89
716.843	37503.38
717.186	37299.09
717.53	37522.36
717.873	37319.65
718.216	37246.21
718.559	36910.85
718.902	36863.85
719.246	36890.97
719.589	36760.8
719.932	36601.93
720.275	36613.91
720.617	36642.84
720.96	36638.09
721.303	36512.44
721.646	36549.96
721.989	36235.39
722.331	36348.15
722.674	36338.66
723.016	36339.12
723.359	36187.48
723.701	36269.51
724.044	35930.54
724.386	35784.55
724.729	36063.42
725.071	35774.84
725.413	35868.62
725.755	35768.51
726.097	35476.54
726.439	35559.47
726.782	35341.4
727.124	35503.2
727.465	35446.03
727.807	35281.74
728.149	35247.39
728.491	35220.73
728.833	35169.88
729.175	35038.36
729.516	35005.59
729.858	34964.24
730.199	35003.56
730.541	34920.4
730.882	34774.41
731.224	34826.61
731.565	34543.68
731.906	34725.15
732.248	34755.65
732.589	34467.53
732.93	34370.13
733.271	34252.84
733.612	34339.39
733.953	34298.72
734.294	34137.82
734.635	34138.72
734.976	34079.06
735.317	33985.05
735.658	33973.3
735.999	34010.59
736.339	33936.92
736.68	33887.2
737.021	33770.37
737.361	33663.71
737.702	33793.42
738.042	33559.98
738.383	33574.22
738.723	33729.47
739.063	33405.86
739.404	33605.4
739.744	33500.55
740.084	33303.26
740.424	33453.32
740.764	33281.12
741.104	33382.81
741.444	33152.08
741.784	33011.29
742.124	33170.16
742.464	32999.32
742.804	33017.39
743.143	33013.33
743.483	32809.72
743.823	32698.98
744.162	32689.49
744.502	32699.89
744.841	32638.42
745.181	32634.81
745.52	32599.1
745.86	32516.16
746.199	32452.21
746.538	32436.17
746.877	32429.39
747.216	32484.75
747.556	32194.37
747.895	32379.45
748.234	31962.28
748.573	32006.35
748.911	31982.17
749.25	31831.89
749.589	31764.77
749.928	31747.82
750.267	31709.63
750.605	31674.15
750.944	31636.41
751.283	31404.1
751.621	31460.6
751.96	31346.48
752.298	31304.9
752.636	31463.54
