Data from aluminium_surface_pro_back_FLMS001491_00092.txt Node
Date: Wed Feb 08 15:34:47 GMT 2017
User: dcchb
Spectrometer: FLMS00149
Trigger mode: 0
Integration Time (sec): 2.000000E-2
Scans to average: 10
Electric dark correction enabled: true
Nonlinearity correction enabled: false
Boxcar width: 0
XAxis mode: Wavelengths
Number of Pixels in Spectrum: 2048
>>>>>Begin Spectral Data<<<<<
341.393	-8.01
341.776	-8.01
342.16	-8.01
342.543	-65.18
342.927	-69.48
343.31	-66.31
343.693	-67.22
344.077	-66.31
344.46	-69.7
344.843	-67.22
345.226	-34.22
345.61	-43.49
345.993	-29.02
346.376	3.29
346.759	8.26
347.142	16.62
347.525	50.07
347.908	60.01
348.291	78.54
348.674	88.03
349.057	138.65
349.44	147.47
349.823	127.36
350.206	165.09
350.588	201.03
350.971	231.08
351.354	240.35
351.737	255.49
352.119	274.47
352.502	286.45
352.884	295.71
353.267	304.98
353.65	322.6
354.032	325.32
354.414	351.76
354.797	330.74
355.179	335.94
355.562	353.79
355.944	354.47
356.326	362.6
356.709	356.95
357.091	383.62
357.473	366.9
357.855	373.9
358.238	389.5
358.62	354.92
359.002	365.32
359.384	373.9
359.766	379.33
360.148	378.87
360.53	375.03
360.912	361.02
361.294	359.21
361.676	385.65
362.057	369.61
362.439	358.99
362.821	376.61
363.203	365.99
363.584	334.13
363.966	372.55
364.348	355.37
364.729	356.05
365.111	358.31
365.493	356.73
365.874	362.6
366.256	361.25
366.637	357.86
367.019	376.16
367.4	379.55
367.781	340.01
368.163	380
368.544	360.57
368.925	361.7
369.306	364.86
369.688	368.93
370.069	359.44
370.45	375.03
370.831	364.86
371.212	373.68
371.593	361.93
371.974	365.99
372.355	382.26
372.736	370.74
373.117	369.83
373.498	369.38
373.879	388.59
374.26	375.71
374.641	378.42
375.021	385.65
375.402	393.11
375.783	396.95
376.163	425.43
376.544	426.33
376.925	405.77
377.305	386.33
377.686	422.71
378.066	415.94
378.447	425.65
378.827	429.04
379.208	412.09
379.588	444.41
379.968	424.3
380.349	432.66
380.729	401.7
381.109	432.21
381.489	433.11
381.87	445.31
382.25	442.6
382.63	440.57
383.01	469.95
383.39	463.39
383.77	457.52
384.15	466.78
384.53	481.24
384.91	489.15
385.29	496.39
385.67	470.17
386.049	493.9
386.429	489.15
386.809	502.03
387.189	509.27
387.568	507.68
387.948	518.53
388.328	522.15
388.707	528.47
389.087	516.72
389.466	537.51
389.846	554.46
390.225	542.49
390.605	549.94
390.984	529.83
391.363	546.1
391.743	568.02
392.122	569.6
392.501	565.76
392.881	576.38
393.26	578.87
393.639	606.66
394.018	585.87
394.397	612.54
394.776	591.98
395.155	621.13
395.534	638.98
395.913	634.46
396.292	616.61
396.671	625.2
397.05	664.29
397.429	654.35
397.808	663.84
398.186	666.78
398.565	674.69
398.944	680.79
399.323	696.15
399.701	699.54
400.08	703.61
400.458	706.78
400.837	721.92
401.215	734.57
401.594	731.41
401.972	740.45
402.351	759.2
402.729	762.59
403.107	749.49
403.486	763.72
403.864	765.3
404.242	805.3
404.62	793.55
404.999	827.68
405.377	831.52
405.755	839.43
406.133	853.89
406.511	839.88
406.889	849.14
407.267	881.01
407.645	874.45
408.023	888.92
408.401	901.35
408.779	879.65
409.156	918.07
409.534	936.6
409.912	949.71
410.29	986.54
410.667	969.59
411.045	1010.5
411.422	1006.43
411.8	1011.4
412.178	1036.26
412.555	1059.99
412.933	1066.09
413.31	1067.9
413.687	1071.51
414.065	1089.36
414.442	1109.93
414.819	1147.67
415.197	1147.67
415.574	1149.25
415.951	1156.71
416.328	1175.92
416.705	1210.26
417.082	1177.5
417.46	1196.48
417.837	1219.76
418.214	1215.69
418.591	1223.15
418.967	1244.61
419.344	1258.4
419.721	1290.71
420.098	1274.22
420.475	1322.8
420.852	1295.46
421.228	1316.48
421.605	1311.96
421.982	1379.07
422.358	1353.76
422.735	1386.98
423.111	1408.45
423.488	1412.75
423.864	1429.92
424.241	1466.53
424.617	1480.31
424.994	1471.05
425.37	1484.61
425.746	1527.77
426.123	1508.56
426.499	1535.45
426.875	1572.29
427.251	1574.55
427.627	1644.38
428.003	1610.48
428.379	1653.87
428.756	1678.28
429.132	1676.02
429.507	1693.19
429.883	1726.86
430.259	1767.54
430.635	1780.42
431.011	1752.62
431.387	1817.71
431.763	1844.15
432.138	1874.65
432.514	1877.14
432.89	1896.57
433.265	1950.13
433.641	1968.66
434.016	1978.15
434.392	2017.48
434.767	2065.16
435.143	2046.18
435.518	2073.52
435.894	2123.69
436.269	2146.96
436.644	2201.2
437.02	2165.72
437.395	2172.5
437.77	2199.17
438.145	2262.21
438.52	2253.63
438.895	2266.51
439.271	2293.17
439.646	2357.81
440.021	2336.56
440.395	2397.13
440.77	2379.27
441.145	2404.81
441.52	2404.36
441.895	2433.96
442.27	2446.62
442.645	2479.84
443.019	2519.38
443.394	2489.55
443.769	2515.09
444.143	2515.77
444.518	2616.33
444.892	2555.54
445.267	2595.09
445.641	2659.49
446.016	2645.48
446.39	2685.71
446.764	2677.12
447.139	2655.65
447.513	2725.48
447.887	2744.01
448.262	2756.89
448.636	2770.45
449.01	2785.59
449.384	2817.91
449.758	2848.64
450.132	2867.17
450.506	2922.54
450.88	2916.43
451.254	2956.21
451.628	2993.72
452.002	3044.79
452.376	3066.94
452.75	3078.01
453.123	3095.64
453.497	3146.71
453.871	3148.52
454.244	3254.96
454.618	3240.27
454.992	3285.69
455.365	3269.19
455.739	3381.51
456.112	3405.01
456.486	3416.31
456.859	3476.65
457.232	3526.59
457.606	3534.27
457.979	3607.94
458.352	3662.86
458.725	3725.23
459.099	3725.45
459.472	3854.72
459.845	3864.88
460.218	3912.11
460.591	3920.7
460.964	3924.09
461.337	4019
461.71	4090.42
462.083	4153.46
462.456	4144.2
462.829	4195.95
463.201	4266.68
463.574	4284.31
463.947	4321.37
464.32	4471.2
464.692	4470.97
465.065	4514.81
465.438	4595.03
465.81	4664.19
466.183	4683.39
466.555	4781.47
466.928	4845.65
467.3	4852.65
467.672	4919.32
468.045	5101.24
468.417	5024.4
468.789	5139.65
469.161	5193.89
469.534	5206.32
469.906	5366.31
470.278	5411.06
470.65	5482.69
471.022	5558.4
471.394	5703.93
471.766	5708.23
472.138	5752.74
472.51	5906.41
472.882	5950.48
473.253	6060.76
473.625	6147.08
473.997	6237.25
474.369	6326.97
474.74	6420.75
475.112	6522.44
475.484	6661.19
475.855	6741.87
476.227	6785.03
476.598	6973.28
476.97	7079.26
477.341	7227.28
477.713	7346.83
478.084	7359.48
478.455	7563.77
478.827	7707.5
479.198	7851.45
479.569	7859.13
479.94	8141.61
480.311	8235.16
480.682	8398.78
481.053	8554.25
481.424	8730.29
481.795	8798.54
482.166	8932.32
482.537	9081.24
482.908	9245.53
483.279	9376.38
483.65	9556.49
484.021	9705.18
484.391	9815.69
484.762	9918.06
485.133	9972.29
485.503	10162.57
485.874	10355.56
486.244	10546.97
486.615	10735.66
486.985	10888.65
487.356	11003.23
487.726	11112.15
488.097	11298.36
488.467	11328.42
488.837	11618.58
489.207	11799.36
489.578	11888.63
489.948	12051.79
490.318	12200.48
490.688	12275.96
491.058	12515.28
491.428	12671.43
491.798	12796.63
492.168	13115.94
492.538	13108.26
492.908	13317.97
493.278	13515.93
493.648	13457.85
494.017	13672.76
494.387	13762.03
494.757	13870.27
495.126	14095.12
495.496	14104.16
495.866	14305.06
496.235	14450.37
496.605	14533.53
496.974	14652.4
497.344	14802
497.713	14828.21
498.082	15098.94
498.452	15196.56
498.821	15327.86
499.19	15362.44
499.559	15590
499.928	15738.24
500.298	15744.57
500.667	15969.42
501.036	15965.81
501.405	16161.74
501.774	16155.63
502.143	16318.12
502.512	16328.74
502.88	16567.38
503.249	16610.31
503.618	16768.73
503.987	16769.18
504.356	16892.11
504.724	17040.36
505.093	17004.88
505.462	17223.86
505.83	17364.87
506.199	17530.74
506.567	17695.71
506.936	17812.54
507.304	17897.74
507.672	17976.6
508.041	18137.73
508.409	18249.14
508.777	18441.68
509.145	18648.22
509.514	18648
509.882	18794.89
510.25	18810.48
510.618	19063.58
510.986	19081.89
511.354	19335.66
511.722	19501.99
512.09	19602.78
512.458	19580.18
512.826	19738.14
513.193	19898.36
513.561	20037.79
513.929	20149.88
514.297	20427.61
514.664	20591.9
515.032	20659.02
515.4	20784.44
515.767	21018.33
516.135	21148.05
516.502	21000.7
516.869	21522.95
517.237	21491.54
517.604	21569.73
517.972	21812.43
518.339	21988.48
518.706	22119.32
519.073	22166.1
519.44	22441.8
519.808	22787.1
520.175	22795.91
520.542	23079.52
520.909	23198.16
521.276	23104.38
521.643	23422.34
522.009	23551.82
522.376	23721.31
522.743	24007.86
523.11	24287.4
523.477	24454.17
523.843	24574.85
524.21	24950.66
524.577	25144.78
524.943	25205.79
525.31	25378.67
525.676	25637.65
526.043	25687.14
526.409	26020.69
526.776	26225.2
527.142	26316.72
527.508	26514.91
527.874	26757.84
528.241	26804.39
528.607	26979.08
528.973	27272.18
529.339	27279.86
529.705	27631.04
530.071	27747.19
530.437	27845.04
530.803	28149.44
531.169	28183.79
531.535	28232.61
531.901	28367.74
532.267	28580.62
532.632	28756.66
532.998	28797.34
533.364	28858.8
533.73	28993.72
534.095	29199.13
534.461	29410.43
534.826	29626.24
535.192	29674.15
535.557	29847.93
535.923	29938.32
536.288	30080.01
536.653	30218.32
537.019	30287.47
537.384	30329.95
537.749	30520.45
538.114	30667.57
538.479	30737.4
538.845	30769.71
539.21	30844.29
539.575	31058.29
539.94	31195.47
540.305	31448.57
540.67	31322.69
541.034	31508.45
541.399	31631.84
541.764	31718.62
542.129	31828.67
542.494	31934.65
542.858	32100.53
543.223	32273.85
543.587	32301.42
543.952	32281.31
544.316	32422.55
544.681	32463
545.045	32719.72
545.41	32875.42
545.774	32909.09
546.138	33029.09
546.503	33074.51
546.867	33213.72
547.231	33412.81
547.595	33550.21
547.959	33653.25
548.324	33688.51
548.688	33726.47
549.052	33873.13
549.416	34032.23
549.779	34154.48
550.143	34136.18
550.507	34385.44
550.871	34541.37
551.235	34561.25
551.599	34930.28
551.962	34899.32
552.326	34987.46
552.689	35222.25
553.053	35163.27
553.417	35148.36
553.78	35725.97
554.143	35498.85
554.507	35648.46
554.87	35865.17
555.234	36249.8
555.597	35992.4
555.96	36289.79
556.323	36429.23
556.686	36504.7
557.05	36825.83
557.413	36889.1
557.776	37051.58
558.139	37221.07
558.502	37311.24
558.865	37398.24
559.228	37671.45
559.59	37829.19
559.953	37937.89
560.316	38421.04
560.679	38348.27
561.041	38662.39
561.404	38824.64
561.767	38965.43
562.129	38872.78
562.492	39312.99
562.854	39412.65
563.217	39414.23
563.579	39615.58
563.941	40070.49
564.304	40150.26
564.666	40289.24
565.028	40419.63
565.39	40638.61
565.753	40832.73
566.115	40855.1
566.477	41164.92
566.839	41310.45
567.201	41555.64
567.563	41686.49
567.925	41894.84
568.287	41990.44
568.648	42009.42
569.01	42239.24
569.372	42515.85
569.734	42438.33
570.095	42773.24
570.457	43063.85
570.819	43045.77
571.18	43107.02
571.542	43530.73
571.903	43485.54
572.265	43565.54
572.626	43827.22
572.987	43912.64
573.349	44104.28
573.71	44201.9
574.071	44418.85
574.432	44566.64
574.794	44807.76
575.155	44857.48
575.516	44698.39
575.877	45094.31
576.238	45179.73
576.599	45293.4
576.96	45346.05
577.32	45482.32
577.681	45543.56
578.042	45668.98
578.403	45767.06
578.763	45745.14
579.124	45873.72
579.485	45970.67
579.845	46169.53
580.206	45999.82
580.566	46067.39
580.927	46109.42
581.287	46426.25
581.648	46220.61
582.008	46477.78
582.368	46295.18
582.728	46547.15
583.089	46411.56
583.449	46499.7
583.809	46611.56
584.169	46604.33
584.529	46485.23
584.889	46999.34
585.249	46578.34
585.609	46683.65
585.969	46828.27
586.329	46739.46
586.688	46767.03
587.048	46807.71
587.408	46692.68
587.768	46750.76
588.127	46657.66
588.487	46630.09
588.846	46960.47
589.206	46670.09
589.565	46812.23
589.925	46934.26
590.284	46819.91
590.643	46886.58
591.003	46859.46
591.362	46991.89
591.721	46982.39
592.08	46945.79
592.44	47042.28
592.799	46990.76
593.158	46881.61
593.517	47018.78
593.876	46907.37
594.235	47031.21
594.593	46939.46
594.952	47146.91
595.311	47018.1
595.67	47108.27
596.029	47250.18
596.387	47353.91
596.746	47379.9
597.104	47268.49
597.463	47249.28
597.822	47321.59
598.18	47252.22
598.538	47189.85
598.897	47446.56
599.255	47150.53
599.613	47638.42
599.972	47448.6
600.33	47530.18
600.688	47404.53
601.046	47628.03
601.404	47757.29
601.762	47619.67
602.12	47837.74
602.478	47809.49
602.836	47870.73
603.194	47655.6
603.552	47810.85
603.91	47690.62
604.268	47963.39
604.625	47875.7
604.983	48021.01
605.341	47865.99
605.698	48133.78
606.056	48082.7
606.413	48144.4
606.771	48258.29
607.128	48244.96
607.485	48155.7
607.843	48339.65
608.2	48393.2
608.557	48576.03
608.914	48424.84
609.272	48501
609.629	48537.38
609.986	48689.24
610.343	48496.03
610.7	48830.48
611.057	48650.37
611.414	48709.58
611.771	48693.54
612.127	48870.48
612.484	48940.31
612.841	49016.47
613.198	48844.04
613.554	48896.69
613.911	49103.47
614.267	49099.63
614.624	48998.16
614.98	48957.26
615.337	49378.94
615.693	49278.15
616.05	49203.58
616.406	49489.67
616.762	49289.23
617.118	49343.46
617.475	49374.2
617.831	49398.83
618.187	49415.55
618.543	49609.22
618.899	49698.48
619.255	49660.74
619.611	49568.77
619.967	49798.82
620.323	49801.76
620.678	49760.17
621.034	49585.26
621.39	49581.65
621.746	49470.46
622.101	49987.51
622.457	49679.72
622.812	49738.93
623.168	49801.98
623.523	49770.57
623.879	49914.52
624.234	49631.14
624.589	49813.05
624.945	49921.98
625.3	49922.88
625.655	49817.57
626.01	50033.61
626.365	49876.56
626.72	49848.08
627.075	49878.14
627.43	49855.54
627.785	49769.89
628.14	49882.88
628.495	49789.55
628.85	49804.92
629.205	49661.42
629.559	49796.56
629.914	49611.25
630.269	49774.41
630.623	49627.07
630.978	49592.5
631.332	49783
631.687	49677.46
632.041	49648.77
632.396	49559.28
632.75	49509.33
633.104	49550.01
633.459	49321.09
633.813	49324.25
634.167	49418.04
634.521	49385.04
634.875	49346.85
635.229	49264.82
635.583	49058.5
635.937	49012.17
636.291	49008.78
636.645	48970.59
636.999	48854.66
637.352	48851.72
637.706	48659.64
638.06	48795.91
638.413	48682.91
638.767	48542.58
639.121	48574.44
639.474	48418.29
639.828	48383.94
640.181	48425.75
640.534	48349.82
640.888	48403.83
641.241	48123.38
641.594	48183.27
641.947	48340.78
642.301	48185.53
642.654	48056.04
643.007	48135.13
643.36	48021.46
643.713	48124.06
644.066	48196.83
644.419	47912.54
644.771	47628.71
645.124	47266.23
645.477	47233.46
645.83	47088.38
646.182	46760.93
646.535	46851.1
646.888	46708.28
647.24	46653.36
647.593	46787.37
647.945	46512.12
648.298	46599.13
648.65	46500.37
649.002	46343.09
649.355	46482.07
649.707	46306.71
650.059	46451.79
650.411	46877.99
650.763	46893.13
651.115	47230.3
651.467	47109.85
651.819	47117.53
652.171	46904.43
652.523	46967.25
652.875	46889.97
653.227	46801.61
653.578	46989.63
653.93	46815.85
654.282	46581.28
654.633	46577.21
654.985	46631.9
655.337	46592.57
655.688	46624.66
656.039	46803.64
656.391	46357.55
656.742	46514.84
657.094	46549.19
657.445	46609.98
657.796	46600.94
658.147	46508.51
658.498	46399.36
658.849	46549.86
659.2	46510.77
659.551	46272.81
659.902	46455.18
660.253	46324.78
660.604	46442.75
660.955	46234.84
661.306	46379.02
661.656	46188.07
662.007	46259.7
662.358	46162.08
662.708	46242.75
663.059	46342.64
663.409	45928.64
663.76	46231.91
664.11	46122.98
664.461	46236.88
664.811	46157.33
665.161	46129.99
665.511	45881.41
665.862	46050.67
666.212	46138.8
666.562	46099.93
666.912	45981.52
667.262	46004.57
667.612	45813.61
667.962	45813.61
668.312	45775.87
668.662	45848.87
669.011	45764.57
669.361	45576.33
669.711	45467.63
670.06	45488.42
670.41	45356.45
670.76	45296.11
671.109	45481.87
671.459	45334.75
671.808	45379.95
672.157	45348.31
672.507	45113.74
672.856	44969.34
673.205	45135.21
673.554	45224.47
673.904	45010.92
674.253	45166.85
674.602	45122.33
674.951	44339.07
675.3	44151.73
675.649	44843.24
675.998	44705.17
676.346	44896.8
676.695	45000.53
677.044	44591.05
677.393	44777.25
677.741	44788.33
678.09	44721.21
678.438	44700.42
678.787	44652.96
679.135	44706.52
679.484	44353.31
679.832	44633.08
680.181	44339.98
680.529	44511.5
680.877	44247.1
681.225	44382.91
681.573	44530.26
681.922	44279.87
682.27	44118.52
682.618	44166.2
682.966	44169.14
683.314	44165.29
683.661	43981.12
684.009	43895.47
684.357	43731.18
684.705	43743.16
685.053	43688.47
685.4	43776.15
685.748	43428.36
686.095	43490.28
686.443	43265.43
686.79	43057.98
687.138	43369.61
687.485	43129.16
687.832	42962.39
688.18	43078.09
688.527	42766.69
688.874	42573.24
689.221	42652.56
689.568	42582.96
689.915	42523.53
690.262	42413.02
690.609	42326.92
690.956	42202.41
691.303	42111.11
691.65	41979.59
691.997	42024.78
692.344	41662.31
692.69	41670.22
693.037	41582.76
693.383	41336.89
693.73	41645.13
694.077	41305.48
694.423	41213.51
694.769	41220.06
695.116	41050.8
695.462	40998.37
695.808	40868.43
696.155	40793.86
696.501	40627.99
696.847	40369.69
697.193	40282.46
697.539	40483.36
697.885	40163.82
698.231	40085.4
698.577	39924.95
698.923	39986.19
699.269	39666.43
699.614	39644.51
699.96	39348.47
700.306	39435.93
700.651	39290.62
700.997	39102.15
701.342	39046.33
701.688	39003.4
702.033	38897.41
702.379	38785.1
702.724	38750.75
703.069	38750.97
703.415	38379.46
703.76	38335.39
704.105	38439.79
704.45	38278.89
704.795	38031.67
705.14	37955.06
705.485	37998.22
705.83	37827.16
706.175	37773.6
706.52	37712.36
706.865	37416.32
707.209	37633.04
707.554	37328.64
707.899	37344.46
708.243	37094.97
708.588	37041.64
708.932	36823.34
709.277	36822.66
709.621	36882.1
709.966	36653.85
710.31	36833.73
710.654	36380.41
710.998	36425.84
711.342	36453.63
711.687	36422.67
712.031	36312.84
712.375	36112.4
712.719	36147.88
713.063	36013.87
713.407	36170.02
713.75	35910.14
714.094	35872.18
714.438	35697.04
714.782	35706.53
715.125	35582.24
715.469	35733.65
715.812	35482.58
716.156	35202.14
716.499	35364.85
716.843	35235.36
717.186	35005.53
717.53	35153.33
717.873	35206.43
718.216	35123.5
718.559	35008.92
718.902	34816.16
719.246	34732.77
719.589	34619.56
719.932	34503.4
720.275	34457.3
720.617	34350.41
720.96	34289.85
721.303	34409.84
721.646	34393.35
721.989	33980.7
722.331	34195.39
722.674	33992.91
723.016	34087.14
723.359	33881.27
723.701	33938.9
724.044	33906.35
724.386	33666.81
724.729	33685.34
725.071	33479.25
725.413	33516.76
725.755	33509.98
726.097	33351.11
726.439	33156.32
726.782	33272.92
727.124	33317.22
727.465	33003.78
727.807	32963.78
728.149	33062.76
728.491	32841.75
728.833	32885.82
729.175	32802.2
729.516	32728.08
729.858	32670.45
730.199	32799.04
730.541	32543.45
730.882	32480.85
731.224	32576.45
731.565	32432.04
731.906	32442.21
732.248	32433.4
732.589	32265.72
732.93	32146.85
733.271	32158.6
733.612	32095.1
733.953	32182.33
734.294	31928.78
734.635	31886.52
734.976	31994.77
735.317	31818.27
735.658	31888.78
735.999	31810.82
736.339	31810.82
736.68	31914.77
737.021	31793.19
737.361	31491.73
737.702	31749.12
738.042	31771.5
738.383	31483.59
738.723	31556.81
739.063	31507.55
739.404	31465.51
739.744	31419.87
740.084	31365.86
740.424	31374.22
740.764	31227.1
741.104	31362.92
741.444	31023.49
741.784	30993.66
742.124	31025.3
742.464	30949.6
742.804	30859.43
743.143	30741.69
743.483	30617.85
743.823	30517.74
744.162	30496.5
744.502	30635.93
744.841	30478.65
745.181	30596.38
745.52	30339.44
745.86	30301.48
746.199	30219.45
746.538	30196.17
746.877	30210.63
747.216	30101.71
747.556	30012.45
747.895	30042.5
748.234	29879.12
748.573	29888.15
748.911	29874.37
749.25	29803.64
749.589	29548.05
749.928	29576.3
750.267	29593.7
750.605	29536.98
750.944	29494.27
751.283	29397.09
751.621	29382.86
751.96	29167.04
752.298	29221.96
752.636	29268.28
752.975	29027.39
