Data from aluminium_macbook_case_FLMS001491_051.txt Node
Date: Tue Feb 07 10:43:49 GMT 2017
User: dcchb
Spectrometer: FLMS00149
Trigger mode: 0
Integration Time (sec): 2.000000E-2
Scans to average: 10
Electric dark correction enabled: true
Nonlinearity correction enabled: false
Boxcar width: 0
XAxis mode: Wavelengths
Number of Pixels in Spectrum: 2048
>>>>>Begin Spectral Data<<<<<
341.393	-11.37
341.776	-11.37
342.16	-11.37
342.543	-71.93
342.927	-73.06
343.31	-70.35
343.693	-69.22
344.077	-69.45
344.46	-65.83
344.843	-42.56
345.226	-50.01
345.61	-23.8
345.993	-25.61
346.376	0.61
346.759	11
347.142	16.2
347.525	47.16
347.908	53.49
348.291	75.41
348.674	100.94
349.057	112.02
349.44	109.76
349.823	158.57
350.206	176.65
350.588	233.37
350.971	239.47
351.354	255.06
351.737	313.59
352.119	312.24
352.502	319.47
352.884	318.57
353.267	334.84
353.65	346.13
354.032	336.64
354.414	369.41
354.797	396.3
355.179	386.81
355.562	380.71
355.944	387.72
356.326	383.65
356.709	380.48
357.091	409.41
357.473	405.57
357.855	433.36
358.238	407.83
358.62	411.67
359.002	425
359.384	423.42
359.766	404.21
360.148	428.62
360.53	430.65
360.912	418.22
361.294	412.57
361.676	408.05
362.057	433.82
362.439	412.57
362.821	419.58
363.203	441.95
363.584	428.39
363.966	425.23
364.348	458.22
364.729	411.22
365.111	419.13
365.493	429.75
365.874	418.22
366.256	424.33
366.637	430.88
367.019	441.73
367.4	435.85
367.781	434.95
368.163	444.44
368.544	441.05
368.925	445.57
369.306	443.76
369.688	461.61
370.069	441.95
370.45	455.74
370.831	449.18
371.212	446.7
371.593	475.4
371.974	446.47
372.355	460.26
372.736	489.86
373.117	489.41
373.498	481.5
373.879	487.6
374.26	477.88
374.641	470.65
375.021	461.16
375.402	496.64
375.783	493.7
376.163	546.36
376.544	520.59
376.925	508.62
377.305	522.18
377.686	523.53
378.066	538.9
378.447	545
378.827	545.68
379.208	549.75
379.588	566.92
379.968	555.62
380.349	564.43
380.729	566.69
381.109	571.67
381.489	584.32
381.87	581.61
382.25	611.89
382.63	589.07
383.01	597.43
383.39	603.53
383.77	636.07
384.15	632.68
384.53	622.96
384.91	651.21
385.29	636.3
385.67	666.8
386.049	667.71
386.429	691.44
386.809	694.37
387.189	662.51
387.568	705.9
387.948	676.3
388.328	704.09
388.707	718.78
389.087	724.66
389.466	740.47
389.846	735.28
390.225	761.04
390.605	750.64
390.984	796.07
391.363	771.43
391.743	796.52
392.122	790.87
392.501	816.63
392.881	844.2
393.26	819.12
393.639	847.82
394.018	854.14
394.397	858.44
394.776	857.76
395.155	890.3
395.534	913.58
395.913	897.08
396.292	901.15
396.671	947.25
397.05	934.82
397.429	930.07
397.808	946.12
398.186	975.95
398.565	982.28
398.944	979.11
399.323	989.51
399.701	986.12
400.08	1053.69
400.458	1013.91
400.837	1053.46
401.215	1042.84
401.594	1069.51
401.972	1114.02
402.351	1089.17
402.729	1123.52
403.107	1094.14
403.486	1129.39
403.864	1134.81
404.242	1168.71
404.62	1141.59
404.999	1184.76
405.377	1198.32
405.755	1206.68
406.133	1226.79
406.511	1242.83
406.889	1250.29
407.267	1274.02
407.645	1295.26
408.023	1315.38
408.401	1339.56
408.779	1355.37
409.156	1401.47
409.534	1420.46
409.912	1393.79
410.29	1450.29
410.667	1476.73
411.045	1498.87
411.422	1513.56
411.8	1503.17
412.178	1545.65
412.555	1584.52
412.933	1613.45
413.31	1621.81
413.687	1633.11
414.065	1655.48
414.442	1674.46
414.819	1698.19
415.197	1711.75
415.574	1755.14
415.951	1779.77
416.328	1786.1
416.705	1777.06
417.082	1836.27
417.46	1868.13
417.837	1889.15
418.214	1907.22
418.591	1937.96
418.967	1911.07
419.344	1928.24
419.721	1970.5
420.098	1987.45
420.475	1994.68
420.852	2015.24
421.228	2112.87
421.605	2057.95
421.982	2120.33
422.358	2158.97
422.735	2186.76
423.111	2177.5
423.488	2246.42
423.864	2242.81
424.241	2293.88
424.617	2287.55
424.994	2298.4
425.37	2358.29
425.746	2361.22
426.123	2416.14
426.499	2433.31
426.875	2446.19
427.251	2489.13
427.627	2519.41
428.003	2584.72
428.379	2628.11
428.756	2643.48
429.132	2693.19
429.507	2714.66
429.883	2762.79
430.259	2819.06
430.635	2814.77
431.011	2856.35
431.387	2951.04
431.763	3003.47
432.138	3050.7
432.514	3109.23
432.89	3050.24
433.265	3157.81
433.641	3200.07
434.016	3204.36
434.392	3289.56
434.767	3354.87
435.143	3313.29
435.518	3407.07
435.894	3436.9
436.269	3461.76
436.644	3550.34
437.02	3558.48
437.395	3606.61
437.77	3652.94
438.145	3724.13
438.52	3746.5
438.895	3807.96
439.271	3777.01
439.646	3865.14
440.021	3908.3
440.395	3948.75
440.77	3925.7
441.145	3953.05
441.52	4043.66
441.895	4109.2
442.27	4095.64
442.645	4134.28
443.019	4186.26
443.394	4225.36
443.769	4227.16
444.143	4206.6
444.518	4294.73
444.892	4315.75
445.267	4344.67
445.641	4406.82
446.016	4416.08
446.39	4447.95
446.764	4480.94
447.139	4473.03
447.513	4595.97
447.887	4603.88
448.262	4657.89
448.636	4695.85
449.01	4735.17
449.384	4809.75
449.758	4882.96
450.132	4942.62
450.506	4906.24
450.88	4954.15
451.254	4971.78
451.628	5077.76
452.002	5143.97
452.376	5148.72
452.75	5204.54
453.123	5257.64
453.497	5341.03
453.871	5394.14
454.244	5530.63
454.618	5552.55
454.992	5616.05
455.365	5657.18
455.739	5811.08
456.112	5818.08
456.486	5914.35
456.859	5977.63
457.232	6118.86
457.606	6136.72
457.979	6202.25
458.352	6318.41
458.725	6465.07
459.099	6422.13
459.472	6630.04
459.845	6646.31
460.218	6711.17
460.591	6757.49
460.964	6823.93
461.337	6975.79
461.71	7086.52
462.083	7199.97
462.456	7200.19
462.829	7249.46
463.201	7435.67
463.574	7401.32
463.947	7587.53
464.32	7790.01
464.692	7833.4
465.065	7891.47
465.438	7991.36
465.81	8140.73
466.183	8199.49
466.555	8389.54
466.928	8478.12
467.3	8474.51
467.672	8604.67
468.045	8931.67
468.417	8848.74
468.789	8909.53
469.161	9134.6
469.534	9274.04
469.906	9485.78
470.278	9459.57
470.65	9670.86
471.022	9795.15
471.394	9982.72
471.766	10144.75
472.138	10249.6
472.51	10427.68
472.882	10601.23
473.253	10736.14
473.625	10942.24
473.997	11191.05
474.369	11236.92
474.74	11363.25
475.112	11559.17
475.484	11814.53
475.855	12028.54
476.227	12190.57
476.598	12607.06
476.97	12631.24
477.341	12930.21
477.713	13056.31
478.084	13236.19
478.455	13621.72
478.827	13760.47
479.198	14198.65
479.569	14113.68
479.94	14549.83
480.311	14713.44
480.682	14974.68
481.053	15271.39
481.424	15526.98
481.795	15727.65
482.166	15973.75
482.537	16145.04
482.908	16562.43
483.279	16750.9
483.65	17100.95
484.021	17435.86
484.391	17560.15
484.762	17718.11
485.133	17988.38
485.503	18228.83
485.874	18713.56
486.244	18801.02
486.615	19172.31
486.985	19498.63
487.356	19852.29
487.726	20007.31
488.097	20365.27
488.467	20498.37
488.837	20904.69
489.207	21219.03
489.578	21540.61
489.948	21676.65
490.318	21983.08
490.688	22005.45
491.058	22518.21
491.428	22767.01
491.798	22851.31
492.168	23345.53
492.538	23358.19
492.908	23791.62
493.278	24102.57
493.648	24230.93
494.017	24442.9
494.387	24693.97
494.757	24942.78
495.126	25290.11
495.496	25391.35
495.866	25610.33
496.235	25904.56
496.605	26144.55
496.974	26301.38
497.344	26522.62
497.713	26675.84
498.082	26997.19
498.452	27178.2
498.821	27337.29
499.19	27543.16
499.559	27713.78
499.928	27963.71
500.298	28197.38
500.667	28469.24
501.036	28404.83
501.405	28829
501.774	28913.97
502.143	29178.82
502.512	29235.54
502.88	29491.58
503.249	29554.18
503.618	29857.22
503.987	29925.47
504.356	30125.01
504.724	30487.04
505.093	30447.49
505.462	30641.16
505.83	30974.71
506.199	31154.14
506.567	31688.36
506.936	31604.3
507.304	32000.44
507.672	32195.69
508.041	32288.8
508.409	32564.27
508.777	32803.81
509.145	33119.96
509.514	33245.83
509.882	33548.88
510.25	33620.97
510.618	33993.84
510.986	33982.31
511.354	34428.18
511.722	34733.71
512.09	35095.96
512.458	34935.06
512.826	35422.05
513.193	35643.74
513.561	35744.07
513.929	36068.59
514.297	36412.31
514.664	36704.05
515.032	36652.98
515.4	37029.69
515.767	37184.71
516.135	37351.04
516.502	37230.81
516.869	37979.27
517.237	38183.78
517.604	38164.35
517.972	38650.44
518.339	38769.31
518.706	39006.81
519.073	39174.04
519.44	39590.3
519.808	39982.61
520.175	39977.64
520.542	40573.55
520.909	40797.95
521.276	40948.01
521.643	41281.56
522.009	41631.6
522.376	42059.16
522.743	42111.82
523.11	42663.21
523.477	42984.11
523.843	43182.3
524.21	43671.78
524.577	44068.38
524.943	44319.22
525.31	44404.41
525.676	44811.63
526.043	45023.83
526.409	45136.6
526.776	45600.54
527.142	45667.66
527.508	45864.71
527.874	46177.7
528.241	46378.37
528.607	46427.86
528.973	46988.07
529.339	46946.94
529.705	47379.25
530.071	47514.84
530.437	47781.5
530.803	48034.82
531.169	48360.01
531.535	48352.78
531.901	48649.72
532.267	48914.58
532.632	49148.92
532.998	49237.28
533.364	49507.33
533.73	49577.61
534.095	49892.85
534.461	49969.69
534.826	50258.72
535.192	50373.97
535.557	50609.67
535.923	50707.75
536.288	50872.94
536.653	50929.21
537.019	51024.12
537.384	51216.66
537.749	51344.12
538.114	51458.24
538.479	51414.4
538.845	51631.34
539.21	51666.82
539.575	51843.99
539.94	51842.41
540.305	52156.3
540.67	52046.24
541.034	52220.03
541.399	52336.86
541.764	52437.65
542.129	52530.75
542.494	52576.63
542.858	52709.5
543.223	52847.13
543.587	52994.69
543.952	53079.44
544.316	53143.84
544.681	53222.03
545.045	53441.69
545.41	53624.06
545.774	53719.19
546.138	53625.41
546.503	53796.71
546.867	53883.03
547.231	54086.87
547.595	54185.4
547.959	54330.25
548.324	54399.85
548.688	54470.14
549.052	54548.33
549.416	54692.5
549.779	54706.29
550.143	54775.66
550.507	55054.08
550.871	55060.4
551.235	55123
551.599	55350.79
551.962	55341.53
552.326	55450.45
552.689	55530.22
553.053	55486.61
553.417	55578.81
553.78	55878.69
554.143	55754.17
554.507	55959.14
554.87	55968.4
555.234	56225.8
555.597	56109.19
555.96	56279.81
556.323	56396.41
556.686	56400.25
557.05	56623.3
557.413	56774.26
557.776	56766.57
558.139	57003.63
558.502	57044.31
558.865	57168.37
559.228	57319.33
559.59	57359.1
559.953	57522.94
560.316	57717.96
560.679	57766.09
561.041	57953.21
561.404	58008.8
561.767	58233.43
562.129	58137.61
562.492	58419.41
562.854	58368.34
563.217	58421.67
563.579	58556.58
563.941	58755.45
564.304	58820.76
564.666	58963.8
565.028	59073.63
565.39	59189.79
565.753	59306.62
566.115	59404.24
566.477	59385.26
566.839	59511.13
567.201	59695.31
567.563	59724.69
567.925	59881.52
568.287	59849.66
568.648	59942.99
569.01	60042.19
569.372	60085.81
569.734	60111.8
570.095	60219.81
570.457	60368.29
570.819	60359.7
571.18	60407.61
571.542	60539.13
571.903	60638.56
572.265	60653.7
572.626	60730.99
572.987	60777.09
573.349	60894.37
573.71	60939.57
574.071	60983.41
574.432	61095.05
574.794	61260.47
575.155	61209.62
575.516	61270.18
575.877	61368.49
576.238	61327.81
576.599	61472.66
576.96	61511.76
577.32	61556.05
577.681	61589.5
578.042	61685.09
578.403	61638.08
578.763	61730.51
579.124	61778.87
579.485	61810.28
579.845	61897.96
580.206	61766.67
580.566	61819.09
580.927	61856.16
581.287	61962.82
581.648	61949.71
582.008	62024.74
582.368	61935.48
582.728	62007.34
583.089	61955.59
583.449	61970.96
583.809	61974.8
584.169	62041.46
584.529	61927.34
584.889	62136.6
585.249	61927.79
585.609	61917.17
585.969	62006.66
586.329	61914.91
586.688	61987.45
587.048	61991.75
587.408	61907.91
587.768	62008.47
588.127	61965.76
588.487	61901.8
588.846	62068.58
589.206	61940
589.565	61990.16
589.925	62129.82
590.284	62095.7
590.643	62063.61
591.003	62169.59
591.362	62168.92
591.721	62179.54
592.08	62216.15
592.44	62211.4
592.799	62236.03
593.158	62227.22
593.517	62206.88
593.876	62221.8
594.235	62217.28
594.593	62191.51
594.952	62267.22
595.311	62180.22
595.67	62254.34
596.029	62409.36
596.387	62358.74
596.746	62427.21
597.104	62321.45
597.463	62307.67
597.822	62416.14
598.18	62309.48
598.538	62326.65
598.897	62414.11
599.255	62240.1
599.613	62611.39
599.972	62415.01
600.33	62466.54
600.688	62345.41
601.046	62384.96
601.404	62488.23
601.762	62469.47
602.12	62579.53
602.478	62503.14
602.836	62507.89
603.194	62338.18
603.552	62469.25
603.91	62455.91
604.268	62521.22
604.625	62501.11
604.983	62591.5
605.341	62425.41
605.698	62670.6
606.056	62696.36
606.413	62699.3
606.771	62803.02
607.128	62767.32
607.485	62640.99
607.843	62695.23
608.2	62821.33
608.557	62869.91
608.914	62803.02
609.272	62922.57
609.629	62990.14
609.986	63016.35
610.343	62956.01
610.7	63104.71
611.057	63020.19
611.414	63018.39
611.771	63072.62
612.127	63123.24
612.484	63146.07
612.841	63172.28
613.198	63099.51
613.554	63160.98
613.911	63190.58
614.267	63188.1
614.624	63182.45
614.98	63168.66
615.337	63190.58
615.693	63185.61
616.05	63185.84
616.406	63190.58
616.762	63187.87
617.118	63181.54
617.475	63190.58
617.831	63190.58
618.187	63190.58
618.543	63190.58
618.899	63190.58
619.255	63190.58
619.611	63190.58
619.967	63190.58
620.323	63190.58
620.678	63190.58
621.034	63190.58
621.39	63190.58
621.746	63190.58
622.101	63190.58
622.457	63190.58
622.812	63190.58
623.168	63190.58
623.523	63190.58
623.879	63190.58
624.234	63190.58
624.589	63190.58
624.945	63190.58
625.3	63190.58
625.655	63190.58
626.01	63190.58
626.365	63190.58
626.72	63190.58
627.075	63190.58
627.43	63190.58
627.785	63190.58
628.14	63190.58
628.495	63190.58
628.85	63190.58
629.205	63190.58
629.559	63190.58
629.914	63190.58
630.269	63190.58
630.623	63190.58
630.978	63190.58
631.332	63190.58
631.687	63190.58
632.041	63190.58
632.396	63190.58
632.75	63171.6
633.104	63185.61
633.459	63151.94
633.813	63135.9
634.167	63156.01
634.521	63114.88
634.875	63040.08
635.229	63034.43
635.583	62942.91
635.937	62927.31
636.291	62881.67
636.645	62896.13
636.999	62812.52
637.352	62877.37
637.706	62709.24
638.06	62798.05
638.413	62670.37
638.767	62622.92
639.121	62681.67
639.474	62566.65
639.828	62571.62
640.181	62594.89
640.534	62582.01
640.888	62498.85
641.241	62413.2
641.594	62474.9
641.947	62522.13
642.301	62401.23
642.654	62483.94
643.007	62400.55
643.36	62438.06
643.713	62381.34
644.066	62440.55
644.419	62323.04
644.771	62198.07
645.124	61961.01
645.477	61947
645.83	61835.14
646.182	61710.85
646.535	61551.31
646.888	61574.58
647.24	61460.23
647.593	61502.72
647.945	61492.1
648.298	61375.49
648.65	61405.77
649.002	61267.02
649.355	61406.22
649.707	61360.35
650.059	61478.76
650.411	61797.63
650.763	61786.78
651.115	62011.63
651.467	61860.9
651.819	61772.54
652.171	61771.19
652.523	61724.63
652.875	61706.78
653.227	61584.75
653.578	61705.88
653.93	61573.23
654.282	61526.67
654.633	61523.06
654.985	61488.71
655.337	61406
655.688	61375.26
656.039	61457.07
656.391	61229.73
656.742	61267.02
657.094	61230.86
657.445	61374.81
657.796	61273.12
658.147	61205.55
658.498	61180.02
658.849	61251.2
659.2	61156.74
659.551	61152.45
659.902	61201.03
660.253	61199
660.604	61230.64
660.955	61038.1
661.306	61208.04
661.656	61128.94
662.007	61137.98
662.358	61168.72
662.708	61128.27
663.059	61159
663.409	60952.45
663.76	61158.55
664.11	61143.63
664.461	61155.61
664.811	61123.97
665.161	61165.33
665.511	61081.94
665.862	61002.17
666.212	61106.57
666.562	61076.52
666.912	61032.45
667.262	60995.84
667.612	61062.73
667.962	61032.67
668.312	60988.16
668.662	61021.38
669.011	60926.24
669.361	60942.06
669.711	60933.02
670.06	60928.5
670.41	60795.84
670.76	60865
671.109	60903.86
671.459	60777.09
671.808	60811.89
672.157	60852.79
672.507	60622.29
672.856	60629.3
673.205	60697.99
673.554	60745.22
673.904	60567.83
674.253	60687.6
674.602	60580.48
674.951	60125.81
675.3	60017.11
675.649	60345.69
675.998	60401.96
676.346	60335.29
676.695	60415.29
677.044	60156.99
677.393	60290.1
677.741	60329.64
678.09	60218.23
678.438	60182.08
678.787	60241.74
679.135	60235.86
679.484	60039.25
679.832	60161.96
680.181	60042.42
680.529	60160.16
680.877	60093.49
681.225	60061.18
681.573	60138.46
681.922	60013.27
682.27	59969.65
682.618	59947.73
682.966	59938.01
683.314	59946.6
683.661	59869.99
684.009	59713.61
684.357	59684.69
684.705	59671.58
685.053	59748.87
685.4	59679.94
685.748	59572.37
686.095	59615.99
686.443	59395.66
686.79	59386.84
687.138	59444.24
687.485	59407.41
687.832	59306.39
688.18	59346.84
688.527	59251.03
688.874	59192.72
689.221	59116.12
689.568	59063.46
689.915	58969.9
690.262	59000.86
690.609	58944.14
690.956	58880.19
691.303	58832.28
691.65	58649.01
691.997	58650.82
692.344	58543.47
692.69	58437.26
693.037	58392.29
693.383	58197.04
693.73	58305.74
694.077	58057.16
694.423	58105.29
694.769	57962.25
695.116	57952.76
695.462	57818.52
695.808	57678.64
696.155	57711.86
696.501	57528.59
696.847	57515.48
697.193	57367.46
697.539	57451.98
697.885	57199.33
698.231	57187.13
698.577	57117.75
698.923	57079.56
699.269	56933.57
699.614	56830.75
699.96	56703.07
700.306	56759.79
700.651	56599.57
700.997	56505.79
701.342	56498.33
701.688	56491.78
702.033	56317.54
702.379	56405.68
702.724	56335.62
703.069	56441.16
703.415	56076.42
703.76	56128.17
704.105	56160.03
704.45	56053.14
704.795	55937.89
705.14	55923.66
705.485	55873.49
705.83	55705.13
706.175	55737.9
706.52	55654.51
706.865	55627.85
707.209	55587.17
707.554	55567.28
707.899	55511.92
708.243	55384.91
708.588	55259.72
708.932	55130.91
709.277	55079.39
709.621	55093.85
709.966	54869.9
710.31	54962.78
710.654	54658.15
710.998	54788.77
711.342	54746.96
711.687	54672.39
712.031	54537.93
712.375	54403.02
712.719	54516.01
713.063	54418.16
713.407	54509.68
713.75	54293.19
714.094	54215.23
714.438	54131.84
714.782	54096.81
715.125	53971.84
715.469	53906.53
715.812	53958.51
716.156	53545.87
716.499	53632.87
716.843	53688.01
717.186	53496.38
717.53	53637.16
717.873	53522.59
718.216	53457.51
718.559	53264.74
718.902	53040.12
719.246	53072.66
719.589	53010.06
719.932	52848.26
720.275	52775.94
720.617	52839.22
720.96	52695.04
721.303	52609.62
721.646	52598.32
721.989	52279.68
722.331	52453.47
722.674	52359.46
723.016	52344.09
723.359	52248.05
723.701	52271.32
724.044	52170.99
724.386	51935.06
724.729	52035.4
725.071	51953.14
725.413	51966.92
725.755	51840.37
726.097	51716.99
726.439	51562.64
726.782	51766.93
727.124	51740.26
727.465	51687.38
727.807	51653.49
728.149	51625.69
728.491	51603.54
728.833	51637.44
729.175	51379.37
729.516	51368.97
729.858	51367.39
730.199	51385.92
730.541	51125.14
730.882	51287.85
731.224	51250.56
731.565	51144.8
731.906	51049.21
732.248	51007.85
732.589	50876.33
732.93	50858.93
733.271	50841.76
733.612	50830.91
733.953	50892.83
734.294	50667.3
734.635	50574.64
734.976	50736.22
735.317	50495.78
735.658	50467.98
735.999	50406.97
736.339	50296.23
736.68	50333.07
737.021	50174.43
737.361	50052.62
737.702	50148.89
738.042	49925.62
738.383	49915.45
738.723	49852.86
739.063	49807.66
739.404	49745.97
739.744	49634.78
740.084	49386.65
740.424	49494.22
740.764	49348.46
741.104	49444.28
741.444	49323.38
741.784	49083.38
742.124	49164.74
742.464	49051.97
742.804	48808.36
743.143	48739.89
743.483	48854.92
743.823	48617.18
744.162	48546.22
744.502	48553
744.841	48394.14
745.181	48489.73
745.52	48239.79
745.86	48250.19
746.199	48089.06
746.538	48046.58
746.877	48102.62
747.216	48010.19
747.556	47812.68
747.895	47858.56
748.234	47607.49
748.573	47501.73
748.911	47600.03
749.25	47553.26
749.589	47325.92
749.928	47457.44
750.267	47460.6
750.605	47311.23
750.944	47260.61
751.283	47080.73
751.621	47181.74
