Data from aluminium_macbook_case_FLMS001491_074.txt Node
Date: Tue Feb 07 10:44:11 GMT 2017
User: dcchb
Spectrometer: FLMS00149
Trigger mode: 0
Integration Time (sec): 2.000000E-2
Scans to average: 10
Electric dark correction enabled: true
Nonlinearity correction enabled: false
Boxcar width: 0
XAxis mode: Wavelengths
Number of Pixels in Spectrum: 2048
>>>>>Begin Spectral Data<<<<<
341.393	-12.61
341.776	-12.61
342.16	-12.61
342.543	-61.2
342.927	-66.62
343.31	-74.08
343.693	-57.81
344.077	-73.4
344.46	-76.34
344.843	-38.83
345.226	-56.91
345.61	-27.53
345.993	-15.32
346.376	-3.57
346.759	24
347.142	21.06
347.525	50.21
347.908	47.95
348.291	68.06
348.674	107.61
349.057	104.9
349.44	119.81
349.823	129.3
350.206	183.54
350.588	233.71
350.971	254.95
351.354	271.9
351.737	299.7
352.119	318.68
352.502	324.78
352.884	326.14
353.267	327.04
353.65	362.52
354.032	353.25
354.414	371.78
354.797	359.13
355.179	374.95
355.562	373.82
355.944	408.39
356.326	407.94
356.709	405.23
357.091	418.34
357.473	414.72
357.855	403.65
358.238	418.79
358.62	416.98
359.002	412.46
359.384	445.45
359.766	415.4
360.148	412.91
360.53	409.75
360.912	435.06
361.294	426.25
361.676	412.23
362.057	424.89
362.439	426.02
362.821	428.28
363.203	443.87
363.584	414.27
363.966	420.37
364.348	425.12
364.729	418.34
365.111	414.04
365.493	446.36
365.874	425.57
366.256	413.14
366.637	429.64
367.019	421.05
367.4	461.05
367.781	443.19
368.163	439.8
368.544	453.59
368.925	455.4
369.306	447.94
369.688	454.27
370.069	456.98
370.45	430.31
370.831	459.24
371.212	474.15
371.593	484.78
371.974	457.21
372.355	472.35
372.736	479.13
373.117	501.95
373.498	484.32
373.879	484.78
374.26	467.6
374.641	438.22
375.021	469.41
375.402	481.61
375.783	511.89
376.163	524.1
376.544	517.54
376.925	519.8
377.305	524.55
377.686	523.64
378.066	520.71
378.447	542.85
378.827	542.18
379.208	529.07
379.588	544.43
379.968	549.18
380.349	554.6
380.729	551.21
381.109	568.16
381.489	579.24
381.87	564.1
382.25	598.9
382.63	593.7
383.01	618.11
383.39	627.14
383.77	594.6
384.15	637.99
384.53	629.86
384.91	633.7
385.29	646.35
385.67	652
386.049	644.55
386.429	668.27
386.809	658.56
387.189	679.12
387.568	684.32
387.948	693.81
388.328	704.66
388.707	735.84
389.087	708.95
389.466	721.61
389.846	726.35
390.225	758.44
390.605	762.73
390.984	759.12
391.363	770.64
391.743	776.52
392.122	802.06
392.501	823.75
392.881	820.13
393.26	840.7
393.639	819.91
394.018	864.43
394.397	869.85
394.776	871.43
395.155	884.09
395.534	873.24
395.913	906.23
396.292	927.25
396.671	932.9
397.05	930.41
397.429	931.54
397.808	933.8
398.186	936.29
398.565	946.91
398.944	946.68
399.323	970.86
399.701	1018.09
400.08	1010.19
400.458	1016.74
400.837	1018.77
401.215	1025.1
401.594	1053.12
401.972	1058.55
402.351	1056.06
402.729	1090.64
403.107	1122.05
403.486	1115.95
403.864	1108.71
404.242	1131.99
404.62	1187.81
404.999	1142.84
405.377	1149.39
405.755	1198.2
406.133	1193.01
406.511	1211.08
406.889	1258.99
407.267	1241.59
407.645	1263.74
408.023	1292.21
408.401	1309.39
408.779	1358.65
409.156	1344.19
409.534	1356.62
409.912	1387.58
410.29	1401.81
410.667	1443.62
411.045	1475.94
411.422	1449.5
411.8	1479.78
412.178	1510.74
412.555	1528.36
412.933	1541.02
413.31	1572.43
413.687	1599.1
414.065	1616.5
414.442	1642.26
414.819	1663.28
415.197	1676.83
415.574	1707.57
415.951	1743.73
416.328	1738.75
416.705	1749.37
417.082	1767
417.46	1819.88
417.837	1863.95
418.214	1824.85
418.591	1827.34
418.967	1874.34
419.344	1918.18
419.721	1929.94
420.098	1942.36
420.475	1950.5
420.852	1964.28
421.228	2018.07
421.605	2008.58
421.982	2057.84
422.358	2044.51
422.735	2105.75
423.111	2149.36
423.488	2155.01
423.864	2187.56
424.241	2201.79
424.617	2258.29
424.994	2215.58
425.37	2272.98
425.746	2314.56
426.123	2348.91
426.499	2349.13
426.875	2369.25
427.251	2400.21
427.627	2475.46
428.003	2515.91
428.379	2525.17
428.756	2554.1
429.132	2599.52
429.507	2655.79
429.883	2658.5
430.259	2722
430.635	2724.94
431.011	2789.35
431.387	2864.15
431.763	2911.6
432.138	2936.24
432.514	2994.09
432.89	2979.85
433.265	3032.96
433.641	3093.75
434.016	3110.02
434.392	3209.22
434.767	3254.19
435.143	3210.13
435.518	3257.36
435.894	3353.63
436.269	3361.76
436.644	3385.72
437.02	3478.14
437.395	3451.93
437.77	3507.97
438.145	3581.64
438.52	3596.11
438.895	3654.86
439.271	3643.34
439.646	3785.71
440.021	3778.25
440.395	3804.46
440.77	3762.66
441.145	3832.03
441.52	3921.97
441.895	3943.89
442.27	3951.8
442.645	3974.85
443.019	4028.19
443.394	4030.22
443.769	4111.57
444.143	4053.5
444.518	4184.34
444.892	4160.16
445.267	4193.38
445.641	4213.72
446.016	4231.34
446.39	4291.68
446.764	4298.46
447.139	4335.52
447.513	4379.14
447.887	4390.89
448.262	4428.63
448.636	4487.16
449.01	4576.87
449.384	4609.41
449.758	4616.19
450.132	4678.56
450.506	4735.96
450.88	4780.26
451.254	4762.4
451.628	4831.1
452.002	4925.56
452.376	4950.65
452.75	4966.47
453.123	5072.45
453.497	5160.58
453.871	5130.08
454.244	5257.31
454.618	5272.22
454.992	5413.23
455.365	5364.87
455.739	5545.21
456.112	5633.79
456.486	5669.72
456.859	5686.9
457.232	5885.99
457.606	5822.49
457.979	5916.27
458.352	6029.04
458.725	6133.44
459.099	6137.51
459.472	6328.92
459.845	6383.6
460.218	6390.38
460.591	6510.61
460.964	6556.71
461.337	6695.23
461.71	6775.01
462.083	6962.35
462.456	6902.23
462.829	6928.45
463.201	7073.3
463.574	7060.87
463.947	7217.25
464.32	7349.68
464.692	7453.86
465.065	7542.89
465.438	7612.72
465.81	7701.31
466.183	7872.38
466.555	8042.77
466.928	8070.11
467.3	8066.27
467.672	8212.26
468.045	8454.06
468.417	8462.19
468.789	8499.93
469.161	8664.45
469.534	8821.96
469.906	9051.33
470.278	9028.05
470.65	9216.75
471.022	9356.63
471.394	9524.76
471.766	9662.84
472.138	9725.21
472.51	9959.1
472.882	10076.16
473.253	10204.97
473.625	10381.92
473.997	10622.59
474.369	10649.48
474.74	10780.78
475.112	11090.15
475.484	11205.4
475.855	11347.31
476.227	11545.95
476.598	11923.12
476.97	11914.76
477.341	12221.64
477.713	12450.11
478.084	12490.79
478.455	12901.85
478.827	12992.24
479.198	13446.02
479.569	13342.74
479.94	13836.74
480.311	13884.42
480.682	14221.36
481.053	14564.63
481.424	14754.46
481.795	14985.41
482.166	15143.82
482.537	15377.72
482.908	15690.03
483.279	15848.67
483.65	16167.07
484.021	16525.71
484.391	16702.88
484.762	16702.2
485.133	17045.02
485.503	17304.67
485.874	17672.57
486.244	17859.46
486.615	18228.04
486.985	18419.9
487.356	18738.98
487.726	18884.52
488.097	19430.49
488.467	19376.03
488.837	19848.33
489.207	20042
489.578	20379.39
489.948	20517.47
490.318	20888.53
490.688	20995.42
491.058	21286.04
491.428	21581.85
491.798	21776.64
492.168	22232.9
492.538	22268.16
492.908	22502.73
493.278	22808.71
493.648	22845.09
494.017	23150.85
494.387	23430.61
494.757	23592.42
495.126	23861.56
495.496	23872.64
495.866	24194.66
496.235	24414.99
496.605	24746.06
496.974	24873.51
497.344	25101.53
497.713	25226.72
498.082	25558.69
498.452	25818.35
498.821	25951.68
499.19	25999.81
499.559	26393.25
499.928	26497.88
500.298	26678.44
500.667	26934.48
501.036	26934.02
501.405	27335.59
501.774	27253.11
502.143	27505.08
502.512	27840.44
502.88	27974
503.249	28002.92
503.618	28224.16
503.987	28334.66
504.356	28480.2
504.724	28717.93
505.093	28823.01
505.462	29020.07
505.83	29293.28
506.199	29525.82
506.567	29761.75
506.936	29884.23
507.304	30267.5
507.672	30275.18
508.041	30622.97
508.409	30813.24
508.777	31033.35
509.145	31173.69
509.514	31373.91
509.882	31688.47
510.25	31800.34
510.618	32141.34
510.986	32295.01
511.354	32635.57
511.722	32853.19
512.09	33224.25
512.458	33220.19
512.826	33439.16
513.193	33660.17
513.561	33870.34
513.929	34090.67
514.297	34449.98
514.664	34546.25
515.032	34666.7
515.4	34996.41
515.767	35220.59
516.135	35486.11
516.502	35341.03
516.869	35983.73
517.237	36132.43
517.604	36134.69
517.972	36510.72
518.339	36780.54
518.706	36775.35
519.073	37003.14
519.44	37316.35
519.808	37726.28
520.175	37865.94
520.542	38459.14
520.909	38571.68
521.276	38672.92
521.643	39029.07
522.009	39351.32
522.376	39673.12
522.743	39993.12
523.11	40380.45
523.477	40638.3
523.843	41140.88
524.21	41295
524.577	41747.19
524.943	41842.56
525.31	42135.21
525.676	42570
526.043	42765.25
526.409	42828.52
526.776	43324.1
527.142	43417.21
527.508	43532.91
527.874	43928.6
528.241	44189.39
528.607	44319.78
528.973	44595.93
529.339	44611.75
529.705	45202.7
530.071	45523.59
530.437	45641.1
530.803	45870.25
531.169	46194.31
531.535	46031.37
531.901	46294.42
532.267	46565.15
532.632	46878.36
532.998	47018.92
533.364	47165.58
533.73	47344.33
534.095	47703.65
534.461	47879.24
534.826	48062.06
535.192	48286.23
535.557	48372.56
535.923	48546.11
536.288	48840.34
536.653	49037.62
537.019	48924.41
537.384	48970.96
537.749	49370.95
538.114	49303.6
538.479	49472.64
538.845	49783.82
539.21	49593.09
539.575	49809.81
539.94	49933.19
540.305	50175.45
540.67	50108.78
541.034	50245.73
541.399	50451.15
541.764	50522.33
542.129	50718.93
542.494	50731.14
542.858	50871.7
543.223	50926.39
543.587	51158.02
543.952	51155.99
544.316	51358.01
544.681	51316.66
545.045	51508.52
545.41	51628.74
545.774	51726.14
546.138	51841.62
546.503	51982.18
546.867	52047.49
547.231	52340.81
547.595	52332
547.959	52451.09
548.324	52635.95
548.688	52642.27
549.052	52767.92
549.416	52924.53
549.779	53001.81
550.143	53060.57
550.507	53259.21
550.871	53353.89
551.235	53337.62
551.599	53668.69
551.962	53764.28
552.326	53679.76
552.689	53861
553.053	53805.86
553.417	53997.04
553.78	54307.99
554.143	54192.29
554.507	54358.61
554.87	54547.08
555.234	54791.82
555.597	54657.36
555.96	54734.65
556.323	54841.76
556.686	54905.72
557.05	55166.73
557.413	55182.77
557.776	55205.37
558.139	55283.56
558.502	55459.38
558.865	55582.99
559.228	55780.04
559.59	55810.78
559.953	55911.11
560.316	56162.86
560.679	56229.52
561.041	56432.23
561.404	56536.18
561.767	56683.98
562.129	56666.35
562.492	56999
562.854	56970.52
563.217	56994.25
563.579	57135.94
563.941	57278.31
564.304	57437.18
564.666	57611.63
565.028	57594.23
565.39	57636.94
565.753	57764.63
566.115	57964.17
566.477	58037.61
566.839	58138.63
567.201	58212.3
567.563	58294.55
567.925	58404.61
568.287	58405.06
568.648	58469.92
569.01	58630.59
569.372	58797.37
569.734	58684.15
570.095	58875.1
570.457	58937.93
570.819	59000.3
571.18	58988.77
571.542	59173.4
571.903	59171.59
572.265	59271.93
572.626	59381.98
572.987	59377.69
573.349	59508.76
573.71	59603.9
574.071	59659.94
574.432	59686.16
574.794	59878.24
575.155	59815.64
575.516	59846.6
575.877	59904.91
576.238	59958.24
576.599	60109.42
576.96	60119.82
577.32	60164.11
577.681	60267.16
578.042	60302.41
578.403	60359.81
578.763	60370.88
579.124	60376.76
579.485	60462.41
579.845	60533.82
580.206	60410.66
580.566	60525.46
580.927	60502.63
581.287	60610.2
581.648	60472.35
582.008	60611.78
582.368	60617.66
582.728	60591.67
583.089	60545.8
583.449	60641.39
583.809	60572.24
584.169	60654.72
584.529	60523.2
584.889	60785.79
585.249	60579.69
585.609	60566.36
585.969	60725.9
586.329	60545.12
586.688	60625.79
587.048	60590.54
587.408	60590.31
587.768	60585.12
588.127	60625.11
588.487	60614.95
588.846	60740.37
589.206	60593.7
589.565	60616.75
589.925	60721.16
590.284	60702.63
590.643	60767.03
591.003	60771.55
591.362	60861.27
591.721	60794.15
592.08	60835.73
592.44	60895.62
592.799	60865.33
593.158	60794.6
593.517	60832.79
593.876	60865.79
594.235	60838.67
594.593	60812.45
594.952	60953.47
595.311	60867.82
595.67	60838.44
596.029	61009.06
596.387	60986.01
596.746	61029.85
597.104	60892.45
597.463	60881.38
597.822	61042.51
598.18	60889.97
598.538	60941.72
598.897	61034.82
599.255	60856.07
599.613	61136.29
599.972	60963.64
600.33	61044.54
600.688	60947.14
601.046	61040.92
601.404	61096.97
601.762	61073.92
602.12	61196.63
602.478	61175.61
602.836	61223.52
603.194	61131.99
603.552	61098.55
603.91	61051.77
604.268	61220.58
604.625	61080.02
604.983	61340.12
605.341	61166.8
605.698	61294.02
606.056	61318.66
606.413	61283.4
606.771	61380.35
607.128	61484.75
607.485	61380.58
607.843	61405.43
608.2	61483.85
608.557	61534.24
608.914	61545.32
609.272	61608.59
609.629	61622.83
609.986	61798.64
610.343	61645.65
610.7	61783.95
611.057	61778.08
611.414	61716.84
611.771	61813.78
612.127	61820.56
612.484	61810.17
612.841	61877.51
613.198	61788.47
613.554	61822.15
613.911	61875.93
614.267	61912.31
614.624	61873.44
614.98	61874.57
615.337	62019.43
615.693	61934.23
616.05	61855.37
616.406	62041.12
616.762	61894.46
617.118	61971.97
617.475	61964.74
617.831	62036.83
618.187	61968.81
618.543	62042.25
618.899	62105.53
619.255	62105.53
619.611	61999.09
619.967	62102.59
620.323	62169.26
620.678	62103.04
621.034	62022.14
621.39	62013.33
621.746	62005.64
622.101	62323.6
622.457	62064.4
622.812	62178.07
623.168	62151.85
623.523	62134.45
623.879	62258.29
624.234	62077.28
624.589	62235.92
624.945	62262.13
625.3	62240.44
625.655	62243.6
626.01	62293.77
626.365	62281.79
626.72	62179.88
627.075	62226.65
627.43	62240.21
627.785	62167
628.14	62211.97
628.495	62247.22
628.85	62162.25
629.205	62122.93
629.559	62227.56
629.914	62083.16
630.269	62066.88
630.623	62066.66
630.978	62001.35
631.332	62035.7
631.687	62153.44
632.041	61988.24
632.396	62023.72
632.75	61862.37
633.104	61893.78
633.459	61791.64
633.813	61774.01
634.167	61753.45
634.521	61713.9
634.875	61717.29
635.229	61674.58
635.583	61526.56
635.937	61551.42
636.291	61534.7
636.645	61462.38
636.999	61456.73
637.352	61517.52
637.706	61370.86
638.06	61467.58
638.413	61426
638.767	61341.93
639.121	61402.5
639.474	61247.02
639.828	61290.41
640.181	61279.79
640.534	61261.48
640.888	61199.56
641.241	61055.16
641.594	61151.43
641.947	61155.04
642.301	61116.85
642.654	61118.44
643.007	61094.03
643.36	61112.11
643.713	61036.4
644.066	61148.72
644.419	60946.46
644.771	60853.13
645.124	60668.5
645.477	60592.8
645.83	60430.77
646.182	60359.13
646.535	60273.94
646.888	60326.82
647.24	60186.71
647.593	60251.34
647.945	60180.15
648.298	60080.95
648.65	60029.88
649.002	59967.05
649.355	60061.29
649.707	59921.18
650.059	60011.12
650.411	60316.42
650.763	60270.77
651.115	60553.03
651.467	60396.65
651.819	60353.03
652.171	60314.39
652.523	60266.03
652.875	60251.11
653.227	60115.98
653.578	60312.13
653.93	60157.56
654.282	60113.26
654.633	59992.82
654.985	60021.97
655.337	59987.39
655.688	60005.7
656.039	60113.49
656.391	59873.04
656.742	59939.71
657.094	59913.5
657.445	59968.64
657.796	59913.95
658.147	59845.7
658.498	59813.16
658.849	59883.44
659.2	59818.13
659.551	59774.06
659.902	59885.25
660.253	59860.39
660.604	59903.55
660.955	59788.98
661.306	59825.14
661.656	59794.4
662.007	59790.79
662.358	59795.53
662.708	59793.05
663.059	59772.03
663.409	59628.76
663.76	59816.77
664.11	59733.84
664.461	59803.89
664.811	59800.5
665.161	59784.69
665.511	59666.5
665.862	59707.62
666.212	59855.42
666.562	59781.07
666.912	59667.4
667.262	59647.29
667.612	59636.21
667.962	59638.25
668.312	59596.22
668.662	59732.48
669.011	59609.1
669.361	59527.97
669.711	59503.34
670.06	59385.15
670.41	59428.31
670.76	59276.68
671.109	59411.14
671.459	59291.14
671.808	59269.9
672.157	59339.95
672.507	59096.57
672.856	59141.09
673.205	59170.69
673.554	59215.66
673.904	59114.87
674.253	59233.74
674.602	59101.99
674.951	58710.36
675.3	58575.23
675.649	59032.61
675.998	58944.26
676.346	59000.75
676.695	59003.69
677.044	58758.05
677.393	58890.47
677.741	58908.32
678.09	58813.41
678.438	58802.56
678.787	58862.22
679.135	58824.26
679.484	58632.85
679.832	58781.77
680.181	58675.56
680.529	58753.98
680.877	58670.59
681.225	58602.8
681.573	58728.67
681.922	58591.95
682.27	58512.85
682.618	58564.15
682.966	58425.4
683.314	58548.56
683.661	58424.72
684.009	58390.37
684.357	58314.67
684.705	58288
685.053	58284.84
685.4	58238.74
685.748	58112.86
686.095	58128.23
686.443	58072.41
686.79	57954.9
687.138	58016.14
687.485	58005.07
687.832	57844.62
688.18	57864.51
688.527	57784.96
688.874	57736.15
689.221	57662.03
689.568	57580.22
689.915	57520.56
690.262	57450.06
690.609	57351.75
690.956	57238.09
691.303	57272.21
691.65	57010.52
691.997	57049.84
692.344	56817.53
692.69	56779.11
693.037	56873.8
693.383	56605.11
693.73	56719
694.077	56490.99
694.423	56480.82
694.769	56282.18
695.116	56238.79
695.462	56265
695.808	56148.17
696.155	56188.62
696.501	55973.49
696.847	55972.13
697.193	55762.87
697.539	55874.05
697.885	55602.87
698.231	55640.16
698.577	55620.95
698.923	55556.1
699.269	55470
699.614	55173.28
699.96	55204.24
700.306	55188.42
700.651	55095.54
700.997	55049.67
701.342	55085.83
701.688	54928.09
702.033	54872.95
702.379	54792.73
702.724	54821.43
703.069	54872.72
703.415	54492.62
703.76	54549.34
704.105	54525.39
704.45	54453.3
704.795	54292.63
705.14	54203.14
705.485	54250.59
705.83	54122.01
706.175	54273.64
706.52	54044.27
706.865	53950.71
707.209	53866.65
707.554	53825.52
707.899	53845.18
708.243	53732.19
708.588	53691.51
708.932	53425.3
709.277	53497.39
709.621	53456.94
709.966	53285.42
710.31	53281.13
710.654	52913.45
710.998	53084.07
711.342	52968.37
711.687	52964.07
712.031	52698.54
712.375	52664.19
712.719	52622.61
713.063	52648.6
713.407	52646.34
713.75	52359.12
714.094	52288.84
714.438	52173.36
714.782	52193.92
715.125	51965.46
715.469	52061.95
715.812	51859.02
716.156	51712.58
716.499	51610.21
716.843	51673.71
717.186	51541.96
717.53	51624
717.873	51546.71
718.216	51379.93
718.559	51225.36
718.902	51024.01
719.246	51212.93
719.589	50952.6
719.932	50854.98
720.275	50908.08
720.617	50748.99
720.96	50687.52
721.303	50706.28
721.646	50631.71
721.989	50512.16
722.331	50579.96
722.674	50355.33
723.016	50414.54
723.359	50304.48
723.701	50309.23
724.044	50145.62
724.386	50069.01
724.729	50305.16
725.071	50024.49
725.413	50104.26
725.755	50072.85
726.097	49853.87
726.439	49787.66
726.782	49701.79
727.124	49972.06
727.465	49631.51
727.807	49751.05
728.149	49721.67
728.491	49522.81
728.833	49655.69
729.175	49449.59
729.516	49494.11
729.858	49385.41
730.199	49317.16
730.541	49248.69
730.882	49179.31
731.224	49296.15
731.565	48922.82
731.906	49030.39
732.248	49041.24
732.589	48886.67
732.93	48582.95
733.271	48739.33
733.612	48611.65
733.953	48716.05
734.294	48399.9
734.635	48362.61
734.976	48447.58
735.317	48146.35
735.658	48265.67
735.999	48034.49
736.339	48037.42
736.68	48084.43
737.021	47846.02
737.361	47698.45
737.702	47928.05
738.042	47738.22
738.383	47567.38
738.723	47559.47
739.063	47370.77
739.404	47243.09
739.744	47128.97
740.084	47071.57
740.424	46988.41
740.764	46837
741.104	47070.9
741.444	46731.47
741.784	46576.67
742.124	46681.98
742.464	46581.64
742.804	46607.86
743.143	46430.91
743.483	46309.56
743.823	46028.89
744.162	46060.07
744.502	46134.65
744.841	46030.7
745.181	46158.6
745.52	45744.38
745.86	45924.94
746.199	45870.93
746.538	45681.33
746.877	45713.64
747.216	45691.95
747.556	45401.56
747.895	45569.92
748.234	45357.27
748.573	45404.5
748.911	45251.28
749.25	45248.34
749.589	44981.46
749.928	45201.57
750.267	45251.51
750.605	45136.03
750.944	44842.03
751.283	44815.36
751.621	44763.16
751.96	44633.22
752.298	44668.92
