Data from aluminium_surface_pro_back_FLMS001491_00083.txt Node
Date: Wed Feb 08 15:34:39 GMT 2017
User: dcchb
Spectrometer: FLMS00149
Trigger mode: 0
Integration Time (sec): 2.000000E-2
Scans to average: 10
Electric dark correction enabled: true
Nonlinearity correction enabled: false
Boxcar width: 0
XAxis mode: Wavelengths
Number of Pixels in Spectrum: 2048
>>>>>Begin Spectral Data<<<<<
341.393	-19.25
341.776	-19.25
342.16	-19.25
342.543	-58.35
342.927	-58.12
343.31	-71.45
343.693	-70.77
344.077	-56.76
344.46	-61.28
344.843	-51.79
345.226	-25.13
345.61	-20.15
345.993	-17.67
346.376	-14.73
346.759	5.61
347.142	34.76
347.525	32.95
347.908	54.87
348.291	73.4
348.674	72.72
349.057	115.43
349.44	111.37
349.823	151.82
350.206	169.44
350.588	223.45
350.971	248.09
351.354	261.42
351.737	254.87
352.119	260.74
352.502	279.5
352.884	287.41
353.267	317.46
353.65	313.4
354.032	313.4
354.414	349.78
354.797	359.04
355.179	337.35
355.562	359.5
355.944	346.16
356.326	381.19
356.709	372.38
357.091	360.85
357.473	372.15
357.855	360.85
358.238	389.78
358.62	384.58
359.002	383.9
359.384	364.02
359.766	394.07
360.148	366.5
360.53	372.15
360.912	359.04
361.294	379.38
361.676	364.24
362.057	370.8
362.439	379.16
362.821	375.09
363.203	370.34
363.584	371.25
363.966	351.13
364.348	361.98
364.729	360.4
365.111	384.58
365.493	355.65
365.874	353.17
366.256	340.74
366.637	364.02
367.019	375.54
367.4	383.9
367.781	360.85
368.163	368.54
368.544	375.54
368.925	378.03
369.306	367.86
369.688	385.03
370.069	374.19
370.45	374.86
370.831	375.54
371.212	394.75
371.593	387.97
371.974	357.46
372.355	395.65
372.736	407.18
373.117	388.87
373.498	391.13
373.879	391.13
374.26	398.37
374.641	387.07
375.021	391.36
375.402	388.65
375.783	397.69
376.163	422.77
376.544	423.9
376.925	412.15
377.305	431.36
377.686	422.55
378.066	418.7
378.447	439.72
378.827	441.53
379.208	427.74
379.588	435.2
379.968	431.81
380.349	436.33
380.729	439.04
381.109	439.27
381.489	457.8
381.87	453.96
382.25	470
382.63	450.79
383.01	438.14
383.39	460.96
383.77	483.11
384.15	475.88
384.53	479.49
384.91	478.36
385.29	489.66
385.67	496.89
386.049	494.18
386.429	513.39
386.809	504.35
387.189	519.49
387.568	520.4
387.948	532.15
388.328	551.36
388.707	539.38
389.087	554.07
389.466	552.71
389.846	554.97
390.225	543.45
390.605	563.78
390.984	580.28
391.363	581.86
391.743	582.77
392.122	578.02
392.501	611.02
392.881	602.65
393.26	628.19
393.639	628.64
394.018	631.81
394.397	636.55
394.776	651.24
395.155	633.61
395.534	674.52
395.913	656.21
396.292	667.06
396.671	677.45
397.05	666.83
397.429	665.7
397.808	678.58
398.186	695.08
398.565	700.96
398.944	710
399.323	718.81
399.701	739.15
400.08	730.11
400.458	763.1
400.837	752.03
401.215	768.07
401.594	748.64
401.972	769.43
402.351	793.61
402.729	803.1
403.107	806.04
403.486	831.35
403.864	811.46
404.242	853.49
404.62	838.58
404.999	861.86
405.377	858.69
405.755	862.53
406.133	891.23
406.511	875.87
406.889	934.85
407.267	930.55
407.645	927.84
408.023	946.83
408.401	959.48
408.779	961.06
409.156	974.4
409.534	997.22
409.912	1011.23
410.29	1018.24
410.667	1025.02
411.045	1051.68
411.422	1069.53
411.8	1079.7
412.178	1100.04
412.555	1153.6
412.933	1141.4
413.31	1142.98
413.687	1162.41
414.065	1174.39
414.442	1166.71
414.819	1200.6
415.197	1186.59
415.574	1230.89
415.951	1215.07
416.328	1269.98
416.705	1268.85
417.082	1245.57
417.46	1287.38
417.837	1306.59
418.214	1293.26
418.591	1309.08
418.967	1334.61
419.344	1343.2
419.721	1359.47
420.098	1363.31
420.475	1382.75
420.852	1432.91
421.228	1437.21
421.605	1453.25
421.982	1433.14
422.358	1474.95
422.735	1458
423.111	1475.63
423.488	1540.03
423.864	1532.35
424.241	1573.48
424.617	1575.06
424.994	1596.53
425.37	1612.57
425.746	1625.23
426.123	1657.32
426.499	1663.19
426.875	1679.69
427.251	1685.56
427.627	1717.43
428.003	1755.84
428.379	1760.82
428.756	1793.81
429.132	1795.62
429.507	1845.33
429.883	1847.82
430.259	1888.27
430.635	1883.3
431.011	1937.99
431.387	1963.97
431.763	1995.16
432.138	1997.65
432.514	2043.29
432.89	2047.36
433.265	2090.52
433.641	2137.75
434.016	2149.28
434.392	2195.61
434.767	2209.84
435.143	2200.13
435.518	2253.46
435.894	2287.13
436.269	2302.27
436.644	2312.21
437.02	2371.19
437.395	2361.7
437.77	2417.3
438.145	2442.38
438.52	2473.34
438.895	2512.66
439.271	2469.05
439.646	2547.69
440.021	2591.53
440.395	2559.21
440.77	2556.27
441.145	2620.91
441.52	2671.53
441.895	2702.49
442.27	2708.59
442.645	2700
443.019	2736.61
443.394	2727.57
443.769	2792.43
444.143	2796.04
444.518	2815.02
444.892	2816.83
445.267	2829.04
445.641	2910.16
446.016	2892.08
446.39	2942.71
446.764	2933.89
447.139	2960.11
447.513	3020.22
447.887	2975.7
448.262	3025.87
448.636	3050.27
449.01	3065.87
449.384	3099.31
449.758	3134.34
450.132	3167.78
450.506	3192.42
450.88	3215.01
451.254	3208.91
451.628	3264.28
452.002	3293.43
452.376	3367.55
452.75	3370.72
453.123	3391.73
453.497	3485.74
453.871	3493.65
454.244	3556.93
454.618	3537.04
454.992	3617.49
455.365	3660.88
455.739	3763.93
456.112	3782.01
456.486	3782.91
456.859	3817.26
457.232	3905.39
457.606	3882.79
457.979	3974.32
458.352	4058.61
458.725	4129.79
459.099	4161.66
459.472	4204.82
459.845	4236.46
460.218	4264.25
460.591	4338.15
460.964	4379.5
461.337	4452.27
461.71	4497.47
462.083	4575.43
462.456	4602.77
462.829	4628.54
463.201	4724.13
463.574	4690.68
463.947	4847.06
464.32	4905.82
464.692	4962.31
465.065	5008.87
465.438	5064.01
465.81	5185.13
466.183	5170.9
466.555	5340.61
466.928	5319.14
467.3	5370.66
467.672	5466.93
468.045	5590.55
468.417	5618.57
468.789	5664.67
469.161	5734.95
469.534	5860.37
469.906	5979.46
470.278	5988.05
470.65	6071.89
471.022	6166.35
471.394	6281.6
471.766	6365.89
472.138	6501.48
472.51	6566.34
472.882	6730.4
473.253	6748.03
473.625	6831.19
473.997	7014.69
474.369	7047.46
474.74	7169.71
475.112	7245.87
475.484	7374.45
475.855	7506.65
476.227	7589.36
476.598	7874.55
476.97	7891.73
477.341	8086.52
477.713	8251.27
478.084	8335.56
478.455	8571.71
478.827	8575.33
479.198	8799.73
479.569	8911.36
479.94	9124.69
480.311	9220.05
480.682	9359.03
481.053	9634.96
481.424	9757.44
481.795	9858.91
482.166	10089.41
482.537	10231.1
482.908	10397.2
483.279	10466.58
483.65	10662.28
484.021	10927.58
484.391	11095.49
484.762	11202.37
485.133	11203.5
485.503	11488.24
485.874	11662.93
486.244	11806.88
486.615	12091.39
486.985	12128.23
487.356	12479.4
487.726	12502.23
488.097	12868.77
488.467	12938.15
488.837	13097.47
489.207	13292.49
489.578	13494.97
489.948	13630.11
490.318	13775.87
490.688	13914.85
491.058	14076.2
491.428	14295.63
491.798	14469.41
492.168	14734.94
492.538	14828.95
492.908	15012.22
493.278	15221.25
493.648	15209.73
494.017	15402.26
494.387	15521.58
494.757	15657.85
495.126	15916.83
495.496	15970.39
495.866	16075.69
496.235	16263.48
496.605	16367.21
496.974	16486.08
497.344	16725.39
497.713	16736.01
498.082	16882.23
498.452	17053.97
498.821	17240.86
499.19	17203.35
499.559	17465.04
499.928	17576.67
500.298	17701.64
500.667	17920.16
501.036	17875.42
501.405	18161.97
501.774	18164
502.143	18309.76
502.512	18445.57
502.88	18610.09
503.249	18698.68
503.618	18780.25
503.987	18963.07
504.356	19079.91
504.724	19218.21
505.093	19271.54
505.462	19422.05
505.83	19523.74
506.199	19719.67
506.567	19963.05
506.936	19980.22
507.304	20230.39
507.672	20314.9
508.041	20469.25
508.409	20539.53
508.777	20686.65
509.145	20876.92
509.514	20956.24
509.882	21180.87
510.25	21335.67
510.618	21379.73
510.986	21534.08
511.354	21760.74
511.722	21966.84
512.09	22180.84
512.458	22160.73
512.826	22460.61
513.193	22581.06
513.561	22855.63
513.929	22845.68
514.297	23137.43
514.664	23364.99
515.032	23421.04
515.4	23635.27
515.767	23715.94
516.135	23870.74
516.502	23771.76
516.869	24247.91
517.237	24387.34
517.604	24357.96
517.972	24732.87
518.339	24974.44
518.706	24908.46
519.073	25195.68
519.44	25318.61
519.808	25527.65
520.175	25639.74
520.542	25936.22
520.909	26114.07
521.276	26227.52
521.643	26471.13
522.009	26642.65
522.376	27044.44
522.743	26993.82
523.11	27433.13
523.477	27669.29
523.843	27782.73
524.21	28018.43
524.577	28303.62
524.943	28455.48
525.31	28592.43
525.676	28969.82
526.043	29182.69
526.409	29336.81
526.776	29647.31
527.142	29789.68
527.508	30048.43
527.874	30262.89
528.241	30351.7
528.607	30498.59
528.973	30779.71
529.339	30838.47
529.705	31217.22
530.071	31418.34
530.437	31506.93
530.803	31747.37
531.169	31917.99
531.535	32044.76
531.901	32090.41
532.267	32296.28
532.632	32540.12
532.998	32754.8
533.364	32929.94
533.73	33002.71
534.095	33240.44
534.461	33349.36
534.826	33657.6
535.192	33639.98
535.557	34032.06
535.923	33950.03
536.288	34137.37
536.653	34400.64
537.019	34441.09
537.384	34563.79
537.749	34662.32
538.114	34754.52
538.479	34733.73
538.845	35080.84
539.21	35000.17
539.575	35239.03
539.94	35291.91
540.305	35415.3
540.67	35452.81
541.034	35762.41
541.399	35781.39
541.764	35878.79
542.129	36107.93
542.494	36148.84
542.858	36289.4
543.223	36506.34
543.587	36606
543.952	36442.62
544.316	36772.32
544.681	36900.23
545.045	36968.48
545.41	37182.71
545.774	37241.69
546.138	37391.52
546.503	37606.88
546.867	37595.58
547.231	37846.65
547.595	37908.79
547.959	38120.76
548.324	38129.58
548.688	38322.34
549.052	38565.5
549.416	38571.37
549.779	38533.63
550.143	38803.01
550.507	38945.6
550.871	39117.57
551.235	39165.93
551.599	39268.08
551.962	39351.92
552.326	39348.53
552.689	39825.13
553.053	39636.88
553.417	39813.37
553.78	40139.47
554.143	40031.22
554.507	40241.16
554.87	40448.39
555.234	40790.98
555.597	40625.1
555.96	40837.98
556.323	41070.74
556.686	41026.45
557.05	41418.76
557.413	41547.34
557.776	41486.78
558.139	41879.08
558.502	41880.21
558.865	42025.75
559.228	42352.97
559.59	42441.33
559.953	42594.09
560.316	43075.21
560.679	43160.86
561.041	43370.57
561.404	43534.18
561.767	43889.43
562.129	43695.08
562.492	44196.76
562.854	44029.99
563.217	44326.25
563.579	44434.04
563.941	44652.57
564.304	44829.74
564.666	45144.76
565.028	45327.81
565.39	45573.9
565.753	45690.06
566.115	45970.27
566.477	45957.17
566.839	46217.5
567.201	46486.87
567.563	46501.33
567.925	46898.61
568.287	46710.37
568.648	46942.68
569.01	47127.53
569.372	47340.63
569.734	47483.68
570.095	47607.52
570.457	47861.52
570.819	47919.83
571.18	48049.77
571.542	48261.51
571.903	48315.98
572.265	48451.34
572.626	48625.57
572.987	48710.77
573.349	48833.48
573.71	49072.11
574.071	49194.14
574.432	49216.06
574.794	49447.92
575.155	49558.2
575.516	49426.23
575.877	49661.25
576.238	49680.91
576.599	49914.58
576.96	49949.38
577.32	49934.46
577.681	50110.5
578.042	50213.55
578.403	50302.82
578.763	50270.95
579.124	50326.77
579.485	50486.99
579.845	50740.32
580.206	50602.02
580.566	50554.56
580.927	50660.77
581.287	50746.19
581.648	50781.67
582.008	50837.04
582.368	50812.18
582.728	50912.97
583.089	50864.61
583.449	50881.56
583.809	50938.05
584.169	51019.63
584.529	51090.59
584.889	51335.56
585.249	51066.86
585.609	51097.82
585.969	51292.62
586.329	51204.71
586.688	51207.42
587.048	51115
587.408	51230.25
587.768	51219.4
588.127	51142.79
588.487	51157.93
588.846	51407.19
589.206	51182.57
589.565	51212.62
589.925	51254.43
590.284	51190.7
590.643	51340.08
591.003	51312.28
591.362	51467.53
591.721	51418.27
592.08	51357.48
592.44	51494.2
592.799	51426.4
593.158	51410.58
593.517	51409.91
593.876	51459.62
594.235	51396.35
594.593	51505.5
594.952	51537.81
595.311	51411.94
595.67	51473.86
596.029	51741.87
596.387	51720.86
596.746	51783.91
597.104	51574.42
597.463	51572.61
597.822	51790.46
598.18	51670.24
598.538	51653.97
598.897	51686.96
599.255	51623.91
599.613	52063
599.972	51888.08
600.33	51849.67
600.688	51759.27
601.046	51818.26
601.404	51976.9
601.762	51976.44
602.12	52131.47
602.478	52199.26
602.836	52183.22
603.194	51938.03
603.552	52118.14
603.91	51982.77
604.268	52111.13
604.625	52075.2
604.983	52345.7
605.341	52025.93
605.698	52176.21
606.056	52327.85
606.413	52222.99
606.771	52406.94
607.128	52383.67
607.485	52320.16
607.843	52307.96
608.2	52450.56
608.557	52474.74
608.914	52399.94
609.272	52567.16
609.629	52699.14
609.986	52745.92
610.343	52577.78
610.7	52849.64
611.057	52837.66
611.414	52713.15
611.771	52798.12
612.127	52937.1
612.484	52939.36
612.841	53015.74
613.198	52977.1
613.554	52877.66
613.911	53217.99
614.267	53148.16
614.624	53098.22
614.98	53112.69
615.337	53200.14
615.693	53251.66
616.05	53184.32
616.406	53367.82
616.762	53197.2
617.118	53177.54
617.475	53271.78
617.831	53311.55
618.187	53346.35
618.543	53295.05
618.899	53482.62
619.255	53420.93
619.611	53409.85
619.967	53551.32
620.323	53559.68
620.678	53570.98
621.034	53475.61
621.39	53439.91
621.746	53439
622.101	53717.87
622.457	53504.31
622.812	53556.29
623.168	53653.91
623.523	53704.31
623.879	53796.51
624.234	53620.02
624.589	53732.33
624.945	53706.34
625.3	53765.32
625.655	53755.15
626.01	53657.76
626.365	53695.27
626.72	53702.05
627.075	53598.77
627.43	53660.24
627.785	53676.96
628.14	53657.53
628.495	53707.47
628.85	53631.54
629.205	53532.79
629.559	53746.12
629.914	53520.58
630.269	53611.2
630.623	53538.89
630.978	53390.19
631.332	53564.2
631.687	53578.66
632.041	53432.45
632.396	53479.46
632.75	53330.53
633.104	53392.45
633.459	53339.57
633.813	53236.98
634.167	53321.72
634.521	53275.84
634.875	53201.72
635.229	53220.71
635.583	53095.06
635.937	52945.23
636.291	52970.32
636.645	52890.32
636.999	52824.56
637.352	52901.62
637.706	52680.61
638.06	52756.54
638.413	52681.96
638.767	52564.45
639.121	52530.33
639.474	52464.79
639.828	52365.59
640.181	52403.1
640.534	52421.86
640.888	52323.55
641.241	52178.02
641.594	52312.48
641.947	52425.25
642.301	52218.92
642.654	52315.64
643.007	52200.17
643.36	52238.81
643.713	52192.48
644.066	52202.2
644.419	52004.24
644.771	51844.7
645.124	51522.9
645.477	51452.84
645.83	51362.67
646.182	51233.19
646.535	51058.28
646.888	51174.21
647.24	50910.26
647.593	51199.29
647.945	51038.16
648.298	50824.61
648.65	50730.6
649.002	50560.21
649.355	50750.94
649.707	50665.52
650.059	50788.23
650.411	51234.54
650.763	51389.57
651.115	51543.24
651.467	51452.16
651.819	51348.21
652.171	51345.73
652.523	51204.04
652.875	51242.23
653.227	51076.81
653.578	51371.26
653.93	51200.19
654.282	51110.25
654.633	50963.82
654.985	51038.62
655.337	51009.01
655.688	51076.81
656.039	51124.49
656.391	50806.98
656.742	50994.32
657.094	50936.25
657.445	50993.65
657.796	50881.78
658.147	50761.33
658.498	50713.88
658.849	50798.17
659.2	50771.96
659.551	50676.59
659.902	50810.15
660.253	50717.95
660.604	50702.81
660.955	50518.18
661.306	50641.56
661.656	50465.75
662.007	50493.77
662.358	50507.1
662.708	50529.7
663.059	50426.43
663.409	50365.41
663.76	50475.69
664.11	50454.9
664.461	50456.03
664.811	50446.54
665.161	50375.81
665.511	50341.91
665.862	50256.94
666.212	50432.3
666.562	50416.03
666.912	50314.57
667.262	50254.91
667.612	50351.18
667.962	50220.56
668.312	50101.01
668.662	50400.67
669.011	50226.66
669.361	50138.3
669.711	50111.41
670.06	50037.51
670.41	50066.89
670.76	49963.62
671.109	50141.46
671.459	49972.43
671.808	49962.71
672.157	50043.84
672.507	49806.56
672.856	49838.87
673.205	49871.19
673.554	50028.02
673.904	49902.6
674.253	50115.02
674.602	49811.08
674.951	49396.17
675.3	49258.32
675.649	49751.19
675.998	49788.48
676.346	49852.21
676.695	49855.37
677.044	49570.63
677.393	49648.6
677.741	49784.41
678.09	49654.92
678.438	49580.8
678.787	49514.36
679.135	49596.17
679.484	49258.55
679.832	49361.6
680.181	49320.47
680.529	49324.99
680.877	49237.31
681.225	49170.87
681.573	49256.74
681.922	49024.21
682.27	48846.36
682.618	48946.47
682.966	48881.38
683.314	48959.57
683.661	48738.79
684.009	48580.15
684.357	48357.1
684.705	48532.24
685.053	48489.08
685.4	48369.53
685.748	48143.78
686.095	48228.07
686.443	48029.43
686.79	48082.99
687.138	48094.29
687.485	48032.37
687.832	47837.57
688.18	47821.3
688.527	47590.34
688.874	47611.14
689.221	47552.38
689.568	47511.02
689.915	47355.32
690.262	47341.99
690.609	47254.53
690.956	47189.68
691.303	47033.3
691.65	46847.99
691.997	46799.86
692.344	46572.07
692.69	46597.6
693.037	46628.34
693.383	46303.82
693.73	46325.07
694.077	46071.97
694.423	46123.04
694.769	45894.12
695.116	45856.83
695.462	45884.17
695.808	45750.39
696.155	45769.38
696.501	45378.88
696.847	45409.61
697.193	45130.97
697.539	45502.72
697.885	44951.54
698.231	44797.88
698.577	44890.53
698.923	44761.04
699.269	44649.18
699.614	44294.84
699.96	44256.87
700.306	44257.1
700.651	44124
700.997	43911.57
701.342	43842.65
701.688	43773.04
702.033	43853.04
702.379	43692.82
702.724	43455.76
703.069	43578.02
703.415	43186.39
703.76	43046.51
704.105	43171.48
704.45	43022.33
704.795	42828.66
705.14	42757.48
705.485	42754.09
705.83	42631.83
706.175	42711.6
706.52	42471.61
706.865	42423.93
707.209	42207.44
707.554	42162.92
707.899	42114.1
708.243	41948.01
708.588	41862.59
708.932	41582.82
709.277	41583.05
709.621	41668.47
709.966	41283.39
710.31	41444.52
710.654	41112.55
710.998	41016.73
711.342	41081.82
711.687	40911.42
712.031	40867.36
712.375	40732.67
712.719	40769.73
713.063	40622.62
713.407	40655.16
713.75	40483.41
714.094	40475.5
714.438	40216.08
714.782	40233.93
715.125	40056.08
715.469	40206.81
715.812	39922.75
716.156	39694.28
716.499	39693.38
716.843	39776.09
717.186	39564.12
717.53	39627.39
717.873	39706.48
718.216	39521.86
718.559	39401.63
718.902	39122.54
719.246	39258.36
719.589	39194.41
719.932	39064.24
720.275	39164.13
720.617	38978.37
720.96	38906.96
721.303	38973.85
721.646	38814.76
721.989	38537.25
722.331	38756.23
722.674	38542.9
723.016	38553.97
723.359	38420.19
723.701	38316.24
724.044	38138.39
724.386	37922.12
724.729	38175
725.071	38081.44
725.413	37940.88
725.755	37874.67
726.097	37775.69
726.439	37628.12
726.782	37540.44
727.124	37780.66
727.465	37506.54
727.807	37487.33
728.149	37409.37
728.491	37466.32
728.833	37344.29
729.175	37133.22
729.516	37119.66
729.858	37151.52
730.199	37152.43
730.541	36935.26
730.882	36923.28
731.224	36889.38
731.565	36668.82
731.906	36791.53
732.248	36736.62
732.589	36389.74
732.93	36464.08
733.271	36452.33
733.612	36352.45
733.953	36320.58
734.294	36297.76
734.635	36147.48
734.976	36109.06
735.317	35991.33
735.658	35961.5
735.999	35981.61
736.339	35743.65
736.68	35956.3
737.021	35741.16
737.361	35655.07
737.702	35937.54
738.042	35742.97
738.383	35531
738.723	35638.12
739.063	35344.57
739.404	35410.55
739.744	35511.11
740.084	35243.32
740.424	35208.98
740.764	35053.27
741.104	35206.72
741.444	34953.61
741.784	34998.59
742.124	34913.84
742.464	34913.16
742.804	34747.74
743.143	34643.57
743.483	34716.11
743.823	34449.45
744.162	34616.45
744.502	34520.41
744.841	34199.96
745.181	34420.75
745.52	34290.36
745.86	34335.33
746.199	34221.88
746.538	34154.54
746.877	34070.02
747.216	34040.42
747.556	33878.16
747.895	33879.52
748.234	33863.7
748.573	33815.34
748.911	33681.11
749.25	33614.22
749.589	33546.87
749.928	33538.06
750.267	33471.85
750.605	33365.63
750.944	33358.4
751.283	33052.42
751.621	33191.63
751.96	33097.62
752.298	33006.32
752.636	33069.6
