Data from aluminium_surface_pro_back_FLMS001491_00035.txt Node
Date: Wed Feb 08 15:33:58 GMT 2017
User: dcchb
Spectrometer: FLMS00149
Trigger mode: 0
Integration Time (sec): 2.000000E-2
Scans to average: 10
Electric dark correction enabled: true
Nonlinearity correction enabled: false
Boxcar width: 0
XAxis mode: Wavelengths
Number of Pixels in Spectrum: 2048
>>>>>Begin Spectral Data<<<<<
341.393	-7.82
341.776	-7.82
342.16	-7.82
342.543	-57.31
342.927	-65.9
343.31	-82.85
343.693	-77.2
344.077	-69.97
344.46	-38.11
344.843	-73.59
345.226	-36.52
345.61	-31.33
345.993	-13.7
346.376	5.96
346.759	7.32
347.142	37.6
347.525	25.17
347.908	61.33
348.291	74.89
348.674	105.62
349.057	105.39
349.44	111.27
349.823	141.78
350.206	188.1
350.588	229.91
350.971	234.65
351.354	258.38
351.737	266.97
352.119	266.07
352.502	275.11
352.884	301.32
353.267	308.55
353.65	313.52
354.032	323.92
354.414	334.99
354.797	346.52
355.179	341.77
355.562	348.55
355.944	361.66
356.326	343.58
356.709	369.79
357.091	358.27
357.473	387.87
357.855	379.28
358.238	354.2
358.62	370.92
359.002	371.6
359.384	391.49
359.766	380.64
360.148	385.39
360.53	382.45
360.912	355.56
361.294	369.11
361.676	391.26
362.057	373.63
362.439	364.14
362.821	378.38
363.203	358.27
363.584	356.69
363.966	392.62
364.348	367.98
364.729	350.13
365.111	350.58
365.493	368.89
365.874	363.24
366.256	353.3
366.637	360.98
367.019	360.75
367.4	360.98
367.781	372.05
368.163	355.33
368.544	347.65
368.925	349.68
369.306	356.69
369.688	354.2
370.069	350.81
370.45	359.62
370.831	375.89
371.212	350.36
371.593	378.15
371.974	361.21
372.355	353.97
372.736	360.3
373.117	392.84
373.498	390.36
373.879	370.47
374.26	377.7
374.641	362.79
375.021	377.93
375.402	382.9
375.783	417.02
376.163	398.72
376.544	415.22
376.925	393.75
377.305	396.91
377.686	411.15
378.066	407.31
378.447	406.4
378.827	418.15
379.208	423.35
379.588	431.94
379.968	415.67
380.349	405.5
380.729	412.5
381.109	429
381.489	440.07
381.87	445.72
382.25	454.76
382.63	459.73
383.01	467.64
383.39	468.32
383.77	433.97
384.15	447.76
384.53	465.84
384.91	457.02
385.29	471.03
385.67	494.31
386.049	488.43
386.429	476.68
386.809	505.16
387.189	502.22
387.568	496.34
387.948	501.31
388.328	518.04
388.707	523.91
389.087	515.55
389.466	505.38
389.846	526.17
390.225	546.06
390.605	554.87
390.984	552.39
391.363	543.8
391.743	558.49
392.122	576.57
392.501	544.03
392.881	580.86
393.26	596.45
393.639	613.85
394.018	595.55
394.397	616.57
394.776	592.16
395.155	625.38
395.534	607.98
395.913	632.38
396.292	643.68
396.671	647.53
397.05	653.4
397.429	672.61
397.808	652.95
398.186	654.76
398.565	669.9
398.944	650.92
399.323	678.26
399.701	675.55
400.08	704.02
400.458	701.08
400.837	689.33
401.215	736.79
401.594	728.43
401.972	742.21
402.351	774.3
402.729	753.51
403.107	756
403.486	746.96
403.864	772.27
404.242	786.28
404.62	780.18
404.999	802.32
405.377	821.31
405.755	825.15
406.133	801.19
406.511	818.37
406.889	860.4
407.267	882.77
407.645	880.29
408.023	894.07
408.401	873.28
408.779	898.14
409.156	925.26
409.534	942.88
409.912	955.99
410.29	957.57
410.667	984.69
411.045	999.38
411.422	1019.72
411.8	998.48
412.178	1021.53
412.555	1055.65
412.933	1020.17
413.31	1077.12
413.687	1060.4
414.065	1092.49
414.442	1107.85
414.819	1106.5
415.197	1102.2
415.574	1142.65
415.951	1167.74
416.328	1161.18
416.705	1170
417.082	1172.03
417.46	1203.89
417.837	1203.89
418.214	1203.89
418.591	1227.62
418.967	1226.27
419.344	1248.19
419.721	1268.3
420.098	1270.56
420.475	1278.47
420.852	1294.97
421.228	1297
421.605	1344
421.982	1339.71
422.358	1336.32
422.735	1378.81
423.111	1377.45
423.488	1417
423.864	1408.18
424.241	1415.64
424.617	1462.19
424.994	1459.03
425.37	1461.29
425.746	1473.49
426.123	1530.21
426.499	1466.26
426.875	1532.7
427.251	1572.02
427.627	1620.61
428.003	1608.86
428.379	1623.77
428.756	1638.69
429.132	1653.15
429.507	1690.44
429.883	1706.03
430.259	1736.76
430.635	1737.21
431.011	1775.63
431.387	1806.14
431.763	1824.22
432.138	1847.49
432.514	1873.03
432.89	1905.8
433.265	1919.13
433.641	1968.62
434.016	1979.47
434.392	2013.59
434.767	2013.37
435.143	2029.64
435.518	2051.1
435.894	2088.17
436.269	2109.86
436.644	2175.39
437.02	2164.77
437.395	2139.46
437.77	2226.47
438.145	2235.73
438.52	2258.33
438.895	2267.14
439.271	2280.93
439.646	2362.96
440.021	2337.2
440.395	2361.83
440.77	2364.54
441.145	2395.5
441.52	2445.67
441.895	2443.86
442.27	2466.69
442.645	2454.03
443.019	2477.08
443.394	2510.08
443.769	2562.96
444.143	2525.67
444.518	2561.83
444.892	2570.19
445.267	2601.15
445.641	2655.83
446.016	2648.38
446.39	2664.65
446.764	2674.59
447.139	2668.72
447.513	2754.14
447.887	2729.96
448.262	2746.91
448.636	2740.58
449.01	2802.27
449.384	2816.06
449.758	2854.25
450.132	2867.81
450.506	2931.99
450.88	2936.96
451.254	2935.6
451.628	2951.65
452.002	3028.48
452.376	3035.49
452.75	3095.14
453.123	3078.2
453.497	3127.46
453.871	3214.69
454.244	3236.38
454.618	3227.12
454.992	3310.73
455.365	3283.39
455.739	3373.33
456.112	3422.82
456.486	3464.17
456.859	3456.49
457.232	3571.74
457.606	3585.75
457.979	3595.92
458.352	3676.15
458.725	3711.17
459.099	3778.74
459.472	3808.12
459.845	3883.82
460.218	3900.1
460.591	3946.87
460.964	4022.58
461.337	4050.83
461.71	4088.56
462.083	4174.44
462.456	4210.82
462.829	4197.49
463.201	4291.05
463.574	4314.32
463.947	4413.98
464.32	4479.29
464.692	4502.34
465.065	4576.01
465.438	4633.18
465.81	4662.79
466.183	4700.53
466.555	4807.42
466.928	4818.49
467.3	4887.64
467.672	4956.56
468.045	5070.01
468.417	5058.93
468.789	5162.21
469.161	5253.05
469.534	5293.5
469.906	5409.21
470.278	5470
470.65	5457.34
471.022	5615.98
471.394	5701.86
471.766	5779.59
472.138	5833.38
472.51	5918.12
472.882	6020.49
473.253	6129.19
473.625	6201.96
473.997	6329.64
474.369	6364.66
474.74	6430.2
475.112	6561.27
475.484	6721.04
475.855	6774.82
476.227	6811.66
476.598	7016.62
476.97	7121.48
477.341	7293.68
477.713	7360.12
478.084	7443.5
478.455	7599.21
478.827	7668.58
479.198	7924.4
479.569	7947.22
479.94	8128.01
480.311	8242.35
480.682	8448.22
481.053	8592.18
481.424	8730.7
481.795	8843.92
482.166	8970.02
482.537	9110.58
482.908	9306.73
483.279	9340.86
483.65	9546.95
484.021	9754.4
484.391	9878.02
484.762	10006.38
485.133	10055.64
485.503	10202.75
485.874	10511.67
486.244	10516.87
486.615	10785.11
486.985	10902.85
487.356	11063.52
487.726	11214.48
488.097	11402.72
488.467	11465.09
488.837	11711.87
489.207	11835.93
489.578	11993.89
489.948	12210.84
490.318	12414
490.688	12376.26
491.058	12513.43
491.428	12745.96
491.798	12840.88
492.168	13092.17
492.538	13228.66
492.908	13322.67
493.278	13493.97
493.648	13530.58
494.017	13712.49
494.387	13821.64
494.757	13950.9
495.126	14155.19
495.496	14277.68
495.866	14268.86
496.235	14475.41
496.605	14569.19
496.974	14722.41
497.344	14879.69
497.713	14984.78
498.082	15119.46
498.452	15273.58
498.821	15312.45
499.19	15430.64
499.559	15604.65
499.928	15600.8
500.298	15794.47
500.667	15891.42
501.036	15868.37
501.405	16092.54
501.774	16078.08
502.143	16395.13
502.512	16350.16
502.88	16552.19
503.249	16633.77
503.618	16808
503.987	16880.09
504.356	17018.39
504.724	17164.61
505.093	17173.87
505.462	17229.91
505.83	17431.94
506.199	17638.49
506.567	17837.36
506.936	17752.16
507.304	18006.39
507.672	18093.17
508.041	18220.4
508.409	18368.19
508.777	18491.8
509.145	18677.79
509.514	18701.06
509.882	18827.84
510.25	19015.63
510.618	19102.18
510.986	19178.11
511.354	19361.16
511.722	19560.02
512.09	19727.02
512.458	19669.4
512.826	19941.03
513.193	20022.38
513.561	20065.32
513.929	20253.56
514.297	20512.31
514.664	20614.01
515.032	20708.24
515.4	20956.6
515.767	21070.49
516.135	21179.87
516.502	21250.15
516.869	21527.43
517.237	21747.54
517.604	21714.32
517.972	21989.11
518.339	22253.51
518.706	22244.02
519.073	22371.7
519.44	22658.92
519.808	22896.88
520.175	22990.67
520.542	23186.59
520.909	23436.53
521.276	23439.02
521.643	23742.51
522.009	23716.07
522.376	24041.71
522.743	24108.15
523.11	24381.14
523.477	24775.25
523.843	24799.21
524.21	25088.69
524.577	25267.22
524.943	25350.15
525.31	25648.9
525.676	25803.93
526.043	25956.01
526.409	26155.33
526.776	26330.01
527.142	26469.9
527.508	26697.91
527.874	26899.26
528.241	27014.06
528.607	27094.97
528.973	27454.96
529.339	27375.86
529.705	27750.54
530.071	27917.09
530.437	28168.84
530.803	28265.33
531.169	28435.95
531.535	28416.29
531.901	28634.59
532.267	28696.28
532.632	28901.47
532.998	29113.67
533.364	29239.99
533.73	29344.85
534.095	29570.83
534.461	29754.78
534.826	29946.64
535.192	30062.8
535.557	30123.59
535.923	30253.3
536.288	30427.08
536.653	30612.61
537.019	30492.39
537.384	30701.2
537.749	30845.38
538.114	30953.4
538.479	31046.5
538.845	31311.13
539.21	31220.28
539.575	31443.33
539.94	31532.59
540.305	31693.94
540.67	31734.84
541.034	31821.39
541.399	31957.89
541.764	32085.34
542.129	32209.41
542.494	32176.19
542.858	32427.25
543.223	32512.68
543.587	32766
543.952	32714.25
544.316	32800.8
544.681	32907.47
545.045	33166.9
545.41	33307.68
545.774	33281.24
546.138	33354.01
546.503	33602.14
546.867	33598.3
547.231	33991.51
547.595	33953.32
547.959	33943.37
548.324	34218.62
548.688	34233.53
549.052	34406.19
549.416	34358.73
549.779	34533.41
550.143	34540.19
550.507	34878.04
550.871	35085.72
551.235	35041.65
551.599	35146.96
551.962	35269.44
552.326	35463.11
552.689	35725.93
553.053	35523.22
553.417	35740.16
553.78	36159.81
554.143	35992.13
554.507	36237.78
554.87	36393.7
555.234	36698.78
555.597	36525.45
555.96	36756.63
556.323	36934.71
556.686	37184.87
557.05	37411.3
557.413	37479.55
557.776	37749.15
558.139	37915.47
558.502	37854.68
558.865	38089.7
559.228	38305.07
559.59	38466.19
559.953	38401.79
560.316	38877.71
560.679	38882
561.041	39152.95
561.404	39394.53
561.767	39631.36
562.129	39511.36
562.492	39891.24
562.854	39829.55
563.217	39858.47
563.579	40117
563.941	40486.93
564.304	40669.98
564.666	40782.52
565.028	41100.02
565.39	41247.81
565.753	41401.93
566.115	41672.66
566.477	41781.36
566.839	41790.62
567.201	42175.02
567.563	42161.46
567.925	42487.56
568.287	42607.55
568.648	42645.07
569.01	42990.82
569.372	43308.32
569.734	43242.11
570.095	43434.2
570.457	43785.37
570.819	43868.76
571.18	43898.82
571.542	44312.14
571.903	44519.59
572.265	44664.22
572.626	44611.34
572.987	44944.44
573.349	45015.4
573.71	45193.02
574.071	45306.24
574.432	45464.65
574.794	45619.45
575.155	45641.37
575.516	45634.37
575.877	45734.7
576.238	46037.97
576.599	46029.83
576.96	46237.51
577.32	46015.6
577.681	46252.65
578.042	46489.48
578.403	46532.65
578.763	46444.06
579.124	46764.73
579.485	46841.34
579.845	46988.45
580.206	46842.24
580.566	47078.39
580.927	46981.67
581.287	47155.68
581.648	47104.61
582.008	47214.21
582.368	47181.9
582.728	47384.6
583.089	47299.18
583.449	47311.84
583.809	47443.13
584.169	47489.01
584.529	47415.11
584.889	47775.1
585.249	47467.31
585.609	47460.31
585.969	47827.98
586.329	47638.38
586.688	47651.71
587.048	47608.55
587.408	47450.36
587.768	47571.72
588.127	47651.26
588.487	47484.94
588.846	47780.75
589.206	47583.47
589.565	47689
589.925	47741.2
590.284	47659.17
590.643	47635.89
591.003	47759.51
591.362	47852.84
591.721	47786.4
592.08	47801.54
592.44	47942.33
592.799	47978.48
593.158	47822.78
593.517	47941.65
593.876	48005.83
594.235	47898.03
594.593	47907.07
594.952	48082.89
595.311	47961.54
595.67	48054.64
596.029	48308.42
596.387	48292.6
596.746	48321.98
597.104	48101.19
597.463	48088.76
597.822	48281.75
598.18	48092.38
598.538	48215.77
598.897	48261.87
599.255	48059.39
599.613	48646.26
599.972	48245.37
600.33	48385.03
600.688	48215.99
601.046	48525.14
601.404	48585.47
601.762	48486.95
602.12	48664.57
602.478	48781.17
602.836	48659.14
603.194	48581.86
603.552	48537.11
603.91	48520.62
604.268	48804.68
604.625	48583.67
604.983	48857.11
605.341	48668.86
605.698	48745.7
606.056	48788.41
606.413	48780.05
606.771	48818.46
607.128	48874.05
607.485	48718.8
607.843	48871.57
608.2	48989.98
608.557	49045.35
608.914	49006.93
609.272	49258.9
609.629	49230.88
609.986	49258.45
610.343	48994.28
610.7	49475.17
611.057	49273.14
611.414	49320.14
611.771	49214.61
612.127	49395.62
612.484	49450.76
612.841	49484.43
613.198	49444.66
613.554	49546.35
613.911	49772.11
614.267	49753.13
614.624	49770.3
614.98	49813.01
615.337	50051.2
615.693	50002.84
616.05	49896.63
616.406	50134.81
616.762	49949.96
617.118	50054.14
617.475	50123.96
617.831	50077.86
618.187	50135.26
618.543	50133
618.899	50355.37
619.255	50183.4
619.611	50232.89
619.967	50391.3
620.323	50442.37
620.678	50276.95
621.034	50226.11
621.39	50313.34
621.746	50249.16
622.101	50538.42
622.457	50194.92
622.812	50359.89
623.168	50319.67
623.523	50293
623.879	50411.64
624.234	50168.03
624.589	50351.08
624.945	50340
625.3	50341.59
625.655	50253.9
626.01	50314.69
626.365	50347.46
626.72	50196.51
627.075	50193.12
627.43	50330.74
627.785	50235.6
628.14	50215.04
628.495	50464.29
628.85	50305.2
629.205	50235.15
629.559	50420
629.914	50205.09
630.269	50307.69
630.623	50180.69
630.978	50163.51
631.332	50273.79
631.687	50230.18
632.041	50223.4
632.396	50117.64
632.75	49941.37
633.104	50042.84
633.459	49864.76
633.813	49845.33
634.167	49761.71
634.521	49674.48
634.875	49806.01
635.229	49706.57
635.583	49612.34
635.937	49533.7
636.291	49522.4
636.645	49545.67
636.999	49419.8
637.352	49431.78
637.706	49342.52
638.06	49452.8
638.413	49366.02
638.767	49122.18
639.121	49242.86
639.474	49061.39
639.828	49033.37
640.181	49003.09
640.534	49012.36
640.888	48881.96
641.241	48791.12
641.594	48774.4
641.947	48820.27
642.301	48648.52
642.654	48660.27
643.007	48537.34
643.36	48575.08
643.713	48426.83
644.066	48549.77
644.419	48359.49
644.771	47972.83
645.124	47684.71
645.477	47561.32
645.83	47375.79
646.182	47312.29
646.535	46975.57
646.888	47172.18
647.24	46932.41
647.593	47038.85
647.945	47036.59
648.298	46752.3
648.65	46766.54
649.002	46708.24
649.355	46821.9
649.707	46699.42
650.059	46873.43
650.411	47303.7
650.763	47318.39
651.115	47683.8
651.467	47496.24
651.819	47484.03
652.171	47306.19
652.523	47342.57
652.875	47377.6
653.227	47074.78
653.578	47506.86
653.93	47280.88
654.282	47130.37
654.633	46829.59
654.985	47162.69
655.337	47049.02
655.688	47147.55
656.039	47046.08
656.391	46733.77
656.742	46931.73
657.094	46863.26
657.445	46952.97
657.796	46839.98
658.147	46827.55
658.498	46720.66
658.849	46779.19
659.2	46771.51
659.551	46745.52
659.902	46753.21
660.253	46734.45
660.604	46777.61
660.955	46522.48
661.306	46564.28
661.656	46550.5
662.007	46661.68
662.358	46579.65
662.708	46505.08
663.059	46479.54
663.409	46184.63
663.76	46460.11
664.11	46416.04
664.461	46539.88
664.811	46548.47
665.161	46436.6
665.511	46339.43
665.862	46435.7
666.212	46503.04
666.562	46462.14
666.912	46450.16
667.262	46374.68
667.612	46397.96
667.962	46357.51
668.312	46150.51
668.662	46403.84
669.011	46285.42
669.361	46116.39
669.711	46136.95
670.06	46066.9
670.41	46038.65
670.76	46083.62
671.109	46139.21
671.459	45991.64
671.808	45907.13
672.157	46093.11
672.507	45792.78
672.856	45889.05
673.205	45858.77
673.554	45971.76
673.904	45783.51
674.253	45975.83
674.602	45920.91
674.951	45269.63
675.3	45068.05
675.649	45744.64
675.998	45563.86
676.346	45715.72
676.695	45843.85
677.044	45349.85
677.393	45490.87
677.741	45524.76
678.09	45442.73
678.438	45285.45
678.787	45499.23
679.135	45266.92
679.484	45115.28
679.832	45280.93
680.181	45042.74
680.529	45260.14
680.877	45166.81
681.225	44902.63
681.573	45141.04
681.922	44651.79
682.27	44728.4
682.618	44733.15
682.966	44687.27
683.314	44585.35
683.661	44481.4
684.009	44344.46
684.357	44325.7
684.705	44104.24
685.053	44129.09
685.4	44107.63
685.748	43962.32
686.095	43879.16
686.443	43753.96
686.79	43655.66
687.138	43531.6
687.485	43623.57
687.832	43390.81
688.18	43499.96
688.527	43217.03
688.874	43212.28
689.221	43279.85
689.568	43170.02
689.915	42914.66
690.262	42927.77
690.609	42887.09
690.956	42819.75
691.303	42731.39
691.65	42535.46
691.997	42549.93
692.344	42345.64
692.69	42261.12
693.037	42156.72
693.383	41993.33
693.73	42070.17
694.077	41846.22
694.423	41840.79
694.769	41827.46
695.116	41672.66
695.462	41602.83
695.808	41498.88
696.155	41559.67
696.501	41152.68
696.847	41177.99
697.193	40911.78
697.539	40982.51
697.885	40738.22
698.231	40703.87
698.577	40579.58
698.923	40446.93
699.269	40375.29
699.614	40012.82
699.96	40075.42
700.306	40093.72
700.651	39857.79
700.997	39789.77
701.342	39535.77
701.688	39641.75
702.033	39517.24
702.379	39338.03
702.724	39151.37
703.069	39291.26
703.415	38948.44
703.76	38894.66
704.105	38918.16
704.45	38729.69
704.795	38377.83
705.14	38371.51
705.485	38494.21
705.83	38313.88
706.175	38261.68
706.52	38215.58
706.865	38107.33
707.209	37889.48
707.554	37779.2
707.899	37895.36
708.243	37628.25
708.588	37597.51
708.932	37391.19
709.277	37345.32
709.621	37530.62
709.966	37071.65
710.31	37353.9
710.654	36998.66
710.998	37069.62
711.342	37054.25
711.687	36937.42
712.031	36713.02
712.375	36697.88
712.719	36733.13
713.063	36604.09
713.407	36698.78
713.75	36370.43
714.094	36338.11
714.438	36242.07
714.782	36150.09
715.125	35976.54
715.469	36182.86
715.812	36027.84
716.156	35756.66
716.499	35845.47
716.843	35828.52
717.186	35526.61
717.53	35686.15
717.873	35594.4
718.216	35633.27
718.559	35410.68
718.902	35044.36
719.246	35252.49
719.589	35072.83
719.932	34979.05
720.275	35010.46
720.617	34939.51
720.96	34871.71
721.303	34890.47
721.646	34949.67
721.989	34717.82
722.331	34767.08
722.674	34694.99
723.016	34610.93
723.359	34477.82
723.701	34418.16
724.044	34171.84
724.386	34108.79
724.729	34305.4
725.071	34128.9
725.413	34039.64
725.755	33987.21
726.097	33727.56
726.439	33676.71
726.782	33629.03
727.124	33853.66
727.465	33515.14
727.807	33630.84
728.149	33407.79
728.491	33303.16
728.833	33465.42
729.175	33354.69
729.516	33212.77
729.858	33167.35
730.199	33161.25
730.541	33009.39
730.882	32987.01
731.224	33108.37
731.565	32753.12
731.906	32894.59
732.248	32830.41
732.589	32768.71
732.93	32667.93
733.271	32566.69
733.612	32679.23
733.953	32534.6
734.294	32443.07
734.635	32348.84
734.976	32377.99
735.317	32367.82
735.658	32174.61
735.999	32226.81
736.339	32131.9
736.68	32206.24
737.021	32125.12
737.361	31879.02
737.702	32097.55
738.042	31900.94
738.383	31749.08
738.723	31881.96
739.063	31678.57
739.404	31822.52
739.744	31628.41
740.084	31479.48
740.424	31595.64
740.764	31458.24
741.104	31587.28
741.444	31354.51
741.784	31271.58
742.124	31358.58
742.464	31141.41
742.804	31168.53
743.143	31103
743.483	31181.64
743.823	30998.82
744.162	30841.99
744.502	31025.03
744.841	30694.87
745.181	30835.43
745.52	30840.63
745.86	30717.47
746.199	30696.45
746.538	30668.88
746.877	30684.93
747.216	30557.7
747.556	30552.05
747.895	30585.27
748.234	30300.3
748.573	30279.06
748.911	30265.05
749.25	30167.2
749.589	30125.17
749.928	30077.03
750.267	29990.93
750.605	30023.7
750.944	29803.82
751.283	29768.34
751.621	29749.36
751.96	29631.85
752.298	29455.58
752.636	29560.44
752.975	29415.58
753.313	29267.34
753.651	29304.17
