Data from aluminium_surface_pro_back_FLMS001491_00017.txt Node
Date: Wed Feb 08 15:33:41 GMT 2017
User: dcchb
Spectrometer: FLMS00149
Trigger mode: 0
Integration Time (sec): 2.000000E-2
Scans to average: 10
Electric dark correction enabled: true
Nonlinearity correction enabled: false
Boxcar width: 0
XAxis mode: Wavelengths
Number of Pixels in Spectrum: 2048
>>>>>Begin Spectral Data<<<<<
341.393	-15.13
341.776	-15.13
342.16	-15.13
342.543	-40.89
342.927	-83.15
343.31	-57.16
343.693	-65.07
344.077	-89.25
344.46	-79.31
344.843	-49.25
345.226	-28.69
345.61	-31.62
345.993	-16.48
346.376	-6.09
346.759	5.66
347.142	44.08
347.525	32.1
347.908	66.68
348.291	68.26
348.674	92.44
349.057	113.68
349.44	153.46
349.823	155.26
350.206	183.74
350.588	207.24
350.971	245.43
351.354	248.14
351.737	282.49
352.119	280.91
352.502	300.8
352.884	310.97
353.267	303.73
353.65	332.21
354.032	318.88
354.414	341.47
354.797	348.93
355.179	347.8
355.562	371.98
355.944	374.92
356.326	368.82
356.709	377.18
357.091	383.51
357.473	371.53
357.855	377.18
358.238	364.75
358.62	382.83
359.002	392.77
359.384	377.63
359.766	389.83
360.148	377.18
360.53	388.93
360.912	378.99
361.294	378.31
361.676	356.84
362.057	377.18
362.439	398.87
362.821	382.15
363.203	346.67
363.584	359.78
363.966	367.24
364.348	377.18
364.729	388.03
365.111	364.52
365.493	356.16
365.874	370.63
366.256	366.56
366.637	376.73
367.019	392.32
367.4	384.86
367.781	360.46
368.163	356.84
368.544	360.46
368.925	371.98
369.306	383.73
369.688	387.12
370.069	366.11
370.45	380.57
370.831	389.38
371.212	399.1
371.593	378.99
371.974	399.78
372.355	382.83
372.736	374.47
373.117	378.99
373.498	369.27
373.879	385.77
374.26	402.04
374.641	383.51
375.021	385.31
375.402	388.7
375.783	410.17
376.163	417.63
376.544	420.57
376.925	416.73
377.305	421.92
377.686	417.86
378.066	426.22
378.447	445.65
378.827	441.58
379.208	445.65
379.588	426.22
379.968	429.61
380.349	411.3
380.729	465.54
381.109	446.1
381.489	454.69
381.87	468.7
382.25	448.36
382.63	452.88
383.01	471.19
383.39	460.12
383.77	470.74
384.15	474.13
384.53	452.66
384.91	485.65
385.29	504.63
385.67	495.59
386.049	515.25
386.429	512.99
386.809	493.33
387.189	513.22
387.568	508.48
387.948	507.57
388.328	521.36
388.707	526.55
389.087	531.98
389.466	575.14
389.846	545.08
390.225	566.33
390.605	556.84
390.984	541.47
391.363	561.13
391.743	552.77
392.122	577.4
392.501	578.76
392.881	592.31
393.26	599.77
393.639	604.07
394.018	602.94
394.397	597.29
394.776	642.48
395.155	625.08
395.534	631.18
395.913	646.32
396.292	677.74
396.671	662.6
397.05	663.95
397.429	688.81
397.808	682.93
398.186	693.33
398.565	684.74
398.944	701.69
399.323	691.07
399.701	711.18
400.08	730.39
400.458	743.27
400.837	735.81
401.215	725.19
401.594	724.29
401.972	777.39
402.351	767.68
402.729	767.68
403.107	804.96
403.486	789.15
403.864	797.28
404.242	813.78
404.62	825.53
404.999	830.05
405.377	844.29
405.755	832.76
406.133	858.3
406.511	889.93
406.889	897.62
407.267	912.76
407.645	892.19
408.023	923.61
408.401	929.48
408.779	947.11
409.156	959.76
409.534	920.44
409.912	987.11
410.29	992.08
410.667	987.11
411.045	1049.93
411.422	1016.48
411.8	1058.29
412.178	1067.33
412.555	1089.93
412.933	1110.72
413.31	1098.06
413.687	1091.74
414.065	1115.47
414.442	1159.53
414.819	1129.48
415.197	1162.7
415.574	1172.19
415.951	1211.28
416.328	1201.11
416.705	1197.27
417.082	1212.41
417.46	1245.63
417.837	1260.55
418.214	1266.65
418.591	1255.35
418.967	1298.29
419.344	1279.08
419.721	1307.1
420.098	1319.98
420.475	1345.74
420.852	1350.26
421.228	1366.31
421.605	1366.76
421.982	1393.42
422.358	1397.72
422.735	1424.16
423.111	1446.98
423.488	1464.16
423.864	1483.36
424.241	1507.77
424.617	1509.58
424.994	1525.17
425.37	1516.13
425.746	1519.3
426.123	1561.55
426.499	1558.39
426.875	1583.93
427.251	1624.6
427.627	1663.47
428.003	1639.52
428.379	1687.65
428.756	1694.21
429.132	1725.84
429.507	1753.87
429.883	1766.07
430.259	1804.03
430.635	1813.98
431.011	1823.24
431.387	1900.3
431.763	1895.11
432.138	1956.12
432.514	1945.05
432.89	1938.27
433.265	2036.8
433.641	2018.27
434.016	2053.52
434.392	2081.54
434.767	2105.04
435.143	2095.33
435.518	2158.38
435.894	2154.76
436.269	2189.34
436.644	2234.76
437.02	2239.5
437.395	2261.65
437.77	2281.76
438.145	2352.49
438.52	2320.86
438.895	2390.01
439.271	2385.26
439.646	2457.8
440.021	2444.47
440.395	2460.06
440.77	2432.04
441.145	2467.97
441.52	2519.95
441.895	2537.8
442.27	2539.61
442.645	2557.24
443.019	2599.72
443.394	2621.64
443.769	2668.87
444.143	2587.97
444.518	2691.02
444.892	2680.17
445.267	2698.02
445.641	2718.59
446.016	2753.84
446.39	2782.77
446.764	2800.39
447.139	2802.43
447.513	2810.56
447.887	2830.22
448.262	2857.11
448.636	2884.68
449.01	2940.5
449.384	2928.75
449.758	2965.13
450.132	2974.4
450.506	3004
450.88	3008.07
451.254	3027.28
451.628	3080.39
452.002	3112.25
452.376	3189.53
452.75	3173.49
453.123	3220.72
453.497	3260.72
453.871	3303.88
454.244	3380.26
454.618	3370.55
454.992	3411.45
455.365	3371.45
455.739	3510.2
456.112	3589.07
456.486	3606.25
456.859	3650.54
457.232	3672.23
457.606	3697.32
457.979	3704.32
458.352	3798.33
458.725	3847.37
459.099	3884.21
459.472	4000.81
459.845	4015.73
460.218	4076.52
460.591	4062.28
460.964	4140.47
461.337	4199.23
461.71	4318.32
462.083	4347.7
462.456	4340.24
462.829	4356.06
463.201	4473.12
463.574	4464.3
463.947	4540.46
464.32	4642.6
464.692	4681.25
465.065	4740.45
465.438	4776.84
465.81	4886.44
466.183	4958.98
466.555	5076.94
466.928	5055.7
467.3	5062.03
467.672	5131.63
468.045	5285.07
468.417	5297.73
468.789	5305.64
469.161	5438.52
469.534	5481.68
469.906	5594.67
470.278	5675.12
470.65	5704.27
471.022	5815.68
471.394	5977.03
471.766	6005.51
472.138	6085.28
472.51	6182
472.882	6214.99
473.253	6315.55
473.625	6430.58
473.997	6597.35
474.369	6592.16
474.74	6662.44
475.112	6847.07
475.484	6945.37
475.855	7065.14
476.227	7160.28
476.598	7312.14
476.97	7381.51
477.341	7535.86
477.713	7682.07
478.084	7727.95
478.455	7911.44
478.827	8010.88
479.198	8263.75
479.569	8293.58
479.94	8500.81
480.311	8606.12
480.682	8802.72
481.053	8980.79
481.424	9112.32
481.795	9222.37
482.166	9367.9
482.537	9525.64
482.908	9702.36
483.279	9810.15
483.65	9981.9
484.021	10206.75
484.391	10243.36
484.762	10465.5
485.133	10476.57
485.503	10623.92
485.874	10912.5
486.244	10993.85
486.615	11185.26
486.985	11328.76
487.356	11601.29
487.726	11718.8
488.097	11869.98
488.467	11926.71
488.837	12228.17
489.207	12354.94
489.578	12443.53
489.948	12699.57
490.318	12806.23
490.688	12954.02
491.058	13056.39
491.428	13292.09
491.798	13451.64
492.168	13704.51
492.538	13753.55
492.908	13931.85
493.278	14151.96
493.648	14169.13
494.017	14326.87
494.387	14478.05
494.757	14609.8
495.126	14773.86
495.496	14817.25
495.866	14947.19
496.235	15137.92
496.605	15223.12
496.974	15402.55
497.344	15530.45
497.713	15663.11
498.082	15784.91
498.452	15964.11
498.821	16040.95
499.19	16089.31
499.559	16259.93
499.928	16458.34
500.298	16531.1
500.667	16705.56
501.036	16623.53
501.405	16907.59
501.774	16978.78
502.143	17073.92
502.512	17215.15
502.88	17334.25
503.249	17372.21
503.618	17574.02
503.987	17610.17
504.356	17708.25
504.724	17841.8
505.093	17821.24
505.462	18106.88
505.83	18241.12
506.199	18340.77
506.567	18613.99
506.936	18696.92
507.304	18800.2
507.672	18937.14
508.041	18858.5
508.409	19130.13
508.777	19337.36
509.145	19519.73
509.514	19464.81
509.882	19636.33
510.25	19729.89
510.618	19981.64
510.986	20044.46
511.354	20245.81
511.722	20399.48
512.09	20659.58
512.458	20574.61
512.826	20839.92
513.193	20997.43
513.561	21054.83
513.929	21247.59
514.297	21474.93
514.664	21632.89
515.032	21658.43
515.4	21889.38
515.767	22016.61
516.135	22159.66
516.502	22102.48
516.869	22594.9
517.237	22624.05
517.604	22657.27
517.972	22936.13
518.339	23059.75
518.706	23131.38
519.073	23359.85
519.44	23448.21
519.808	23863.57
520.175	23749.45
520.542	24156.44
520.909	24280.73
521.276	24304.69
521.643	24793.26
522.009	24791.68
522.376	24964.1
522.743	25118.45
523.11	25311.44
523.477	25745.33
523.843	25879.56
524.21	26088.37
524.577	26404.07
524.943	26475.02
525.31	26498.98
525.676	26878.63
526.043	27103.03
526.409	27277.49
526.776	27628.67
527.142	27677.25
527.508	27847.19
527.874	28098.71
528.241	28197.24
528.607	28430.9
528.973	28708.86
529.339	28639.94
529.705	28893.27
530.071	29275.85
530.437	29378.68
530.803	29556.98
531.169	29766.46
531.535	29796.07
531.901	29902.05
532.267	30076.96
532.632	30236.73
532.998	30289.16
533.364	30614.12
533.73	30695.25
534.095	30862.25
534.461	30970.27
534.826	31212.53
535.192	31297.5
535.557	31556.02
535.923	31660.2
536.288	31655.45
536.653	31876.46
537.019	31934.09
537.384	31977.25
537.749	32330.46
538.114	32317.58
538.479	32387.64
538.845	32666.5
539.21	32581.08
539.575	32684.58
539.94	32672.38
540.305	33055.42
540.67	32973.61
541.034	33042.99
541.399	33287.05
541.764	33301.06
542.129	33530.43
542.494	33605.46
542.858	33698.79
543.223	33820.59
543.587	34021.27
543.952	34000.25
544.316	34077.31
544.681	34079.12
545.045	34429.84
545.41	34526.11
545.774	34665.54
546.138	34698.54
546.503	34840.23
546.867	34848.14
547.231	35148.02
547.595	35298.07
547.959	35297.62
548.324	35355.24
548.688	35350.72
549.052	35589.13
549.416	35685.18
549.779	35832.52
550.143	35988.9
550.507	36290.81
550.871	36405.38
551.235	36366.52
551.599	36599.73
551.962	36745.71
552.326	36843.79
552.689	37038.14
553.053	36983.22
553.417	37049.89
553.78	37486.26
554.143	37465.02
554.507	37549.76
554.87	37693.49
555.234	38142.06
555.597	37889.64
555.96	38268.16
556.323	38244.66
556.686	38419.12
557.05	38627.7
557.413	38716.28
557.776	38837.41
558.139	39082.15
558.502	39122.15
558.865	39384.06
559.228	39547.22
559.59	39666.99
559.953	39721.91
560.316	40304.94
560.679	40204.61
561.041	40425.39
561.404	40709.45
561.767	41019.73
562.129	40886.62
562.492	41380.62
562.854	41412.48
563.217	41462.43
563.579	41664
563.941	41897.9
564.304	42009.31
564.666	42271.22
565.028	42301.05
565.39	42513.47
565.753	42553.7
566.115	42713.24
566.477	42929.51
566.839	43081.14
567.201	43444.75
567.563	43416.95
567.925	43783.04
568.287	43780.78
568.648	43905.07
569.01	44237.72
569.372	44381.67
569.734	44415.34
570.095	44746.63
570.457	44942.11
570.819	45053.29
571.18	45164.48
571.542	45319.05
571.903	45436.56
572.265	45601.07
572.626	45749.55
572.987	45973.49
573.349	45957.45
573.71	46278.12
574.071	46326.03
574.432	46375.52
574.794	46770.31
575.155	46770.54
575.516	46546.36
575.877	46877.43
576.238	46869.52
576.599	47041.49
576.96	47172.11
577.32	47340.92
577.681	47429.28
578.042	47469.95
578.403	47541.36
578.763	47509.5
579.124	47770.74
579.485	47811.19
579.845	48020.45
580.206	47908.36
580.566	47915.82
580.927	48119.88
581.287	48168.92
581.648	48124.62
582.008	48381.57
582.368	48284.85
582.728	48448.46
583.089	48296.82
583.449	48328.69
583.809	48349.93
584.169	48565.52
584.529	48409.81
584.889	48769.81
585.249	48520.77
585.609	48371.17
585.969	48650.49
586.329	48515.12
586.688	48553.99
587.048	48453.2
587.408	48477.38
587.768	48349.25
588.127	48384.96
588.487	48426.09
588.846	48791.5
589.206	48529.13
589.565	48578.17
589.925	48748.11
590.284	48580.21
590.643	48680.09
591.003	48705.4
591.362	48867.43
591.721	48753.53
592.08	48705.85
592.44	48785.4
592.799	48744.04
593.158	48826.75
593.517	48761.9
593.876	48794.21
594.235	48708.11
594.593	48695.91
594.952	48885.28
595.311	48723.93
595.67	48725.51
596.029	49049.12
596.387	49052.96
596.746	49057.03
597.104	48926.64
597.463	49005.96
597.822	49168.44
598.18	49007.99
598.538	48915.56
598.897	49258.61
599.255	48910.14
599.613	49446.62
599.972	49266.97
600.33	49332.73
600.688	49235.78
601.046	49400.07
601.404	49401.65
601.762	49564.81
602.12	49659.5
602.478	49643
602.836	49576.34
603.194	49501.54
603.552	49581.31
603.91	49566.85
604.268	49812.94
604.625	49664.02
604.983	49853.17
605.341	49647.52
605.698	49990.34
606.056	50025.37
606.413	49938.14
606.771	49961.41
607.128	50141.75
607.485	50033.95
607.843	49878.25
608.2	50129.32
608.557	50265.13
608.914	50108.3
609.272	50367.28
609.629	50362.98
609.986	50466.03
610.343	50218.35
610.7	50602.75
611.057	50466.26
611.414	50456.31
611.771	50427.61
612.127	50526.6
612.484	50548.74
612.841	50655.63
613.198	50530.21
613.554	50534.73
613.911	50764.33
614.267	50637.78
614.624	50751.67
614.98	50759.13
615.337	51080.25
615.693	50825.8
616.05	50833.71
616.406	51019.01
616.762	50946.92
617.118	50997.32
617.475	50923.19
617.831	50935.85
618.187	50946.7
618.543	51074.6
618.899	51267.14
619.255	51221.94
619.611	51249.06
619.967	51300.59
620.323	51330.42
620.678	51242.28
621.034	51170.65
621.39	51240.25
621.746	51122.96
622.101	51612.22
622.457	51291.77
622.812	51337.65
623.168	51380.36
623.523	51360.47
623.879	51465.78
624.234	51267.59
624.589	51429.17
624.945	51447.25
625.3	51483.86
625.655	51299.68
626.01	51419.23
626.365	51436.85
626.72	51432.33
627.075	51437.76
627.43	51506.91
627.785	51289.51
628.14	51380.81
628.495	51378.55
628.85	51246.8
629.205	51159.12
629.559	51378.1
629.914	51223.98
630.269	51307.14
630.623	51195.5
630.978	51090.65
631.332	51246.12
631.687	51328.16
632.041	51190.76
632.396	51148.05
632.75	51130.42
633.104	51150.08
633.459	51043.87
633.813	51003.42
634.167	50924.78
634.521	50813.37
634.875	50975.85
635.229	50886.81
635.583	50747.15
635.937	50685.69
636.291	50709.64
636.645	50798.45
636.999	50618.12
637.352	50732.24
637.706	50546.71
638.06	50604.56
638.413	50467.39
638.767	50364.79
639.121	50432.13
639.474	50212.25
639.828	50150.79
640.181	50298.8
640.534	50255.64
640.888	50130.67
641.241	50069.43
641.594	50167.73
641.947	50179.71
642.301	50076.89
642.654	50131.13
643.007	50132.03
643.36	49971.81
643.713	49925.03
644.066	50094.52
644.419	49698.37
644.771	49554.64
645.124	49206.4
645.477	49144.03
645.83	48866.07
646.182	48739.98
646.535	48649.36
646.888	48764.61
647.24	48539.08
647.593	48731.61
647.945	48660.88
648.298	48378.86
648.65	48259.31
649.002	48164.4
649.355	48369.59
649.707	48241.68
650.059	48323.94
650.411	48852.06
650.763	48879.41
651.115	49094.54
651.467	49015.22
651.819	48922.12
652.171	48932.51
652.523	48786.75
652.875	48782.01
653.227	48873.08
653.578	48944.04
653.93	48809.13
654.282	48742.01
654.633	48512.86
654.985	48712.18
655.337	48576.36
655.688	48639.41
656.039	48598.74
656.391	48346.31
656.742	48433.32
657.094	48502.02
657.445	48562.35
657.796	48396.48
658.147	48404.84
658.498	48325.52
658.849	48383.37
659.2	48300.21
659.551	48295.02
659.902	48394.9
660.253	48321.23
660.604	48352.19
660.955	48042.37
661.306	48167.79
661.656	48110.84
662.007	48117.17
662.358	48004.18
662.708	47965.98
663.059	48092.53
663.409	47760.57
663.76	48145.19
664.11	48067.45
664.461	48140.67
664.811	48054.34
665.161	48022.71
665.511	47796.05
665.862	47883.5
666.212	48027.68
666.562	47983.84
666.912	47819.1
667.262	47787.46
667.612	47707.46
667.962	47773.45
668.312	47646.44
668.662	47789.49
669.011	47604.41
669.361	47582.04
669.711	47462.49
670.06	47502.49
670.41	47352.22
670.76	47367.58
671.109	47511.08
671.459	47317.87
671.808	47361.71
672.157	47353.35
672.507	47205.1
672.856	47151.77
673.205	47269.51
673.554	47260.69
673.904	47180.69
674.253	47380.69
674.602	47202.16
674.951	46667.49
675.3	46361.06
675.649	47151.77
675.998	47108.38
676.346	47034.48
676.695	47134.14
677.044	46936.41
677.393	46949.51
677.741	46825.68
678.09	46796.3
678.438	46738.67
678.787	46834.04
679.135	46929.4
679.484	46531.22
679.832	46763.53
680.181	46531.45
680.529	46706.36
680.877	46377.33
681.225	46392.47
681.573	46604.89
681.922	46369.87
682.27	46154.96
682.618	46100.72
682.966	46163.32
683.314	46211.91
683.661	45964.23
684.009	45907.96
684.357	45658.93
684.705	45639.27
685.053	45677.46
685.4	45618.93
685.748	45444.24
686.095	45511.81
686.443	45375.32
686.79	45323.79
687.138	45373.74
687.485	45366.05
687.832	45201.76
688.18	45141.65
688.527	44924.71
688.874	44840.19
689.221	44704.6
689.568	44852.85
689.915	44724.04
690.262	44556.81
690.609	44427.77
690.956	44234.33
691.303	44195.01
691.65	43986.65
691.997	44033.88
692.344	43698.75
692.69	43767.9
693.037	43760.9
693.383	43414.24
693.73	43509.6
694.077	43225.54
694.423	43201.36
694.769	42950.07
695.116	42892.67
695.462	42902.39
695.808	42858.77
696.155	42917.53
696.501	42546.69
696.847	42640.25
697.193	42355.06
697.539	42472.12
697.885	42168.85
698.231	42024.45
698.577	42040.72
698.923	41903.77
699.269	41739.93
699.614	41690.9
699.96	41474.18
700.306	41518.47
700.651	41222.43
700.997	41108.31
701.342	41117.8
701.688	41128.65
702.033	41014.53
702.379	40817.47
702.724	40724.59
703.069	40879.62
703.415	40572.96
703.76	40590.59
704.105	40378.16
704.45	40208
704.795	40197.15
705.14	40075.8
705.485	40124.61
705.83	39907.44
706.175	39938.63
706.52	39797.16
706.865	39561.23
707.209	39497.28
707.554	39403.95
707.899	39433.1
708.243	39262.94
708.588	39245.76
708.932	39035.15
709.277	38898.2
709.621	39031.98
709.966	38606.23
710.31	38813.46
710.654	38455.73
710.998	38516.52
711.342	38448.95
711.687	38343.64
712.031	38227.48
712.375	38107.26
712.719	38245.34
713.063	38180.48
713.407	38224.09
713.75	37985.23
714.094	37874.5
714.438	37732.36
714.782	37836.99
715.125	37702.07
715.469	37793.6
715.812	37446.04
716.156	37313.84
716.499	37334.4
716.843	37355.87
717.186	37030.9
717.53	37222.99
717.873	37221.86
718.216	37056.21
718.559	36910.91
718.902	36682.21
719.246	36696
719.589	36642.44
719.932	36480.86
720.275	36477.02
720.617	36339.4
720.96	36344.14
721.303	36309.34
721.646	36380.53
721.989	36018.05
722.331	36234.54
722.674	36024.15
723.016	36032.74
723.359	35919.97
723.701	35875.23
724.044	35696.25
724.386	35523.83
724.729	35686.76
725.071	35566.31
725.413	35452.87
725.755	35419.65
726.097	35273.89
726.439	35065.31
726.782	35138.53
727.124	35280.89
727.465	34952.99
727.807	34865.31
728.149	34803.84
728.491	34760
728.833	34894.46
729.175	34637.3
729.516	34650.18
729.858	34606.34
730.199	34482.95
730.541	34516.39
730.882	34386.45
731.224	34483.85
731.565	34168.83
731.906	34152.56
732.248	34345.33
732.589	34023.3
732.93	33882.06
733.271	34027.59
733.612	33967.93
733.953	33991.66
734.294	33939.01
734.635	33720.03
734.976	33724.1
735.317	33601.62
735.658	33619.7
735.999	33735.17
736.339	33610.66
736.68	33585.8
737.021	33633.48
737.361	33327.73
737.702	33522.07
738.042	33332.92
738.383	33212.47
738.723	33268.74
739.063	33134.51
739.404	33221.51
739.744	33092.7
740.084	32914.4
740.424	32884.35
740.764	32756.67
741.104	32964.8
741.444	32726.16
741.784	32537.92
742.124	32700.4
742.464	32579.95
742.804	32421.53
743.143	32358.49
743.483	32495.2
743.823	32226.06
744.162	32176.34
744.502	32282.1
744.841	32136.12
745.181	32341.31
745.52	32165.5
745.86	32133.41
746.199	32091.15
746.538	31978.83
746.877	32009.12
747.216	31885.96
747.556	31693.64
747.895	31693.64
748.234	31648.67
748.573	31573.65
748.911	31569.35
749.25	31433.31
749.589	31414.33
749.928	31364.39
750.267	31419.08
750.605	31280.32
750.944	31367.1
751.283	31163.26
751.621	31264.28
751.96	31076.94
752.298	30968.24
752.636	30998.97
