Data from aluminium_macbook_case_FLMS001491_065.txt Node
Date: Tue Feb 07 10:44:01 GMT 2017
User: dcchb
Spectrometer: FLMS00149
Trigger mode: 0
Integration Time (sec): 2.000000E-2
Scans to average: 10
Electric dark correction enabled: true
Nonlinearity correction enabled: false
Boxcar width: 0
XAxis mode: Wavelengths
Number of Pixels in Spectrum: 2048
>>>>>Begin Spectral Data<<<<<
341.393	9.48
341.776	9.48
342.16	9.48
342.543	-65.78
342.927	-84.76
343.31	-83.85
343.693	-58.32
344.077	-73.91
344.46	-67.58
344.843	-55.61
345.226	-41.37
345.61	-34.82
345.993	-4.08
346.376	6.31
346.759	1.57
347.142	41.34
347.525	40.21
347.908	61.23
348.291	60.1
348.674	98.74
349.057	110.04
349.44	148.46
349.823	142.58
350.206	172.18
350.588	225.97
350.971	250.37
351.354	277.04
351.737	293.76
352.119	283.82
352.502	315.23
352.884	313.42
353.267	321.11
353.65	337.38
354.032	354.33
354.414	358.17
354.797	368.79
355.179	372.41
355.562	376.93
355.944	390.71
356.326	396.13
356.709	401.78
357.091	379.64
357.473	394.78
357.855	413.08
358.238	389.35
358.62	384.16
359.002	401.33
359.384	423.93
359.766	405.62
360.148	410.14
360.53	430.93
360.912	435.68
361.294	426.64
361.676	418.96
362.057	433.65
362.439	421.67
362.821	422.8
363.203	420.31
363.584	399.3
363.966	436.58
364.348	418.05
364.729	424.83
365.111	424.61
365.493	426.19
365.874	420.09
366.256	443.59
366.637	424.38
367.019	433.87
367.4	425.51
367.781	410.82
368.163	438.39
368.544	419.41
368.925	424.83
369.306	435.68
369.688	444.72
370.069	445.17
370.45	468.67
370.831	425.06
371.212	445.62
371.593	441.1
371.974	450.14
372.355	459.18
372.736	468.45
373.117	458.28
373.498	478.17
373.879	462.57
374.26	458.73
374.641	477.49
375.021	459.41
375.402	472.29
375.783	497.83
376.163	524.04
376.544	523.59
376.925	530.59
377.305	497.83
377.686	506.41
378.066	529.46
378.447	525.4
378.827	545.28
379.208	529.24
379.588	527.66
379.968	516.81
380.349	559.07
380.729	529.46
381.109	561.78
381.489	568.33
381.87	570.14
382.25	589.12
382.63	590.03
383.01	598.84
383.39	579.18
383.77	611.27
384.15	608.56
384.53	613.08
384.91	621.44
385.29	632.29
385.67	618.05
386.049	665.51
386.429	640.42
386.809	655.11
387.189	653.75
387.568	673.41
387.948	656.01
388.328	668.22
388.707	682.23
389.087	699.4
389.466	715.9
389.846	734.43
390.225	731.94
390.605	734.43
390.984	726.97
391.363	766.97
391.743	756.8
392.122	750.02
392.501	771.04
392.881	802.9
393.26	809.91
393.639	824.37
394.018	806.97
394.397	843.35
394.776	825.95
395.155	817.82
395.534	847.65
395.913	847.65
396.292	843.13
396.671	876.57
397.05	861.43
397.429	884.26
397.808	917.02
398.186	899.4
398.565	903.69
398.944	944.37
399.323	933.29
399.701	966.74
400.08	968.1
400.458	964.25
400.837	999.96
401.215	1004.03
401.594	1006.06
401.972	1004.48
402.351	1021.2
402.729	1029.79
403.107	1038.15
403.486	1063.23
403.864	1087.41
404.242	1087.64
404.62	1108.88
404.999	1122.89
405.377	1127.19
405.755	1143.68
406.133	1184.59
406.511	1151.37
406.889	1185.27
407.267	1215.77
407.645	1222.78
408.023	1271.82
408.401	1252.38
408.779	1303.91
409.156	1318.82
409.534	1313.4
409.912	1364.92
410.29	1350.23
410.667	1384.13
411.045	1407.86
411.422	1434.52
411.8	1434.75
412.178	1456.67
412.555	1474.3
412.933	1495.77
413.31	1532.6
413.687	1525.37
414.065	1546.39
414.442	1541.19
414.819	1556.56
415.197	1626.84
415.574	1637.68
415.951	1658.02
416.328	1679.04
416.705	1690.11
417.082	1683.56
417.46	1729.88
417.837	1758.81
418.214	1768.75
418.591	1797.45
418.967	1780.28
419.344	1837
419.721	1845.36
420.098	1889.43
420.475	1892.59
420.852	1907.96
421.228	1940.95
421.605	1929.65
421.982	1940.05
422.358	2022.31
422.735	2034.51
423.111	2035.41
423.488	2080.61
423.864	2053.27
424.241	2121.96
424.617	2133.72
424.994	2146.14
425.37	2174.39
425.746	2223.66
426.123	2233.37
426.499	2253.49
426.875	2300.04
427.251	2325.8
427.627	2362.64
428.003	2387.95
428.379	2420.26
428.756	2472.46
429.132	2475.85
429.507	2540.26
429.883	2589.52
430.259	2599.01
430.635	2599.47
431.011	2636.53
431.387	2748.16
431.763	2790.65
432.138	2790.87
432.514	2841.04
432.89	2855.05
433.265	2973.47
433.641	3013.47
434.016	3002.17
434.392	3038.32
434.767	3100.7
435.143	3125.1
435.518	3159.22
435.894	3233.35
436.269	3235.61
436.644	3277.87
437.02	3356.51
437.395	3309.28
437.77	3439.44
438.145	3463.62
438.52	3429.5
438.895	3527.35
439.271	3508.37
439.646	3595.6
440.021	3620.46
440.395	3631.98
440.77	3641.92
441.145	3731.41
441.52	3796.72
441.895	3745.42
442.27	3817.74
442.645	3852.09
443.019	3906.1
443.394	3872.2
443.769	3972.31
444.143	3925.31
444.518	3994.01
444.892	4038.3
445.267	4071.29
445.641	4072.42
446.016	4121.91
446.39	4133.89
446.764	4207.11
447.139	4221.34
447.513	4195.81
447.887	4273.32
448.262	4291.62
448.636	4318.97
449.01	4405.29
449.384	4445.07
449.758	4521
450.132	4499.98
450.506	4568.23
450.88	4590.15
451.254	4645.74
451.628	4699.98
452.002	4739.07
452.376	4793.53
452.75	4841.89
453.123	4918.95
453.497	5021.55
453.871	5025.84
454.244	5120.08
454.618	5181.77
454.992	5232.16
455.365	5172.51
455.739	5402.1
456.112	5410.01
456.486	5419.96
456.859	5510.8
457.232	5643.45
457.606	5651.81
457.979	5717.12
458.352	5782.88
458.725	5932.94
459.099	5908.76
459.472	6090.67
459.845	6119.6
460.218	6162.99
460.591	6208.41
460.964	6261.29
461.337	6467.84
461.71	6605.46
462.083	6674.39
462.456	6657.66
462.829	6687.72
463.201	6782.18
463.574	6875.51
463.947	6896.53
464.32	7175.84
464.692	7216.97
465.065	7254.94
465.438	7338.55
465.81	7471.2
466.183	7569.05
466.555	7737.18
466.928	7770.4
467.3	7773.11
467.672	7900.12
468.045	8150.96
468.417	8158.42
468.789	8231.18
469.161	8384.4
469.534	8528.12
469.906	8652.87
470.278	8751.62
470.65	8851.5
471.022	9006.98
471.394	9184.38
471.766	9274.54
472.138	9356.35
472.51	9632.05
472.882	9743.46
473.253	9867.52
473.625	10031.13
473.997	10226.16
474.369	10333.95
474.74	10400.39
475.112	10584.79
475.484	10783.43
475.855	10980.49
476.227	11128.51
476.598	11388.61
476.97	11549.51
477.341	11860.01
477.713	11977.75
478.084	12017.97
478.455	12444.4
478.827	12445.31
479.198	12773.44
479.569	12887.78
479.94	13219.3
480.311	13350.37
480.682	13662.9
481.053	13981.09
481.424	14290.46
481.795	14384.47
482.166	14670.11
482.537	14836.43
482.908	15128.4
483.279	15241.17
483.65	15677.77
484.021	15834.15
484.391	16100.58
484.762	16318.88
485.133	16457.63
485.503	16606.1
485.874	16991.63
486.244	17229.82
486.615	17562.69
486.985	17766.75
487.356	18095.78
487.726	18176.01
488.097	18629.1
488.467	18664.35
488.837	19159.03
489.207	19218.92
489.578	19502.52
489.948	19779.35
490.318	20065
490.688	20177.31
491.058	20466.11
491.428	20748.37
491.798	20886.67
492.168	21518.97
492.538	21435.81
492.908	21760.32
493.278	22075.34
493.648	22112.85
494.017	22365.5
494.387	22682.33
494.757	22802.55
495.126	23082.99
495.496	23285.02
495.866	23424.23
496.235	23602.76
496.605	23882.52
496.974	24044.33
497.344	24272.12
497.713	24432.34
498.082	24576.06
498.452	24937.41
498.821	24987.13
499.19	25076.84
499.559	25357.29
499.928	25522.93
500.298	25640.44
500.667	25913.65
501.036	25949.81
501.405	26205.17
501.774	26255.79
502.143	26579.85
502.512	26768.32
502.88	26878.6
503.249	26858.04
503.618	27091.25
503.987	27422.54
504.356	27496.89
504.724	27805.58
505.093	27942.98
505.462	27996.76
505.83	28265.01
506.199	28548.39
506.567	29031.76
506.936	28947.47
507.304	29305.66
507.672	29492.77
508.041	29437.86
508.409	29806.43
508.777	30149.02
509.145	30237.83
509.514	30408.68
509.882	30652.97
510.25	30757.37
510.618	30944.93
510.986	31180.41
511.354	31473.96
511.722	31673.28
512.09	32057.45
512.458	31968.41
512.826	32339.02
513.193	32348.06
513.561	32460.38
513.929	32822.17
514.297	33189.62
514.664	33475.94
515.032	33473.23
515.4	33809.72
515.767	34056.27
516.135	34194.57
516.502	34134.46
516.869	34745.51
517.237	35042
517.604	34838.39
517.972	35383.69
518.339	35660.07
518.706	35698.03
519.073	35951.81
519.44	36265.7
519.808	36732.13
520.175	36724.44
520.542	37225
520.909	37475.84
521.276	37511.99
521.643	37910.85
522.009	38137.97
522.376	38515.81
522.743	38630.16
523.11	39018.62
523.477	39346.52
523.843	39569.34
524.21	39921.87
524.577	40234.86
524.943	40300.62
525.31	40574.51
525.676	41008.63
526.043	41249.3
526.409	41352.12
526.776	41783.52
527.142	41846.8
527.508	42276.61
527.874	42551.41
528.241	42876.6
528.607	42915.02
528.973	43399.52
529.339	43432.52
529.705	43776.91
530.071	44103.46
530.437	44389.1
530.803	44670.45
531.169	44854.85
531.535	44903.44
531.901	45059.82
532.267	45282.86
532.632	45559.01
532.998	45856.18
533.364	46130.07
533.73	46296.85
534.095	46548.14
534.461	46646.44
534.826	46834.01
535.192	46934.12
535.557	47368.68
535.923	47282.58
536.288	47431.06
536.653	47744.27
537.019	47554.89
537.384	47669.01
537.749	48017.48
538.114	48005.96
538.479	48109.46
538.845	48472.16
539.21	48303.8
539.575	48465.38
539.94	48612.94
540.305	48756.9
540.67	48832.15
541.034	48962.09
541.399	49254.28
541.764	49366.82
542.129	49424.45
542.494	49624.9
542.858	49788.51
543.223	49861.5
543.587	50048.16
543.952	50067.82
544.316	50292
544.681	50365.44
545.045	50501.26
545.41	50738.54
545.774	50845.65
546.138	50858.99
546.503	51017.85
546.867	50998.64
547.231	51371.52
547.595	51524.05
547.959	51519.54
548.324	51548.01
548.688	51678.18
549.052	51917.26
549.416	51830.04
549.779	51960.43
550.143	52004.27
550.507	52194.55
550.871	52268.67
551.235	52237.48
551.599	52547.76
551.962	52524.48
552.326	52607.87
552.689	52890.12
553.053	52806.06
553.417	52835.43
553.78	53276.78
554.143	53066.16
554.507	53377.34
554.87	53463.44
555.234	53680.16
555.597	53568.97
555.96	53757.22
556.323	53865.24
556.686	53947.27
557.05	54175.96
557.413	54302.51
557.776	54395.39
558.139	54602.84
558.502	54708.6
558.865	54696.63
559.228	54957.41
559.59	55114.47
559.953	55131.42
560.316	55363.05
560.679	55465.19
561.041	55629.03
561.404	55720.55
561.767	55942.02
562.129	55812.76
562.492	56107.21
562.854	56088.23
563.217	56159.41
563.579	56298.84
563.941	56470.14
564.304	56568.44
564.666	56667.2
565.028	56771.83
565.39	56775.44
565.753	56949
566.115	56952.61
566.477	57102.21
566.839	57104.93
567.201	57368.87
567.563	57335.65
567.925	57475.76
568.287	57582.2
568.648	57545.82
569.01	57715.76
569.372	57861.29
569.734	57819.71
570.095	58032.81
570.457	58125.01
570.819	58148.51
571.18	58191.68
571.542	58386.93
571.903	58363.87
572.265	58491.78
572.626	58545.57
572.987	58640.25
573.349	58715.05
573.71	58821.04
574.071	58884.54
574.432	58995.27
574.794	59199.11
575.155	59139
575.516	59125.66
575.877	59281.59
576.238	59358.2
576.599	59327.92
576.96	59452.21
577.32	59410.4
577.681	59532.21
578.042	59583.5
578.403	59580.34
578.763	59654.01
579.124	59611.53
579.485	59751.18
579.845	59745.31
580.206	59696.72
580.566	59646.55
580.927	59689.26
581.287	59723.39
581.648	59628.7
582.008	59811.29
582.368	59707.12
582.728	59776.95
583.089	59732.43
583.449	59705.53
583.809	59739.88
584.169	59862.59
584.529	59738.53
584.889	59898.07
585.249	59830.28
585.609	59805.19
585.969	59932.42
586.329	59811.97
586.688	59908.92
587.048	59877.51
587.408	59797.06
587.768	59810.16
588.127	59862.37
588.487	59892.65
588.846	59982.36
589.206	59866.21
589.565	59915.7
589.925	60058.75
590.284	60001.35
590.643	60046.54
591.003	60154.34
591.362	60129.48
591.721	60132.87
592.08	60133.77
592.44	60223.71
592.799	60175.35
593.158	60154.79
593.517	60157.5
593.876	60229.59
594.235	60123.15
594.593	60142.59
594.952	60237.05
595.311	60103.04
595.67	60145.75
596.029	60240.66
596.387	60238.4
596.746	60220.1
597.104	60078.86
597.463	60095.35
597.822	60145.07
598.18	60128.8
598.538	60063.49
598.897	60199.08
599.255	60012.42
599.613	60391.84
599.972	60174.67
600.33	60243.83
600.688	60169.93
601.046	60260.55
601.404	60334.67
601.762	60253.54
602.12	60422.58
602.478	60421.22
602.836	60435.46
603.194	60242.47
603.552	60367.44
603.91	60340.32
604.268	60506.87
604.625	60360.88
604.983	60501.22
605.341	60444.95
605.698	60560.88
606.056	60575.12
606.413	60620.76
606.771	60665.96
607.128	60769.46
607.485	60653.31
607.843	60706.41
608.2	60853.3
608.557	60903.47
608.914	60862.79
609.272	61013.75
609.629	60948.67
609.986	61107.08
610.343	60931.27
610.7	61121.54
611.057	61052.84
611.414	61075.22
611.771	61028.44
612.127	61141.2
612.484	61050.13
612.841	61076.57
613.198	60978.5
613.554	61008.55
613.911	61114.76
614.267	61047.19
614.624	61074.09
614.98	61042.22
615.337	61144.82
615.693	61134.65
616.05	61093.97
616.406	61228.21
616.762	61088.78
617.118	61164.25
617.475	61079.28
617.831	61107.53
618.187	61266.17
618.543	61227.75
618.899	61371.71
619.255	61318.6
619.611	61262.78
619.967	61343.46
620.323	61409.9
620.678	61313.18
621.034	61321.09
621.39	61284.02
621.746	61296.45
622.101	61488.76
622.457	61340.97
622.812	61435.21
623.168	61489.22
623.523	61458.93
623.879	61572.15
624.234	61411.25
624.589	61461.42
624.945	61514.75
625.3	61571.7
625.655	61549.55
626.01	61550.91
626.365	61611.02
626.72	61625.03
627.075	61580.97
627.43	61523.34
627.785	61526.96
628.14	61535.32
628.495	61541.42
628.85	61503.45
629.205	61394.98
629.559	61481.53
629.914	61407.41
630.269	61354.08
630.623	61326.96
630.978	61229.79
631.332	61270.92
631.687	61327.86
632.041	61123.35
632.396	61196.12
632.75	61073.41
633.104	61065.72
633.459	61026.4
633.813	60987.53
634.167	60914.32
634.521	60926.97
634.875	60877.03
635.229	60949.12
635.583	60813.98
635.937	60751.16
636.291	60765.17
636.645	60837.93
636.999	60750.93
637.352	60792.06
637.706	60606.3
638.06	60665.51
638.413	60575.34
638.767	60537.38
639.121	60569.47
639.474	60418.96
639.828	60437.72
640.181	60518.17
640.534	60459.19
640.888	60410.15
641.241	60279.53
641.594	60351.17
641.947	60388.23
642.301	60352.98
642.654	60358.17
643.007	60386.42
643.36	60323.15
643.713	60336.03
644.066	60387.32
644.419	60270.27
644.771	60171.96
645.124	59879.99
645.477	59920.67
645.83	59695.37
646.182	59597.51
646.535	59444.3
646.888	59564.52
647.24	59370.4
647.593	59485.88
647.945	59388.71
648.298	59359.1
648.65	59255.6
649.002	59103.29
649.355	59329.27
649.707	59201.14
650.059	59316.39
650.411	59503.51
650.763	59575.14
651.115	59780.33
651.467	59689.94
651.819	59662.82
652.171	59534.01
652.523	59519.1
652.875	59487.24
653.227	59275.72
653.578	59473.22
653.93	59397.97
654.282	59205.43
654.633	59089.51
654.985	59171.31
655.337	59204.98
655.688	59218.09
656.039	59284.53
656.391	59019.45
656.742	59111.2
657.094	59101.03
657.445	59162.27
657.796	59046.57
658.147	58996.4
658.498	59003.18
658.849	58986.46
659.2	58986.91
659.551	58897.19
659.902	58949.62
660.253	58964.09
660.604	58938.1
660.955	58826.01
661.306	58990.07
661.656	58894.71
662.007	58963.41
662.358	58977.64
662.708	58977.87
663.059	58987.59
663.409	58809.29
663.76	58976.97
664.11	58966.12
664.461	58981.03
664.811	58981.71
665.161	58988.49
665.511	58864.65
665.862	58957.98
666.212	58975.38
666.562	59041.82
666.912	58937.42
667.262	58938.55
667.612	58838.21
667.962	58920.92
668.312	58798.89
668.662	58881.15
669.011	58744.2
669.361	58710.08
669.711	58708.27
670.06	58633.92
670.41	58658.1
670.76	58568.84
671.109	58617.65
671.459	58488.62
671.808	58473.48
672.157	58535.17
672.507	58318.9
672.856	58261.96
673.205	58304.89
673.554	58321.16
673.904	58265.35
674.253	58347.6
674.602	58231.22
674.951	57869.65
675.3	57740.84
675.649	58087.95
675.998	58036.2
676.346	58087.72
676.695	58127.05
677.044	57934.28
677.393	57976.77
677.741	58040.27
678.09	57900.16
678.438	57799.6
678.787	57983.77
679.135	57923.21
679.484	57722.54
679.832	57848.86
680.181	57713.27
680.529	57767.28
680.877	57664.01
681.225	57650.22
681.573	57885.47
681.922	57682.99
682.27	57578.36
682.618	57607.06
682.966	57586.72
683.314	57598.25
683.661	57559.15
684.009	57514.86
684.357	57451.13
684.705	57475.08
685.053	57427.18
685.4	57370.45
685.748	57240.06
686.095	57227.63
686.443	57135.88
686.79	57151.7
687.138	57230.57
687.485	57121.65
687.832	57032.16
688.18	57007.53
688.527	56944.25
688.874	56858.6
689.221	56814.31
689.568	56713.75
689.915	56682.56
690.262	56620.19
690.609	56539.74
690.956	56436.69
691.303	56410.03
691.65	56264.04
691.997	56185.63
692.344	56085.52
692.69	56094.56
693.037	55978.63
693.383	55786.77
693.73	55890.49
694.077	55654.34
694.423	55621.57
694.769	55479.21
695.116	55412.77
695.462	55264.07
695.808	55175.94
696.155	55165.99
696.501	54946.56
696.847	54997.41
697.193	54721.48
697.539	54916.51
697.885	54684.65
698.231	54555.16
698.577	54532.56
698.923	54442.17
699.269	54274.94
699.614	54094.38
699.96	54186.36
700.306	54183.19
700.651	54046.25
700.997	53887.16
701.342	53829.08
701.688	53695.3
702.033	53737.78
702.379	53672.92
702.724	53580.95
703.069	53747.05
703.415	53325.82
703.76	53366.94
704.105	53413.27
704.45	53355.65
704.795	53096.44
705.14	53066.16
705.485	53046.5
705.83	52958.37
706.175	53031.36
706.52	52811.7
706.865	52745.94
707.209	52750.24
707.554	52622.11
707.899	52740.52
708.243	52577.13
708.588	52545.72
708.932	52369.23
709.277	52422.11
709.621	52338.5
709.966	52063.25
710.31	52266.86
710.654	51883.82
710.998	52115.45
711.342	52102.57
711.687	51886.98
712.031	51794.56
712.375	51602.24
712.719	51645.86
713.063	51571.74
713.407	51629.81
713.75	51344.85
714.094	51378.97
714.438	51091.75
714.782	51201.58
715.125	50935.6
715.469	50950.28
715.812	50756.39
716.156	50702.16
716.499	50682.95
716.843	50644.3
717.186	50367.02
717.53	50522.73
717.873	50506.23
718.216	50325.22
718.559	50219.68
718.902	49986.92
719.246	49982.17
719.589	49848.39
719.932	49730.88
720.275	49573.37
720.617	49513.49
720.96	49386.94
721.303	49285.7
721.646	49228.07
721.989	49097.45
722.331	49060.16
722.674	48955.76
723.016	48971.13
723.359	48725.71
723.701	48866.95
724.044	48587.63
724.386	48515.55
724.729	48687.07
725.071	48423.12
725.413	48403.68
725.755	48399.62
726.097	48090.47
726.439	47990.81
726.782	48091.6
727.124	48386.96
727.465	48034.88
727.807	48092.73
728.149	47956.47
728.491	47933.87
728.833	47945.84
729.175	47824.72
729.516	47791.27
729.858	47611.16
730.199	47794.89
730.541	47852.74
730.882	47755.34
731.224	47917.82
731.565	47503.37
731.906	47528.45
732.248	47613.88
732.589	47314.67
732.93	47341.57
733.271	47348.57
733.612	47322.81
733.953	47414.78
734.294	47142.7
734.635	47081.01
734.976	47084.85
735.317	46908.13
735.658	47019.77
735.999	46871.07
736.339	46879.43
736.68	46750.85
737.021	46558.76
737.361	46452.55
737.702	46525.54
738.042	46449.16
738.383	46314.47
738.723	46352.89
739.063	46085.78
739.404	46222.27
739.744	46047.14
740.084	45856.41
740.424	45774.6
740.764	45737.31
741.104	45725.11
741.444	45430.88
741.784	45338
742.124	45386.14
742.464	45308.4
742.804	45254.16
743.143	44944.79
743.483	45052.59
743.823	44865.25
744.162	44719.49
744.502	44750.22
744.841	44500.06
745.181	44696.21
745.52	44484.24
745.86	44424.58
746.199	44314.53
746.538	44234.98
746.877	44155.89
747.216	44072.95
747.556	43753.86
747.895	43780.08
748.234	43507.99
748.573	43499.86
748.911	43508.9
749.25	43408.56
749.589	43235.23
749.928	43355
750.267	43379.18
750.605	43079.98
750.944	43095.12
751.283	42996.82
751.621	43056.93
751.96	42831.63
