Data from aluminium_surface_pro_back_FLMS001491_00037.txt Node
Date: Wed Feb 08 15:33:59 GMT 2017
User: dcchb
Spectrometer: FLMS00149
Trigger mode: 0
Integration Time (sec): 2.000000E-2
Scans to average: 10
Electric dark correction enabled: true
Nonlinearity correction enabled: false
Boxcar width: 0
XAxis mode: Wavelengths
Number of Pixels in Spectrum: 2048
>>>>>Begin Spectral Data<<<<<
341.393	-9.03
341.776	-9.03
342.16	-9.03
342.543	-56.26
342.927	-69.81
343.31	-76.14
343.693	-79.08
344.077	-69.81
344.46	-53.32
344.843	-57.39
345.226	-43.83
345.61	-46.31
345.993	-19.19
346.376	-12.41
346.759	16.06
347.142	47.92
347.525	44.08
347.908	58.54
348.291	71.65
348.674	103.74
349.057	115.49
349.44	148.71
349.823	150.52
350.206	168.6
350.588	230.06
350.971	262.61
351.354	252.66
351.737	248.14
352.119	276.17
352.502	281.81
352.884	285.66
353.267	303.51
353.65	314.58
354.032	314.13
354.414	339.44
354.797	339.44
355.179	348.25
355.562	357.07
355.944	345.09
356.326	375.82
356.709	367.46
357.091	360.46
357.473	391.64
357.855	353.9
358.238	380.57
358.62	390.06
359.002	366.78
359.384	367.69
359.766	369.04
360.148	368.59
360.53	382.6
360.912	365.2
361.294	372.66
361.676	369.27
362.057	354.81
362.439	376.28
362.821	372.89
363.203	370.4
363.584	385.99
363.966	373.11
364.348	355.71
364.729	368.59
365.111	364.52
365.493	376.28
365.874	377.18
366.256	374.47
366.637	380.57
367.019	368.37
367.4	376.5
367.781	368.37
368.163	370.63
368.544	364.52
368.925	373.56
369.306	379.21
369.688	370.85
370.069	373.34
370.45	381.25
370.831	368.59
371.212	364.98
371.593	384.64
371.974	366.11
372.355	388.25
372.736	378.76
373.117	381.92
373.498	385.77
373.879	365.2
374.26	379.89
374.641	374.02
375.021	393.68
375.402	388.7
375.783	390.51
376.163	407.91
376.544	419.21
376.925	417.63
377.305	411.3
377.686	397.07
378.066	413.34
378.447	415.82
378.827	424.86
379.208	425.54
379.588	428.48
379.968	414.92
380.349	436.61
380.729	452.88
381.109	442.71
381.489	439.1
381.87	453.34
382.25	460.79
382.63	453.34
383.01	438.19
383.39	455.82
383.77	445.65
384.15	475.03
384.53	482.26
384.91	486.33
385.29	472.54
385.67	488.14
386.049	473.45
386.429	484.52
386.809	495.14
387.189	497.63
387.568	467.57
387.948	534.92
388.328	504.18
388.707	517.51
389.087	511.41
389.466	550.96
389.846	545.54
390.225	529.04
390.605	528.14
390.984	557.29
391.363	578.08
391.743	571.52
392.122	563.84
392.501	573.56
392.881	592.99
393.26	595.03
393.639	614.69
394.018	583.73
394.397	612.88
394.776	595.7
395.155	611.07
395.534	607.46
395.913	629.6
396.292	632.54
396.671	654.46
397.05	641.81
397.429	648.36
397.808	656.72
398.186	663.27
398.565	665.53
398.944	682.03
399.323	669.6
399.701	680.67
400.08	684.97
400.458	697.85
400.837	727.9
401.215	704.18
401.594	730.16
401.972	748.24
402.351	737.17
402.729	737.17
403.107	744.63
403.486	767.45
403.864	769.03
404.242	757.73
404.62	766.1
404.999	824.17
405.377	817.85
405.755	834.57
406.133	840.9
406.511	831.63
406.889	860.33
407.267	866.21
407.645	891.97
408.023	887.67
408.401	914.34
408.779	915.24
409.156	913.44
409.534	943.27
409.912	952.31
410.29	980.55
410.667	959.76
411.045	982.14
411.422	999.08
411.8	1024.85
412.178	1042.25
412.555	1031.63
412.933	1039.76
413.31	1060.1
413.687	1073.66
414.065	1120.44
414.442	1090.38
414.819	1115.47
415.197	1122.47
415.574	1143.71
415.951	1158.85
416.328	1165.18
416.705	1163.37
417.082	1175.12
417.46	1197.95
417.837	1211.51
418.214	1228.68
418.591	1213.99
418.967	1266.87
419.344	1240.89
419.721	1298.29
420.098	1289.7
420.475	1309.13
420.852	1331.73
421.228	1318.17
421.605	1336.93
421.982	1346.19
422.358	1368.11
422.735	1410.82
423.111	1365.85
423.488	1409.24
423.864	1419.41
424.241	1428.9
424.617	1463.48
424.994	1472.52
425.37	1463.7
425.746	1507.32
426.123	1490.14
426.499	1508.22
426.875	1551.16
427.251	1548.9
427.627	1583.48
428.003	1613.08
428.379	1647.88
428.756	1628.22
429.132	1663.47
429.507	1690.59
429.883	1670.48
430.259	1735.79
430.635	1738.73
431.011	1760.42
431.387	1799.29
431.763	1852.39
432.138	1847.88
432.514	1867.54
432.89	1918.83
433.265	1941.66
433.641	1953.18
434.016	1972.17
434.392	2004.26
434.767	2033.41
435.143	2054.42
435.518	2075.67
435.894	2088.55
436.269	2135.78
436.644	2155.66
437.02	2166.51
437.395	2149.11
437.77	2209.22
438.145	2206.51
438.52	2249.67
438.895	2273.4
439.271	2295.32
439.646	2361.99
440.021	2381.42
440.395	2380.52
440.77	2357.69
441.145	2387.97
441.52	2452.38
441.895	2460.97
442.27	2469.33
442.645	2479.95
443.019	2478.59
443.394	2514.52
443.769	2539.83
444.143	2505.94
444.518	2617.12
444.892	2599.95
445.267	2572.6
445.641	2646.27
446.016	2634.97
446.39	2698.25
446.764	2715.87
447.139	2711.13
447.513	2695.54
447.887	2732.15
448.262	2732.82
448.636	2759.72
449.01	2816.21
449.384	2806.27
449.758	2886.04
450.132	2904.34
450.506	2887.4
450.88	2939.37
451.254	2941.18
451.628	2987.73
452.002	2980.73
452.376	3042.65
452.75	3119.71
453.123	3083.55
453.497	3135.75
453.871	3158.35
454.244	3201.29
454.618	3236.31
454.992	3323.99
455.365	3292.58
455.739	3418.91
456.112	3438.34
456.486	3457.78
456.859	3530.54
457.232	3568.96
457.606	3544.78
457.979	3641.95
458.352	3713.59
458.725	3698.9
459.099	3762.85
459.472	3824.55
459.845	3876.3
460.218	3936.18
460.591	3949.74
460.964	4007.82
461.337	4100.7
461.71	4125.33
462.083	4198.32
462.456	4182.95
462.829	4206.91
463.201	4305.89
463.574	4307.47
463.947	4381.14
464.32	4431.76
464.692	4506.56
465.065	4565.54
465.438	4621.14
465.81	4676.95
466.183	4706.78
466.555	4839.43
466.928	4881.47
467.3	4896.16
467.672	4954.91
468.045	5137.96
468.417	5068.36
468.789	5115.59
469.161	5223.61
469.534	5343.38
469.906	5398.29
470.278	5403.26
470.65	5467.67
471.022	5612.52
471.394	5657.49
471.766	5711.95
472.138	5853.42
472.51	5916.24
472.882	6085.28
473.253	6145.62
473.625	6201.66
473.997	6379.73
474.369	6340.19
474.74	6422.22
475.112	6567.07
475.484	6704.24
475.855	6791.25
476.227	6812.04
476.598	7012.03
476.97	7080.96
477.341	7232.82
477.713	7328.18
478.084	7389.2
478.455	7696.99
478.827	7671.45
479.198	7906.02
479.569	7986.7
479.94	8138.56
480.311	8287.93
480.682	8443.63
481.053	8616.06
481.424	8789.84
481.795	8858.54
482.166	8986.9
482.537	9039.78
482.908	9255.14
483.279	9345.31
483.65	9541.91
484.021	9757.5
484.391	9827.33
484.762	9933.99
485.133	10115.68
485.503	10208.79
485.874	10509.12
486.244	10543.24
486.615	10771.93
486.985	10920.86
487.356	11124.69
487.726	11217.12
488.097	11328.53
488.467	11494.18
488.837	11724.23
489.207	11877.22
489.578	11975.74
489.948	12099.36
490.318	12361.27
490.688	12319.46
491.058	12505.45
491.428	12682.84
491.798	12902.5
492.168	13123.74
492.538	13207.8
492.908	13395.37
493.278	13583.84
493.648	13489.6
494.017	13757.84
494.387	13882.36
494.757	13956.03
495.126	14204.61
495.496	14232.41
495.866	14257.94
496.235	14463.14
496.605	14619.74
496.974	14587.43
497.344	14827.87
497.713	14973.18
498.082	15052.05
498.452	15206.17
498.821	15239.39
499.19	15305.83
499.559	15521.87
499.928	15672.6
500.298	15728.19
500.667	15876.21
501.036	15938.13
501.405	16047.28
501.774	16093.6
502.143	16374.5
502.512	16459.69
502.88	16606.81
503.249	16534.72
503.618	16706.92
503.987	16874.82
504.356	17002.28
504.724	17089.96
505.093	17140.58
505.462	17297.41
505.83	17394.13
506.199	17531.98
506.567	17848.36
506.936	17872.76
507.304	18065.08
507.672	18071.86
508.041	18244.96
508.409	18385.07
508.777	18535.35
509.145	18672.52
509.514	18696.25
509.882	18984.15
510.25	18966.75
510.618	19132.17
510.986	19228.44
511.354	19468.88
511.722	19495.77
512.09	19591.59
512.458	19647.86
512.826	19881.53
513.193	20079.71
513.561	20141.63
513.929	20252.81
514.297	20439.02
514.664	20625.23
515.032	20799.69
515.4	20968.5
515.767	21106.8
516.135	21250.08
516.502	21215.05
516.869	21500.47
517.237	21680.57
517.604	21627.02
517.972	22090.51
518.339	22214.8
518.706	22297.73
519.073	22397.17
519.44	22623.37
519.808	22930.94
520.175	22888.9
520.542	23130.48
520.909	23293.86
521.276	23387.2
521.643	23616.12
522.009	23751.71
522.376	23976.56
522.743	24257.23
523.11	24391.01
523.477	24693.15
523.843	24841.39
524.21	25069.19
524.577	25215.17
524.943	25322.06
525.31	25643.18
525.676	25849.28
526.043	26013.79
526.409	26086.33
526.776	26296.05
527.142	26560.67
527.508	26674.34
527.874	26921.57
528.241	27009.25
528.607	27214.89
528.973	27306.19
529.339	27490.36
529.705	27752.05
530.071	27913.18
530.437	28086.28
530.803	28189.56
531.169	28453.96
531.535	28503.67
531.901	28646.49
532.267	28740.95
532.632	28941.85
532.998	29243.54
533.364	29251.9
533.73	29319.24
534.095	29652.12
534.461	29661.61
534.826	29943.63
535.192	30037.42
535.557	30223.63
535.923	30332.55
536.288	30530.74
536.653	30582.94
537.019	30578.42
537.384	30689.38
537.749	31004.85
538.114	30900.22
538.479	31108.35
538.845	31246.42
539.21	31260.21
539.575	31520.54
539.94	31412.75
540.305	31612.97
540.67	31632.63
541.034	31772.51
541.399	31957.14
541.764	32048.66
542.129	32190.13
542.494	32322.78
542.858	32452.95
543.223	32417.69
543.587	32800.51
543.952	32758.47
544.316	32862.88
544.681	32888.41
545.045	33118.01
545.41	33348.97
545.774	33371.79
546.138	33431.68
546.503	33572.24
546.867	33587.38
547.231	33901.5
547.595	33960.93
547.959	34026.92
548.324	34104.43
548.688	34220.81
549.052	34346.91
549.416	34430.3
549.779	34480.01
550.143	34580.12
550.507	34895.59
550.871	34927.46
551.235	35021.01
551.599	35233.21
551.962	35421.23
552.326	35439.31
552.689	35648.34
553.053	35595.01
553.417	35782.58
553.78	36264.82
554.143	36145.28
554.507	36166.07
554.87	36482.44
555.234	36670.69
555.597	36531.71
555.96	36763.79
556.323	36916.33
556.686	37061.86
557.05	37358.35
557.413	37498.46
557.776	37704.33
558.139	37693.71
558.502	37883.31
558.865	38096.41
559.228	38393.58
559.59	38302.96
559.953	38532.79
560.316	38850.97
560.679	38873.57
561.041	39109.04
561.404	39330.96
561.767	39528.69
562.129	39340.45
562.492	39896.82
562.854	39929.36
563.217	39928
563.579	40072.86
563.941	40401.66
564.304	40635.78
564.666	40963.68
565.028	40968.88
565.39	41247.97
565.753	41395.08
566.115	41640.28
566.477	41720.95
566.839	41847.5
567.201	42162.97
567.563	42244.78
567.925	42578.78
568.287	42675.73
568.648	42621.72
569.01	42965.44
569.372	43291.76
569.734	43174.47
570.095	43582.82
570.457	43797.96
570.819	44044.51
571.18	43933.55
571.542	44405.63
571.903	44380.99
572.265	44635.9
572.626	44686.07
572.987	44881.32
573.349	45022.56
573.71	45303.68
574.071	45249.45
574.432	45425.26
574.794	45744.12
575.155	45742.54
575.516	45699.38
575.877	45809.66
576.238	46014.17
576.599	46128.29
576.96	46080.16
577.32	46253.49
577.681	46307.27
578.042	46442.86
578.403	46511.56
578.763	46552.24
579.124	46699.13
579.485	46840.82
579.845	46991.77
580.206	46859.12
580.566	46992.22
580.927	47072
581.287	47121.49
581.648	47032.9
582.008	47386.79
582.368	47204.42
582.728	47418.88
583.089	47322.84
583.449	47284.19
583.809	47293.01
584.169	47505.43
584.529	47430.86
584.889	47697.74
585.249	47604.19
585.609	47553.34
585.969	47730.28
586.329	47620.23
586.688	47723.73
587.048	47502.72
587.408	47586.11
587.768	47493.91
588.127	47581.36
588.487	47580.91
588.846	47831.98
589.206	47591.53
589.565	47651.87
589.925	47793.11
590.284	47676.05
590.643	47729.15
591.003	47816.61
591.362	47914.23
591.721	47771.87
592.08	47819.1
592.44	48047.11
592.799	47871.75
593.158	47878.53
593.517	47837.63
593.876	48008.92
594.235	47928.25
594.593	48020.22
594.952	48095.92
595.311	47873.11
595.67	48003.72
596.029	48216.37
596.387	48231.51
596.746	48175.24
597.104	48181.8
597.463	48060.45
597.822	48138.18
598.18	47989.49
598.538	48055.93
598.897	48283.72
599.255	47893.22
599.613	48653.65
599.972	48354
600.33	48367.78
600.688	48227.22
601.046	48362.13
601.404	48571.84
601.762	48393.32
602.12	48621.79
602.478	48592.86
602.836	48637.83
603.194	48522.81
603.552	48702.46
603.91	48614.33
604.268	48708.11
604.625	48579.98
604.983	48758.05
605.341	48642.35
605.698	48833.76
606.056	48921.67
606.413	48725.74
606.771	48935.9
607.128	48950.37
607.485	48805.96
607.843	48830.82
608.2	48961.66
608.557	49130.93
608.914	48865.85
609.272	49208.21
609.629	49153.52
609.986	49237.14
610.343	49038.72
610.7	49285.27
611.057	49286.18
611.414	49278.27
611.771	49371.6
612.127	49464.7
612.484	49372.5
612.841	49434.42
613.198	49400.75
613.554	49506.51
613.911	49772.04
614.267	49730.23
614.624	49684.81
614.98	49807.07
615.337	50038.47
615.693	49940.85
616.05	49952.37
616.406	50196.89
616.762	50010
617.118	50099.04
617.475	50037.34
617.831	50007.29
618.187	50150.79
618.543	50122.99
618.899	50284.34
619.255	50254.74
619.611	50242.99
619.967	50403.89
620.323	50430.33
620.678	50260.61
621.034	50281.18
621.39	50199.37
621.746	50305.36
622.101	50567.5
622.457	50194.4
622.812	50268.52
623.168	50389.88
623.523	50330.89
623.879	50405.47
624.234	50174.51
624.589	50428.29
624.945	50393.72
625.3	50405.69
625.655	50241.18
626.01	50442.08
626.365	50256.77
626.72	50299.48
627.075	50315.75
627.43	50290.22
627.785	50010
628.14	50283.44
628.495	50294.06
628.85	50354.4
629.205	50195.98
629.559	50380.84
629.914	50221.97
630.269	50181.97
630.623	50172.71
630.978	50152.59
631.332	50262.42
631.687	50273.72
632.041	50068.75
632.396	50094.97
632.75	49919.38
633.104	50063.78
633.459	49835.31
633.813	49936.1
634.167	49752.38
634.521	49769.78
634.875	49847.74
635.229	49704.24
635.583	49448.66
635.937	49610.91
636.291	49625.38
636.645	49563.23
636.999	49540.41
637.352	49596.22
637.706	49516.68
638.06	49537.47
638.413	49298.15
638.767	49285.95
639.121	49222.9
639.474	48985.39
639.828	49045.05
640.181	49068.1
640.534	48982.91
640.888	48845.96
641.241	48800.09
641.594	48732.97
641.947	48699.07
642.301	48679.64
642.654	48672.63
643.007	48655.91
643.36	48570.94
643.713	48501.11
644.066	48614.33
644.419	48355.8
644.771	48045.98
645.124	47680.12
645.477	47518.99
645.83	47455.04
646.182	47233.12
646.535	47121.49
646.888	47118.1
647.24	46838.78
647.593	47119
647.945	47052.79
648.298	46792
648.65	46688.05
649.002	46628.62
649.355	47017.76
649.707	46758.33
650.059	46826.35
650.411	47231.31
650.763	47349.73
651.115	47644.86
651.467	47457.75
651.819	47440.8
652.171	47477.41
652.523	47222.95
652.875	47359.9
653.227	47270.64
653.578	47340.24
653.93	47300.69
654.282	47083.07
654.633	46984.54
654.985	47163.97
655.337	47021.15
655.688	47044.2
656.039	47188.83
656.391	46825.45
656.742	46874.71
657.094	46740.93
657.445	46914.03
657.796	46862.06
658.147	46800.59
658.498	46779.8
658.849	46826.58
659.2	46779.12
659.551	46680.82
659.902	46742.74
660.253	46684.89
660.604	46784.09
660.955	46475.18
661.306	46630.2
661.656	46457.78
662.007	46588.39
662.358	46414.84
662.708	46574.61
663.059	46490.32
663.409	46357.89
663.76	46544.55
664.11	46543.2
664.461	46457.78
664.811	46558.11
665.161	46449.64
665.511	46453.26
665.862	46364.67
666.212	46620.94
666.562	46451.67
666.912	46436.31
667.262	46455.06
667.612	46387.49
667.962	46311.56
668.312	46258.23
668.662	46385.01
669.011	46201.96
669.361	46141.4
669.711	46099.59
670.06	46108.18
670.41	45920.61
670.76	45962.87
671.109	46143.66
671.459	45982.53
671.808	45958.81
672.157	46018.01
672.507	45755.87
672.856	45853.95
673.205	45840.84
673.554	45985.47
673.904	45886.49
674.253	45993.38
674.602	45800.39
674.951	45406.96
675.3	45138.94
675.649	45757.68
675.998	45619.15
676.346	45615.99
676.695	45807.17
677.044	45476.33
677.393	45461.87
677.741	45554.52
678.09	45394.07
678.438	45321.76
678.787	45466.84
679.135	45317.92
679.484	45155.66
679.832	45318.82
680.181	44948.44
680.529	45080.18
680.877	44946.4
681.225	45023.69
681.573	45210.8
681.922	44837.71
682.27	44864.82
682.618	44765.62
682.966	44804.26
683.314	44639.29
683.661	44569.69
684.009	44375.34
684.357	44295.8
684.705	44304.16
685.053	44131.96
685.4	44147.33
685.748	43901.91
686.095	43840.44
686.443	43702.59
686.79	43490.4
687.138	43532.43
687.485	43657.17
687.832	43377.86
688.18	43503.28
688.527	43190.06
688.874	43154.59
689.221	43161.59
689.568	43181.25
689.915	42885.67
690.262	42958.21
690.609	42836.18
690.956	42763.86
691.303	42753.24
691.65	42695.16
691.997	42545.56
692.344	42241.62
692.69	42166.59
693.037	42260.6
693.383	41873.04
693.73	42057.89
694.077	41871.23
694.423	41865.58
694.769	41747.62
695.116	41708.3
695.462	41615.87
695.808	41657.68
696.155	41704.23
696.501	41236.67
696.847	41207.29
697.193	40898.37
697.539	41061.31
697.885	40797.36
698.231	40500.64
698.577	40645.27
698.923	40547.65
699.269	40249.13
699.614	40124.38
699.96	40062.01
700.306	39997.15
700.651	39891.39
700.997	39724.62
701.342	39672.64
701.688	39654.11
702.033	39433.55
702.379	39368.02
702.724	39211.19
703.069	39342.26
703.415	38840.8
703.76	38980.46
704.105	38840.8
704.45	38660.24
704.795	38562.84
705.14	38283.08
705.485	38357.65
705.83	38180.93
706.175	38262.96
706.52	38185.22
706.865	38056.41
707.209	37914.5
707.554	37802.86
707.899	37770.77
708.243	37759.47
708.588	37707.05
708.932	37403.55
709.277	37504.79
709.621	37521.51
709.966	37086.72
710.31	37275.19
710.654	37051.92
710.998	37082.88
711.342	37090.56
711.687	36916.11
712.031	36742.1
712.375	36642.44
712.719	36557.02
713.063	36525.16
713.407	36507.75
713.75	36379.17
714.094	36420.75
714.438	36161.78
714.782	36276.8
715.125	35980.31
715.469	36137.6
715.812	35893.53
716.156	35701
716.499	35841.33
716.843	35790.71
717.186	35609.93
717.53	35743.48
717.873	35782.8
718.216	35573.09
718.559	35510.04
718.902	35135.36
719.246	35244.74
719.589	35212.42
719.932	35015.59
720.275	34940.11
720.617	35024.86
720.96	34910.06
721.303	34899.44
721.646	34840.91
721.989	34753
722.331	34652.66
722.674	34566.79
723.016	34604.3
723.359	34481.14
723.701	34600.91
724.044	34181.26
724.386	34091.32
724.729	34200.7
725.071	34224.65
725.413	34066.46
725.755	33995.96
726.097	33757.77
726.439	33669.64
726.782	33727.94
727.124	33768.17
727.465	33568.17
727.807	33583.99
728.149	33414.05
728.491	33319.36
728.833	33370.66
729.175	33190.78
729.516	33188.29
729.858	33201.63
730.199	33025.59
730.541	33065.59
730.882	33042.76
731.224	33131.35
731.565	32904.23
731.906	32921.63
732.248	32914.85
732.589	32726.16
732.93	32559.84
733.271	32589.21
733.612	32605.48
733.953	32709.89
734.294	32552.15
734.635	32400.74
734.976	32369.33
735.317	32220.18
735.658	32219.73
735.999	32132.95
736.339	32060.41
736.68	32181.99
737.021	32070.81
737.361	31919.85
737.702	32150.58
738.042	31684.6
738.383	31743.81
738.723	31813.64
739.063	31786.97
739.404	31728.67
739.744	31677.6
740.084	31530.71
740.424	31512.86
740.764	31537.72
741.104	31598.51
741.444	31396.93
741.784	31246.42
742.124	31363.48
742.464	31177.95
742.804	31132.3
743.143	30928.47
743.483	31150.16
743.823	30917.62
744.162	30867
744.502	30871.52
744.841	30770.96
745.181	30961.91
745.52	30754.91
745.86	30745.87
746.199	30754.91
746.538	30690.73
746.877	30569.61
747.216	30634.01
747.556	30511.98
747.895	30425.43
748.234	30341.36
748.573	30340.69
748.911	30207.58
749.25	30227.02
749.589	30118.32
749.928	30141.14
750.267	30119.9
750.605	29896.18
750.944	29850.08
751.283	29692.57
751.621	29777.54
751.96	29626.81
752.298	29626.81
752.636	29443.08
