Data from aluminium_macbook_case_FLMS001491_022.txt Node
Date: Tue Feb 07 10:43:25 GMT 2017
User: dcchb
Spectrometer: FLMS00149
Trigger mode: 0
Integration Time (sec): 2.000000E-2
Scans to average: 10
Electric dark correction enabled: true
Nonlinearity correction enabled: false
Boxcar width: 0
XAxis mode: Wavelengths
Number of Pixels in Spectrum: 2048
>>>>>Begin Spectral Data<<<<<
341.393	-9.72
341.776	-9.72
342.16	-9.72
342.543	-83.61
342.927	-65.08
343.31	-56.5
343.693	-54.01
344.077	-52.2
344.46	-82.48
344.843	-44.52
345.226	-42.26
345.61	-16.27
345.993	-35.71
346.376	-21.92
346.759	25.08
347.142	21.02
347.525	28.93
347.908	57.4
348.291	71.41
348.674	91.52
349.057	110.51
349.44	127.45
349.823	141.24
350.206	185.31
350.588	243.84
350.971	259.43
351.354	249.71
351.737	300.56
352.119	308.69
352.502	303.72
352.884	317.73
353.267	337.39
353.65	350.95
354.032	352.53
354.414	375.58
354.797	356.83
355.179	387.79
355.562	350.27
355.944	384.62
356.326	399.99
356.709	403.61
357.091	421.68
357.473	401.35
357.855	412.87
358.238	386.2
358.62	386.43
359.002	396.83
359.384	412.64
359.766	405.41
360.148	406.32
360.53	421.46
360.912	408.58
361.294	420.1
361.676	405.87
362.057	415.36
362.439	409.71
362.821	406.32
363.203	425.98
363.584	404.28
363.966	396.15
364.348	405.41
364.729	416.03
365.111	421.01
365.493	414.68
365.874	434.56
366.256	422.14
366.637	432.53
367.019	411.06
367.4	438.41
367.781	437.05
368.163	415.58
368.544	423.27
368.925	428.01
369.306	438.63
369.688	439.31
370.069	455.58
370.45	432.76
370.831	450.38
371.212	437.28
371.593	448.8
371.974	451.29
372.355	440.67
372.736	470.5
373.117	442.7
373.498	462.59
373.879	456.94
374.26	460.33
374.641	440.67
375.021	456.49
375.402	467.56
375.783	473.43
376.163	528.57
376.544	517.27
376.925	489.03
377.305	508.69
377.686	495.13
378.066	503.94
378.447	523.15
378.827	523.15
379.208	520.21
379.588	524.73
379.968	515.24
380.349	511.85
380.729	523.38
381.109	542.13
381.489	543.94
381.87	554.56
382.25	562.02
382.63	554.34
383.01	583.49
383.39	567.89
383.77	580.1
384.15	584.39
384.53	602.02
384.91	613.09
385.29	607.44
385.67	617.16
386.049	610.38
386.429	646.99
386.809	622.58
387.189	642.47
387.568	639.31
387.948	680.21
388.328	687.89
388.707	679.3
389.087	691.28
389.466	686.99
389.846	722.92
390.225	710.26
390.605	721.11
390.984	724.73
391.363	708
391.743	764.05
392.122	736.48
392.501	765.4
392.881	790.49
393.26	780.77
393.639	778.96
394.018	799.98
394.397	805.63
394.776	804.05
395.155	833.2
395.534	821
395.913	847.66
396.292	848.79
396.671	851.05
397.05	865.97
397.429	876.81
397.808	923.14
398.186	912.97
398.565	913.2
398.944	916.13
399.323	908.22
399.701	925.85
400.08	946.64
400.458	962.46
400.837	979.18
401.215	954.55
401.594	1004.04
401.972	1012.63
402.351	1013.08
402.729	1025.28
403.107	1023.25
403.486	1047.2
403.864	1062.34
404.242	1065.28
404.62	1065.73
404.999	1086.53
405.377	1086.98
405.755	1133.76
406.133	1142.57
406.511	1156.35
406.889	1147.54
407.267	1198.61
407.645	1221.21
408.023	1212.85
408.401	1208.1
408.779	1266.18
409.156	1281.1
409.534	1261.89
409.912	1291.04
410.29	1343.02
410.667	1328.33
411.045	1375.56
411.422	1402
411.8	1380.3
412.178	1415.78
412.555	1413.07
412.933	1476.35
413.31	1459.4
413.687	1509.79
414.065	1541.65
414.442	1572.16
414.819	1550.24
415.197	1580.98
415.574	1632.27
415.951	1621.2
416.328	1653.29
416.705	1660.75
417.082	1658.26
417.46	1663.01
417.837	1717.24
418.214	1736.68
418.591	1731.71
418.967	1775.09
419.344	1747.98
419.721	1815.09
420.098	1805.83
420.475	1828.43
420.852	1861.19
421.228	1908.2
421.605	1899.61
421.982	1929.21
422.358	1952.94
422.735	1994.52
423.111	1985.48
423.488	2025.94
423.864	2061.64
424.241	2056.22
424.617	2079.27
424.994	2101.41
425.37	2126.27
425.746	2112.03
426.123	2137.57
426.499	2160.85
426.875	2217.57
427.251	2275.42
427.627	2333.72
428.003	2343.89
428.379	2390.67
428.756	2403.78
429.132	2463.44
429.507	2470.44
429.883	2481.74
430.259	2571.68
430.635	2549.31
431.011	2585.92
431.387	2676.99
431.763	2683.32
432.138	2724.45
432.514	2761.51
432.89	2754.5
433.265	2844.9
433.641	2878.34
434.016	2918.34
434.392	2947.95
434.767	3010.09
435.143	3060.26
435.518	3126.92
435.894	3113.59
436.269	3117.66
436.644	3183.42
437.02	3256.64
437.395	3289.86
437.77	3297.09
438.145	3375.28
438.52	3380.25
438.895	3424.09
439.271	3446.24
439.646	3526.01
440.021	3550.19
440.395	3557.87
440.77	3574.82
441.145	3609.85
441.52	3651.88
441.895	3663.18
442.27	3688.04
442.645	3679.68
443.019	3762.16
443.394	3751.09
443.769	3831.09
444.143	3790.41
444.518	3897.98
444.892	3921.93
445.267	3940.69
445.641	3991.08
446.016	4018.43
446.39	4031.08
446.764	4059.78
447.139	4065.66
447.513	4126.67
447.887	4175.26
448.262	4195.82
448.636	4256.84
449.01	4286.21
449.384	4289.38
449.758	4361.69
450.132	4400.79
450.506	4405.53
450.88	4447.79
451.254	4471.97
451.628	4553.55
452.002	4625.64
452.376	4629.03
452.75	4685.3
453.123	4759.87
453.497	4843.71
453.871	4907.67
454.244	4980.66
454.618	5021.56
454.992	5112.86
455.365	5083.26
455.739	5259.97
456.112	5349.01
456.486	5373.64
456.859	5367.77
457.232	5472.85
457.606	5493.87
457.979	5555.79
458.352	5666.29
458.725	5756.46
459.099	5801.43
459.472	5909.9
459.845	5929.34
460.218	6036.9
460.591	6116.45
460.964	6142.66
461.337	6319.61
461.71	6399.61
462.083	6479.6
462.456	6535.87
462.829	6585.59
463.201	6678.47
463.574	6710.56
463.947	6849.99
464.32	6990.55
464.692	7009.99
465.065	7088.63
465.438	7207.27
465.81	7343.31
466.183	7365.46
466.555	7557.09
466.928	7647.93
467.3	7575.39
467.672	7771.77
468.045	7953.24
468.417	7973.35
468.789	7996.85
469.161	8115.72
469.534	8282.72
469.906	8486.56
470.278	8473.9
470.65	8610.4
471.022	8829.15
471.394	9000.22
471.766	8995.02
472.138	9181
472.51	9422.13
472.882	9610.14
473.253	9715.68
473.625	9838.39
473.997	10053.97
474.369	10100.98
474.74	10242.67
475.112	10463.68
475.484	10614.41
475.855	10747.97
476.227	10930.33
476.598	11264.34
476.97	11308.4
477.341	11500.71
477.713	11687.38
478.084	11830.65
478.455	12156.06
478.827	12189.74
479.198	12557.18
479.569	12621.59
479.94	12993.78
480.311	13123.72
480.682	13420.66
481.053	13742.24
481.424	13839.86
481.795	14126.86
482.166	14374.99
482.537	14537.02
482.908	14897.69
483.279	15098.36
483.65	15375.64
484.021	15602.53
484.391	15894.27
484.762	15971.33
485.133	16256.97
485.503	16446.35
485.874	16808.37
486.244	16898.54
486.615	17296.95
486.985	17451.29
487.356	17727.44
487.726	17864.62
488.097	18227.54
488.467	18303.25
488.837	18726.97
489.207	18895.55
489.578	19222.09
489.948	19365.37
490.318	19683.78
490.688	19782.08
491.058	20112.01
491.428	20370.09
491.798	20657.08
492.168	21010.07
492.538	21069.05
492.908	21346.56
493.278	21707.23
493.648	21789.71
494.017	22140.21
494.387	22225.86
494.757	22450.71
495.126	22708.56
495.496	22754.43
495.866	23052.73
496.235	23392.83
496.605	23470.34
496.974	23672.82
497.344	23841.41
497.713	24009.09
498.082	24232.58
498.452	24423.09
498.821	24606.13
499.19	24655.4
499.559	24862.62
499.928	24965.45
500.298	25223.97
500.667	25429.84
501.036	25496.73
501.405	25775.14
501.774	25720.91
502.143	26096.26
502.512	26140.33
502.88	26541.22
503.249	26509.13
503.618	26942.12
503.987	27006.52
504.356	27240.19
504.724	27392.95
505.093	27627.97
505.462	27756.56
505.83	27970.56
506.199	28314.28
506.567	28571.23
506.936	28591.11
507.304	28898.22
507.672	29026.58
508.041	29158.78
508.409	29420.47
508.777	29672.21
509.145	29753.34
509.514	29882.6
509.882	30121.47
510.25	30266.77
510.618	30479.88
510.986	30499.31
511.354	30739.98
511.722	31147.88
512.09	31260.19
512.458	31406.63
512.826	31672.84
513.193	31897.69
513.561	31985.6
513.929	32296.33
514.297	32549.65
514.664	32853.37
515.032	33047.49
515.4	33375.17
515.767	33579.23
516.135	33668.49
516.502	33695.84
516.869	34461.47
517.237	34436.61
517.604	34554.12
517.972	35058.29
518.339	35183.48
518.706	35277.72
519.073	35472.29
519.44	35694.2
519.808	36208.99
520.175	36121.08
520.542	36538.02
520.909	36841.07
521.276	36898.01
521.643	37272.92
522.009	37396.08
522.376	37882.39
522.743	37874.48
523.11	38352.21
523.477	38582.04
523.843	38922.14
524.21	39248.01
524.577	39515.35
524.943	39570.26
525.31	39971.83
525.676	40234.2
526.043	40595.99
526.409	40786.27
526.776	41208.63
527.142	41479.36
527.508	41770.88
527.874	42110.08
528.241	42326.57
528.607	42523.4
528.973	42821.92
529.339	43059.88
529.705	43395.24
530.071	43721.11
530.437	43905.06
530.803	44165.84
531.169	44346.4
531.535	44267.99
531.901	44542.33
532.267	44700.52
532.632	44901.64
532.998	45045.82
533.364	45391.35
533.73	45458.24
534.095	45865.91
534.461	45820.04
534.826	46044.21
535.192	46182.74
535.557	46399.68
535.923	46498.66
536.288	46626.57
536.653	46829.28
537.019	46829.73
537.384	47004.87
537.749	47192.21
538.114	47325.76
538.479	47381.13
538.845	47645.98
539.21	47723.49
539.575	47965.52
539.94	48071.28
540.305	48328.67
540.67	48458.16
541.034	48614.99
541.399	48815.89
541.764	48953.74
542.129	49136.34
542.494	49176.11
542.858	49334.3
543.223	49461.07
543.587	49707.62
543.952	49604.12
544.316	49842.08
544.681	49812.02
545.045	49938.12
545.41	50089.3
545.774	50180.6
546.138	50160.94
546.503	50300.15
546.867	50321.61
547.231	50646.13
547.595	50673.24
547.959	50836.86
548.324	50874.82
548.688	51024.42
549.052	51071.88
549.416	51134.7
549.779	51094.25
550.143	51187.81
550.507	51456.05
550.871	51640.45
551.235	51644.74
551.599	52009.71
551.962	52051.29
552.326	52213.09
552.689	52342.35
553.053	52098.29
553.417	52337.38
553.78	52784.6
554.143	52684.49
554.507	52998.83
554.87	52971.94
555.234	53393.85
555.597	53234.76
555.96	53405.38
556.323	53582.55
556.686	53635.43
557.05	53780.51
557.413	53830.22
557.776	53938.92
558.139	54206.48
558.502	54265.92
558.865	54183.43
559.228	54476.53
559.59	54507.27
559.953	54529.87
560.316	54879.91
560.679	54865.68
561.041	55009.85
561.404	55108.83
561.767	55283.97
562.129	55172.11
562.492	55518.54
562.854	55457.98
563.217	55533
563.579	55663.85
563.941	55885.76
564.304	55913.11
564.666	56145.87
565.028	56286.2
565.39	56276.71
565.753	56443.71
566.115	56498.85
566.477	56727.77
566.839	56747.66
567.201	56953.08
567.563	56927.54
567.925	57081.44
568.287	57189.46
568.648	57308.55
569.01	57445.5
569.372	57580.86
569.734	57468.32
570.095	57743.34
570.457	57880.51
570.819	57866.73
571.18	57866.05
571.542	58063.11
571.903	58070.79
572.265	58102.65
572.626	58220.39
572.987	58241.86
573.349	58289.09
573.71	58327.28
574.071	58409.31
574.432	58456.54
574.794	58681.39
575.155	58521.63
575.516	58515.75
575.877	58638.46
576.238	58666.25
576.599	58711.9
576.96	58799.81
577.32	58826.7
577.681	58835.97
578.042	59010.65
578.403	58922.07
578.763	58952.57
579.124	59019.01
579.485	59112.34
579.845	59177.65
580.206	59156.86
580.566	59165.68
580.927	59215.62
581.287	59429.4
581.648	59296.07
582.008	59349.85
582.368	59345.33
582.728	59463.3
583.089	59413.58
583.449	59369.51
583.809	59402.96
584.169	59539.9
584.529	59475.72
584.889	59706.68
585.249	59500.58
585.609	59482.28
585.969	59645.89
586.329	59539.45
586.688	59563.86
587.048	59591.2
587.408	59508.72
587.768	59430.98
588.127	59486.12
588.487	59421.49
588.846	59623.52
589.206	59358.21
589.565	59464.2
589.925	59500.13
590.284	59471.2
590.643	59444.54
591.003	59426.46
591.362	59569.06
591.721	59445.22
592.08	59481.37
592.44	59504.65
592.799	59457.65
593.158	59443.18
593.517	59489.51
593.876	59501.71
594.235	59502.39
594.593	59515.72
594.952	59570.64
595.311	59446.8
595.67	59541.71
596.029	59669.39
596.387	59703.97
596.746	59721.14
597.104	59641.6
597.463	59677.53
597.822	59718.88
598.18	59645.66
598.538	59699.67
598.897	59926.33
599.255	59678.43
599.613	60064.41
599.972	59885.88
600.33	60005.2
600.688	59867.35
601.046	60018.31
601.404	60074.35
601.762	60017.4
602.12	60130.17
602.478	60093.11
602.836	60091.08
603.194	59955.26
603.552	59991.64
603.91	59910.74
604.268	60082.26
604.625	59970.63
604.983	60104.63
605.341	59986.67
605.698	60023.05
606.056	60155.93
606.413	59986.45
606.771	60018.08
607.128	60132.2
607.485	60030.74
607.843	60056.73
608.2	60123.84
608.557	60210.17
608.914	60154.58
609.272	60168.14
609.629	60314.57
609.986	60378.98
610.343	60230.73
610.7	60463.27
611.057	60358.41
611.414	60327
611.771	60387.79
612.127	60471.4
612.484	60518.63
612.841	60599.31
613.198	60456.26
613.554	60561.35
613.911	60679.08
614.267	60625.75
614.624	60646.77
614.98	60755.01
615.337	60875.91
615.693	60783.94
616.05	60813.32
616.406	60913.88
616.762	60858.06
617.118	60873.2
617.475	60903.48
617.831	60964.27
618.187	61005.4
618.543	61010.6
618.899	61119.3
619.255	61034.55
619.611	61004.27
619.967	61113.2
620.323	61100.09
620.678	61020.54
621.034	60921.34
621.39	60933.54
621.746	60893.31
622.101	61144.38
622.457	60943.26
622.812	60901.22
623.168	60990.03
623.523	60877.5
623.879	60991.62
624.234	60754.79
624.589	60864.61
624.945	60893.77
625.3	60870.49
625.655	60818.51
626.01	60820.1
626.365	60807.21
626.72	60772.87
627.075	60716.14
627.43	60793.66
627.785	60746.88
628.14	60763.83
628.495	60821.23
628.85	60751.4
629.205	60651.06
629.559	60833.2
629.914	60674.56
630.269	60761.34
630.623	60674.56
630.978	60618.52
631.332	60759.53
631.687	60829.81
632.041	60709.82
632.396	60809.25
632.75	60704.84
633.104	60743.94
633.459	60592.98
633.813	60622.81
634.167	60685.18
634.521	60601.57
634.875	60634.56
635.229	60548.24
635.583	60492.87
635.937	60535.81
636.291	60507.56
636.645	60502.14
636.999	60444.06
637.352	60511.4
637.706	60316.83
638.06	60430.73
638.413	60332.2
638.767	60183.95
639.121	60311.41
639.474	60096.5
639.828	60110.74
640.181	60121.58
640.534	60038.65
640.888	59842.04
641.241	59894.47
641.594	59854.7
641.947	59878.43
642.301	59798.43
642.654	59754.59
643.007	59731.54
643.36	59727.24
643.713	59647.7
644.066	59684.53
644.419	59504.88
644.771	59312.56
645.124	59086.81
645.477	59035.51
645.83	58868.96
646.182	58720.72
646.535	58684.33
646.888	58727.27
647.24	58605.01
647.593	58718.68
647.945	58609.76
648.298	58529.31
648.65	58549.42
649.002	58509.2
649.355	58670.77
649.707	58514.62
650.059	58709.42
650.411	58929.52
650.763	59068.96
651.115	59242.74
651.467	59113.47
651.819	59193.25
652.171	59102.4
652.523	59125.23
652.875	59113.02
653.227	59064.21
653.578	59182.17
653.93	59084.77
654.282	58971.78
654.633	58963.87
654.985	59019.24
655.337	58988.51
655.688	58957.77
656.039	59005
656.391	58816.98
656.742	58790.32
657.094	58829.41
657.445	58901.28
657.796	58824.44
658.147	58760.04
658.498	58689.08
658.849	58729.08
659.2	58649.98
659.551	58636.88
659.902	58641.62
660.253	58553.71
660.604	58547.16
660.955	58398.46
661.306	58454.28
661.656	58350.1
662.007	58305.81
662.358	58238.69
662.708	58269.88
663.059	58235.98
663.409	58070.34
663.76	58228.53
664.11	58162.54
664.461	58204.12
664.811	58150.79
665.161	58148.53
665.511	58056.33
665.862	58051.81
666.212	58181.97
666.562	58148.75
666.912	58029.66
667.262	58115.99
667.612	58083.44
667.962	58194.85
668.312	58116.89
668.662	58196.66
669.011	58110.79
669.361	58160.5
669.711	58188.53
670.06	58090.9
670.41	58089.77
670.76	58067.17
671.109	58187.4
671.459	58097.91
671.808	58096.1
672.157	58210.22
672.507	57985.59
672.856	57983.33
673.205	57986.5
673.554	58052.03
673.904	57907.86
674.253	58018.81
674.602	57952.6
674.951	57590.12
675.3	57501.76
675.649	57913.51
675.998	57874.41
676.346	57887.74
676.695	57976.55
677.044	57686.17
677.393	57817.91
677.741	57760.97
678.09	57722.78
678.438	57636.9
678.787	57686.17
679.135	57595.1
679.484	57385.38
679.832	57436.68
680.181	57279.85
680.529	57291.6
680.877	57252.51
681.225	57187.42
681.573	57370.92
681.922	57133.86
682.27	56960.08
682.618	57022.46
682.966	56950.14
683.314	56883.48
683.661	56837.6
684.009	56678.51
684.357	56643.03
684.705	56505.63
685.053	56585.18
685.4	56521.23
685.748	56396.94
686.095	56457.27
686.443	56330.27
686.79	56265.64
687.138	56273.77
687.485	56259.54
687.832	56136.83
688.18	56232.65
688.527	56036.04
688.874	56098.41
689.221	55979.09
689.568	55967.79
689.915	55885.76
690.262	55997.85
690.609	55936.16
690.956	55815.48
691.303	55763.28
691.65	55622.27
691.997	55652.1
692.344	55553.79
692.69	55491.87
693.037	55475.15
693.383	55266.34
693.73	55295.04
694.077	55162.84
694.423	55203.07
694.769	55096.63
695.116	55076.97
695.462	55004.43
695.808	54886.47
696.155	55038.1
696.501	54771.22
696.847	54716.98
697.193	54517.21
697.539	54595.17
697.885	54504.33
698.231	54361.28
698.577	54325.8
698.923	54245.13
699.269	54116.09
699.614	53971.91
699.96	53886.49
700.306	53839.94
700.651	53730.11
700.997	53574.41
701.342	53492.83
701.688	53502.1
702.033	53367.41
702.379	53276.11
702.724	53211.03
703.069	53282.21
703.415	52775.34
703.76	52886.52
704.105	52737.37
704.45	52617.15
704.795	52462.35
705.14	52324.95
705.485	52195.24
705.83	52106.88
706.175	52049.48
706.52	51940.78
706.865	51866.66
707.209	51971.29
707.554	51692.65
707.899	51705.53
708.243	51456.95
708.588	51431.42
708.932	51266.22
709.277	51257.41
709.621	51301.93
709.966	51177.41
710.31	51179.9
710.654	50889.06
710.998	50994.59
711.342	50939.9
711.687	50887.25
712.031	50666.01
712.375	50568.16
712.719	50809.06
713.063	50604.77
713.407	50782.39
713.75	50552.34
714.094	50602.74
714.438	50341.28
714.782	50355.96
715.125	50316.64
715.469	50351.22
715.812	50101.96
716.156	49980.83
716.499	50072.13
716.843	50193.03
717.186	49838.24
717.53	50042.07
717.873	49948.07
718.216	49768.18
718.559	49656.1
718.902	49481.41
719.246	49500.85
719.589	49480.51
719.932	49161.19
720.275	49128.43
720.617	49250.68
720.96	48948.09
721.303	49036.68
721.646	49098.82
721.989	48915.55
722.331	48833.97
722.674	48653.41
723.016	48682.34
723.359	48568.89
723.701	48583.81
724.044	48377.49
724.386	48057.04
724.729	48314.21
725.071	48143.37
725.413	48027.89
725.755	48073.54
726.097	47868.8
726.439	47619.54
726.782	47600.1
727.124	47780.89
727.465	47464.06
727.807	47431.75
728.149	47201.47
728.491	47201.47
728.833	47233.33
729.175	46984.3
729.516	46990.63
729.858	46713.35
730.199	46860.69
730.541	46666.57
730.882	46609.4
731.224	46674.7
731.565	46320.14
731.906	46462.51
732.248	46399.23
732.589	46245.34
732.93	45959.47
733.271	46194.94
733.612	46098.22
733.953	46086.02
734.294	45940.94
734.635	45879.47
734.976	46000.82
735.317	45580.72
735.658	45665.92
735.999	45595.86
736.339	45685.35
736.68	45744.79
737.021	45571.23
737.361	45422.53
737.702	45570.33
738.042	45386.15
738.383	45460.27
738.723	45415.76
739.063	45187.96
739.404	45286.27
739.744	45148.19
740.084	45059.15
740.424	45188.19
740.764	44973.51
741.104	45128.3
741.444	44745.72
741.784	44662.55
742.124	44683.8
742.464	44667.75
742.804	44533.29
743.143	44611.26
743.483	44674.31
743.823	44412.39
744.162	44247.42
744.502	44336.91
744.841	44056.24
745.181	44282
745.52	44029.58
745.86	44107.31
746.199	43946.64
746.538	43801.79
746.877	43877.49
747.216	43693.99
747.556	43594.11
747.895	43607.21
748.234	43448.35
748.573	43323.38
748.911	43140.79
749.25	43224.85
749.589	43012.2
749.928	43112.09
750.267	42858.76
750.605	42740.57
750.944	42767.24
751.283	42552.1
751.621	42524.31
751.96	42300.36
