Data from aluminium_surface_pro_back_FLMS001491_00030.txt Node
Date: Wed Feb 08 15:33:51 GMT 2017
User: dcchb
Spectrometer: FLMS00149
Trigger mode: 0
Integration Time (sec): 2.000000E-2
Scans to average: 10
Electric dark correction enabled: true
Nonlinearity correction enabled: false
Boxcar width: 0
XAxis mode: Wavelengths
Number of Pixels in Spectrum: 2048
>>>>>Begin Spectral Data<<<<<
341.393	-7.54
341.776	-7.54
342.16	-7.54
342.543	-70.14
342.927	-60.2
343.31	-64.26
343.693	-83.25
344.077	-51.61
344.46	-60.42
344.843	-54.77
345.226	-50.93
345.61	-50.48
345.993	-7.32
346.376	-15.23
346.759	-0.31
347.142	29.07
347.525	39.46
347.908	66.81
348.291	90.76
348.674	94.83
349.057	117.65
349.44	120.82
349.823	149.52
350.206	175.28
350.588	214.6
350.971	253.24
351.354	242.17
351.737	245.78
352.119	239.01
352.502	286.46
352.884	307.93
353.267	307.25
353.65	337.76
354.032	328.95
354.414	340.7
354.797	324.88
355.179	350.64
355.562	357.19
355.944	357.42
356.326	376.18
356.709	387.48
357.091	383.41
357.473	393.8
357.855	356.29
358.238	375.95
358.62	361.26
359.002	365.33
359.384	382.05
359.766	396.29
360.148	361.49
360.53	378.89
360.912	350.64
361.294	372.11
361.676	365.56
362.057	362.17
362.439	367.14
362.821	381.83
363.203	373.46
363.584	352.45
363.966	361.26
364.348	361.49
364.729	374.37
365.111	373.24
365.493	376.63
365.874	372.79
366.256	371.43
366.637	370.75
367.019	375.5
367.4	371.88
367.781	365.33
368.163	385.67
368.544	354.48
368.925	355.16
369.306	401.71
369.688	367.14
370.069	376.18
370.45	367.59
370.831	379.57
371.212	369.17
371.593	393.13
371.974	389.28
372.355	359.45
372.736	362.17
373.117	380.24
373.498	405.1
373.879	379.34
374.26	387.48
374.641	382.73
375.021	385.44
375.402	393.58
375.783	391.32
376.163	422.05
376.544	414.14
376.925	423.18
377.305	407.36
377.686	413.69
378.066	414.37
378.447	433.58
378.827	425.89
379.208	426.8
379.588	430.41
379.968	438.55
380.349	440.36
380.729	444.42
381.109	445.78
381.489	434.71
381.87	439.68
382.25	455.5
382.63	441.03
383.01	456.63
383.39	457.98
383.77	466.12
384.15	458.66
384.53	485.78
384.91	467.93
385.29	501.82
385.67	499.11
386.049	474.93
386.429	500.92
386.809	495.72
387.189	504.31
387.568	509.51
387.948	504.76
388.328	531.43
388.707	533.69
389.087	538.21
389.466	546.34
389.846	542.5
390.225	548.83
390.605	557.41
390.984	558.09
391.363	562.39
391.743	581.37
392.122	575.04
392.501	613.46
392.881	607.13
393.26	590.63
393.639	609.84
394.018	613.01
394.397	636.06
394.776	608.26
395.155	639.67
395.534	643.51
395.913	661.59
396.292	648.94
396.671	647.58
397.05	645.1
397.429	648.49
397.808	669.28
398.186	674.47
398.565	680.8
398.944	697.98
399.323	687.58
399.701	705.89
400.08	709.05
400.458	727.35
400.837	734.81
401.215	756.05
401.594	768.03
401.972	750.63
402.351	757.41
402.729	772.55
403.107	783.85
403.486	788.6
403.864	791.08
404.242	816.62
404.62	832.21
404.999	839.22
405.377	845.32
405.755	833.34
406.133	855.94
406.511	891.19
406.889	905.88
407.267	930.74
407.645	940
408.023	953.79
408.401	942.04
408.779	928.25
409.156	958.99
409.534	976.16
409.912	974.35
410.29	1014.13
410.667	1015.03
411.045	1046.22
411.422	1055.03
411.8	1072.88
412.178	1070.62
412.555	1083.05
412.933	1075.82
413.31	1105.2
413.687	1134.12
414.065	1148.13
414.442	1140.22
414.819	1170.28
415.197	1162.6
415.574	1212.31
415.951	1208.92
416.328	1224.29
416.705	1236.49
417.082	1227.91
417.46	1285.53
417.837	1269.71
418.214	1288.47
418.591	1300.22
418.967	1269.03
419.344	1323.72
419.721	1355.59
420.098	1333.21
420.475	1363.95
420.852	1378.86
421.228	1381.35
421.605	1417.96
421.982	1425.87
422.358	1409.6
422.735	1470.39
423.111	1483.27
423.488	1504.06
423.864	1514.23
424.241	1513.77
424.617	1522.81
424.994	1535.47
425.37	1557.84
425.746	1554.9
426.123	1591.06
426.499	1620.21
426.875	1605.07
427.251	1654.34
427.627	1685.75
428.003	1682.81
428.379	1699.31
428.756	1722.36
429.132	1746.54
429.507	1738.85
429.883	1795.8
430.259	1817.72
430.635	1847.32
431.011	1883.71
431.387	1911.28
431.763	1942.46
432.138	1940.2
432.514	1989.24
432.89	1990.15
433.265	2042.35
433.641	2055.23
434.016	2069.01
434.392	2126.41
434.767	2176.13
435.143	2162.12
435.518	2220.42
435.894	2211.83
436.269	2234.88
436.644	2292.06
437.02	2313.07
437.395	2299.52
437.77	2356.69
438.145	2358.05
438.52	2384.71
438.895	2421.09
439.271	2404.6
439.646	2486.63
440.021	2490.47
440.395	2510.13
440.77	2503.58
441.145	2529.79
441.52	2589.23
441.895	2583.8
442.27	2591.71
442.645	2614.99
443.019	2671.71
443.394	2639.85
443.769	2702.67
444.143	2668.32
444.518	2730.24
444.892	2702.9
445.267	2764.14
445.641	2774.98
446.016	2789.9
446.39	2789.67
446.764	2835.77
447.139	2847.98
447.513	2905.15
447.887	2866.96
448.262	2885.94
448.636	2900.4
449.01	2983.57
449.384	2988.76
449.758	3057.01
450.132	3061.3
450.506	3062.43
450.88	3103.56
451.254	3098.82
451.628	3163.45
452.002	3234.18
452.376	3224.46
452.75	3287.51
453.123	3329.32
453.497	3365.7
453.871	3366.61
454.244	3388.07
454.618	3440.05
454.992	3495.19
455.365	3501.97
455.739	3599.59
456.112	3643.66
456.486	3648.63
456.859	3668.29
457.232	3764.34
457.606	3745.58
457.979	3828.74
458.352	3886.82
458.725	3955.07
459.099	4020.15
459.472	4035.52
459.845	4126.13
460.218	4112.8
460.591	4174.27
460.964	4192.57
461.337	4337.2
461.71	4341.27
462.083	4468.05
462.456	4428.27
462.829	4444.32
463.201	4533.36
463.574	4528.61
463.947	4614.94
464.32	4731.32
464.692	4812.22
465.065	4836.4
465.438	4854.48
465.81	4974.47
466.183	4961.59
466.555	5123.4
466.928	5150.29
467.3	5154.36
467.672	5259.44
468.045	5304.86
468.417	5386.44
468.789	5374.24
469.161	5532.88
469.534	5595.02
469.906	5687.68
470.278	5795.24
470.65	5798.86
471.022	5939.19
471.394	6029.81
471.766	6068
472.138	6152.3
472.51	6321.1
472.882	6398.17
473.253	6482.91
473.625	6565.39
473.997	6695.33
474.369	6712.06
474.74	6774.43
475.112	6943.91
475.484	7095.55
475.855	7236.79
476.227	7290.57
476.598	7437.23
476.97	7498.93
477.341	7694.4
477.713	7817.34
478.084	7864.79
478.455	8122.41
478.827	8163.32
479.198	8435.17
479.569	8361.73
479.94	8722.62
480.311	8707.71
480.682	8920.58
481.053	9130.3
481.424	9309.27
481.795	9361.25
482.166	9550.17
482.537	9592.88
482.908	9885.08
483.279	9977.96
483.65	10174.79
484.021	10424.5
484.391	10435.35
484.762	10565.51
485.133	10598.96
485.503	10902.45
485.874	11032.85
486.244	11189
486.615	11417.02
486.985	11509.9
487.356	11772.71
487.726	11818.14
488.097	12168.86
488.467	12187.17
488.837	12374.96
489.207	12464.22
489.578	12754.83
489.948	12874.6
490.318	12948.73
490.688	13122.96
491.058	13318.44
491.428	13466.45
491.798	13643.62
492.168	13952.32
492.538	13901.92
492.908	14183.27
493.278	14348.01
493.648	14262.37
494.017	14543.71
494.387	14726.08
494.757	14888.79
495.126	15113.87
495.496	15054.66
495.866	15208.78
496.235	15424.14
496.605	15627.98
496.974	15730.58
497.344	15783.68
497.713	15901.87
498.082	16074.75
498.452	16234.52
498.821	16302.54
499.19	16337.56
499.559	16494.17
499.928	16597.44
500.298	16796.54
500.667	16908.62
501.036	16924.67
501.405	17116.53
501.774	17137.77
502.143	17267.48
502.512	17361.49
502.88	17573.24
503.249	17593.8
503.618	17797.41
503.987	17825.44
504.356	18001.02
504.724	18092.32
505.093	18184.97
505.462	18316.5
505.83	18526.43
506.199	18624.28
506.567	18859.76
506.936	18871.06
507.304	19134.55
507.672	19160.77
508.041	19338.39
508.409	19494.77
508.777	19663.13
509.145	19824.03
509.514	19824.03
509.882	20065.83
510.25	20083.23
510.618	20332.94
510.986	20317.35
511.354	20513.27
511.722	20683.44
512.09	20972.47
512.458	20959.36
512.826	21125.01
513.193	21196.42
513.561	21477.77
513.929	21557.54
514.297	21713.24
514.664	21826.69
515.032	21996.85
515.4	22323.85
515.767	22367.24
516.135	22531.75
516.502	22400.23
516.869	22819.43
517.237	22937.39
517.604	22898.52
517.972	23194.79
518.339	23474.78
518.706	23462.8
519.073	23579.18
519.44	23814.66
519.808	24100.75
520.175	24127.42
520.542	24516.78
520.909	24586.39
521.276	24714.52
521.643	24992.7
522.009	25116.54
522.376	25406.03
522.743	25578.45
523.11	25852.34
523.477	26035.84
523.843	26325.55
524.21	26513.34
524.577	26799.21
524.943	26848.7
525.31	27039.88
525.676	27129.37
526.043	27368.91
526.409	27600.09
526.776	27871.95
527.142	27924.83
527.508	28254.09
527.874	28333.86
528.241	28526.62
528.607	28605.04
528.973	28974.29
529.339	28870.57
529.705	29152.14
530.071	29342.42
530.437	29586.48
530.803	29714.39
531.169	29933.14
531.535	29819.02
531.901	30032.57
532.267	30259.68
532.632	30576.29
532.998	30777.19
533.364	30927.92
533.73	30920.01
534.095	31186.44
534.461	31279.32
534.826	31427.79
535.192	31588.69
535.557	31793.88
535.923	31846.31
536.288	32028.23
536.653	32130.37
537.019	32104.38
537.384	32282.46
537.749	32386.18
538.114	32417.37
538.479	32560.87
538.845	32685.16
539.21	32757.92
539.575	32788.88
539.94	33013.28
540.305	33050.12
540.67	33102.1
541.034	33416.66
541.399	33537.79
541.764	33615.98
542.129	33724.9
542.494	33792.7
542.858	34078.79
543.223	34013.48
543.587	34241.05
543.952	34182.07
544.316	34370.76
544.681	34393.36
545.045	34565.79
545.41	34837.64
545.774	34851.43
546.138	34796.97
546.503	35062.5
546.867	35023.4
547.231	35328.03
547.595	35385.88
547.959	35578.19
548.324	35596.95
548.688	35581.8
549.052	35847.33
549.416	35933.43
549.779	35915.81
550.143	36060.44
550.507	36340.2
550.871	36517.37
551.235	36540.65
551.599	36781.77
551.962	36820.42
552.326	36981.32
552.689	37137.47
553.053	37021.31
553.417	37158.26
553.78	37748.3
554.143	37427.41
554.507	37745.59
554.87	37760.05
555.234	38365.01
555.597	38082.3
555.96	38303.31
556.323	38501.05
556.686	38603.42
557.05	38876.86
557.413	39003.41
557.776	39203.4
558.139	39346
558.502	39433
558.865	39546.9
559.228	39811.07
559.59	39973.1
559.953	40141.91
560.316	40446.31
560.679	40422.36
561.041	40738.51
561.404	41011.04
561.767	41178.27
562.129	40990.7
562.492	41496.45
562.854	41628.2
563.217	41610.35
563.579	41788.2
563.941	42077
564.304	42396.99
564.666	42477.89
565.028	42705.69
565.39	42846.02
565.753	43107.71
566.115	43156.29
566.477	43469.28
566.839	43562.16
567.201	43848.71
567.563	43992.88
567.925	44252.54
568.287	44278.75
568.648	44451.18
569.01	44579.53
569.372	44911.5
569.734	44862.24
570.095	45178.84
570.457	45399.85
570.819	45491.83
571.18	45438.27
571.542	45885.94
571.903	45957.12
572.265	46003.9
572.626	46189.44
572.987	46271.69
573.349	46314.86
573.71	46689.99
574.071	46648.63
574.432	46874.16
574.794	47051.11
575.155	47002.97
575.516	47044.78
575.877	47244.55
576.238	47273.02
576.599	47405.67
576.96	47552.34
577.32	47619
577.681	47760.69
578.042	47971.54
578.403	47930.18
578.763	47966.11
579.124	48248.14
579.485	48297.18
579.845	48483.39
580.206	48302.15
580.566	48369.04
580.927	48476.38
581.287	48523.39
581.648	48372.65
582.008	48582.14
582.368	48546.21
582.728	48612.42
583.089	48593.89
583.449	48555.25
583.809	48666.66
584.169	48862.13
584.529	48681.35
584.889	49062.13
585.249	48868.01
585.609	48779.42
585.969	48974.67
586.329	48891.06
586.688	48950.72
587.048	48951.85
587.408	48906.2
587.768	48957.95
588.127	48830.95
588.487	48855.13
588.846	49061
589.206	48854.9
589.565	48878.18
589.925	49162.46
590.284	48921.79
590.643	49115.23
591.003	49121.34
591.362	49132.18
591.721	49223.93
592.08	49187.1
592.44	49223.03
592.799	49328.34
593.158	49217.15
593.517	49336.47
593.876	49328.11
594.235	49204.95
594.593	49264.61
594.952	49478.16
595.311	49229.58
595.67	49430.03
596.029	49598.84
596.387	49679.51
596.746	49644.26
597.104	49606.29
597.463	49485.62
597.822	49693.3
598.18	49538.5
598.538	49541.89
598.897	49760.41
599.255	49387.77
599.613	49941.43
599.972	49673.41
600.33	49837.25
600.688	49671.38
601.046	49804.93
601.404	49960.64
601.762	49898.94
602.12	50160.86
602.478	50035.21
602.836	50005.83
603.194	49807.19
603.552	49947.08
603.91	49940.3
604.268	50078.82
604.625	49923.57
604.983	50140.29
605.341	49997.7
605.698	50154.75
606.056	50165.83
606.413	50201.76
606.771	50304.36
607.128	50439.49
607.485	50213.28
607.843	50198.6
608.2	50566.5
608.557	50644.23
608.914	50583.9
609.272	50683.78
609.629	50730.56
609.986	50868.86
610.343	50689.66
610.7	50881.97
611.057	50774.85
611.414	50801.74
611.771	50797.68
612.127	50945.02
612.484	50947.73
612.841	51079.48
613.198	50868.86
613.554	51027.95
613.911	51268.85
614.267	51220.49
614.624	50996.09
614.98	51196.08
615.337	51418.45
615.693	51357.21
616.05	51308.4
616.406	51399.47
616.762	51391.33
617.118	51283.76
617.475	51258.68
617.831	51348.85
618.187	51419.13
618.543	51415.06
618.899	51712
619.255	51556.98
619.611	51525.57
619.967	51702.28
620.323	51674.49
620.678	51639.01
621.034	51500.26
621.39	51484.89
621.746	51410.99
622.101	51803.3
622.457	51427.94
622.812	51528.05
623.168	51623.87
623.523	51547.03
623.879	51629.97
624.234	51600.37
624.589	51540.93
624.945	51577.09
625.3	51654.83
625.655	51669.07
626.01	51602.4
626.365	51599.91
626.72	51721.72
627.075	51566.47
627.43	51532.35
627.785	51525.57
628.14	51605.79
628.495	51539.8
628.85	51497.32
629.205	51438.79
629.559	51566.24
629.914	51419.81
630.269	51475.62
630.623	51288.96
630.978	51298
631.332	51488.96
631.687	51483.53
632.041	51228.4
632.396	51379.58
632.75	51281.73
633.104	51344.33
633.459	51188.4
633.813	51224.78
634.167	51281.96
634.521	51106.59
634.875	51252.58
635.229	51172.13
635.583	50993.83
635.937	51028.63
636.291	50953.38
636.645	50988.63
636.999	50898.24
637.352	50938.01
637.706	50706.15
638.06	50852.59
638.413	50715.19
638.767	50672.71
639.121	50720.62
639.474	50450.34
639.828	50416.22
640.181	50465.48
640.534	50444.01
640.888	50414.18
641.241	50233.17
641.594	50321.3
641.947	50237.24
642.301	50346.16
642.654	50369.44
643.007	50271.59
643.36	50140.29
643.713	49983.91
644.066	50126.51
644.419	49802.22
644.771	49661.66
645.124	49281.78
645.477	49073.88
645.83	48988.91
646.182	48794.11
646.535	48785.07
646.888	48790.5
647.24	48612.42
647.593	48905.07
647.945	48665.53
648.298	48500.33
648.65	48445.42
649.002	48363.39
649.355	48437.29
649.707	48441.81
650.059	48512.54
650.411	48930.83
650.763	49110.49
651.115	49247.66
651.467	49229.81
651.819	49077.49
652.171	49033.2
652.523	49029.13
652.875	49162.01
653.227	48872.98
653.578	49056.48
653.93	49056.7
654.282	48853.77
654.633	48646.32
654.985	48787.78
655.337	48764.51
655.688	48763.6
656.039	48843.38
656.391	48480.45
656.742	48592.31
657.094	48677.73
657.445	48739.88
657.796	48771.06
658.147	48530.16
658.498	48447.23
658.849	48499.66
659.2	48491.52
659.551	48440.68
659.902	48466.21
660.253	48326.33
660.604	48430.73
660.955	48313.9
661.306	48325.2
661.656	48261.25
662.007	48332.88
662.358	48303.5
662.708	48193
663.059	48089.72
663.409	47866.45
663.76	48216.95
664.11	48122.72
664.461	48147.8
664.811	48171.53
665.161	48221.92
665.511	47999.33
665.862	47982.16
666.212	48148.03
666.562	48054.47
666.912	47981.25
667.262	48000.69
667.612	47980.12
667.962	48018.31
668.312	48007.69
668.662	48215.6
669.011	47993.91
669.361	47761.37
669.711	47862.61
670.06	47655.61
670.41	47651.09
670.76	47570.64
671.109	47705.33
671.459	47638.89
671.808	47617.19
672.157	47700.13
672.507	47476.41
672.856	47477.76
673.205	47564.54
673.554	47600.92
673.904	47426.24
674.253	47659.68
674.602	47353.7
674.951	46957.32
675.3	46682.3
675.649	47343.76
675.998	47237.32
676.346	47341.5
676.695	47400.25
677.044	46982.63
677.393	47168.84
677.741	47055.63
678.09	46930.66
678.438	46936.99
678.787	46952.8
679.135	46940.6
679.484	46665.35
679.832	46885.24
680.181	46510.56
680.529	46703.09
680.877	46608.41
681.225	46475.76
681.573	46722.3
681.922	46342.88
682.27	46266.72
682.618	46278.25
682.966	46162.54
683.314	46291.13
683.661	46174.75
684.009	45800.52
684.357	45839.16
684.705	45714.65
685.053	45784.02
685.4	45650.47
685.748	45620.86
686.095	45611.82
686.443	45331.83
686.79	45279.63
687.138	45446.86
687.485	45369.34
687.832	45105.4
688.18	45062.46
688.527	45021.33
688.874	44862.46
689.221	44895.23
689.568	44742.02
689.915	44694.56
690.262	44662.02
690.609	44531.63
690.956	44508.12
691.303	44407.34
691.65	44297.96
691.997	44333.21
692.344	44007.8
692.69	43908.59
693.037	43939.78
693.383	43662.27
693.73	43813.45
694.077	43546.34
694.423	43438.77
694.769	43449.62
695.116	43230.87
695.462	43257.31
695.808	43150.19
696.155	43240.36
696.501	42847.38
696.847	42708.4
697.193	42505.01
697.539	42662.07
697.885	42364.9
698.231	42321.74
698.577	42262.98
698.923	42027.06
699.269	41902.09
699.614	41765.6
699.96	41620.97
700.306	41520.86
700.651	41549.78
700.997	41422.78
701.342	41345.49
701.688	41216.23
702.033	41250.13
702.379	41171.26
702.724	40925.39
703.069	41056.69
703.415	40727.66
703.76	40653.31
704.105	40680.43
704.45	40496.25
704.795	40326.09
705.14	40114.11
705.485	40113.66
705.83	39957.51
706.175	39891.3
706.52	39879.77
706.865	39713.45
707.209	39703.96
707.554	39344.19
707.899	39614.92
708.243	39353.23
708.588	39295.38
708.932	39130.64
709.277	38980.59
709.621	39079.57
709.966	38719.12
710.31	38870.08
710.654	38478.9
710.998	38652.68
711.342	38651.55
711.687	38614.72
712.031	38442.75
712.375	38354.16
712.719	38302.18
713.063	38242.3
713.407	38274.84
713.75	38107.84
714.094	38108.07
714.438	37929.31
714.782	37975.64
715.125	37706.04
715.469	37759.83
715.812	37549.21
716.156	37419.95
716.499	37532.26
716.843	37394.41
717.186	37146.74
717.53	37350.12
717.873	37352.83
718.216	37199.39
718.559	37076.45
718.902	36832.62
719.246	37006.63
719.589	36708.33
719.932	36622.68
720.275	36533.87
720.617	36675.79
720.96	36438.51
721.303	36489.35
721.646	36592.4
721.989	36420.43
722.331	36395.12
722.674	36381.56
723.016	36270.15
723.359	36170.04
723.701	36191.51
724.044	35931.4
724.386	35842.36
724.729	35996.48
725.071	35776.6
725.413	35725.08
725.755	35639.43
726.097	35449.15
726.439	35435.82
726.782	35467.23
727.124	35555.82
727.465	35300
727.807	35321.47
728.149	35178.2
728.491	35138.2
728.833	35135.49
729.175	34865.67
729.516	35021.82
729.858	34798.32
730.199	34936.62
730.541	34864.76
730.882	34901.6
731.224	34812.33
731.565	34631.1
731.906	34709.51
732.248	34653.24
732.589	34566.92
732.93	34410.99
733.271	34421.61
733.612	34435.39
733.953	34375.51
734.294	34195.63
734.635	34126.48
734.976	34118.57
735.317	33924.22
735.658	33909.76
735.999	33937.55
736.339	33754.28
736.68	33895.75
737.021	33719.48
737.361	33679.48
737.702	33841.29
738.042	33705.92
738.383	33509.77
738.723	33600.84
739.063	33435.42
739.404	33481.52
739.744	33398.36
740.084	33311.13
740.424	33227.29
740.764	33282.43
741.104	33270.9
741.444	33076.79
741.784	32974.87
742.124	33036.11
742.464	33131.47
742.804	33049.67
743.143	32771.71
743.483	32856.23
743.823	32724.03
744.162	32786.85
744.502	32650.13
744.841	32547.08
745.181	32776.23
745.52	32578.49
745.86	32726.06
746.199	32484.03
746.538	32493.3
746.877	32391.61
747.216	32267.99
747.556	32201.55
747.895	32288.56
748.234	32020.09
748.573	31928.57
748.911	32045.63
749.25	31947.78
749.589	31641.34
749.928	31722.47
750.267	31813.99
750.605	31584.17
750.944	31630.72
751.283	31458.3
751.621	31391.41
751.96	31191.41
752.298	31281.13
752.636	31400.9
752.975	31237.29
753.313	31146.67
