Data from aluminium_macbook_case_FLMS001491_009.txt Node
Date: Tue Feb 07 10:43:07 GMT 2017
User: dcchb
Spectrometer: FLMS00149
Trigger mode: 0
Integration Time (sec): 2.000000E-2
Scans to average: 10
Electric dark correction enabled: true
Nonlinearity correction enabled: false
Boxcar width: 0
XAxis mode: Wavelengths
Number of Pixels in Spectrum: 2048
>>>>>Begin Spectral Data<<<<<
341.393	-9.41
341.776	-9.41
342.16	-9.41
342.543	-55.28
342.927	-42.85
343.31	-71.55
343.693	-76.07
344.077	-38.33
344.46	-42.63
344.843	-49.86
345.226	-51.89
345.61	-48.5
345.993	-32.68
346.376	-10.31
346.759	9.8
347.142	17.71
347.525	61.33
347.908	60.65
348.291	70.14
348.674	85.96
349.057	116.24
349.44	104.71
349.823	148.33
350.206	172.74
350.588	240.08
350.971	237.14
351.354	274.43
351.737	290.25
352.119	290.25
352.502	333.64
352.884	336.35
353.267	331.83
353.65	339.96
354.032	345.39
354.414	354.43
354.797	357.14
355.179	373.86
355.562	379.06
355.944	389.45
356.326	383.13
356.709	412.73
357.091	405.72
357.473	418.15
357.855	403.01
358.238	411.83
358.62	398.27
359.002	422.45
359.384	417.47
359.766	430.81
360.148	405.05
360.53	419.73
360.912	413.63
361.294	414.54
361.676	413.63
362.057	442.11
362.439	426.29
362.821	430.36
363.203	401.88
363.584	433.07
363.966	411.6
364.348	425.61
364.729	421.09
365.111	417.47
365.493	413.63
365.874	411.6
366.256	400.3
366.637	425.16
367.019	415.89
367.4	437.59
367.781	427.87
368.163	451.6
368.544	446.85
368.925	421.77
369.306	460.19
369.688	445.27
370.069	449.11
370.45	428.1
370.831	460.19
371.212	472.84
371.593	452.95
371.974	444.82
372.355	473.52
372.736	467.19
373.117	508.77
373.498	496.34
373.879	469.9
374.26	473.29
374.641	467.87
375.021	469
375.402	476.68
375.783	486.63
376.163	526.17
376.544	509.45
376.925	516.91
377.305	532.27
377.686	504.03
378.066	510.13
378.447	538.6
378.827	519.39
379.208	560.07
379.588	558.04
379.968	547.41
380.349	543.8
380.729	560.75
381.109	555.78
381.489	553.97
381.87	575.21
382.25	588.09
382.63	589.22
383.01	589
383.39	608.43
383.77	607.75
384.15	607.3
384.53	614.53
384.91	631.71
385.29	657.24
385.67	628.54
386.049	657.69
386.429	659.05
386.809	671.71
387.189	665.38
387.568	675.1
387.948	698.37
388.328	692.95
388.707	692.95
389.087	710.12
389.466	722.55
389.846	717.58
390.225	738.14
390.605	756.9
390.984	749.9
391.363	773.62
391.743	772.04
392.122	786.05
392.501	802.1
392.881	819.72
393.26	819.95
393.639	815.2
394.018	842.1
394.397	874.41
394.776	855.66
395.155	856.33
395.534	866.95
395.913	870.34
396.292	889.1
396.671	904.92
397.05	908.76
397.429	921.19
397.808	956.22
398.186	931.81
398.565	932.04
398.944	935.2
399.323	967.52
399.701	981.53
400.08	997.8
400.458	1007.06
400.837	1006.16
401.215	1003.22
401.594	1030.11
401.972	1077.12
402.351	1082.77
402.729	1092.26
403.107	1090
403.486	1092.71
403.864	1104.01
404.242	1125.25
404.62	1156.44
404.999	1170.22
405.377	1177.45
405.755	1178.81
406.133	1217.45
406.511	1228.08
406.889	1230.79
407.267	1248.19
407.645	1269.66
408.023	1285.25
408.401	1335.42
408.779	1335.42
409.156	1384.68
409.534	1365.02
409.912	1374.51
410.29	1414.28
410.667	1426.04
411.045	1452.48
411.422	1461.97
411.8	1472.59
412.178	1534.51
412.555	1548.97
412.933	1549.87
413.31	1536.99
413.687	1622.41
414.065	1575.86
414.442	1645.47
414.819	1661.51
415.197	1681.4
415.574	1734.28
415.951	1736.54
416.328	1760.26
416.705	1746.93
417.082	1780.15
417.46	1798
417.837	1807.72
418.214	1817.66
418.591	1818.57
418.967	1877.1
419.344	1895.4
419.721	1893.59
420.098	1904.67
420.475	1948.73
420.852	1998.45
421.228	1986.47
421.605	2018.79
421.982	2023.31
422.358	2049.07
422.735	2083.65
423.111	2120.03
423.488	2182.4
423.864	2186.47
424.241	2202.96
424.617	2234.83
424.994	2253.58
425.37	2247.94
425.746	2344.2
426.123	2324.77
426.499	2334.94
426.875	2386.24
427.251	2425.11
427.627	2484.09
428.003	2498.1
428.379	2549.17
428.756	2584.42
429.132	2607.02
429.507	2666.68
429.883	2660.35
430.259	2720.47
430.635	2719.79
431.011	2788.03
431.387	2847.02
431.763	2886.79
432.138	2959.78
432.514	3018.99
432.89	2993
433.265	3043.39
433.641	3103.96
434.016	3117.74
434.392	3200.23
434.767	3268.93
435.143	3214.01
435.518	3289.04
435.894	3322.03
436.269	3386.44
436.644	3438.86
437.02	3484.74
437.395	3468.92
437.77	3512.76
438.145	3570.16
438.52	3610.39
438.895	3658.52
439.271	3719.99
439.646	3791.17
440.021	3819.87
440.395	3797.5
440.77	3835.24
441.145	3872.53
441.52	3967.89
441.895	3915.46
442.27	3962.92
442.645	3991.84
443.019	4039.3
443.394	4036.59
443.769	4140.31
444.143	4089.24
444.518	4214.44
444.892	4200.88
445.267	4227.32
445.641	4247.43
446.016	4316.13
446.39	4311.84
446.764	4404.49
447.139	4362.68
447.513	4434.09
447.887	4439.29
448.262	4504.37
448.636	4560.19
449.01	4604.03
449.384	4609.91
449.758	4689.68
450.132	4791.15
450.506	4790.02
450.88	4786.85
451.254	4838.83
451.628	4907.07
452.002	4940.29
452.376	4990.01
452.75	5067.3
453.123	5074.75
453.497	5185.26
453.871	5210.34
454.244	5345.93
454.618	5374.41
454.992	5486.27
455.365	5481.07
455.739	5629.99
456.112	5663.21
456.486	5721.74
456.859	5768.07
457.232	5919.25
457.606	5940.49
457.979	6021.85
458.352	6097.55
458.725	6257.77
459.099	6216.87
459.472	6439.46
459.845	6479.01
460.218	6506.35
460.591	6580.48
460.964	6657.76
461.337	6777.99
461.71	6925.55
462.083	6992.22
462.456	7001.48
462.829	7034.7
463.201	7146.79
463.574	7170.07
463.947	7352.43
464.32	7505.65
464.692	7495.71
465.065	7612.77
465.438	7733.44
465.81	7866.09
466.183	7922.81
466.555	8142.92
466.928	8161.68
467.3	8208.91
467.672	8359.86
468.045	8615.23
468.417	8621.55
468.789	8690.48
469.161	8775.67
469.534	8981.54
469.906	9223.57
470.278	9275.32
470.65	9360.06
471.022	9525.94
471.394	9715.54
471.766	9795.53
472.138	9889.54
472.51	10145.35
472.882	10145.13
473.253	10398.46
473.625	10515.51
473.997	10811.33
474.369	10835.96
474.74	10942.17
475.112	11205.21
475.484	11410.41
475.855	11571.76
476.227	11722.49
476.598	12140.33
476.97	12255.81
477.341	12475.24
477.713	12678.85
478.084	12783.25
478.455	13159.74
478.827	13289
479.198	13727.63
479.569	13713.62
479.94	14118.36
480.311	14229.99
480.682	14542.98
481.053	14854.16
481.424	15136.86
481.795	15275.16
482.166	15446.46
482.537	15687.81
482.908	16006.9
483.279	16176.61
483.65	16518.07
484.021	16811.39
484.391	16981.11
484.762	17177.49
485.133	17344.49
485.503	17671.26
485.874	18079.38
486.244	18139.27
486.615	18459.03
486.985	18770.66
487.356	19193.48
487.726	19416.75
488.097	19793.46
488.467	19873.23
488.837	20353
489.207	20643.61
489.578	20836.83
489.948	21054.45
490.318	21397.26
490.688	21457.6
491.058	21772.17
491.428	22021.43
491.798	22284.24
492.168	22637.23
492.538	22903.89
492.908	23055.3
493.278	23292.35
493.648	23354.5
494.017	23739.8
494.387	23968.95
494.757	24064.54
495.126	24397.41
495.496	24511.3
495.866	24646.67
496.235	24945.87
496.605	25273.54
496.974	25305.86
497.344	25606.19
497.713	25823.13
498.082	26030.13
498.452	26301.99
498.821	26432.61
499.19	26642.1
499.559	26884.8
499.928	27063.78
500.298	27353.04
500.667	27715.29
501.036	27512.58
501.405	28053.81
501.774	27975.39
502.143	28311.43
502.512	28426.91
502.88	28713
503.249	28771.76
503.618	28958.42
503.987	29095.36
504.356	29226.66
504.724	29442.25
505.093	29471.17
505.462	29634.11
505.83	29855.12
506.199	30184.83
506.567	30452.84
506.936	30486.74
507.304	30829.56
507.672	31031.36
508.041	31271.8
508.409	31574.85
508.777	31740.04
509.145	32032.69
509.514	32067.72
509.882	32435.16
510.25	32664.31
510.618	32848.71
510.986	33007.58
511.354	33354.91
511.722	33572.99
512.09	33905.63
512.458	34001.68
512.826	34405.28
513.193	34528.67
513.561	34603.24
513.929	35105.83
514.297	35337.01
514.664	35544.69
515.032	35711.91
515.4	36084.79
515.767	35975.18
516.135	36455.62
516.502	36125.69
516.869	36829.4
517.237	36988.72
517.604	36841.83
517.972	37310.74
518.339	37672.99
518.706	37754.57
519.073	37884.06
519.44	38302.35
519.808	38573.31
520.175	38640.42
520.542	39296.23
520.909	39439.27
521.276	39554.52
521.643	40118.8
522.009	40437.89
522.376	40727.38
522.743	40848.28
523.11	41374.82
523.477	41852.32
523.843	41951.3
524.21	42453.43
524.577	42706.53
524.943	42878.05
525.31	43162.11
525.676	43479.85
526.043	43856.56
526.409	44027.85
526.776	44372.93
527.142	44501.29
527.508	44763.88
527.874	45063.53
528.241	45307.14
528.607	45298.33
528.973	45640.47
529.339	45694.48
529.705	46030.06
530.071	46421.69
530.437	46558.86
530.803	46728.35
531.169	46995.91
531.535	46956.14
531.901	47245.62
532.267	47413.3
532.632	47779.62
532.998	47786.62
533.364	48112.27
533.73	48256.89
534.095	48654.17
534.461	48724.91
534.826	49049.19
535.192	49243.76
535.557	49605.79
535.923	49583.87
536.288	49742.05
536.653	49839.45
537.019	49982.73
537.384	50156.51
537.749	50305.65
538.114	50463.62
538.479	50470.85
538.845	50767.56
539.21	50791.74
539.575	50916.26
539.94	51013.66
540.305	51156.48
540.67	51058.63
541.034	51201.45
541.399	51374.33
541.764	51427.43
542.129	51502.23
542.494	51575.45
542.858	51740.65
543.223	51700.19
543.587	51867.2
543.952	51865.39
544.316	52014.76
544.681	51962.11
545.045	52182.44
545.41	52388.76
545.774	52468.54
546.138	52572.71
546.503	52657.46
546.867	52728.19
547.231	53031.46
547.595	53019.03
547.959	53193.49
548.324	53401.62
548.688	53425.12
549.052	53591.67
549.416	53680.48
549.779	53763.64
550.143	53868.27
550.507	54024.88
550.871	54146.91
551.235	54260.35
551.599	54521.36
551.962	54484.08
552.326	54670.29
552.689	54742.6
553.053	54673.22
553.417	54802.03
553.78	55096.72
554.143	55011.75
554.507	55136.04
554.87	55181.68
555.234	55533.99
555.597	55332.87
555.96	55387.78
556.323	55482.47
556.686	55542.81
557.05	55706.64
557.413	55749.13
557.776	55865.73
558.139	56024.83
558.502	56058.72
558.865	56132.39
559.228	56355.89
559.59	56371.26
559.953	56553.63
560.316	56798.14
560.679	56787.52
561.041	57062.77
561.404	57100.73
561.767	57277.45
562.129	57247.39
562.492	57535.3
562.854	57566.03
563.217	57656.2
563.579	57794.05
563.941	57972.35
564.304	58071.33
564.666	58250.08
565.028	58314.26
565.39	58323.97
565.753	58496.4
566.115	58588.37
566.477	58710.86
566.839	58808.03
567.201	58945.65
567.563	58960.57
567.925	59094.12
568.287	59100.23
568.648	59167.79
569.01	59322.14
569.372	59437.39
569.734	59303.84
570.095	59460.44
570.457	59550.38
570.819	59606.88
571.18	59610.04
571.542	59650.72
571.903	59760.32
572.265	59812.98
572.626	59874.22
572.987	59892.97
573.349	59922.58
573.71	60032.86
574.071	60149.69
574.432	60233.98
574.794	60372.96
575.155	60286.64
575.516	60248.22
575.877	60329.8
576.238	60473.97
576.599	60554.2
576.96	60623.35
577.32	60704.48
577.681	60785.38
578.042	60849.56
578.403	60829.22
578.763	60898.6
579.124	60955.77
579.485	61053.85
579.845	61146.73
580.206	61092.72
580.566	61106.95
580.927	61166.61
581.287	61219.04
581.648	61140.62
582.008	61278.93
582.368	61220.62
582.728	61288.19
583.089	61234.18
583.449	61245.71
583.809	61217.68
584.169	61254.29
584.529	61181.3
584.889	61295.42
585.249	61173.17
585.609	61065.82
585.969	61245.71
586.329	61098.14
586.688	61142.66
587.048	61116.22
587.408	61104.47
587.768	61081.42
588.127	61050.23
588.487	61026.95
588.846	61121.19
589.206	61031.47
589.565	61092.04
589.925	61169.78
590.284	61045.49
590.643	61134.97
591.003	61221.07
591.362	61326.61
591.721	61301.98
592.08	61258.36
592.44	61354.63
592.799	61295.65
593.158	61331.58
593.517	61384.91
593.876	61445.25
594.235	61362.99
594.593	61433.5
594.952	61467.62
595.311	61499.03
595.67	61538.58
596.029	61696.54
596.387	61628.07
596.746	61718.24
597.104	61522.76
597.463	61618.8
597.822	61642.98
598.18	61596.66
598.538	61554.17
598.897	61722.08
599.255	61516.66
599.613	61824.22
599.972	61612.7
600.33	61671.68
600.688	61602.08
601.046	61626.03
601.404	61774.28
601.762	61642.76
602.12	61760.95
602.478	61734.28
602.836	61669.2
603.194	61574.06
603.552	61598.24
603.91	61549.43
604.268	61632.59
604.625	61576.54
604.983	61669.2
605.341	61560.27
605.698	61715.75
606.056	61732.47
606.413	61675.75
606.771	61763.88
607.128	61826.26
607.485	61741.96
607.843	61733.15
608.2	61964.56
608.557	61963.43
608.914	61986.93
609.272	62126.36
609.629	62083.42
609.986	62190.77
610.343	62101.28
610.7	62324.55
611.057	62279.35
611.414	62314.38
611.771	62308.95
612.127	62431.66
612.484	62402.96
612.841	62449.97
613.198	62460.82
613.554	62422.85
613.911	62594.6
614.267	62518.44
614.624	62552.34
614.98	62583.07
615.337	62679.79
615.693	62600.02
616.05	62540.81
616.406	62694.48
616.762	62560.47
617.118	62612.22
617.475	62513.02
617.831	62566.58
618.187	62549.17
618.543	62606.12
618.899	62648.38
619.255	62581.72
619.611	62610.19
619.967	62625.33
620.323	62682.28
620.678	62569.29
621.034	62485.9
621.39	62464.43
621.746	62504.2
622.101	62705.1
622.457	62467.37
622.812	62503.07
623.168	62601.38
623.523	62557.31
623.879	62696.06
624.234	62503.07
624.589	62555.95
624.945	62681.83
625.3	62656.29
625.655	62707.36
626.01	62692
626.365	62714.82
626.72	62694.03
627.075	62713.01
627.43	62717.98
627.785	62656.97
628.14	62670.75
628.495	62715.95
628.85	62747.14
629.205	62673.24
629.559	62873.01
629.914	62682.73
630.269	62730.86
630.623	62723.18
630.978	62597.99
631.332	62721.6
631.687	62788.94
632.041	62610.64
632.396	62662.39
632.75	62560.93
633.104	62576.07
633.459	62425.56
633.813	62361.16
634.167	62378.78
634.521	62339.46
634.875	62381.95
635.229	62315.73
635.583	62233.02
635.937	62246.36
636.291	62123.42
636.645	62074.16
636.999	62066.48
637.352	62066.02
637.706	61952.13
638.06	62000.04
638.413	61910.55
638.767	61822.87
639.121	61821.96
639.474	61668.75
639.828	61778.8
640.181	61699.25
640.534	61616.77
640.888	61546.72
641.241	61510.78
641.594	61506.26
641.947	61605.02
642.301	61523.66
642.654	61615.19
643.007	61546.26
643.36	61528.18
643.713	61517.11
644.066	61652.47
644.419	61393.95
644.771	61332.26
645.124	61144.24
645.477	61072.38
645.83	60942.66
646.182	60834.64
646.535	60758.26
646.888	60839.61
647.24	60638.94
647.593	60877.35
647.945	60749.9
648.298	60653.41
648.65	60603.91
649.002	60582.45
649.355	60710.13
649.707	60648.89
650.059	60716
650.411	60996
650.763	60997.8
651.115	61261.3
651.467	61101.75
651.819	61126.61
652.171	61032.15
652.523	60986.96
652.875	60910.35
653.227	60844.81
653.578	61028.08
653.93	60890.69
654.282	60765.04
654.633	60691.82
654.985	60728.43
655.337	60751.71
655.688	60719.17
656.039	60727.08
656.391	60487.08
656.742	60523.47
657.094	60493.18
657.445	60537.02
657.796	60398.72
658.147	60323.24
658.498	60403.02
658.849	60359.4
659.2	60386.29
659.551	60257.03
659.902	60288.67
660.253	60317.14
660.604	60298.39
660.955	60194.89
661.306	60305.84
661.656	60184.04
662.007	60226.07
662.358	60205.51
662.708	60206.86
663.059	60224.72
663.409	60111.27
663.76	60294.09
664.11	60264.94
664.461	60297.26
664.811	60286.64
665.161	60296.13
665.511	60204.15
665.862	60256.13
666.212	60369.8
666.562	60307.2
666.912	60259.07
667.262	60271.04
667.612	60269.01
667.962	60239.86
668.312	60217.94
668.662	60320.53
669.011	60304.94
669.361	60226.75
669.711	60154.44
670.06	60139.07
670.41	60131.61
670.76	60107.88
671.109	60142.46
671.459	60042.8
671.808	60040.09
672.157	60123.93
672.507	59840.55
672.856	59928.9
673.205	59922.58
673.554	60013.2
673.904	59836.25
674.253	60001.22
674.602	59914.67
674.951	59453.21
675.3	59335.7
675.649	59646.2
675.998	59703.15
676.346	59623.83
676.695	59723.26
677.044	59500.22
677.393	59582.02
677.741	59541.57
678.09	59486.2
678.438	59413.21
678.787	59408.01
679.135	59376.38
679.484	59156.04
679.832	59272.2
680.181	59118.3
680.529	59180.45
680.877	59068.59
681.225	58989.27
681.573	59161.92
681.922	59057.06
682.27	58897.97
682.618	58950.63
682.966	58891.42
683.314	59051.64
683.661	58825.66
684.009	58837.18
684.357	58743.17
684.705	58817.52
685.053	58758.54
685.4	58840.12
685.748	58686
686.095	58669.5
686.443	58576.85
686.79	58505.67
687.138	58552.67
687.485	58554.7
687.832	58489.85
688.18	58521.03
688.527	58332.79
688.874	58374.37
689.221	58304.99
689.568	58258.67
689.915	58207.82
690.262	58235.16
690.609	58149.74
690.956	58035.17
691.303	58023.64
691.65	57801.05
691.997	57865
692.344	57648.74
692.69	57711.11
693.037	57678.79
693.383	57512.7
693.73	57531.23
694.077	57366.49
694.423	57348.63
694.769	57388.18
695.116	57187.73
695.462	57070.22
695.808	56928.31
696.155	57001.07
696.501	56766.73
696.847	56773.73
697.193	56626.84
697.539	56686.73
697.885	56433.63
698.231	56285.16
698.577	56313.18
698.923	56195.67
699.269	56070.7
699.614	55998.39
699.96	55920.2
700.306	55929.91
700.651	55719.75
700.997	55595.01
701.342	55556.59
701.688	55473.88
702.033	55394.79
702.379	55424.39
702.724	55276.15
703.069	55346.88
703.415	55042.48
703.76	55063.95
704.105	55014.46
704.45	54917.96
704.795	54818.08
705.14	54701.02
705.485	54756.39
705.83	54613.79
706.175	54630.29
706.52	54506.9
706.865	54435.49
707.209	54408.37
707.554	54373.12
707.899	54428.26
708.243	54278.21
708.588	54207.25
708.932	54066.01
709.277	53966.12
709.621	54078.21
709.966	53894.94
710.31	53934.71
710.654	53601.84
710.998	53859.46
711.342	53806.81
711.687	53707.37
712.031	53667.15
712.375	53517.32
712.719	53643.65
713.063	53506.7
713.407	53601.39
713.75	53396.87
714.094	53504.67
714.438	53233.71
714.782	53214.05
715.125	53035.07
715.469	53120.5
715.812	52842.09
716.156	52752.14
716.499	52764.12
716.843	52796.21
717.186	52531.36
717.53	52645.25
717.873	52548.08
718.216	52544.69
718.559	52351.93
718.902	52086.85
719.246	52089.79
719.589	51996.68
719.932	51920.3
720.275	51850.47
720.617	51782.68
720.96	51753.3
721.303	51647.54
721.646	51631.95
721.989	51345.85
722.331	51394.21
722.674	51162.13
723.016	51254.56
723.359	51185.18
723.701	51152.64
724.044	50858.18
724.386	50695.93
724.729	50841.91
725.071	50740.9
725.413	50665.87
725.755	50670.62
726.097	50520.79
726.439	50277.86
726.782	50308.14
727.124	50335.48
727.465	50150.86
727.807	50130.07
728.149	50099.33
728.491	49961.93
728.833	50075.6
729.175	49976.4
729.516	49957.87
729.858	49878.77
730.199	49860.69
730.541	49704.54
730.882	49728.72
731.224	49777.76
731.565	49496.18
731.906	49669.51
732.248	49554.71
732.589	49501.83
732.93	49401.05
733.271	49404.89
733.612	49548.61
733.953	49468.84
734.294	49272.46
734.635	49233.14
734.976	49356.08
735.317	49273.37
735.658	49127.61
735.999	49195.63
736.339	49127.15
736.68	49154.5
737.021	49072.24
737.361	48863.66
737.702	49049.64
738.042	48772.36
738.383	48792.02
738.723	48913.83
739.063	48724.68
739.404	48823.21
739.744	48574.4
740.084	48473.16
740.424	48552.93
740.764	48122.89
741.104	48253.05
741.444	48090.57
741.784	47990.24
742.124	48034.98
742.464	47831.37
742.804	47770.58
743.143	47670.02
743.483	47678.83
743.823	47426.86
744.162	47410.14
744.502	47366.52
744.841	47150.48
745.181	47234.1
745.52	47084.27
745.86	47123.59
746.199	46823.94
746.538	46617.39
746.877	46882.02
747.216	46736.48
747.556	46366.55
747.895	46508.69
748.234	46314.8
748.573	46177.4
748.911	46134.01
749.25	46138.31
749.589	45778.09
749.928	45962.94
750.267	45906.67
750.605	45873
750.944	45634.82
751.283	45484.31
751.621	45479.57
751.96	45184.43
