Data from aluminium_macbook_case_FLMS001491_099.txt Node
Date: Tue Feb 07 10:44:28 GMT 2017
User: dcchb
Spectrometer: FLMS00149
Trigger mode: 0
Integration Time (sec): 2.000000E-2
Scans to average: 10
Electric dark correction enabled: true
Nonlinearity correction enabled: false
Boxcar width: 0
XAxis mode: Wavelengths
Number of Pixels in Spectrum: 2048
>>>>>Begin Spectral Data<<<<<
341.393	-2.42
341.776	-2.42
342.16	-2.42
342.543	-64.56
342.927	-68.18
343.31	-76.54
343.693	-63.2
344.077	-63.88
344.46	-44
344.843	-58.23
345.226	-41.74
345.61	-30.89
345.993	-31.57
346.376	-8.29
346.759	1.65
347.142	21.09
347.525	51.14
347.908	42.56
348.291	70.13
348.674	103.57
349.057	128.2
349.44	114.87
349.823	127.75
350.206	160.74
350.588	253.62
350.971	258.37
351.354	293.85
351.737	295.66
352.119	299.72
352.502	300.85
352.884	329.1
353.267	322.77
353.65	342.21
354.032	347.18
354.414	363.45
354.797	365.71
355.179	379.27
355.562	397.12
355.944	371.36
356.326	402.55
356.709	391.7
357.091	404.58
357.473	388.99
357.855	393.28
358.238	417.46
358.62	407.29
359.002	409.55
359.384	402.77
359.766	407.97
360.148	414.52
360.53	426.95
360.912	404.35
361.294	409.1
361.676	395.54
362.057	405.26
362.439	433.05
362.821	410.46
363.203	417.23
363.584	425.37
363.966	416.56
364.348	419.27
364.729	406.16
365.111	388.31
365.493	407.97
365.874	411.81
366.256	393.05
366.637	405.71
367.019	409.78
367.4	408.2
367.781	425.14
368.163	414.3
368.544	419.04
368.925	422.43
369.306	431.7
369.688	428.08
370.069	428.76
370.45	442.09
370.831	435.77
371.212	471.47
371.593	415.65
371.974	431.25
372.355	443.22
372.736	445.93
373.117	466.27
373.498	460.85
373.879	468.31
374.26	435.09
374.641	443.22
375.021	419.49
375.402	478.48
375.783	503.79
376.163	518.02
376.544	527.97
376.925	534.75
377.305	515.31
377.686	499.72
378.066	509.89
378.447	535.65
378.827	517.57
379.208	521.64
379.588	525.93
379.968	551.24
380.349	518.48
380.729	539.49
381.109	553.28
381.489	545.82
381.87	549.21
382.25	545.37
382.63	586.27
383.01	583.56
383.39	579.49
383.77	582.65
384.15	594.86
384.53	612.94
384.91	607.29
385.29	605.93
385.67	620.17
386.049	618.59
386.429	630.56
386.809	644.57
387.189	640.28
387.568	663.1
387.948	687.28
388.328	680.96
388.707	674.86
389.087	691.58
389.466	684.57
389.846	704.46
390.225	702.2
390.605	700.39
390.984	726.61
391.363	736.32
391.743	739.26
392.122	753.05
392.501	780.16
392.881	776.55
393.26	786.72
393.639	790.78
394.018	787.85
394.397	824.91
394.776	831.01
395.155	832.59
395.534	826.72
395.913	838.47
396.292	870.78
396.671	849.31
397.05	884.12
397.429	913.72
397.808	872.82
398.186	890.67
398.565	901.97
398.944	920.72
399.323	930.67
399.701	936.32
400.08	961.85
400.458	963.89
400.837	936.09
401.215	962.08
401.594	971.57
401.972	1010.89
402.351	1011.12
402.729	1003.66
403.107	1054.05
403.486	1035.07
403.864	1032.81
404.242	1058.8
404.62	1080.49
404.999	1100.61
405.377	1101.06
405.755	1098.8
406.133	1143.54
406.511	1176.76
406.889	1165.69
407.267	1165.24
407.645	1207.5
408.023	1251.11
408.401	1221.73
408.779	1241.39
409.156	1289.3
409.534	1286.14
409.912	1291.79
410.29	1340.37
410.667	1370.66
411.045	1389.41
411.422	1401.39
411.8	1413.37
412.178	1431.67
412.555	1437.55
412.933	1489.07
413.31	1499.69
413.687	1555.96
414.065	1523.87
414.442	1575.17
414.819	1565.91
415.197	1573.36
415.574	1636.64
415.951	1654.26
416.328	1654.72
416.705	1645.23
417.082	1675.51
417.46	1666.69
417.837	1718.22
418.214	1732.68
418.591	1761.38
418.967	1764.54
419.344	1780.36
419.721	1812.45
420.098	1823.98
420.475	1869.17
420.852	1863.07
421.228	1918.44
421.605	1927.48
421.982	1939.45
422.358	1940.81
422.735	1981.04
423.111	1980.58
423.488	2014.71
423.864	2028.94
424.241	2059.9
424.617	2119.79
424.994	2102.16
425.37	2174.93
425.746	2162.05
426.123	2158.88
426.499	2217.64
426.875	2273.23
427.251	2268.26
427.627	2323.85
428.003	2347.58
428.379	2379.44
428.756	2418.31
429.132	2439.78
429.507	2526.11
429.883	2529.27
430.259	2579.89
430.635	2593.22
431.011	2629.83
431.387	2707.34
431.763	2750.96
432.138	2733.11
432.514	2793.9
432.89	2797.96
433.265	2836.61
433.641	2880.67
434.016	2940.78
434.392	3008.13
434.767	3048.8
435.143	3030.95
435.518	3081.12
435.894	3123.15
436.269	3182.13
436.644	3223.49
437.02	3223.94
437.395	3231.17
437.77	3315.01
438.145	3399.53
438.52	3435.91
438.895	3463.26
439.271	3473.2
439.646	3589.58
440.021	3590.03
440.395	3615.12
440.77	3547.32
441.145	3634.78
441.52	3698.05
441.895	3725.17
442.27	3743.25
442.645	3711.39
443.019	3815.11
443.394	3796.35
443.769	3817.6
444.143	3799.07
444.518	3974.88
444.892	3862.57
445.267	3932.62
445.641	4050.36
446.016	4034.54
446.39	4064.82
446.764	4066.86
447.139	4144.59
447.513	4163.58
447.887	4143.69
448.262	4177.36
448.636	4232.28
449.01	4305.72
449.384	4336.68
449.758	4394.76
450.132	4486.51
450.506	4491.25
450.88	4496.45
451.254	4512.49
451.628	4566.05
452.002	4637.24
452.376	4664.13
452.75	4687.4
453.123	4754.52
453.497	4852.6
453.871	4895.31
454.244	5006.72
454.618	5016.66
454.992	5102.54
455.365	5135.08
455.739	5244
456.112	5306.6
456.486	5363.32
456.859	5444.45
457.232	5513.37
457.606	5549.08
457.979	5632.24
458.352	5680.83
458.725	5787.04
459.099	5812.8
459.472	5984.77
459.845	6024.09
460.218	6115.39
460.591	6106.35
460.964	6173.24
461.337	6307.93
461.71	6377.3
462.083	6482.16
462.456	6520.58
462.829	6579.33
463.201	6660.91
463.574	6690.06
463.947	6763.28
464.32	6965.54
464.692	7052.99
465.065	7147.23
465.438	7268.81
465.81	7376.15
466.183	7426.99
466.555	7616.37
466.928	7622.7
467.3	7689.59
467.672	7805.74
468.045	8018.16
468.417	8060.65
468.789	8119.18
469.161	8293.64
469.534	8409.34
469.906	8508.55
470.278	8564.14
470.65	8691.14
471.022	8868.09
471.394	9000.74
471.766	9061.53
472.138	9254.52
472.51	9415.87
472.882	9552.81
473.253	9653.83
473.625	9844.33
473.997	10038.68
474.369	10106.92
474.74	10243.87
475.112	10441.15
475.484	10594.14
475.855	10785.78
476.227	10942.61
476.598	11263.96
476.97	11294.46
477.341	11600.44
477.713	11804.28
478.084	11863.94
478.455	12225.96
478.827	12302.8
479.198	12724.93
479.569	12748.66
479.94	13090.57
480.311	13152.72
480.682	13587.28
481.053	13780.95
481.424	13934.85
481.795	14084.22
482.166	14362.18
482.537	14540.93
482.908	14822.28
483.279	15003.74
483.65	15261.14
484.021	15594.69
484.391	15848.47
484.762	15996.49
485.133	16142.25
485.503	16331.17
485.874	16791.27
486.244	17018.83
486.615	17257.92
486.985	17480.29
487.356	17808.87
487.726	18002.99
488.097	18351.68
488.467	18391.23
488.837	18902.85
489.207	19115.27
489.578	19334.03
489.948	19524.75
490.318	19824.18
490.688	19889.27
491.058	20254.45
491.428	20556.14
491.798	20654.67
492.168	21040.42
492.538	21196.35
492.908	21272.28
493.278	21653.06
493.648	21768.09
494.017	21939.15
494.387	22244.68
494.757	22455.75
495.126	22725.57
495.496	22687.38
495.866	22905.46
496.235	23308.38
496.605	23410.75
496.974	23651.88
497.344	23897.52
497.713	24117.4
498.082	24254.8
498.452	24527.56
498.821	24798.74
499.19	24795.12
499.559	24970.94
499.928	25248.45
500.298	25353.08
500.667	25698.6
501.036	25595.56
501.405	25868.09
501.774	26047.3
502.143	26180.85
502.512	26261.98
502.88	26538.81
503.249	26532.25
503.618	26733.15
503.987	26925.46
504.356	27215.85
504.724	27334.27
505.093	27342.4
505.462	27546.24
505.83	27792.56
506.199	28038.2
506.567	28298.99
506.936	28406.78
507.304	28710.95
507.672	28918.63
508.041	29014.45
508.409	29446.75
508.777	29663.47
509.145	29885.39
509.514	29863.92
509.882	30211.93
510.25	30408.76
510.618	30555.88
510.986	30810.79
511.354	31028.18
511.722	31126.71
512.09	31609.86
512.458	31602.63
512.826	31925.11
513.193	32057.76
513.561	32166.46
513.929	32422.27
514.297	32655.26
514.664	32936.83
515.032	33013.89
515.4	33305.18
515.767	33536.82
516.135	33717.83
516.502	33491.62
516.869	34089.57
517.237	34335.89
517.604	34329.56
517.972	34822.88
518.339	35088.87
518.706	35196.89
519.073	35252.93
519.44	35591.23
519.808	36005
520.175	36004.1
520.542	36662.16
520.909	36807.01
521.276	36903.06
521.643	37463.27
522.009	37722.47
522.376	37854.44
522.743	38230.25
523.11	38485.39
523.477	38766.96
523.843	39088.99
524.21	39449.65
524.577	39540.95
524.943	39860.72
525.31	40051.67
525.676	40535.5
526.043	40752.22
526.409	40987.02
526.776	41222.49
527.142	41357.85
527.508	41609.15
527.874	42003.94
528.241	42067.67
528.607	42321.9
528.973	42577.26
529.339	42758.72
529.705	43145.38
530.071	43386.73
530.437	43393.28
530.803	43805.92
531.169	44148.06
531.535	44061.28
531.901	44265.57
532.267	44528.39
532.632	44813.13
532.998	44968.15
533.364	45269.39
533.73	45446.79
534.095	45873.89
534.461	45949.37
534.826	46143.04
535.192	46412.86
535.557	46757.49
535.923	46711.61
536.288	46801.33
536.653	46984.15
537.019	46893.53
537.384	47238.6
537.749	47354.76
538.114	47397.69
538.479	47580.29
538.845	47837.23
539.21	47762.2
539.575	47974.4
539.94	48067.96
540.305	48329.42
540.67	48269.76
541.034	48394.5
541.399	48640.83
541.764	48821.39
542.129	48975.51
542.494	48898.9
542.858	49144.32
543.223	49197.65
543.587	49390.86
543.952	49411.2
544.316	49629.73
544.681	49717.86
545.045	49963.28
545.41	50097.96
545.774	50119.88
546.138	50096.15
546.503	50257.73
546.867	50372.76
547.231	50731.62
547.595	50763.48
547.959	50884.38
548.324	50939.75
548.688	51062.91
549.052	51293.41
549.416	51238.5
549.779	51308.33
550.143	51533.86
550.507	51766.85
550.871	51836.22
551.235	51847.07
551.599	51992.15
551.962	52044.13
552.326	52190.79
552.689	52439.6
553.053	52295.87
553.417	52377
553.78	52816.53
554.143	52650.89
554.507	52962.07
554.87	52887.04
555.234	53192.34
555.597	52986.7
555.96	53263.75
556.323	53433.02
556.686	53433.92
557.05	53642.95
557.413	53770.86
557.776	53715.27
558.139	54120.68
558.502	54075.48
558.865	54171.3
559.228	54409.94
559.59	54482.03
559.953	54587.56
560.316	54874.33
560.679	54793.66
561.041	55048.11
561.404	55154.78
561.767	55405.62
562.129	55331.27
562.492	55641.32
562.854	55638.38
563.217	55703.01
563.579	55833.4
563.941	55936.9
564.304	56078.82
564.666	56270.46
565.028	56338.02
565.39	56458.93
565.753	56511.81
566.115	56589.32
566.477	56701.86
566.839	56820.72
567.201	56990.21
567.563	56888.74
567.925	57125.35
568.287	57110.66
568.648	57326.7
569.01	57343.65
569.372	57563.08
569.734	57428.62
570.095	57640.36
570.457	57689.63
570.819	57740.93
571.18	57780.92
571.542	57954.7
571.903	58021.37
572.265	58094.14
572.626	58094.36
572.987	58208.48
573.349	58274.24
573.71	58324.41
574.071	58450.51
574.432	58457.97
574.794	58631.07
575.155	58593.33
575.516	58579.55
575.877	58705.42
576.238	58779.77
576.599	58832.42
576.96	58923.27
577.32	58868.13
577.681	59030.16
578.042	59053.21
578.403	59013.66
578.763	59025.86
579.124	59122.58
579.485	59169.36
579.845	59250.72
580.206	59250.94
580.566	59216.14
580.927	59301.11
581.287	59325.29
581.648	59227.44
582.008	59406.19
582.368	59385.85
582.728	59463.59
583.089	59391.5
583.449	59391.96
583.809	59388.57
584.169	59406.19
584.529	59333.43
584.889	59555.57
585.249	59416.14
585.609	59331.17
585.969	59515.57
586.329	59468.34
586.688	59472.63
587.048	59426.08
587.408	59422.91
587.768	59510.6
588.127	59479.64
588.487	59427.89
588.846	59658.84
589.206	59425.17
589.565	59455.23
589.925	59578.39
590.284	59469.24
590.643	59480.77
591.003	59557.15
591.362	59576.58
591.721	59546.08
592.08	59506.53
592.44	59637.15
592.799	59637.6
593.158	59605.73
593.517	59608.9
593.876	59721.21
594.235	59559.41
594.593	59631.5
594.952	59697.94
595.311	59542.23
595.67	59658.61
596.029	59811.61
596.387	59764.37
596.746	59829.91
597.104	59682.8
597.463	59723.47
597.822	59803.7
598.18	59647.54
598.538	59673.3
598.897	59848.44
599.255	59653.42
599.613	59996.91
599.972	59841.66
600.33	59864.71
600.688	59727.54
601.046	59862.23
601.404	59945.84
601.762	59918.5
602.12	60053.86
602.478	59957.36
602.836	60019.96
603.194	59950.58
603.552	59969.12
603.91	59914.65
604.268	60106.29
604.625	59955.1
604.983	60070.36
605.341	60014.99
605.698	60073.52
606.056	60123.69
606.413	60146.29
606.771	60144.93
607.128	60206.4
607.485	60106.96
607.843	60069
608.2	60242.33
608.557	60333.4
608.914	60207.98
609.272	60327.3
609.629	60412.72
609.986	60484.81
610.343	60334.08
610.7	60525.26
611.057	60517.58
611.414	60412.49
611.771	60491.14
612.127	60571.36
612.484	60500.17
612.841	60624.69
613.198	60539.95
613.554	60606.39
613.911	60737
614.267	60654.52
614.624	60714.86
614.98	60692.26
615.337	60807.51
615.693	60751.92
616.05	60659.04
616.406	60861.3
616.762	60754.86
617.118	60814.74
617.475	60797.34
617.831	60911.69
618.187	60868.98
618.543	60878.92
618.899	60984
619.255	60946.49
619.611	60929.77
619.967	60995.98
620.323	61057
620.678	60945.59
621.034	60930.67
621.39	60968.86
621.746	60945.59
622.101	61087.05
622.457	60899.71
622.812	61001.86
623.168	61054.51
623.523	60992.82
623.879	61101.51
624.234	60924.12
624.589	60957.79
624.945	60962.76
625.3	60979.94
625.655	61042.99
626.01	60972.03
626.365	60965.02
626.72	60943.1
627.075	60893.16
627.43	60909.43
627.785	60893.16
628.14	60880.96
628.495	60918.69
628.85	60874.18
629.205	60826.49
629.559	60945.81
629.914	60831.92
630.269	60850.45
630.623	60723.67
630.978	60685.93
631.332	60748.3
631.687	60798.7
632.041	60740.39
632.396	60763.44
632.75	60666.95
633.104	60664.46
633.459	60538.37
633.813	60592.6
634.167	60563.45
634.521	60547.63
634.875	60570.91
635.229	60505.6
635.583	60452.49
635.937	60458.59
636.291	60413.17
636.645	60453.62
636.999	60362.1
637.352	60508.31
637.706	60349.44
638.06	60298.15
638.413	60251.37
638.767	60252.5
639.121	60282.78
639.474	60085.27
639.828	60138.83
640.181	60137.92
640.534	60106.74
640.888	59956.46
641.241	59876.01
641.594	59920.08
641.947	59902
642.301	59845.05
642.654	59824.94
643.007	59805.96
643.36	59730.7
643.713	59719.4
644.066	59854.99
644.419	59633.53
644.771	59524.61
645.124	59217.72
645.477	59302.24
645.83	59061.79
646.182	58988.58
646.535	58797.85
646.888	58868.58
647.24	58800.11
647.593	58890.05
647.945	58785.19
648.298	58643.73
648.65	58587.68
649.002	58533.45
649.355	58615.48
649.707	58628.36
650.059	58791.52
650.411	58982.7
650.763	58991.29
651.115	59250.94
651.467	59102.02
651.819	59137.27
652.171	59073.32
652.523	59022.25
652.875	59104.51
653.227	58914.68
653.578	59017.28
653.93	58980.21
654.282	58897.05
654.633	58878.3
654.985	58820.67
655.337	58897.96
655.688	58860.67
656.039	58947.22
656.391	58737.96
656.742	58773.21
657.094	58757.62
657.445	58892.53
657.796	58794.46
658.147	58753.55
658.498	58729.83
658.849	58790.16
659.2	58710.39
659.551	58566.21
659.902	58655.25
660.253	58650.96
660.604	58615.7
660.955	58522.37
661.306	58468.14
661.656	58466.78
662.007	58424.3
662.358	58449.83
662.708	58399.44
663.059	58425.65
663.409	58241.25
663.76	58437.86
664.11	58323.96
664.461	58374.35
664.811	58273.57
665.161	58263.85
665.511	58220.01
665.862	58220.91
666.212	58273.79
666.562	58235.6
666.912	58250.97
667.262	58162.61
667.612	58177.75
667.962	58216.62
668.312	58104.98
668.662	58226.79
669.011	58176.39
669.361	58091.88
669.711	58068.6
670.06	58015.95
670.41	58013.91
670.76	57931.2
671.109	58027.7
671.459	57954.25
671.808	57951.99
672.157	57920.13
672.507	57838.32
672.856	57874.71
673.205	57860.02
673.554	57999.68
673.904	57912.67
674.253	57936.85
674.602	57919.23
674.951	57534.83
675.3	57325.57
675.649	57806.01
675.998	57736.63
676.346	57830.19
676.695	57917.64
677.044	57619.8
677.393	57773.47
677.741	57732.34
678.09	57667.93
678.438	57604.88
678.787	57645.11
679.135	57646.01
679.484	57415.06
679.832	57558.78
680.181	57324.44
680.529	57364.89
680.877	57346.81
681.225	57367.15
681.573	57390.2
681.922	57273.59
682.27	57092.35
682.618	57139.36
682.966	57048.29
683.314	57093.48
683.661	57031.57
684.009	56859.37
684.357	56828.41
684.705	56705.7
685.053	56748.18
685.4	56696.88
685.748	56578.24
686.095	56563.1
686.443	56485.82
686.79	56350.45
687.138	56425.25
687.485	56407.18
687.832	56348.19
688.18	56265.26
688.527	56140.06
688.874	56129.89
689.221	56008.99
689.568	55989.11
689.915	55844.48
690.262	55920.86
690.609	55792.73
690.956	55720.87
691.303	55766.51
691.65	55517.71
691.997	55564.03
692.344	55384.38
692.69	55364.94
693.037	55333.76
693.383	55179.18
693.73	55259.86
694.077	55124.95
694.423	55139.41
694.769	54995.69
695.116	54933.32
695.462	54955.46
695.808	54856.03
696.155	54894.45
696.501	54666.2
696.847	54736.71
697.193	54451.52
697.539	54571.07
697.885	54288.36
698.231	54222.6
698.577	54300.34
698.923	54130.85
699.269	53978.54
699.614	53851.76
699.96	53783.29
700.306	53779
700.651	53720.92
700.997	53597.76
701.342	53497.2
701.688	53514.14
702.033	53416.97
702.379	53360.7
702.724	53252.91
703.069	53272.79
703.415	52878.68
703.76	52806.37
704.105	52845.69
704.45	52838.91
704.795	52623.32
705.14	52473.95
705.485	52509.42
705.83	52296.32
706.175	52293.38
706.52	52194.18
706.865	52081.41
707.209	52006.61
707.554	51897.46
707.899	51850.68
708.243	51702.44
708.588	51735.89
708.932	51524.82
709.277	51360.3
709.621	51535.44
709.966	51167.99
710.31	51290.47
710.654	50943.82
710.998	51025.85
711.342	50998.05
711.687	50959.63
712.031	50801.9
712.375	50581.79
712.719	50655.69
713.063	50669.92
713.407	50663.37
713.75	50464.05
714.094	50449.59
714.438	50398.07
714.782	50301.35
715.125	50102.93
715.469	50156.72
715.812	50018.64
716.156	49904.07
716.499	49904.75
716.843	50091.86
717.186	49687.58
717.53	50007.57
717.873	49855.26
718.216	49614.59
718.559	49561.93
718.902	49230.87
719.246	49413.46
719.589	49338.21
719.932	49239.45
720.275	49238.32
720.617	49161.72
720.96	48927.82
721.303	49059.12
721.646	48998.33
721.989	48719.24
722.331	48897.77
722.674	48643.76
723.016	48731.44
723.359	48579.36
723.701	48577.32
724.044	48274.73
724.386	48105.47
724.729	48286.26
725.071	48171.69
725.413	48163.1
725.755	48110.22
726.097	47822.99
726.439	47733.73
726.782	47817.57
727.124	47804.01
727.465	47559.5
727.807	47633.85
728.149	47439.05
728.491	47341.88
728.833	47260.97
729.175	47172.39
729.516	46944.15
729.858	47003.58
730.199	46913.87
730.541	46861.66
730.882	46607.43
731.224	46873.41
731.565	46582.57
731.906	46535.57
732.248	46529.02
732.589	46400.21
732.93	46187.1
733.271	46249.48
733.612	46271.62
733.953	46363.15
734.294	46061.91
734.635	45933.78
734.976	45949.82
735.317	45775.82
735.658	45730.62
735.999	45685.88
736.339	45495.37
736.68	45676.61
737.021	45440.23
737.361	45283.17
737.702	45557.74
738.042	45345.54
738.383	45257.86
738.723	45385.32
739.063	45216.73
739.404	45216.96
739.744	45052.45
740.084	44941.04
740.424	45155.49
740.764	44850.64
741.104	45027.36
741.444	44808.16
741.784	44519.13
742.124	44733.58
742.464	44634.15
742.804	44533.14
743.143	44480.03
743.483	44373.14
743.823	44179.93
744.162	44206.59
744.502	44243.2
744.841	44146.03
745.181	44114.62
745.52	43996.88
745.86	43946.94
746.199	43934.96
746.538	43740.39
746.877	43805.7
747.216	43712.14
747.556	43574.52
747.895	43526.16
748.234	43405.71
748.573	43461.07
748.911	43321.19
749.25	43353.28
749.589	43007.3
749.928	43154.64
750.267	43132.95
750.605	42963.46
750.944	42781.09
751.283	42629.68
751.621	42704.94
751.96	42394.21
