Data from aluminium_macbook_case_FLMS001491_012.txt Node
Date: Tue Feb 07 10:43:16 GMT 2017
User: dcchb
Spectrometer: FLMS00149
Trigger mode: 0
Integration Time (sec): 2.000000E-2
Scans to average: 10
Electric dark correction enabled: true
Nonlinearity correction enabled: false
Boxcar width: 0
XAxis mode: Wavelengths
Number of Pixels in Spectrum: 2048
>>>>>Begin Spectral Data<<<<<
341.393	-39.72
341.776	-39.72
342.16	-39.72
342.543	-43.56
342.927	-79.26
343.31	-81.75
343.693	-81.07
344.077	-62.31
344.46	-66.83
344.843	-46.5
345.226	-37.46
345.61	-55.76
345.993	-21.19
346.376	0.96
346.759	18.81
347.142	52.26
347.525	41.19
347.908	64.46
348.291	72.6
348.674	93.39
349.057	109.21
349.44	105.36
349.823	151.92
350.206	160.96
350.588	252.48
350.971	240.28
351.354	271.69
351.737	301.29
352.119	301.52
352.502	310.33
352.884	330.44
353.267	341.06
353.65	353.49
354.032	360.5
354.414	381.97
354.797	357.11
355.179	387.39
355.562	378.58
355.944	399.59
356.326	401.4
356.709	410.44
357.091	396.66
357.473	405.02
357.855	410.22
358.238	424.68
358.62	452.25
359.002	421.06
359.384	421.51
359.766	412.7
360.148	417.22
360.53	410.22
360.912	408.86
361.294	421.06
361.676	426.03
362.057	415.19
362.439	402.53
362.821	401.18
363.203	440.72
363.584	392.14
363.966	398.92
364.348	423.1
364.729	412.25
365.111	419.25
365.493	426.03
365.874	422.19
366.256	416.54
366.637	422.64
367.019	432.81
367.4	418.12
367.781	419.48
368.163	425.58
368.544	438.69
368.925	432.14
369.306	444.11
369.688	422.87
370.069	444.79
370.45	471.91
370.831	448.41
371.212	454.73
371.593	447.73
371.974	475.52
372.355	475.52
372.736	455.64
373.117	457.22
373.498	454.73
373.879	481.63
374.26	463.32
374.641	456.54
375.021	464.45
375.402	484.79
375.783	486.15
376.163	541.06
376.544	513.49
376.925	513.26
377.305	509.42
377.686	496.31
378.066	535.64
378.447	506.71
378.827	545.8
379.208	520.04
379.588	538.8
379.968	549.42
380.349	546.93
380.729	552.36
381.109	558.01
381.489	574.73
381.87	574.96
382.25	591.45
382.63	591.45
383.01	566.37
383.39	582.64
383.77	580.61
384.15	576.54
384.53	614.5
384.91	605.92
385.29	611.11
385.67	619.7
386.049	631.9
386.429	623.09
386.809	664.45
387.189	661.51
387.568	664.22
387.948	659.93
388.328	654.95
388.707	695.86
389.087	687.5
389.466	727.27
389.846	726.59
390.225	722.3
390.605	748.96
390.984	743.54
391.363	775.63
391.743	760.49
392.122	767.95
392.501	768.17
392.881	775.86
393.26	784.22
393.639	804.78
394.018	816.53
394.397	816.08
394.776	861.28
395.155	829.41
395.534	833.25
395.913	865.12
396.292	883.2
396.671	884.78
397.05	915.29
397.429	913.48
397.808	910.32
398.186	937.43
398.565	974.95
398.944	924.78
399.323	940.37
399.701	941.5
400.08	986.02
400.458	963.2
400.837	982.4
401.215	990.31
401.594	1011.56
401.972	1034.15
402.351	1050.88
402.729	1050.65
403.107	1063.53
403.486	1078.22
403.864	1080.71
404.242	1096.3
404.62	1152.12
404.999	1124.09
405.377	1124.55
405.755	1139.46
406.133	1163.19
406.511	1171.1
406.889	1192.34
407.267	1215.39
407.645	1249.97
408.023	1240.25
408.401	1253.58
408.779	1281.6
409.156	1281.15
409.534	1318.67
409.912	1360.47
410.29	1371.55
410.667	1374.48
411.045	1410.41
411.422	1434.6
411.8	1422.62
412.178	1452.45
412.555	1490.41
412.933	1494.93
413.31	1525.44
413.687	1558.66
414.065	1550.3
414.442	1581.26
414.819	1595.49
415.197	1595.49
415.574	1657.19
415.951	1663.52
416.328	1673.23
416.705	1715.49
417.082	1696.28
417.46	1717.75
417.837	1756.39
418.214	1769.28
418.591	1807.01
418.967	1788.71
419.344	1814.47
419.721	1861.02
420.098	1878.2
420.475	1882.94
420.852	1914.81
421.228	1934.47
421.605	1957.75
421.982	1962.49
422.358	1982.6
422.735	2016.95
423.111	2053.11
423.488	2099.89
423.864	2083.62
424.241	2143.5
424.617	2169.04
424.994	2178.53
425.37	2192.77
425.746	2165.2
426.123	2226.21
426.499	2266.44
426.875	2306.66
427.251	2326.55
427.627	2383.72
428.003	2381.69
428.379	2468.24
428.756	2483.38
429.132	2495.81
429.507	2503.72
429.883	2588.24
430.259	2605.86
430.635	2628.46
431.011	2694.67
431.387	2718.86
431.763	2731.96
432.138	2794.79
432.514	2815.35
432.89	2836.14
433.265	2945.52
433.641	2963.59
434.016	3005.85
434.392	3094.44
434.767	3097.83
435.143	3126.75
435.518	3175.57
435.894	3195.23
436.269	3234.77
436.644	3297.82
437.02	3320.42
437.395	3345.73
437.77	3416.69
438.145	3443.58
438.52	3452.4
438.895	3491.94
439.271	3510.7
439.646	3613.97
440.021	3632.96
440.395	3665.27
440.77	3583.01
441.145	3703.24
441.52	3756.57
441.895	3765.83
442.27	3808.54
442.645	3810.35
443.019	3904.13
443.394	3886.73
443.769	3994.75
444.143	3917.92
444.518	4027.97
444.892	4015.54
445.267	4071.81
445.641	4046.73
446.016	4127.41
446.39	4177.8
446.764	4187.07
447.139	4161.98
447.513	4249.66
447.887	4278.14
448.262	4275.2
448.636	4326.27
449.01	4391.13
449.384	4420.96
449.758	4466.83
450.132	4525.36
450.506	4568.52
450.88	4621.86
451.254	4615.53
451.628	4692.81
452.002	4735.3
452.376	4790.66
452.75	4872.47
453.123	4841.51
453.497	4931.68
453.871	5015.29
454.244	5077.66
454.618	5110.66
454.992	5254.38
455.365	5254.38
455.739	5346.36
456.112	5391.78
456.486	5470.42
456.859	5512
457.232	5616.18
457.606	5624.99
457.979	5747.25
458.352	5793.35
458.725	5912.9
459.099	5951.09
459.472	6056.17
459.845	6171.65
460.218	6211.42
460.591	6253.23
460.964	6283.96
461.337	6448.25
461.71	6568.92
462.083	6664.29
462.456	6648.7
462.829	6695.02
463.201	6835.58
463.574	6848.69
463.947	6995.8
464.32	7130.26
464.692	7176.36
465.065	7234.89
465.438	7346.53
465.81	7494.55
466.183	7496.58
466.555	7686.18
466.928	7733.19
467.3	7753.52
467.672	7879.85
468.045	8110.35
468.417	8105.61
468.789	8256.56
469.161	8383.34
469.534	8535.88
469.906	8663.56
470.278	8747.17
470.65	8871.01
471.022	9089.99
471.394	9184.9
471.766	9315.29
472.138	9450.43
472.51	9668.95
472.882	9806.35
473.253	9915.28
473.625	10059.68
473.997	10245.66
474.369	10288.6
474.74	10427.58
475.112	10680.45
475.484	10799.09
475.855	10991.63
476.227	11077.05
476.598	11380.55
476.97	11480.66
477.341	11775.57
477.713	11976.69
478.084	12054.2
478.455	12379.39
478.827	12574.87
479.198	12850.11
479.569	12976.66
479.94	13323.55
480.311	13481.96
480.682	13688.28
481.053	14094.83
481.424	14325.78
481.795	14432.9
482.166	14681.25
482.537	14899.1
482.908	15180.67
483.279	15329.82
483.65	15664.5
484.021	15840.09
484.391	16061.33
484.762	16264.71
485.133	16398.27
485.503	16665.61
485.874	17012.49
486.244	17166.61
486.615	17540.39
486.985	17732.7
487.356	18075.97
487.726	18208.17
488.097	18576.97
488.467	18669.85
488.837	19070.52
489.207	19349.83
489.578	19586.43
489.948	19769.25
490.318	20128.11
490.688	20200.43
491.058	20622.57
491.428	20866.4
491.798	21098.48
492.168	21509.55
492.538	21652.59
492.908	21738.69
493.278	22176.65
493.648	22099.81
494.017	22436.75
494.387	22743.87
494.757	22797.88
495.126	23112.44
495.496	23168.71
495.866	23279.67
496.235	23648.25
496.605	23856.6
496.974	23975.92
497.344	24234.9
497.713	24358.74
498.082	24613.19
498.452	24871.27
498.821	24910.81
499.19	25108.1
499.559	25354.64
499.928	25497.69
500.298	25737.91
500.667	26046.15
501.036	25981.97
501.405	26326.6
501.774	26455.63
502.143	26766.58
502.512	26936.75
502.88	27120.93
503.249	27178.1
503.618	27358.43
503.987	27572.21
504.356	27736.05
504.724	27898.98
505.093	28012.2
505.462	28242.48
505.83	28213.55
506.199	28471.62
506.567	29033.87
506.936	28885.85
507.304	29300.98
507.672	29429.57
508.041	29523.12
508.409	29955.2
508.777	30041.3
509.145	30286.49
509.514	30427.05
509.882	30652.36
510.25	30716.99
510.618	31001.73
510.986	31168.05
511.354	31525.33
511.722	31809.39
512.09	31983.17
512.458	32154.01
512.826	32439.43
513.193	32660.21
513.561	32881.68
513.929	33144.95
514.297	33407.77
514.664	33741.09
515.032	33795.1
515.4	34061.99
515.767	34186.5
516.135	34471.92
516.502	34353.73
516.869	34949.87
517.237	35066.25
517.604	35025.12
517.972	35527.26
518.339	35777.42
518.706	35753.01
519.073	35965.66
519.44	36245.21
519.808	36613.78
520.175	36631.18
520.542	37114.11
520.909	37517.26
521.276	37540.31
521.643	37919.51
522.009	38122.44
522.376	38566.73
522.743	38945.25
523.11	39219.59
523.477	39669.75
523.843	39828.39
524.21	40095.5
524.577	40535.26
524.943	40820.23
525.31	40887.57
525.676	41384.96
526.043	41587.44
526.409	41849.58
526.776	42151.49
527.142	42313.97
527.508	42571.14
527.874	42888.19
528.241	43124.57
528.607	43154.4
528.973	43563.2
529.339	43552.13
529.705	44017.88
530.071	44373.58
530.437	44388.95
530.803	44729.95
531.169	44897.63
531.535	44969.95
531.901	44953.9
532.267	45300.11
532.632	45543.72
532.998	45858.06
533.364	46169.01
533.73	46169.24
534.095	46527.87
534.461	46719.96
534.826	46799.28
535.192	46998.37
535.557	47400.17
535.923	47457.34
536.288	47641.97
536.653	47967.83
537.019	47937.55
537.384	48111.79
537.749	48371.44
538.114	48410.08
538.479	48565.79
538.845	48661.15
539.21	48638.1
539.575	48897.08
539.94	49013.68
540.305	49266.78
540.67	49250.06
541.034	49344.52
541.399	49472.43
541.764	49558.53
542.129	49634.01
542.494	49726.66
542.858	49946.77
543.223	49964.39
543.587	50197.61
543.952	50190.83
544.316	50363.93
544.681	50282.58
545.045	50618.61
545.41	50786.74
545.774	50767.99
546.138	50892.96
546.503	50985.16
546.867	51070.8
547.231	51335.88
547.595	51502.43
547.959	51523.67
548.324	51706.72
548.688	51862.65
549.052	51946.71
549.416	52120.72
549.779	52140.38
550.143	52258.34
550.507	52543.53
550.871	52616.98
551.235	52589.41
551.599	52875.95
551.962	52929.74
552.326	53017.42
552.689	53257.41
553.053	53128.38
553.417	53210.63
553.78	53607.69
554.143	53431.42
554.507	53596.39
554.87	53711.19
555.234	53905.08
555.597	53775.59
555.96	54014.91
556.323	54025.08
556.686	54163.6
557.05	54321.34
557.413	54385.07
557.776	54488.34
558.139	54689.47
558.502	54724.72
558.865	54864.83
559.228	55019.85
559.59	55033.86
559.953	55180.07
560.316	55439.05
560.679	55443.12
561.041	55630.46
561.404	55750.23
561.767	55961.07
562.129	55931.02
562.492	56237.9
562.854	56210.1
563.217	56384.56
563.579	56433.15
563.941	56611
564.304	56736.87
564.666	56905
565.028	56980.71
565.39	57112.45
565.753	57263.41
566.115	57296.4
566.477	57426.12
566.839	57448.94
567.201	57715.6
567.563	57611.2
567.925	57824.3
568.287	57834.69
568.648	57844.64
569.01	57976.61
569.372	58118.08
569.734	58083.5
570.095	58239.88
570.457	58294.57
570.819	58397.62
571.18	58281.24
571.542	58549.03
571.903	58508.8
572.265	58652.3
572.626	58662.92
572.987	58761
573.349	58840.54
573.71	58928.68
574.071	58930.26
574.432	59074.21
574.794	59153.53
575.155	59105.62
575.516	59167.99
575.877	59291.83
576.238	59319.4
576.599	59553.52
576.96	59489.11
577.32	59541.54
577.681	59682.78
578.042	59722.55
578.403	59714.87
578.763	59790.12
579.124	59783.57
579.485	59923.45
579.845	59958.25
580.206	59951.47
580.566	59972.26
580.927	59931.59
581.287	60045.26
581.648	59979.5
582.008	60098.59
582.368	59988.99
582.728	60104.92
583.089	60076.22
583.449	60027.63
583.809	60025.14
584.169	60041.87
584.529	59998.48
584.889	60120.28
585.249	60052.04
585.609	59876.9
585.969	60077.8
586.329	59967.52
586.688	60085.48
587.048	60070.79
587.408	60014.98
587.768	60000.74
588.127	59991.02
588.487	59963.68
588.846	60079.83
589.206	59961.19
589.565	60008.42
589.925	60067.86
590.284	60033.96
590.643	60107.63
591.003	60087.74
591.362	60201.64
591.721	60134.75
592.08	60144.46
592.44	60228.76
592.799	60212.94
593.158	60248.64
593.517	60251.13
593.876	60336.55
594.235	60285.48
594.593	60293.39
594.952	60305.59
595.311	60344.23
595.67	60350.79
596.029	60484.12
596.387	60472.82
596.746	60494.29
597.104	60395.3
597.463	60413.38
597.822	60461.97
598.18	60427.39
598.538	60402.31
598.897	60498.35
599.255	60274.18
599.613	60586.94
599.972	60495.41
600.33	60557.56
600.688	60432.37
601.046	60518.92
601.404	60614.73
601.762	60529.31
602.12	60651.34
602.478	60601.63
602.836	60598.92
603.194	60510.1
603.552	60530.44
603.91	60466.72
604.268	60640.04
604.625	60565.02
604.983	60672.13
605.341	60487.73
605.698	60653.6
606.056	60670.55
606.413	60723.21
606.771	60758.46
607.128	60778.57
607.485	60635.52
607.843	60764.79
608.2	60888.4
608.557	60973.82
608.914	60860.83
609.272	60983.54
609.629	61071.67
609.986	61101.27
610.343	61045.23
610.7	61259.01
611.057	61177.43
611.414	61222.18
611.771	61239.35
612.127	61285.9
612.484	61267.82
612.841	61359.12
613.198	61251.78
613.554	61302.85
613.911	61390.31
614.267	61359.8
614.624	61354.38
614.98	61424.43
615.337	61487.71
615.693	61404.09
616.05	61366.13
616.406	61488.38
616.762	61380.82
617.118	61391.66
617.475	61428.27
617.831	61441.6
618.187	61531.32
618.543	61565.22
618.899	61600.02
619.255	61567.48
619.611	61552.56
619.967	61590.75
620.323	61552.34
620.678	61516.63
621.034	61472.11
621.39	61496.97
621.746	61445.22
622.101	61737.64
622.457	61453.36
622.812	61547.14
623.168	61541.49
623.523	61562.73
623.879	61623.75
624.234	61529.51
624.589	61568.83
624.945	61563.86
625.3	61639.11
625.655	61624.88
626.01	61621.04
626.365	61636.4
626.72	61587.36
627.075	61567.25
627.43	61583.52
627.785	61534.48
628.14	61597.76
628.495	61614.03
628.85	61612.22
629.205	61515.5
629.559	61716.85
629.914	61585.1
630.269	61584.2
630.623	61529.06
630.978	61486.35
631.332	61557.76
631.687	61616.29
632.041	61487.48
632.396	61502.85
632.75	61428.27
633.104	61355.96
633.459	61199.8
633.813	61291.78
634.167	61261.27
634.521	61249.52
634.875	61254.49
635.229	61197.54
635.583	61075.51
635.937	61062.63
636.291	61045.01
636.645	61005.46
636.999	60887.04
637.352	61026.02
637.706	60804.79
638.06	60937.66
638.413	60918
638.767	60782.41
639.121	60834.39
639.474	60654.73
639.828	60679.82
640.181	60715.97
640.534	60587.84
640.888	60525.92
641.241	60442.08
641.594	60500.16
641.947	60540.61
642.301	60447.28
642.654	60440.28
643.007	60456.77
643.36	60417
643.713	60310.11
644.066	60347.17
644.419	60243.44
644.771	60165.93
645.124	59946.05
645.477	59889.1
645.83	59736.34
646.182	59701.99
646.535	59643.01
646.888	59676.91
647.24	59546.74
647.593	59646.85
647.945	59569.11
648.298	59464.71
648.65	59420.64
649.002	59385.61
649.355	59485.05
649.707	59418.38
650.059	59517.81
650.411	59796.22
650.763	59843.68
651.115	60001.19
651.467	59893.17
651.819	59904.7
652.171	59850.69
652.523	59792.83
652.875	59749.67
653.227	59628.32
653.578	59806.62
653.93	59736.79
654.282	59624.48
654.633	59614.08
654.985	59656.57
655.337	59597.81
655.688	59569.34
656.039	59629.9
656.391	59407.53
656.742	59445.27
657.094	59469.68
657.445	59524.82
657.796	59414.31
658.147	59390.36
658.498	59304.71
658.849	59318.5
659.2	59251.61
659.551	59213.87
659.902	59315.11
660.253	59182.23
660.604	59237.37
660.955	59134.32
661.306	59166.64
661.656	59095.68
662.007	59113.3
662.358	59017.71
662.708	59045.06
663.059	59020.43
663.409	58855.01
663.76	59084.6
664.11	59072.4
664.461	59089.35
664.811	59047.32
665.161	58984.04
665.511	58929.81
665.862	58968.22
666.212	59054.77
666.562	59155.11
666.912	59064.27
667.262	59057.94
667.612	59038.73
667.962	59032.85
668.312	58984.27
668.662	59151.95
669.011	59003.48
669.361	58966.87
669.711	59034.66
670.06	58893.2
670.41	58862.24
670.76	58813.65
671.109	58974.33
671.459	58948.34
671.808	58829.24
672.157	58843.93
672.507	58757.16
672.856	58698.85
673.205	58735.69
673.554	58818.85
673.904	58711.06
674.253	58787.89
674.602	58669.02
674.951	58263.84
675.3	58156.49
675.649	58594
675.998	58487.56
676.346	58543.83
676.695	58564.84
677.044	58400.55
677.393	58434
677.741	58383.61
678.09	58346.32
678.438	58266.1
678.787	58363.95
679.135	58301.12
679.484	58093.22
679.832	58199.43
680.181	58015.71
680.529	58176.83
680.877	58034.01
681.225	57979.77
681.573	58086.66
681.922	57890.29
682.27	57756.96
682.618	57819.33
682.966	57708.37
683.314	57700.23
683.661	57641.48
684.009	57529.39
684.357	57516.06
684.705	57382.28
685.053	57394.25
685.4	57417.3
685.748	57326.46
686.095	57331.66
686.443	57199.68
686.79	57216.63
687.138	57260.7
687.485	57262.73
687.832	57104.77
688.18	57208.95
688.527	57039.46
688.874	56980.03
689.221	56960.59
689.568	56912.01
689.915	56985.68
690.262	56912.68
690.609	56829.07
690.956	56684.44
691.303	56710.2
691.65	56583.88
691.997	56595.86
692.344	56360.38
692.69	56341.63
693.037	56409.19
693.383	56194.51
693.73	56290.33
694.077	56015.98
694.423	56052.82
694.769	55904.12
695.116	55886.27
695.462	55806.27
695.808	55698.7
696.155	55762.66
696.501	55496
696.847	55491.25
697.193	55332.39
697.539	55400.41
697.885	55204.03
698.231	55046.97
698.577	55090.81
698.923	55021.89
699.269	54812.4
699.614	54691.05
699.96	54621.45
700.306	54667.09
700.651	54497.61
700.997	54319.98
701.342	54249.25
701.688	54230.95
702.033	54152.98
702.379	54105.53
702.724	54079.09
703.069	54134.9
703.415	53728.59
703.76	53734.46
704.105	53684.75
704.45	53448.14
704.795	53344.19
705.14	53294.25
705.485	53364.3
705.83	53173.12
706.175	53204.08
706.52	53015.61
706.865	52903.07
707.209	52920.47
707.554	52769.74
707.899	52891.55
708.243	52628.73
708.588	52619.24
708.932	52475.29
709.277	52419.47
709.621	52567.04
709.966	52296.99
710.31	52348.06
710.654	52168.18
710.998	52250.43
711.342	52241.17
711.687	52079.14
712.031	52031.91
712.375	51987.16
712.719	52022.64
713.063	51847.51
713.407	51873.27
713.75	51619.26
714.094	51671.24
714.438	51566.38
714.782	51589.43
715.125	51500.17
715.469	51575.42
715.812	51373.85
716.156	51219.5
716.499	51139.05
716.843	51265.6
717.186	50862.67
717.53	51087.3
717.873	51018.38
718.216	50883.46
718.559	50792.85
718.902	50495.68
719.246	50664.49
719.589	50481.22
719.932	50367.09
720.275	50265.4
720.617	50218.85
720.96	50110.83
721.303	50115.57
721.646	50091.85
721.989	49737.96
722.331	49857.73
722.674	49779.31
723.016	49737.05
723.359	49620.45
723.701	49622.25
724.044	49237.41
724.386	49012.78
724.729	49257.29
725.071	49062.95
725.413	49138.65
725.755	49034.7
726.097	48784.54
726.439	48663.41
726.782	48724.43
727.124	48852.78
727.465	48430.65
727.807	48439.91
728.149	48305
728.491	48208.05
728.833	48314.04
729.175	48160.15
729.516	48087.38
729.858	48018.45
730.199	48017.55
730.541	47849.19
730.882	47766.03
731.224	47935.29
731.565	47683.55
731.906	47807.84
732.248	47847.16
732.589	47626.37
732.93	47547.05
733.271	47471.58
733.612	47607.84
733.953	47548.86
734.294	47441.75
734.635	47354.29
734.976	47512.48
735.317	47247.4
735.658	47132.83
735.999	47295.76
736.339	47063.9
736.68	47217.12
737.021	47053.28
737.361	46987.75
737.702	47059.38
738.042	46941.65
738.383	46895.77
738.723	46915.43
739.063	46812.61
739.404	46885.83
739.744	46544.82
740.084	46503.01
740.424	46542.11
740.764	46348.67
741.104	46537.59
741.444	46182.8
741.784	46203.14
742.124	46212.63
742.464	46118.84
742.804	46090.6
743.143	45818.06
743.483	45832.3
743.823	45634.56
744.162	45577.39
744.502	45617.61
744.841	45321.58
745.181	45494
745.52	45166.33
745.86	45230.28
746.199	45002.94
746.538	45098.76
746.877	45031.19
747.216	44981.47
747.556	44824.19
747.895	44896.73
748.234	44636.62
748.573	44681.59
748.911	44336.07
749.25	44345.11
749.589	44081.16
749.928	44256.29
750.267	44119.12
750.605	43846.59
750.944	43727.72
751.283	43551.45
751.621	43650.66
751.96	43384.68
752.298	43427.84
