Data from aluminium_macbook_case_FLMS001491_079.txt Node
Date: Tue Feb 07 10:44:12 GMT 2017
User: dcchb
Spectrometer: FLMS00149
Trigger mode: 0
Integration Time (sec): 2.000000E-2
Scans to average: 10
Electric dark correction enabled: true
Nonlinearity correction enabled: false
Boxcar width: 0
XAxis mode: Wavelengths
Number of Pixels in Spectrum: 2048
>>>>>Begin Spectral Data<<<<<
341.393	-27.15
341.776	-27.15
342.16	-27.15
342.543	-70.08
342.927	-75.51
343.31	-71.89
343.693	-61.72
344.077	-65.56
344.46	-48.84
344.843	-73.02
345.226	-46.81
345.61	-22.63
345.993	-28.28
346.376	9.01
346.759	13.76
347.142	33.87
347.525	46.07
347.908	65.73
348.291	64.38
348.674	84.04
349.057	101.89
349.44	119.29
349.823	146.41
350.206	159.97
350.588	242.9
350.971	242
351.354	287.65
351.737	293.75
352.119	319.51
352.502	284.94
352.884	340.08
353.267	329.68
353.65	330.81
354.032	353.18
354.414	365.39
354.797	383.69
355.179	374.65
355.562	394.99
355.944	411.49
356.326	404.25
356.709	405.38
357.091	406.97
357.473	412.39
357.855	427.98
358.238	401.54
358.62	413.07
359.002	408.1
359.384	427.08
359.766	434.31
360.148	428.89
360.53	424.82
360.912	422.33
361.294	451.94
361.676	419.4
362.057	413.52
362.439	420.53
362.821	417.81
363.203	418.27
363.584	431.15
363.966	434.31
364.348	410.36
364.729	434.76
365.111	429.11
365.493	431.82
365.874	425.5
366.256	424.14
366.637	423.24
367.019	416.68
367.4	425.95
367.781	440.64
368.163	432.73
368.544	451.71
368.925	441.32
369.306	422.11
369.688	440.41
370.069	450.36
370.45	453.75
370.831	455.55
371.212	451.49
371.593	466.85
371.974	468.21
372.355	466.85
372.736	486.29
373.117	457.13
373.498	474.08
373.879	463.24
374.26	471.82
374.641	488.32
375.021	451.26
375.402	494.87
375.783	504.59
376.163	538.26
376.544	524.7
376.925	505.04
377.305	501.65
377.686	521.09
378.066	538.04
378.447	552.95
378.827	566.51
379.208	548.66
379.588	548.66
379.968	545.27
380.349	547.98
380.729	590.01
381.109	594.98
381.489	619.16
381.87	564.25
382.25	586.4
382.63	583.46
383.01	593.4
383.39	587.53
383.77	616.23
384.15	613.06
384.53	628.66
384.91	637.02
385.29	641.08
385.67	664.59
386.049	658.71
386.429	661.88
386.809	676.56
387.189	673.4
387.568	685.6
387.948	677.92
388.328	724.7
388.707	697.81
389.087	710.46
389.466	726.05
389.846	735.32
390.225	741.42
390.605	757.69
390.984	756.34
391.363	761.53
391.743	761.08
392.122	778.71
392.501	814.41
392.881	841.31
393.26	820.97
393.639	821.42
394.018	848.31
394.397	830.01
394.776	887.41
395.155	862.77
395.534	876.78
395.913	889.89
396.292	917.24
396.671	929.66
397.05	894.64
397.429	924.92
397.808	933.96
398.186	934.86
398.565	938.7
398.944	960.62
399.323	978.03
399.701	1011.47
400.08	1005.14
400.458	1017.8
400.837	1023.9
401.215	1044.46
401.594	1032.71
401.972	1058.47
402.351	1065.71
402.729	1106.61
403.107	1076.78
403.486	1108.42
403.864	1124.46
404.242	1119.94
404.62	1133.05
404.999	1161.75
405.377	1202.2
405.755	1170.34
406.133	1192.71
406.511	1230.45
406.889	1222.09
407.267	1287.4
407.645	1280.39
408.023	1288.3
408.401	1317.9
408.779	1340.28
409.156	1374.4
409.534	1377.34
409.912	1382.31
410.29	1417.79
410.667	1428.41
411.045	1452.59
411.422	1452.59
411.8	1461.63
412.178	1527.62
412.555	1556.09
412.933	1539.37
413.31	1571.91
413.687	1602.42
414.065	1627.95
414.442	1649.65
414.819	1673.15
415.197	1670.89
415.574	1721.96
415.951	1734.16
416.328	1764.45
416.705	1718.8
417.082	1803.77
417.46	1826.82
417.837	1776.65
418.214	1832.92
418.591	1876.76
418.967	1874.05
419.344	1905.01
419.721	1940.94
420.098	1961.05
420.475	1960.82
420.852	1982.07
421.228	2010.99
421.605	2055.28
421.982	2044.66
422.358	2064.32
422.735	2092.35
423.111	2126.02
423.488	2179.12
423.864	2165.56
424.241	2188.16
424.617	2238.78
424.994	2284.43
425.37	2297.54
425.746	2292.57
426.123	2329.63
426.499	2370.98
426.875	2414.82
427.251	2438.33
427.627	2461.83
428.003	2508.15
428.379	2538.21
428.756	2570.3
429.132	2603.97
429.507	2616.85
429.883	2694.36
430.259	2717.19
430.635	2768.49
431.011	2739.56
431.387	2845.32
431.763	2879.22
432.138	2930.74
432.514	2955.83
432.89	2980.91
433.265	3030.63
433.641	3087.12
434.016	3153.56
434.392	3181.58
434.767	3266.78
435.143	3225.65
435.518	3261.81
435.894	3321.69
436.269	3340.45
436.644	3445.98
437.02	3460.45
437.395	3433.78
437.77	3506.09
438.145	3538.41
438.52	3637.39
438.895	3669.03
439.271	3636.71
439.646	3756.26
440.021	3812.98
440.395	3811.62
440.77	3773.43
441.145	3854.11
441.52	3908.34
441.895	3936.14
442.27	3939.53
442.645	3966.2
443.019	4055.01
443.394	4028.34
443.769	4100.2
444.143	4088.45
444.518	4161.44
444.892	4143.14
445.267	4208.45
445.641	4233.08
446.016	4253.19
446.39	4304.94
446.764	4352.85
447.139	4355.56
447.513	4420.19
447.887	4413.64
448.262	4463.13
448.636	4458.84
449.01	4551.49
449.384	4631.49
449.758	4622.45
450.132	4743.12
450.506	4756.23
450.88	4767.08
451.254	4790.58
451.628	4905.61
452.002	4963.46
452.376	4979.5
452.75	5019.95
453.123	5078.03
453.497	5152.38
453.871	5188.54
454.244	5261.75
454.618	5294.75
454.992	5385.37
455.365	5360.73
455.739	5553.05
456.112	5654.96
456.486	5681.4
456.859	5732.25
457.232	5805.24
457.606	5855.64
457.979	5921.4
458.352	6122.52
458.725	6118
459.099	6225.57
459.472	6320.48
459.845	6390.76
460.218	6418.33
460.591	6506.24
460.964	6536.98
461.337	6704.43
461.71	6791.21
462.083	6911.65
462.456	6956.62
462.829	6917.98
463.201	7088.6
463.574	7161.14
463.947	7274.81
464.32	7395.03
464.692	7428.03
465.065	7541.92
465.438	7622.37
465.81	7770.61
466.183	7866.88
466.555	8041.57
466.928	8104.62
467.3	8069.14
467.672	8237.72
468.045	8480.65
468.417	8467.55
468.789	8531.5
469.161	8702.12
469.534	8827.08
469.906	9067.3
470.278	9141.65
470.65	9214.42
471.022	9382.78
471.394	9541.87
471.766	9709.09
472.138	9769.66
472.51	9950.22
472.882	10121.29
473.253	10262.98
473.625	10357.44
473.997	10590.65
474.369	10640.37
474.74	10809.63
475.112	11026.8
475.484	11224.08
475.855	11413.23
476.227	11562.83
476.598	11948.58
476.97	12026.55
477.341	12290.95
477.713	12514.9
478.084	12508.12
478.455	12925.73
478.827	12996.01
479.198	13472.39
479.569	13456.79
479.94	13828.31
480.311	13940.17
480.682	14252.25
481.053	14555.75
481.424	14815.85
481.795	14945.79
482.166	15172
482.537	15388.27
482.908	15711.2
483.279	15845.2
483.65	16192.54
484.021	16489.93
484.391	16668.23
484.762	16815.12
485.133	17013.08
485.503	17291.04
485.874	17670.24
486.244	17843.12
486.615	18194.75
486.985	18522.42
487.356	18860.49
487.726	19007.16
488.097	19379.8
488.467	19517.88
488.837	19823.86
489.207	20058.65
489.578	20396.72
489.948	20589.71
490.318	20937.27
490.688	20919.2
491.058	21234.22
491.428	21615.22
491.798	21816.8
492.168	22200.29
492.538	22313.74
492.908	22613.61
493.278	22917.79
493.648	22907.17
494.017	23294.5
494.387	23508.96
494.757	23580.82
495.126	23899.91
495.496	23892
495.866	24106.46
496.235	24413.57
496.605	24778.53
496.974	24932.88
497.344	25136.71
497.713	25264.84
498.082	25500.32
498.452	25799.29
498.821	25952.06
499.19	26093.52
499.559	26348.43
499.928	26536.9
500.298	26750
500.667	26907.29
501.036	26927.4
501.405	27217.34
501.774	27312.02
502.143	27671.11
502.512	27754.04
502.88	27867.26
503.249	27995.62
503.618	28212.56
503.987	28389.06
504.356	28607.13
504.724	28830.85
505.093	28899.1
505.462	29078.76
505.83	29234.68
506.199	29468.12
506.567	29849.36
506.936	29768.23
507.304	30310.14
507.672	30317.59
508.041	30727.07
508.409	30918.93
508.777	31062.21
509.145	31419.48
509.514	31419.94
509.882	31777.22
510.25	31869.42
510.618	32142.86
510.986	32327.71
511.354	32728.38
511.722	32863.74
512.09	33199.55
512.458	33138.76
512.826	33515.25
513.193	33697.16
513.561	33780.78
513.929	34260.77
514.297	34428.22
514.664	34719.74
515.032	34784.59
515.4	34997.24
515.767	35270.68
516.135	35429.55
516.502	35409.89
516.869	36048.29
517.237	36242.41
517.604	36150.89
517.972	36481.5
518.339	36783.19
518.706	37003.74
519.073	37141.82
519.44	37454.35
519.808	37670.17
520.175	37953.1
520.542	38415.91
520.909	38638.05
521.276	38777.48
521.643	39198.94
522.009	39325.94
522.376	39852.94
522.743	40005.7
523.11	40473.71
523.477	40933.36
523.843	41126.35
524.21	41439.11
524.577	41679.55
524.943	41853.33
525.31	42156.15
525.676	42491.96
526.043	42773.99
526.409	42815.57
526.776	43397.47
527.142	43477.92
527.508	43726.96
527.874	44015.09
528.241	44132.82
528.607	44448.97
528.973	44664.56
529.339	44859.58
529.705	45137.32
530.071	45422.73
530.437	45822.95
530.803	45771.2
531.169	46104.52
531.535	46034.47
531.901	46302.03
532.267	46566.66
532.632	46925.52
532.998	46955.12
533.364	47198.28
533.73	47368.22
534.095	47692.96
534.461	47923.46
534.826	48137.46
535.192	48292.04
535.557	48553.27
535.923	48560.95
536.288	48773.15
536.653	49019.7
537.019	48940.38
537.384	49098.12
537.749	49254.95
538.114	49407.03
538.479	49543.53
538.845	49728.83
539.21	49612.23
539.575	49851.54
539.94	50001.37
540.305	50202.04
540.67	50153.68
541.034	50374.01
541.399	50580.34
541.764	50582.6
542.129	50705.98
542.494	50869.59
542.858	50954.79
543.223	50939.2
543.587	51244.73
543.952	51221.45
544.316	51357.72
544.681	51282.92
545.045	51664.15
545.41	51750.25
545.774	51867.53
546.138	51905.95
546.503	52074.99
546.867	52063.69
547.231	52378.93
547.595	52392.27
547.959	52514.52
548.324	52594.07
548.688	52753.84
549.052	52832.93
549.416	52867.96
549.779	53058.69
550.143	53135.75
550.507	53275.63
550.871	53378.91
551.235	53403.09
551.599	53717.66
551.962	53727.15
552.326	53761.95
552.689	53952.9
553.053	53882.85
553.417	54010.3
553.78	54370.07
554.143	54304.31
554.507	54487.13
554.87	54510.85
555.234	54710.85
555.597	54565.99
555.96	54810.28
556.323	54895.93
556.686	54923.5
557.05	55074.23
557.413	55216.37
557.776	55316.48
558.139	55448.68
558.502	55503.37
558.865	55665.85
559.228	55806.41
559.59	55819.3
559.953	55945.62
560.316	56168.66
560.679	56232.62
561.041	56405.27
561.404	56531.37
561.767	56717.8
562.129	56717.58
562.492	57030.11
562.854	57000.51
563.217	57024.46
563.579	57177.68
563.941	57358.01
564.304	57485.47
564.666	57610.89
565.028	57640.26
565.39	57666.48
565.753	57840.26
566.115	57976.75
566.477	58111.21
566.839	58116.64
567.201	58273.69
567.563	58275.28
567.925	58481.37
568.287	58476.63
568.648	58501.48
569.01	58645.89
569.372	58827.35
569.734	58761.36
570.095	58855.6
570.457	58943.96
570.819	59032.54
571.18	59033.22
571.542	59228.7
571.903	59258.3
572.265	59358.64
572.626	59418.07
572.987	59440.67
573.349	59545.07
573.71	59688.8
574.071	59744.39
574.432	59744.16
574.794	59933.76
575.155	59912.75
575.516	59803.82
575.877	59905.97
576.238	60065.51
576.599	60104.15
576.96	60104.38
577.32	60216.02
577.681	60275.22
578.042	60346.63
578.403	60428.89
578.763	60361.55
579.124	60477.7
579.485	60482.22
579.845	60534.43
580.206	60537.82
580.566	60509.34
580.927	60583.24
581.287	60604.03
581.648	60545.05
582.008	60660.75
582.368	60576.46
582.728	60709.11
583.089	60624.37
583.449	60587.98
583.809	60638.38
584.169	60628.21
584.529	60588.21
584.889	60734.42
585.249	60567.19
585.609	60592.73
585.969	60727.64
586.329	60610.13
586.688	60605.61
587.048	60650.81
587.408	60617.36
587.768	60663.69
588.127	60652.61
588.487	60606.06
588.846	60800.86
589.206	60626.63
589.565	60702.33
589.925	60798.83
590.284	60715.44
590.643	60815.77
591.003	60839.5
591.362	60940.74
591.721	60828.2
592.08	60860.74
592.44	60839.95
592.799	60869.78
593.158	60848.32
593.517	60922.89
593.876	60949.56
594.235	60886.28
594.593	60894.19
594.952	61006.05
595.311	60859.16
595.67	60945.26
596.029	61045.82
596.387	61019.61
596.746	61085.82
597.104	60901.42
597.463	60918.82
597.822	61063.68
598.18	60934.87
598.538	60889.9
598.897	61097.8
599.255	60921.31
599.613	61174.86
599.972	60973.51
600.33	61078.37
600.688	61003.34
601.046	61040.63
601.404	61081.76
601.762	61043.79
602.12	61179.15
602.478	61213.73
602.836	61205.82
603.194	61098.25
603.552	61128.99
603.91	61067.52
604.268	61188.65
604.625	61162.43
604.983	61286.5
605.341	61188.19
605.698	61369.43
606.056	61346.83
606.413	61326.49
606.771	61422.99
607.128	61486.49
607.485	61438.36
607.843	61416.44
608.2	61592.93
608.557	61646.71
608.914	61521.07
609.272	61648.97
609.629	61632.25
609.986	61798.57
610.343	61653.27
610.7	61789.53
611.057	61740.04
611.414	61758.35
611.771	61773.04
612.127	61854.39
612.484	61847.16
612.841	61854.62
613.198	61795.64
613.554	61779.82
613.911	61959.92
614.267	61894.62
614.624	61880.83
614.98	61905.46
615.337	62049.41
615.693	61959.02
616.05	61874.05
616.406	62024.78
616.762	61939.59
617.118	61980.94
617.475	61966.48
617.831	62013.03
618.187	62002.86
618.543	62048.74
618.899	62090.54
619.255	62100.03
619.611	62091.45
619.967	62105.68
620.323	62133.03
620.678	62064.33
621.034	62075.85
621.39	62069.98
621.746	62028.4
622.101	62250.76
622.457	62123.54
622.812	62132.58
623.168	62194.49
623.523	62184.78
623.879	62273.59
624.234	62126.7
624.589	62246.24
624.945	62289.41
625.3	62309.97
625.655	62310.65
626.01	62291.67
626.365	62350.2
626.72	62199.01
627.075	62273.81
627.43	62222.06
627.785	62190.43
628.14	62229.52
628.495	62274.72
628.85	62193.82
629.205	62147.04
629.559	62291.22
629.914	62127.38
630.269	62094.16
630.623	62085.12
630.978	62031.34
631.332	62080.15
631.687	62103.42
632.041	61985.01
632.396	62029.3
632.75	61925.35
633.104	61879.93
633.459	61807.16
633.813	61768.52
634.167	61766.71
634.521	61643.77
634.875	61759.7
635.229	61634.51
635.583	61539.37
635.937	61555.19
636.291	61501.18
636.645	61504.34
636.999	61450.11
637.352	61485.36
637.706	61329.21
638.06	61466.15
638.413	61348.19
638.767	61397.23
639.121	61364.01
639.474	61232.26
639.828	61277
640.181	61279.72
640.534	61303.9
640.888	61182.09
641.241	61101.19
641.594	61129.44
641.947	61200.62
642.301	61120.17
642.654	61178.02
643.007	61088.53
643.36	61115.88
643.713	61097.12
644.066	61201.75
644.419	60951.14
644.771	60840.86
645.124	60725.83
645.477	60623.91
645.83	60488.32
646.182	60335.56
646.535	60215.34
646.888	60294.21
647.24	60183.7
647.593	60220.99
647.945	60164.27
648.298	60071.16
648.65	60009.02
649.002	59961.56
649.355	60056.47
649.707	59962.91
650.059	60021.22
650.411	60277.26
650.763	60288.78
651.115	60538.49
651.467	60399.06
651.819	60395.22
652.171	60318.39
652.523	60235.45
652.875	60242.23
653.227	60173.98
653.578	60333.98
653.93	60192.29
654.282	60128.79
654.633	60022.35
654.985	60048.79
655.337	60112.74
655.688	60054.89
656.039	60098.05
656.391	59876.14
656.742	59917.04
657.094	59906.19
657.445	60037.49
657.796	59985.06
658.147	59877.27
658.498	59905.97
658.849	59917.04
659.2	59896.7
659.551	59861.9
659.902	59931.28
660.253	59793.88
660.604	59880.43
660.955	59755.69
661.306	59869.36
661.656	59810.38
662.007	59790.72
662.358	59804.05
662.708	59856.03
663.059	59754.78
663.409	59632.08
663.76	59802.47
664.11	59793.2
664.461	59823.71
664.811	59809.02
665.161	59836.82
665.511	59688.8
665.862	59723.83
666.212	59754.11
666.562	59809.02
666.912	59705.29
667.262	59704.62
667.612	59654
667.962	59628.23
668.312	59589.59
668.662	59703.26
669.011	59620.78
669.361	59578.29
669.711	59525.19
670.06	59419.88
670.41	59291.75
670.76	59351.63
671.109	59395.02
671.459	59297.85
671.808	59246.55
672.157	59374.91
672.507	59165.42
672.856	59081.36
673.205	59207.91
673.554	59235.93
673.904	59139.89
674.253	59207.23
674.602	59118.19
674.951	58760.01
675.3	58587.13
675.649	58948.48
675.998	58939.89
676.346	59008.36
676.695	59024.86
677.044	58833.91
677.393	58903.96
677.741	58911.42
678.09	58878.2
678.438	58820.35
678.787	58884.53
679.135	58795.26
679.484	58670.97
679.832	58792.1
680.181	58715.94
680.529	58755.04
680.877	58652.89
681.225	58665.32
681.573	58770.86
681.922	58539.45
682.27	58532.22
682.618	58614.48
682.966	58460.13
683.314	58595.49
683.661	58475.5
684.009	58318.21
684.357	58315.5
684.705	58321.6
685.053	58342.17
685.4	58254.03
685.748	58077.77
686.095	58108.5
686.443	58022.85
686.79	57949.18
687.138	57992.12
687.485	57982.63
687.832	57947.37
688.18	57879.35
688.527	57796.19
688.874	57713.48
689.221	57631.68
689.568	57598.23
689.915	57398.69
690.262	57470.78
690.609	57367.5
690.956	57259.26
691.303	57262.65
691.65	57060.84
691.997	57030.79
692.344	56786.73
692.69	56819.49
693.037	56795.09
693.383	56607.3
693.73	56727.29
694.077	56440.52
694.423	56486.17
694.769	56391.26
695.116	56247.31
695.462	56245.05
695.808	56102.9
696.155	56156.24
696.501	55942.46
696.847	55951.27
697.193	55754.66
697.539	55853.87
697.885	55688.68
698.231	55536.59
698.577	55611.62
698.923	55497.72
699.269	55380.21
699.614	55257.28
699.96	55194.68
700.306	55281.46
700.651	55188.13
700.997	55103.83
701.342	55014.8
701.688	54963.5
702.033	54862.03
702.379	54820.23
702.724	54780.45
703.069	54885.31
703.415	54566.9
703.76	54578.88
704.105	54609.61
704.45	54486.67
704.795	54289.17
705.14	54331.88
705.485	54269.96
705.83	54169.39
706.175	54169.17
706.52	54069.06
706.865	53910.64
707.209	53907.93
707.554	53813.25
707.899	53947.93
708.243	53766.02
708.588	53642.18
708.932	53421.62
709.277	53501.16
709.621	53349.3
709.966	53120.83
710.31	53159.03
710.654	52997.9
710.998	53102.3
711.342	53081.74
711.687	52965.58
712.031	52719.04
712.375	52570.57
712.719	52666.16
713.063	52515.2
713.407	52641.07
713.75	52337.8
714.094	52262.55
714.438	52205.15
714.782	52208.54
715.125	52067.98
715.469	52046.96
715.812	51768.33
716.156	51735.56
716.499	51709.8
716.843	51664.38
717.186	51471.84
717.53	51583.25
717.873	51510.71
718.216	51449.92
718.559	51244.5
718.902	51058.29
719.246	51138.06
719.589	50967.45
719.932	50810.61
720.275	50909.37
720.617	50728.81
720.96	50746.89
721.303	50709.6
721.646	50658.3
721.989	50332.66
722.331	50530.85
722.674	50409.95
723.016	50475.71
723.359	50403.39
723.701	50494.92
724.044	50241.14
724.386	50115.04
724.729	50237.29
725.071	50025.55
725.413	50014.25
725.755	50040.69
726.097	49866.23
726.439	49735.39
726.782	49767.02
727.124	49899
727.465	49663.98
727.807	49635.05
728.149	49611.1
728.491	49512.12
728.833	49623.3
729.175	49451.1
729.516	49355.06
729.858	49321.16
730.199	49332.91
730.541	49175.18
730.882	49266.25
731.224	49305.57
731.565	49021.73
731.906	49000.04
732.248	49027.61
732.589	48756.43
732.93	48618.13
733.271	48661.52
733.612	48657.22
733.953	48730.22
734.294	48475.53
734.635	48434.86
734.976	48489.32
735.317	48301.75
735.658	48180.63
735.999	48048.2
736.339	47991.25
736.68	48093.4
737.021	47718.04
737.361	47657.02
737.702	47877.58
738.042	47791.94
738.383	47577.03
738.723	47609.12
739.063	47456.8
739.404	47253.64
739.744	47245.06
740.084	46928.68
740.424	47097.26
740.764	46804.39
741.104	46959.19
741.444	46780.89
741.784	46694.79
742.124	46647.11
742.464	46582.93
742.804	46452.54
743.143	46361.24
743.483	46434.68
743.823	46147.68
744.162	46130.96
744.502	46082.83
744.841	45996.5
745.181	46002.38
745.52	45890.29
745.86	45958.76
746.199	45840.35
746.538	45779.56
746.877	45784.98
747.216	45672.9
747.556	45516.52
747.895	45491.88
748.234	45373.92
748.573	45284.66
748.911	45239.69
749.25	45239.91
749.589	45082.18
749.928	45227.48
750.267	45185
750.605	45015.74
750.944	44866.36
751.283	44926.7
751.621	44839.92
751.96	44678.12
