Data from aluminium_surface_pro_back_FLMS001491_00084.txt Node
Date: Wed Feb 08 15:34:39 GMT 2017
User: dcchb
Spectrometer: FLMS00149
Trigger mode: 0
Integration Time (sec): 2.000000E-2
Scans to average: 10
Electric dark correction enabled: true
Nonlinearity correction enabled: false
Boxcar width: 0
XAxis mode: Wavelengths
Number of Pixels in Spectrum: 2048
>>>>>Begin Spectral Data<<<<<
341.393	12.63
341.776	12.63
342.16	12.63
342.543	-52
342.927	-63.53
343.31	-79.8
343.693	-63.98
344.077	-73.02
344.46	-60.82
344.843	-31.67
345.226	-43.64
345.61	-42.06
345.993	-30.99
346.376	32.74
346.759	21.44
347.142	32.97
347.525	19.86
347.908	55.34
348.291	82.23
348.674	101.44
349.057	79.97
349.44	135.79
349.823	128.78
350.206	185.5
350.588	217.37
350.971	230.7
351.354	258.95
351.737	263.69
352.119	276.12
352.502	285.84
352.884	297.59
353.267	330.81
353.65	320.64
354.032	333.07
354.414	338.49
354.797	350.92
355.179	350.7
355.562	354.76
355.944	354.76
356.326	364.48
356.709	359.51
357.091	380.53
357.473	389.11
357.855	379.62
358.238	388.21
358.62	372.39
359.002	395.89
359.384	400.41
359.766	406.74
360.148	380.98
360.53	392.73
360.912	377.81
361.294	383.92
361.676	387.53
362.057	375.78
362.439	382.79
362.821	399.28
363.203	382.11
363.584	361.32
363.966	375.78
364.348	376.01
364.729	396.35
365.111	363.35
365.493	358.15
365.874	371.49
366.256	376.91
366.637	369.91
367.019	367.19
367.4	378.49
367.781	378.94
368.163	389.34
368.544	378.94
368.925	390.7
369.306	394.76
369.688	387.76
370.069	372.84
370.45	379.62
370.831	377.81
371.212	392.05
371.593	414.65
371.974	405.84
372.355	383.46
372.736	378.72
373.117	397.7
373.498	409.45
373.879	391.37
374.26	376.69
374.641	388.44
375.021	403.8
375.402	409
375.783	426.63
376.163	433.18
376.544	418.27
376.925	413.29
377.305	416.01
377.686	420.07
378.066	436.57
378.447	443.8
378.827	443.35
379.208	440.41
379.588	420.75
379.968	439.28
380.349	463.46
380.729	443.58
381.109	447.87
381.489	450.36
381.87	459.17
382.25	460.3
382.63	470.47
383.01	457.36
383.39	475.44
383.77	477.7
384.15	474.54
384.53	487.42
384.91	495.78
385.29	492.61
385.67	502.78
386.049	512.27
386.429	504.37
386.809	511.6
387.189	523.35
387.568	547.3
387.948	533.97
388.328	540.75
388.707	527.19
389.087	575.78
389.466	550.69
389.846	568.77
390.225	546.4
390.605	569.9
390.984	561.76
391.363	579.62
391.743	605.61
392.122	578.71
392.501	583.23
392.881	619.16
393.26	619.84
393.639	622.1
394.018	625.27
394.397	632.72
394.776	649.67
395.155	652.16
395.534	656.68
395.913	674.08
396.292	666.17
396.671	699.61
397.05	684.25
397.429	705.94
397.808	691.7
398.186	711.14
398.565	733.29
398.944	692.83
399.323	700.97
399.701	739.39
400.08	752.72
400.458	776.45
400.837	781.19
401.215	786.17
401.594	761.76
401.972	759.5
402.351	811.7
402.729	798.59
403.107	832.27
403.486	797.69
403.864	830.01
404.242	846.73
404.62	845.83
404.999	867.52
405.377	873.17
405.755	880.17
406.133	897.12
406.511	907.52
406.889	922.89
407.267	926.05
407.645	961.75
408.023	956.78
408.401	967.18
408.779	993.62
409.156	985.71
409.534	999.49
409.912	1012.83
410.29	1030.23
410.667	1017.8
411.045	1064.35
411.422	1061.86
411.8	1055.99
412.178	1124.46
412.555	1100.73
412.933	1121.3
413.31	1141.41
413.687	1152.48
414.065	1181.64
414.442	1159.72
414.819	1201.52
415.197	1207.17
415.574	1238.13
415.951	1236.32
416.328	1240.84
416.705	1279.71
417.082	1263.67
417.46	1293.27
417.837	1311.58
418.214	1318.36
418.591	1346.83
418.967	1339.15
419.344	1342.08
419.721	1391.35
420.098	1377.11
420.475	1401.29
420.852	1398.13
421.228	1421.86
421.605	1438.58
421.982	1459.37
422.358	1487.39
422.735	1500.95
423.111	1519.03
423.488	1527.62
423.864	1538.46
424.241	1532.81
424.617	1558.8
424.994	1596.54
425.37	1657.78
425.746	1609.19
426.123	1644.22
426.499	1663.43
426.875	1673.15
427.251	1700.04
427.627	1712.47
428.003	1749.08
428.379	1788.63
428.756	1785.01
429.132	1796.31
429.507	1839.7
429.883	1858.91
430.259	1888.28
430.635	1919.7
431.011	1917.44
431.387	1977.09
431.763	2004.21
432.138	2036.75
432.514	2081.27
432.89	2067.04
433.265	2114.27
433.641	2108.39
434.016	2161.72
434.392	2206.47
434.767	2208.73
435.143	2235.85
435.518	2258.44
435.894	2267.48
436.269	2280.82
436.644	2342.28
437.02	2382.28
437.395	2395.39
437.77	2420.93
438.145	2487.14
438.52	2460.02
438.895	2476.06
439.271	2489.4
439.646	2552.22
440.021	2568.72
440.395	2599.45
440.77	2577.98
441.145	2579.11
441.52	2666.57
441.895	2634.7
442.27	2720.35
442.645	2699.34
443.019	2761.26
443.394	2783.4
443.769	2794.25
444.143	2795.15
444.518	2843.29
444.892	2846
445.267	2881.03
445.641	2911.08
446.016	2914.47
446.39	2958.31
446.764	2964.64
447.139	2937.97
447.513	3008.48
447.887	3003.96
448.262	3008.93
448.636	3041.25
449.01	3094.81
449.384	3090.29
449.758	3122.6
450.132	3137.52
450.506	3189.49
450.88	3230.17
451.254	3210.96
451.628	3274.91
452.002	3332.54
452.376	3309.94
452.75	3354.91
453.123	3398.3
453.497	3447.34
453.871	3522.82
454.244	3559.2
454.618	3544.06
454.992	3630.61
455.365	3651.63
455.739	3717.61
456.112	3781.34
456.486	3816.59
456.859	3861.57
457.232	3912.41
457.606	3941.79
457.979	3951.28
458.352	4035.57
458.725	4094.78
459.099	4167.77
459.472	4186.53
459.845	4269.92
460.218	4248.9
460.591	4273.53
460.964	4339.52
461.337	4456.35
461.71	4512.17
462.083	4623.58
462.456	4645.95
462.829	4624.26
463.201	4692.73
463.574	4735.67
463.947	4812.27
464.32	4970.24
464.692	4970.01
465.065	4961.2
465.438	5092.04
465.81	5192.83
466.183	5216.11
466.555	5330
466.928	5376.1
467.3	5379.94
467.672	5449.09
468.045	5629.65
468.417	5665.81
468.789	5685.7
469.161	5749.65
469.534	5798.01
469.906	5981.51
470.278	6069.87
470.65	6091.11
471.022	6165.46
471.394	6330.43
471.766	6376.75
472.138	6459.24
472.51	6608.39
472.882	6710.76
473.253	6769.96
473.625	6869.85
473.997	6971.31
474.369	7088.82
474.74	7170.86
475.112	7251.76
475.484	7455.59
475.855	7555.03
476.227	7641.13
476.598	7799.09
476.97	7907.56
477.341	8126.31
477.713	8263.26
478.084	8300.77
478.455	8530.37
478.827	8601.33
479.198	8874.99
479.569	8872.96
479.94	9179.62
480.311	9176.91
480.682	9378.03
481.053	9665.93
481.424	9728.98
481.795	9901.18
482.166	10023.66
482.537	10166.94
482.908	10368.29
483.279	10480.15
483.65	10721.05
484.021	10969.4
484.391	11110.19
484.762	11170.98
485.133	11313.35
485.503	11445.55
485.874	11681.25
486.244	11792.88
486.615	12052.31
486.985	12237.16
487.356	12426.76
487.726	12605.06
488.097	12852.97
488.467	12988.33
488.837	13170.25
489.207	13285.72
489.578	13582.44
489.948	13641.19
490.318	13790.8
490.688	13900.4
491.058	14135.19
491.428	14352.81
491.798	14469.42
492.168	14757.78
492.538	14807.94
492.908	14979.01
493.278	15180.82
493.648	15276.18
494.017	15425.78
494.387	15589.84
494.757	15768.6
495.126	15959.55
495.496	15916.39
495.866	16123.16
496.235	16250.84
496.605	16421.23
496.974	16529.25
497.344	16703.71
497.713	16818.51
498.082	16872.07
498.452	17119.52
498.821	17204.94
499.19	17272.06
499.559	17459.4
499.928	17575.78
500.298	17772.61
500.667	17853.74
501.036	17891.93
501.405	18200.4
501.774	18156.1
502.143	18358.36
502.512	18458.47
502.88	18692.36
503.249	18690.78
503.618	18936.87
503.987	18885.35
504.356	19058.91
504.724	19226.36
505.093	19373.47
505.462	19505.22
505.83	19535.5
506.199	19769.85
506.567	19900.69
506.936	20009.62
507.304	20208.03
507.672	20424.52
508.041	20413.45
508.409	20599.2
508.777	20831.51
509.145	20862.7
509.514	21073.77
509.882	21129.13
510.25	21238.51
510.618	21510.59
510.986	21693.86
511.354	21848.44
511.722	22050.47
512.09	22289.33
512.458	22191.48
512.826	22476.67
513.193	22613.84
513.561	22607.74
513.929	22833.95
514.297	23044.56
514.664	23310.32
515.032	23355.52
515.4	23569.07
515.767	23758.67
516.135	23927.48
516.502	23898.1
516.869	24158.88
517.237	24362.95
517.604	24279.33
517.972	24683.62
518.339	24926.32
518.706	24955.25
519.073	25138.29
519.44	25305.07
519.808	25617.38
520.175	25701.44
520.542	25972.85
520.909	26142.79
521.276	26221.43
521.643	26571.25
522.009	26693.51
522.376	27058.47
522.743	27159.48
523.11	27397.44
523.477	27664.78
523.843	27925.79
524.21	28025
524.577	28364.65
524.943	28401.48
525.31	28702.49
525.676	28930.28
526.043	29165.53
526.409	29252.08
526.776	29633.09
527.142	29803.71
527.508	29988.11
527.874	30207.31
528.241	30356.46
528.607	30404.6
528.973	30835.77
529.339	30809.56
529.705	31251.35
530.071	31405.7
530.437	31616.54
530.803	31811.11
531.169	32087.26
531.535	31972.46
531.901	32162.74
532.267	32404.54
532.632	32616.52
532.998	32675.27
533.364	33034.36
533.73	33001.14
534.095	33341.47
534.461	33385.99
534.826	33642.25
535.192	33819.87
535.557	34004.95
535.923	33971.06
536.288	34063.93
536.653	34249.01
537.019	34284.27
537.384	34376.02
537.749	34658.04
538.114	34773.07
538.479	34949.11
538.845	35005.15
539.21	35056.45
539.575	35173.74
539.94	35257.58
540.305	35592.48
540.67	35326.27
541.034	35622.31
541.399	35818.24
541.764	35942.76
542.129	36087.84
542.494	36217.1
542.858	36338.9
543.223	36431.56
543.587	36511.1
543.952	36639.46
544.316	36625.68
544.681	36683.98
545.045	37075.38
545.41	37197.64
545.774	37364.64
546.138	37315.6
546.503	37481.25
546.867	37592.43
547.231	37958.97
547.595	38097.28
547.959	38125.07
548.324	38044.85
548.688	38342.47
549.052	38388.34
549.416	38573.42
549.779	38541.56
550.143	38666.3
550.507	39004.6
550.871	39130.24
551.235	39027.19
551.599	39271.71
551.962	39537.24
552.326	39499.05
552.689	39743.11
553.053	39593.51
553.417	39745.82
553.78	40296.54
554.143	39967.73
554.507	40228.97
554.87	40420.83
555.234	40666.93
555.597	40653.59
555.96	40873.47
556.323	40953.7
556.686	41142.39
557.05	41451.54
557.413	41523.85
557.776	41611.08
558.139	41735.6
558.502	41957.06
558.865	42039.54
559.228	42303.49
559.59	42505.29
559.953	42681.79
560.316	43098.73
560.679	43114.54
561.041	43430.69
561.404	43591.82
561.767	43875.43
562.129	43695.32
562.492	44135.53
562.854	44123.33
563.217	44227.74
563.579	44370.78
563.941	44654.62
564.304	45036.08
564.666	45286.46
565.028	45315.62
565.39	45466.35
565.753	45794.25
566.115	45841.03
566.477	46082.83
566.839	46249.83
567.201	46422.71
567.563	46658.86
567.925	46770.95
568.287	46810.04
568.648	46955.35
569.01	47175.91
569.372	47432.17
569.734	47376.81
570.095	47653.86
570.457	47896.79
570.819	47996.9
571.18	47986.28
571.542	48152.83
571.903	48281.19
572.265	48475.53
572.626	48572.48
572.987	48738.13
573.349	48997.78
573.71	49078
574.071	49172.01
574.432	49354.83
574.794	49447.49
575.155	49470.54
575.516	49430.08
575.877	49629.63
576.238	49675.28
576.599	49899
576.96	49910.3
577.32	50045.21
577.681	50014.02
578.042	50178.09
578.403	50279.1
578.763	50268.71
579.124	50364.3
579.485	50471.41
579.845	50610.39
580.206	50510.28
580.566	50567.23
580.927	50685.87
581.287	50891.74
581.648	50763.38
582.008	50931.74
582.368	50848.58
582.728	50911.63
583.089	50856.94
583.449	50902.14
583.809	50915.92
584.169	51054.67
584.529	51012.42
584.889	51279.75
585.249	51118.18
585.609	51060.32
585.969	51355.01
586.329	51162.47
586.688	51293.99
587.048	51211.51
587.408	51239.75
587.768	51150.94
588.127	51270.71
588.487	51204.73
588.846	51411.28
589.206	51112.98
589.565	51203.82
589.925	51297.38
590.284	51190.49
590.643	51318.62
591.003	51395.23
591.362	51416.92
591.721	51331.05
592.08	51450.82
592.44	51386.87
592.799	51530.14
593.158	51414.21
593.517	51353.88
593.876	51483.82
594.235	51349.36
594.593	51475.91
594.952	51615.79
595.311	51351.16
595.67	51489.24
596.029	51677.93
596.387	51776.24
596.746	51812.62
597.104	51572.63
597.463	51593.42
597.822	51701.89
598.18	51598.16
598.538	51588.9
598.897	51849
599.255	51522.46
599.613	52084.93
599.972	51785.5
600.33	51933.97
600.688	51794.77
601.046	51931.04
601.404	52102.33
601.762	51873.86
602.12	52187.98
602.478	52132.61
602.836	52130.35
603.194	52030.02
603.552	52116.57
603.91	51949.34
604.268	52099.39
604.625	52074.53
604.983	52154.31
605.341	52045.61
605.698	52270.46
606.056	52249.45
606.413	52334.64
606.771	52351.14
607.128	52374.19
607.485	52258.48
607.843	52247.64
608.2	52473.17
608.557	52623.9
608.914	52370.35
609.272	52672.49
609.629	52717.46
609.986	52788.64
610.343	52658.7
610.7	52882.2
611.057	52719.49
611.414	52727.17
611.771	52818.02
612.127	52964.91
612.484	52862.54
612.841	52952.7
613.198	52887.39
613.554	52911.12
613.911	53173.71
614.267	53087.39
614.624	53091.46
614.98	53228.18
615.337	53207.61
615.693	53212.36
616.05	53149.08
616.406	53377.55
616.762	53215.3
617.118	53251.68
617.475	53240.83
617.831	53296.65
618.187	53291.68
618.543	53396.99
618.899	53553.59
619.255	53406.93
619.611	53424.78
619.967	53541.39
620.323	53652.8
620.678	53419.36
621.034	53471.56
621.39	53436.76
621.746	53409.41
622.101	53777.09
622.457	53541.84
622.812	53627.04
623.168	53622.29
623.523	53693.93
623.879	53776.41
624.234	53617.32
624.589	53686.24
624.945	53772.34
625.3	53882.85
625.655	53770.54
626.01	53771.21
626.365	53776.18
626.72	53681.72
627.075	53720.37
627.43	53712.01
627.785	53577.55
628.14	53744.32
628.495	53707.71
628.85	53676.3
629.205	53606.47
629.559	53746.58
629.914	53558.11
630.269	53557.43
630.623	53735.51
630.978	53460.26
631.332	53581.84
631.687	53540.26
632.041	53414.84
632.396	53482.63
632.75	53439.7
633.104	53456.19
633.459	53303.43
633.813	53326.48
634.167	53284.67
634.521	53333.71
634.875	53377.55
635.229	53246.71
635.583	53042.64
635.937	53014.85
636.291	52958.13
636.645	52934.17
636.999	52895.08
637.352	52932.59
637.706	52662.09
638.06	52775.99
638.413	52608.76
638.767	52602.88
639.121	52648.3
639.474	52459.84
639.828	52358.82
640.181	52416.67
640.534	52437.01
640.888	52319.5
641.241	52238.6
641.594	52343
641.947	52341.65
642.301	52252.84
642.654	52279.05
643.007	52275.43
643.36	52260.52
643.713	52192.05
644.066	52280.18
644.419	52114.99
644.771	51856.46
645.124	51580.99
645.477	51483.14
645.83	51368.56
646.182	51249.7
646.535	51163.6
646.888	51030.95
647.24	50908.01
647.593	51004.96
647.945	50956.37
648.298	50977.16
648.65	50759.09
649.002	50607.23
649.355	50854.91
649.707	50759.09
650.059	50818.52
650.411	51213.54
650.763	51259.64
651.115	51539.63
651.467	51392.52
651.819	51359.53
652.171	51317.27
652.523	51232.52
652.875	51346.64
653.227	51162.24
653.578	51417.38
653.93	51254.44
654.282	51085.86
654.633	50965.19
654.985	51070.49
655.337	51042.47
655.688	50995.47
656.039	51106.65
656.391	50814.68
656.742	50910.72
657.094	50923.83
657.445	51097.16
657.796	50856.49
658.147	50822.59
658.498	50844.74
658.849	50832.08
659.2	50722.03
659.551	50650.62
659.902	50792.53
660.253	50671.41
660.604	50614.23
660.955	50480.68
661.306	50627.57
661.656	50574.69
662.007	50620.34
662.358	50578.53
662.708	50507.34
663.059	50534.46
663.409	50194.58
663.76	50524.07
664.11	50435.48
664.461	50541.02
664.811	50434.35
665.161	50439.55
665.511	50295.82
665.862	50289.95
666.212	50506.21
666.562	50424.18
666.912	50343.51
667.262	50241.81
667.612	50254.92
667.962	50152.1
668.312	50193.91
668.662	50424.18
669.011	50229.39
669.361	50185.32
669.711	50034.59
670.06	50094.02
670.41	50072.55
670.76	50031.88
671.109	50051.99
671.459	50009.73
671.808	49994.36
672.157	50070.52
672.507	49816.51
672.856	49868.27
673.205	49899.68
673.554	50022.61
673.904	49874.82
674.253	50016.96
674.602	49961.14
674.951	49464.66
675.3	49116.87
675.649	49764.09
675.998	49701.49
676.346	49799.79
676.695	49824.88
677.044	49564.54
677.393	49565.45
677.741	49778.55
678.09	49589.63
678.438	49527.48
678.787	49634.15
679.135	49593.92
679.484	49376.53
679.832	49405.45
680.181	49219.02
680.529	49280.26
680.877	49128.85
681.225	49171.79
681.573	49320.26
681.922	48941.06
682.27	48865.81
682.618	48992.58
682.966	48939.7
683.314	48993.26
683.661	48788.97
684.009	48612.7
684.357	48487.28
684.705	48553.95
685.053	48591.69
685.4	48448.87
685.748	48216.56
686.095	48207.74
686.443	48061.53
686.79	47892.95
687.138	47992.61
687.485	48161.19
687.832	47791.71
688.18	47831.26
688.527	47630.13
688.874	47752.39
689.221	47568.44
689.568	47450.02
689.915	47463.81
690.262	47443.47
690.609	47292.51
690.956	47210.26
691.303	47031.05
691.65	46905.86
691.997	46857.95
692.344	46608.24
692.69	46499.09
693.037	46698.63
693.383	46284.86
693.73	46430.84
694.077	45906.34
694.423	46231.75
694.769	46031.98
695.116	45922.38
695.462	45923.51
695.808	45595.38
696.155	45729.16
696.501	45449.85
696.847	45354.71
697.193	45159.91
697.539	45340.25
697.885	44865.23
698.231	44873.82
698.577	44819.81
698.923	44722.86
699.269	44585.47
699.614	44337.79
699.96	44265.93
700.306	44265.7
700.651	44048.98
700.997	44032.71
701.342	43843.56
701.688	43882.89
702.033	43747.07
702.379	43619.16
702.724	43438.83
703.069	43406.06
703.415	43051.27
703.76	43286.52
704.105	43146.18
704.45	42929.92
704.795	42791.61
705.14	42691.73
705.485	42730.83
705.83	42610.15
706.175	42516.37
706.52	42476.37
706.865	42278.86
707.209	42235.25
707.554	42008.13
707.899	42187.79
708.243	41953.9
708.588	41926.78
708.932	41709.38
709.277	41544.64
709.621	41648.82
709.966	41395.04
710.31	41422.16
710.654	41110.3
710.998	41164.54
711.342	41040.47
711.687	40915.28
712.031	40719.81
712.375	40748.5
712.719	40893.36
713.063	40732.46
713.407	40700.37
713.75	40476.42
714.094	40408.17
714.438	40254.05
714.782	40394.62
715.125	40031.69
715.469	40106.49
715.812	39871.92
716.156	39760.51
716.499	39602.09
716.843	39900.39
717.186	39465.83
717.53	39771.13
717.873	39730.23
718.216	39508.09
718.559	39335.21
718.902	39063.35
719.246	39169.11
719.589	39161.2
719.932	39084.37
720.275	39081.88
720.617	39026.52
720.96	38873.98
721.303	38920.53
721.646	39013.18
721.989	38625.85
722.331	38684.83
722.674	38493.65
723.016	38550.37
723.359	38360.09
723.701	38498.17
724.044	38139.31
724.386	37951.74
724.729	38209.81
725.071	38105.86
725.413	38096.15
725.755	38030.16
726.097	37802.82
726.439	37664.07
726.782	37634.01
727.124	37734.35
727.465	37528.02
727.807	37538.65
728.149	37361.93
728.491	37332.32
728.833	37402.6
729.175	37122.16
729.516	37149.05
729.858	37069.73
730.199	37170.97
730.541	37008.94
730.882	36812.56
731.224	36959.23
731.565	36653.47
731.906	36673.81
732.248	36690.76
732.589	36462.97
732.93	36352.46
733.271	36298.23
733.612	36394.04
733.953	36393.37
734.294	36179.36
734.635	36025.69
734.976	36241.5
735.317	35978.46
735.658	36008.29
735.999	35902.98
736.339	35869.54
736.68	36026.14
737.021	35734.17
737.361	35627.06
737.702	35790.9
738.042	35581.18
738.383	35524.69
738.723	35507.29
739.063	35361.3
739.404	35428.87
739.744	35422.54
740.084	35251.02
740.424	35274.75
740.764	35238.82
741.104	35182.78
741.444	34924.7
741.784	35006.73
742.124	34971.93
742.464	34817.81
742.804	34841.99
743.143	34534.66
743.483	34712.05
743.823	34542.57
744.162	34409.91
744.502	34523.81
744.841	34316.36
745.181	34451.04
745.52	34322.23
745.86	34273.87
746.199	34234.55
746.538	34080.88
746.877	34208.56
747.216	34074.56
747.556	34013.31
747.895	33961.79
748.234	33747.33
748.573	33729.03
748.911	33592.76
749.25	33579.65
749.589	33640.22
749.928	33573.33
750.267	33407.45
750.605	33418.3
750.944	33308.7
751.283	33227.12
751.621	33247.23
751.96	33089.72
752.298	32975.83
752.636	33033.91
