Data from aluminium_macbook_case_FLMS001491_016.txt Node
Date: Tue Feb 07 10:43:16 GMT 2017
User: dcchb
Spectrometer: FLMS00149
Trigger mode: 0
Integration Time (sec): 2.000000E-2
Scans to average: 10
Electric dark correction enabled: true
Nonlinearity correction enabled: false
Boxcar width: 0
XAxis mode: Wavelengths
Number of Pixels in Spectrum: 2048
>>>>>Begin Spectral Data<<<<<
341.393	-26.5
341.776	-26.5
342.16	-26.5
342.543	-65.14
342.927	-70.56
343.31	-54.52
343.693	-64.46
344.077	-71.69
344.46	-59.94
344.843	-42.54
345.226	-47.74
345.61	-47.51
345.993	-18.36
346.376	-11.81
346.759	1.07
347.142	13.28
347.525	52.15
347.908	41.98
348.291	81.98
348.674	116.1
349.057	112.03
349.44	126.04
349.823	140.05
350.206	164.91
350.588	259.15
350.971	254.4
351.354	271.8
351.737	278.81
352.119	308.18
352.502	309.99
352.884	329.65
353.267	348.41
353.65	357.22
354.032	361.06
354.414	361.97
354.797	380.05
355.179	357.9
355.562	387.05
355.944	407.62
356.326	406.26
356.709	415.07
357.091	401.29
357.473	384.79
357.855	426.15
358.238	397
358.62	409.65
359.002	402.64
359.384	428.18
359.766	413.49
360.148	442.87
360.53	424.11
360.912	417.56
361.294	411.68
361.676	430.44
362.057	410.33
362.439	425.7
362.821	420.95
363.203	415.75
363.584	420.5
363.966	399.48
364.348	423.21
364.729	421.85
365.111	409.65
365.493	441.74
365.874	432.02
366.256	414.85
366.637	436.09
367.019	425.92
367.4	437.67
367.781	434.96
368.163	433.38
368.544	433.6
368.925	435.41
369.306	463.43
369.688	465.24
370.069	437.67
370.45	432.7
370.831	443.55
371.212	470.21
371.593	460.27
371.974	463.66
372.355	451.46
372.736	487.16
373.117	475.64
373.498	471.8
373.879	471.12
374.26	484.9
374.641	462.76
375.021	456.43
375.402	483.09
375.783	495.3
376.163	539.59
376.544	558.12
376.925	501.85
377.305	500.5
377.686	517.44
378.066	517.67
378.447	504.56
378.827	532.58
379.208	533.04
379.588	524.9
379.968	560.61
380.349	529.65
380.729	559.48
381.109	568.52
381.489	561.28
381.87	555.18
382.25	578.91
382.63	566.26
383.01	608.52
383.39	586.59
383.77	605.35
384.15	582.3
384.53	614.39
384.91	618.46
385.29	622.75
385.67	621.85
386.049	662.3
386.429	652.36
386.809	648.29
387.189	637.21
387.568	673.15
387.948	676.76
388.328	677.67
388.707	695.07
389.087	709.98
389.466	711.79
389.846	702.98
390.225	734.39
390.605	735.97
390.984	760.38
391.363	739.59
391.743	767.15
392.122	772.35
392.501	799.24
392.881	791.34
393.26	799.7
393.639	831.11
394.018	795.85
394.397	815.97
394.776	831.11
395.155	828.85
395.534	858.23
395.913	844.89
396.292	875.63
396.671	893.48
397.05	907.49
397.429	897.55
397.808	924.66
398.186	890.32
398.565	891.45
398.944	950.43
399.323	929.41
399.701	945.46
400.08	954.27
400.458	984.78
400.837	991.33
401.215	978.45
401.594	998.79
401.972	1032.23
402.351	1036.53
402.729	1055.51
403.107	1074.49
403.486	1097.99
403.864	1096.41
404.242	1086.92
404.62	1103.19
404.999	1113.81
405.377	1118.56
405.755	1123.08
406.133	1155.39
406.511	1154.04
406.889	1191.78
407.267	1202.85
407.645	1246.46
408.023	1226.13
408.401	1252.79
408.779	1274.49
409.156	1308.38
409.534	1291.21
409.912	1344.77
410.29	1373.92
410.667	1378.89
411.045	1399.23
411.422	1387.48
411.8	1419.34
412.178	1427.25
412.555	1482.39
412.933	1502.73
413.31	1527.59
413.687	1514.71
414.065	1570.75
414.442	1568.04
414.819	1625.66
415.197	1608.71
415.574	1654.82
415.951	1685.77
416.328	1669.73
416.705	1662.72
417.082	1704.08
417.46	1745.66
417.837	1749.28
418.214	1790.63
418.591	1783.17
418.967	1822.04
419.344	1848.48
419.721	1864.08
420.098	1864.75
420.475	1870.85
420.852	1932.77
421.228	1923.06
421.605	1959.44
421.982	1974.13
422.358	1997.18
422.735	2041.92
423.111	2047.35
423.488	2074.69
423.864	2065.65
424.241	2140.23
424.617	2142.03
424.994	2139.55
425.37	2225.87
425.746	2214.8
426.123	2228.59
426.499	2260.68
426.875	2286.66
427.251	2345.42
427.627	2369.37
428.003	2427.68
428.379	2427.9
428.756	2477.17
429.132	2519.43
429.507	2553.77
429.883	2602.59
430.259	2658.86
430.635	2647.78
431.011	2703.6
431.387	2740.44
431.763	2769.59
432.138	2806.2
432.514	2852.3
432.89	2830.83
433.265	2934.56
433.641	2975.23
434.016	3021.11
434.392	3071.73
434.767	3117.83
435.143	3098.85
435.518	3100.43
435.894	3193.08
436.269	3224.49
436.644	3296.58
437.02	3299.74
437.395	3310.36
437.77	3390.59
438.145	3436.24
438.52	3471.49
438.895	3520.53
439.271	3525.27
439.646	3609.34
440.021	3622.9
440.395	3677.81
440.77	3650.92
441.145	3697.47
441.52	3748.77
441.895	3808.88
442.27	3812.5
442.645	3831.71
443.019	3910.8
443.394	3901.08
443.769	3956
444.143	3957.35
444.518	3989.22
444.892	4012.27
445.267	4061.08
445.641	4103.56
446.016	4103.56
446.39	4134.3
446.764	4153.96
447.139	4182.88
447.513	4258.59
447.887	4243.67
448.262	4308.53
448.636	4308.08
449.01	4428.98
449.384	4440.73
449.758	4446.61
450.132	4544.46
450.506	4586.04
450.88	4572.48
451.254	4614.96
451.628	4681.63
452.002	4767.5
452.376	4799.59
452.75	4829.87
453.123	4859.02
453.497	4955.75
453.871	4986.71
454.244	5099.7
454.618	5136.76
454.992	5206.13
455.365	5213.37
455.739	5342.85
456.112	5401.84
456.486	5468.5
456.859	5510.76
457.232	5637.99
457.606	5600.7
457.979	5682.05
458.352	5835.72
458.725	5898.09
459.099	5951.43
459.472	6057.41
459.845	6091.53
460.218	6234.36
460.591	6216.73
460.964	6293.79
461.337	6446.33
461.71	6536.27
462.083	6644.06
462.456	6662.37
462.829	6764.96
463.201	6897.84
463.574	6825.07
463.947	6959.08
464.32	7095.12
464.692	7130.6
465.065	7212.41
465.438	7317.72
465.81	7467.77
466.183	7503.25
466.555	7680.65
466.928	7715.67
467.3	7731.94
467.672	7920.19
468.045	8128.77
468.417	8130.13
468.789	8206.28
469.161	8338.26
469.534	8485.37
469.906	8634.97
470.278	8750.22
470.65	8855.53
471.022	9084.22
471.394	9190.21
471.766	9316.99
472.138	9383.65
472.51	9607.37
472.882	9773.92
473.253	9869.97
473.625	10034.03
473.997	10234.02
474.369	10350.41
474.74	10454.13
475.112	10631.98
475.484	10878.08
475.855	10963.05
476.227	11041.24
476.598	11340.89
476.97	11496.36
477.341	11779.07
477.713	11976.35
478.084	12066.97
478.455	12352.16
478.827	12540.86
479.198	12858.14
479.569	12993.95
479.94	13349.87
480.311	13424.22
480.682	13750.32
481.053	14091.1
481.424	14236.63
481.795	14476.63
482.166	14672.33
482.537	14840.91
482.908	15181.01
483.279	15252.42
483.65	15637.05
484.021	15959.52
484.391	16055.11
484.762	16101.44
485.133	16445.39
485.503	16664.82
485.874	17136.44
486.244	17170.11
486.615	17507.51
486.985	17675.64
487.356	17993.14
487.726	18220.26
488.097	18517.2
488.467	18624.09
488.837	19162.38
489.207	19371.86
489.578	19683.04
489.948	19866.31
490.318	20156.93
490.688	20312.86
491.058	20656.12
491.428	20879.39
491.798	21015.44
492.168	21457.91
492.538	21615.42
492.908	21791.91
493.278	22019.93
493.648	22127.05
494.017	22470.54
494.387	22652.46
494.757	22789.85
495.126	23060.35
495.496	23165.66
495.866	23322.49
496.235	23642.03
496.605	23816.49
496.974	23938.3
497.344	24223.71
497.713	24351.17
498.082	24513.2
498.452	24798.61
498.821	25043.35
499.19	25029.79
499.559	25271.14
499.928	25550.01
500.298	25831.35
500.667	26065.7
501.036	26017.11
501.405	26373.49
501.774	26456.42
502.143	26768.05
502.512	26853.93
502.88	27023.41
503.249	27125.33
503.618	27317.64
503.987	27530.97
504.356	27613.45
504.724	27864.3
505.093	27941.81
505.462	28170.28
505.83	28238.52
506.199	28571.62
506.567	29011.38
506.936	28842.12
507.304	29316.01
507.672	29328.89
508.041	29460.64
508.409	29734.75
508.777	30052.26
509.145	30242.76
509.514	30385.59
509.882	30664.9
510.25	30731.34
510.618	30846.36
510.986	30962.29
511.354	31534.03
511.722	31804.08
512.09	32077.07
512.458	32158.42
512.826	32394.12
513.193	32611.74
513.561	32750.49
513.929	33003.6
514.297	33400.2
514.664	33760.64
515.032	33725.61
515.4	34005.15
515.767	34178.03
516.135	34419.83
516.502	34285.6
516.869	34791.8
517.237	35013.71
517.604	35070.89
517.972	35402.85
518.339	35742.96
518.706	35823.63
519.073	35888.94
519.44	36269.05
519.808	36673.1
520.175	36658.41
520.542	37355.35
520.909	37341.79
521.276	37583.81
521.643	37842.79
522.009	38084.37
522.376	38553.51
522.743	38826.72
523.11	39157.33
523.477	39635.51
523.843	39838.44
524.21	40201.6
524.577	40397.98
524.943	40735.82
525.31	40855.59
525.676	41360.66
526.043	41689.02
526.409	41731.73
526.776	42100.08
527.142	42284.48
527.508	42553.17
527.874	42873.84
528.241	43052.37
528.607	43142.76
528.973	43596.09
529.339	43519.7
529.705	43979.35
530.071	44253.47
530.437	44378.89
530.803	44723.06
531.169	44950.85
531.535	44908.82
531.901	44964.64
532.267	45364.17
532.632	45634.68
532.998	45656.14
533.364	46056.36
533.73	46174.32
534.095	46478.04
534.461	46614.76
534.826	46978.82
535.192	46969.1
535.557	47343.33
535.923	47482.31
536.288	47729.08
536.653	47868.52
537.019	47880.94
537.384	48026.48
537.749	48211.33
538.114	48493.58
538.479	48521.83
538.845	48737.65
539.21	48553.02
539.575	48988.49
539.94	48927.02
540.305	49260.57
540.67	49322.71
541.034	49323.62
541.399	49557.96
541.764	49443.84
542.129	49610.84
542.494	49697.17
542.858	49961.79
543.223	49925.41
543.587	50185.06
543.952	50147.55
544.316	50344.83
544.681	50403.36
545.045	50513.64
545.41	50778.5
545.774	50849.68
546.138	50923.8
546.503	51016.68
546.867	51037.7
547.231	51382.1
547.595	51486.5
547.959	51551.81
548.324	51711.13
548.688	51754.97
549.052	51999.93
549.416	52100.04
549.779	52138.01
550.143	52228.63
550.507	52504.1
550.871	52579.13
551.235	52653.7
551.599	52883.07
551.962	52985.89
552.326	52975.05
552.689	53279.22
553.053	53005.33
553.417	53202.16
553.78	53523.51
554.143	53383.4
554.507	53572.55
554.87	53716.72
555.234	53976.6
555.597	53764.41
555.96	53979.99
556.323	54046.66
556.686	54093.66
557.05	54342.02
557.413	54307.67
557.776	54466.31
558.139	54607.1
558.502	54729.58
558.865	54805.51
559.228	55034.88
559.59	55017.71
559.953	55160.75
560.316	55460.41
560.679	55441.65
561.041	55633.51
561.404	55711.47
561.767	55949.66
562.129	55952.37
562.492	56185.13
562.854	56201.4
563.217	56272.81
563.579	56448.18
563.941	56675.52
564.304	56777.89
564.666	56966.58
565.028	57049.52
565.39	57079.12
565.753	57221.49
566.115	57344.88
566.477	57394.59
566.839	57499
567.201	57611.54
567.563	57647.69
567.925	57835.48
568.287	57762.49
568.648	57872.09
569.01	57960.68
569.372	58167.91
569.734	58042.03
570.095	58226.66
570.457	58315.92
570.819	58362.93
571.18	58301.01
571.542	58530.61
571.903	58473.66
572.265	58631.62
572.626	58622.81
572.987	58702.13
573.349	58801.56
573.71	58834.33
574.071	58946.64
574.432	59012.4
574.794	59201.78
575.155	59166.98
575.516	59162.91
575.877	59269.35
576.238	59327.88
576.599	59389.12
576.96	59500.98
577.32	59509.57
577.681	59626.17
578.042	59699.62
578.403	59716.34
578.763	59814.19
579.124	59885.83
579.485	59882.44
579.845	59961.98
580.206	59917.46
580.566	59978.71
580.927	59958.14
581.287	59996.33
581.648	59948.88
582.008	60056.44
582.368	60067.97
582.728	60077.23
583.089	60073.84
583.449	60023
583.809	60009.21
584.169	60065.48
584.529	59964.02
584.889	60143.9
585.249	59948.42
585.609	59932.38
585.969	60072.94
586.329	60052.6
586.688	60087.63
587.048	59990
587.408	59999.72
587.768	59969.67
588.127	60023.9
588.487	59955.66
588.846	60119.04
589.206	59957.69
589.565	60017.57
589.925	60112.26
590.284	60084.69
590.643	60132.83
591.003	60184.12
591.362	60210.34
591.721	60161.53
592.08	60137.57
592.44	60224.8
592.799	60250.79
593.158	60244.91
593.517	60297.34
593.876	60295.53
594.235	60271.81
594.593	60314.74
594.952	60342.76
595.311	60269.32
595.67	60348.41
596.029	60485.36
596.387	60453.95
596.746	60493.27
597.104	60382.99
597.463	60434.29
597.822	60475.87
598.18	60332.14
598.538	60365.14
598.897	60520.16
599.255	60230.9
599.613	60566.03
599.972	60469.99
600.33	60498.01
600.688	60440.84
601.046	60479.26
601.404	60530.78
601.762	60558.13
602.12	60594.51
602.478	60610.33
602.836	60581.4
603.194	60486.04
603.552	60592.7
603.91	60486.49
604.268	60632.47
604.625	60642.42
604.983	60637.45
605.341	60498.69
605.698	60686.71
606.056	60675.41
606.413	60666.14
606.771	60720.83
607.128	60770.1
607.485	60698.01
607.843	60747.05
608.2	60881.28
608.557	61002.41
608.914	60851.22
609.272	61030.66
609.629	61016.64
609.986	61151.1
610.343	61010.99
610.7	61221.38
611.057	61152.91
611.414	61220.25
611.771	61188.17
612.127	61301.61
612.484	61241.95
612.841	61372.57
613.198	61225.68
613.554	61288.95
613.911	61420.48
614.267	61410.76
614.624	61368.73
614.98	61370.99
615.337	61492.56
615.693	61434.94
616.05	61409.18
616.406	61478.1
616.762	61426.58
617.118	61394.49
617.475	61365.56
617.831	61432.45
618.187	61487.14
618.543	61538.44
618.899	61591.77
619.255	61579.57
619.611	61538.21
619.967	61607.14
620.323	61594.03
620.678	61509.96
621.034	61535.73
621.39	61516.74
621.746	61422.28
622.101	61634.93
622.457	61438.78
622.812	61532.34
623.168	61530.76
623.523	61577.99
623.879	61630.87
624.234	61472.45
624.589	61601.04
624.945	61554.03
625.3	61562.39
625.655	61604.88
626.01	61596.74
626.365	61577.53
626.72	61555.84
627.075	61547.7
627.43	61555.39
627.785	61528.5
628.14	61590.87
628.495	61604.65
628.85	61644.65
629.205	61520.36
629.559	61689.39
629.914	61562.17
630.269	61569.4
630.623	61521.04
630.978	61419.8
631.332	61531.21
631.687	61617.53
632.041	61501.38
632.396	61486.01
632.75	61344.55
633.104	61416.41
633.459	61219.12
633.813	61288.28
634.167	61274.72
634.521	61180.26
634.875	61211.44
635.229	61159.69
635.583	61060.48
635.937	61088.96
636.291	61090.09
636.645	61015.51
636.999	60905.23
637.352	60946.14
637.706	60829.53
638.06	60930.77
638.413	60844.9
638.767	60712.7
639.121	60860.72
639.474	60615.75
639.828	60738.23
640.181	60688.29
640.534	60605.58
640.888	60553.61
641.241	60444.46
641.594	60453.95
641.947	60581.85
642.301	60473.16
642.654	60463.21
643.007	60410.11
643.36	60398.58
643.713	60328.07
644.066	60387.28
644.419	60234.74
644.771	60087.86
645.124	59921.98
645.477	59884.02
645.83	59701.42
646.182	59587.76
646.535	59581.2
646.888	59675.89
647.24	59557.93
647.593	59667.08
647.945	59576.68
648.298	59441.54
648.65	59439.28
649.002	59326.75
649.355	59426.63
649.707	59449.23
650.059	59571.71
650.411	59786.85
650.763	59773.51
651.115	60028.42
651.467	59966.95
651.819	59869.1
652.171	59711.37
652.523	59777.35
652.875	59819.39
653.227	59646.51
653.578	59817.81
653.93	59760.18
654.282	59650.13
654.633	59585.27
654.985	59642.44
655.337	59557.47
655.688	59561.77
656.039	59595.66
656.391	59404.71
656.742	59414.2
657.094	59435.89
657.445	59510.47
657.796	59395.67
658.147	59307.54
658.498	59291.49
658.849	59310.93
659.2	59361.09
659.551	59202
659.902	59304.15
660.253	59196.13
660.604	59228.89
660.955	59037.94
661.306	59136.92
661.656	59181.89
662.007	59104.15
662.358	59093.08
662.708	59122.46
663.059	59016.02
663.409	58876.36
663.76	59070.03
664.11	59033.65
664.461	59066.41
664.811	59127.43
665.161	58963.14
665.511	58995.68
665.862	59042.68
666.212	59117.94
666.562	59078.62
666.912	59038.84
667.262	59057.6
667.612	59047.2
667.962	59095.11
668.312	58950.26
668.662	59113.19
669.011	58998.84
669.361	58938.28
669.711	58997.26
670.06	58913.87
670.41	58861.67
670.76	58825.29
671.109	58958.39
671.459	58899.41
671.808	58869.58
672.157	58889.69
672.507	58686.99
672.856	58685.18
673.205	58699.87
673.554	58797.95
673.904	58684.05
674.253	58783.48
674.602	58626.65
674.951	58256.49
675.3	58146.21
675.649	58533.55
675.998	58567.9
676.346	58559.99
676.695	58612.87
677.044	58368.13
677.393	58380.33
677.741	58482.7
678.09	58284.06
678.438	58283.61
678.787	58306.21
679.135	58235.7
679.484	58100.34
679.832	58151.86
680.181	57980.57
680.529	58137.85
680.877	57986.89
681.225	57931.53
681.573	58038.19
681.922	57901.47
682.27	57752.32
682.618	57873.9
682.966	57686.34
683.314	57741.02
683.661	57555.27
684.009	57440.24
684.357	57435.72
684.705	57396.63
685.053	57475.04
685.4	57462.16
685.748	57290.87
686.095	57364.99
686.443	57204.77
686.79	57200.47
687.138	57177.2
687.485	57260.36
687.832	57197.08
688.18	57199.57
688.527	57095.17
688.874	57072.79
689.221	56971.55
689.568	56916.19
689.915	56855.85
690.262	56900.14
690.609	56919.8
690.956	56819.47
691.303	56736.3
691.65	56596.42
691.997	56548.06
692.344	56408.18
692.69	56367.5
693.037	56374.51
693.383	56186.26
693.73	56260.61
694.077	56046.38
694.423	55967.51
694.769	55924.8
695.116	55899.72
695.462	55755.31
695.808	55732.72
696.155	55739.95
696.501	55544.92
696.847	55496.34
697.193	55275.1
697.539	55403.01
697.885	55197.81
698.231	55122.79
698.577	55048.44
698.923	54986.97
699.269	54757.83
699.614	54657.04
699.96	54573.65
700.306	54639.41
700.651	54469.25
700.997	54404.16
701.342	54304.96
701.688	54221.12
702.033	54137.5
702.379	54062.93
702.724	53977.73
703.069	54118.75
703.415	53672.43
703.76	53682.15
704.105	53670.4
704.45	53467.69
704.795	53341.37
705.14	53173.46
705.485	53286.23
705.83	53149.51
706.175	53156.06
706.52	53108.6
706.865	52909.74
707.209	52863.86
707.554	52768.73
707.899	52817.76
708.243	52652.12
708.588	52561.95
708.932	52448.96
709.277	52446.7
709.621	52528.05
709.966	52368.28
710.31	52325.8
710.654	52121.06
710.998	52256.42
711.342	52182.3
711.687	52128.06
712.031	52139.36
712.375	51951.8
712.719	52037.45
713.063	51861.18
713.407	51943.89
713.75	51762.2
714.094	51836.55
714.438	51549.77
714.782	51668.19
715.125	51382.77
715.469	51516.33
715.812	51397.01
716.156	51175.1
716.499	51235.43
716.843	51197.24
717.186	51026.62
717.53	51042.67
717.873	50961.77
718.216	50869.11
718.559	50784.14
718.902	50575.79
719.246	50577.6
719.589	50453.53
719.932	50290.82
720.275	50266.64
720.617	50134.22
720.96	50045.18
721.303	50022.36
721.646	50009.93
721.989	49812.19
722.331	49875.02
722.674	49828.01
723.016	49724.51
723.359	49597.51
723.701	49703.5
724.044	49272.77
724.386	49094.47
724.729	49373.11
725.071	49148.48
725.413	49184.86
725.755	49062.16
726.097	48960.24
726.439	48605.45
726.782	48642.96
727.124	48780.58
727.465	48580.36
727.807	48495.17
728.149	48393.7
728.491	48239.13
728.833	48278.45
729.175	48052.69
729.516	48084.55
729.858	48134.5
730.199	47979.7
730.541	47966.37
730.882	47818.57
731.224	47924.56
731.565	47612.7
731.906	47921.62
732.248	47854.28
732.589	47538.81
732.93	47497.23
733.271	47515.76
733.612	47572.03
733.953	47473.27
734.294	47401.18
734.635	47212.71
734.976	47406.15
735.317	47224.69
735.658	47209.32
735.999	47188.99
736.339	47125.48
736.68	47291.36
737.021	47032.15
737.361	46965.94
737.702	47225.82
738.042	46965.49
738.383	46848.2
738.723	46936.34
739.063	46758.94
739.404	46779.5
739.744	46625.16
740.084	46445.73
740.424	46471.26
740.764	46419.74
741.104	46535.22
741.444	46259.29
741.784	46104.04
742.124	46223.59
742.464	46037.15
742.804	45947.66
743.143	45789.02
743.483	45807.55
743.823	45638.07
744.162	45581.12
744.502	45700.66
744.841	45439.43
745.181	45496.37
745.52	45252.99
745.86	45161.24
746.199	45190.17
746.538	45114.01
746.877	44900.68
747.216	44843.51
747.556	44862.72
747.895	44803.96
748.234	44561.03
748.573	44656.17
748.911	44298.21
749.25	44396.06
749.589	44193.58
749.928	44194.04
750.267	44138.67
750.605	43987.49
750.944	43845.34
751.283	43605.35
751.621	43748.17
751.96	43377.33
