Data from aluminium_surface_pro_back_FLMS001491_00039.txt Node
Date: Wed Feb 08 15:33:59 GMT 2017
User: dcchb
Spectrometer: FLMS00149
Trigger mode: 0
Integration Time (sec): 2.000000E-2
Scans to average: 10
Electric dark correction enabled: true
Nonlinearity correction enabled: false
Boxcar width: 0
XAxis mode: Wavelengths
Number of Pixels in Spectrum: 2048
>>>>>Begin Spectral Data<<<<<
341.393	5.38
341.776	5.38
342.16	5.38
342.543	-69.65
342.927	-87.27
343.31	-87.5
343.693	-63.54
344.077	-62.64
344.46	-53.15
344.843	-46.59
345.226	-42.98
345.61	-32.58
345.993	-27.16
346.376	-1.62
346.759	16.91
347.142	34.31
347.525	66.4
347.908	58.49
348.291	75.66
348.674	88.54
349.057	77.47
349.44	117.24
349.823	145.04
350.206	161.31
350.588	214.19
350.971	220.97
351.354	240.63
351.737	276.56
352.119	272.27
352.502	286.28
352.884	314.53
353.267	312.94
353.65	316.11
354.032	317.92
354.414	332.15
354.797	345.03
355.179	350.46
355.562	344.36
355.944	342.32
356.326	360.17
356.709	369.89
357.091	378.7
357.473	381.87
357.855	365.6
358.238	368.31
358.62	365.82
359.002	386.16
359.384	371.93
359.766	392.94
360.148	374.19
360.53	377.57
360.912	367.41
361.294	359.27
361.676	381.42
362.057	377.35
362.439	364.02
362.821	368.99
363.203	357.46
363.584	375.09
363.966	363.34
364.348	365.6
364.729	365.82
365.111	367.63
365.493	362.21
365.874	338.93
366.256	375.77
366.637	387.74
367.019	365.82
367.4	362.21
367.781	370.57
368.163	373.73
368.544	372.15
368.925	360.4
369.306	391.13
369.688	353.85
370.069	358.59
370.45	382.32
370.831	364.47
371.212	373.06
371.593	376.44
371.974	370.34
372.355	370.8
372.736	384.58
373.117	399.72
373.498	379.38
373.879	381.64
374.26	408.31
374.641	368.76
375.021	382.09
375.402	405.14
375.783	409.44
376.163	408.99
376.544	405.14
376.925	427.52
377.305	432.71
377.686	408.31
378.066	403.34
378.447	425.71
378.827	435.88
379.208	433.17
379.588	410.79
379.968	420.74
380.349	421.64
380.729	449.21
381.109	437.91
381.489	428.42
381.87	448.31
382.25	434.97
382.63	446.5
383.01	457.57
383.39	451.47
383.77	462.77
384.15	471.81
384.53	476.1
384.91	466.39
385.29	472.26
385.67	484.69
386.049	488.98
386.429	466.16
386.809	502.77
387.189	521.07
387.568	521.07
387.948	511.13
388.328	513.62
388.707	513.62
389.087	519.72
389.466	521.53
389.846	530.57
390.225	555.88
390.605	546.61
390.984	551.36
391.363	539.38
391.743	533.95
392.122	565.82
392.501	572.37
392.881	602.2
393.26	602.43
393.639	580.73
394.018	594.74
394.397	606.95
394.776	619.83
395.155	627.74
395.534	609.66
395.913	628.42
396.292	641.97
396.671	674.06
397.05	637.91
397.429	646.27
397.808	675.42
398.186	652.82
398.565	671.58
398.944	689.88
399.323	679.26
399.701	701.63
400.08	692.82
400.458	712.26
400.837	709.09
401.215	735.31
401.594	726.27
401.972	730.56
402.351	726.94
402.729	755.19
403.107	764.01
403.486	758.36
403.864	765.14
404.242	772.37
404.62	805.13
404.999	829.09
405.377	825.25
405.755	806.49
406.133	837
406.511	835.19
406.889	847.39
407.267	849.65
407.645	859.82
408.023	883.32
408.401	912.7
408.779	901.63
409.156	908.18
409.534	932.81
409.912	944.11
410.29	968.29
410.667	962.42
411.045	984.34
411.422	996.54
411.8	1001.29
412.178	1006.94
412.555	1030.21
412.933	1022.08
413.31	1065.92
413.687	1099.14
414.065	1086.93
414.442	1120.15
414.819	1115.86
415.197	1110.21
415.574	1166.93
415.951	1144.11
416.328	1176.2
416.705	1171.23
417.082	1182.53
417.46	1217.1
417.837	1206.03
418.214	1218.91
418.591	1235.18
418.967	1255.29
419.344	1248.29
419.721	1244.44
420.098	1266.82
420.475	1302.07
420.852	1310.88
421.228	1339.13
421.605	1333.48
421.982	1375.06
422.358	1368.28
422.735	1384.33
423.111	1368.96
423.488	1420.26
423.864	1407.15
424.241	1444.21
424.617	1455.74
424.994	1469.98
425.37	1471.56
425.746	1499.35
426.123	1496.87
426.499	1533.25
426.875	1528.96
427.251	1560.14
427.627	1632.91
428.003	1596.07
428.379	1630.88
428.756	1642.85
429.132	1679.46
429.507	1694.38
429.883	1702.29
430.259	1734.6
430.635	1755.17
431.011	1770.53
431.387	1848.72
431.763	1832.23
432.138	1860.47
432.514	1883.07
432.89	1883.07
433.265	1931.21
433.641	1952.22
434.016	1963.52
434.392	2015.95
434.767	1986.12
435.143	2054.37
435.518	2079
435.894	2068.83
436.269	2137.08
436.644	2154.7
437.02	2154.03
437.395	2167.36
437.77	2196.28
438.145	2244.64
438.52	2248.49
438.895	2254.59
439.271	2304.98
439.646	2314.7
440.021	2350.4
440.395	2356.51
440.77	2380.46
441.145	2380.23
441.52	2444.41
441.895	2434.24
442.27	2481.25
442.645	2465.2
443.019	2510.17
443.394	2526.44
443.769	2516.73
444.143	2525.54
444.518	2590.17
444.892	2597.18
445.267	2630.17
445.641	2629.49
446.016	2658.42
446.39	2652.32
446.764	2700.68
447.139	2680.57
447.513	2702.49
447.887	2711.98
448.262	2737.51
448.636	2775.48
449.01	2785.2
449.384	2853.67
449.758	2868.81
450.132	2878.98
450.506	2899.99
450.88	2934.12
451.254	2965.76
451.628	2948.58
452.002	3032.19
452.376	3040.33
452.75	3057.5
453.123	3100.89
453.497	3163.04
453.871	3171.85
454.244	3213.66
454.618	3253.66
454.992	3322.58
455.365	3316.03
455.739	3363.49
456.112	3409.59
456.486	3476.02
456.859	3505.63
457.232	3591.28
457.606	3533.88
457.979	3617.26
458.352	3666.08
458.725	3700.88
459.099	3740.65
459.472	3830.82
459.845	3863.58
460.218	3912.17
460.591	3926.18
460.964	3998.5
461.337	4069.46
461.71	4129.79
462.083	4165.72
462.456	4165.05
462.829	4217.93
463.201	4302.9
463.574	4318.26
463.947	4403.91
464.32	4499.05
464.692	4511.48
465.065	4541.08
465.438	4626.73
465.81	4643.9
466.183	4734.75
466.555	4854.75
466.928	4903.11
467.3	4846.84
467.672	4942.43
468.045	5081.86
468.417	5123.21
468.789	5109.88
469.161	5207.73
469.534	5276.2
469.906	5413.83
470.278	5452.47
470.65	5541.73
471.022	5634.61
471.394	5695.4
471.766	5773.82
472.138	5830.09
472.51	5948.73
472.882	6023.53
473.253	6105.33
473.625	6192.56
473.997	6327.02
474.369	6374.25
474.74	6413.57
475.112	6579.9
475.484	6681.36
475.855	6764.53
476.227	6853.34
476.598	7028.7
476.97	7070.73
477.341	7299.88
477.713	7392.98
478.084	7488.35
478.455	7673.65
478.827	7674.11
479.198	7909.58
479.569	7943.93
479.94	8202.45
480.311	8216.01
480.682	8410.81
481.053	8560.86
481.424	8742.33
481.795	8861.87
482.166	8965.37
482.537	9040.62
482.908	9237.23
483.279	9422.31
483.65	9536.2
484.021	9737.33
484.391	9929.19
484.762	10063.2
485.133	10065
485.503	10248.28
485.874	10490.53
486.244	10524.43
486.615	10820.01
486.985	10917.18
487.356	11129.16
487.726	11172.09
488.097	11408.47
488.467	11517.39
488.837	11649.82
489.207	11830.16
489.578	12050.94
489.948	12096.36
490.318	12313.76
490.688	12382.46
491.058	12517.37
491.428	12692.51
491.798	12883.91
492.168	13164.13
492.538	13214.75
492.908	13325.26
493.278	13577
493.648	13454.97
494.017	13776.09
494.387	13862.87
494.757	13988.74
495.126	14149.64
495.496	14183.54
495.866	14315.51
496.235	14546.02
496.605	14620.59
496.974	14668.05
497.344	14768.38
497.713	14887.93
498.082	15052.22
498.452	15210.86
498.821	15403.62
499.19	15354.81
499.559	15519.1
499.928	15602.03
500.298	15769.94
500.667	16008.35
501.036	15931.06
501.405	16080.66
501.774	16121.79
502.143	16317.95
502.512	16496.02
502.88	16617.37
503.249	16575.57
503.618	16754.55
503.987	16848.33
504.356	16959.96
504.724	16991.6
505.093	17194.53
505.462	17245.15
505.83	17438.37
506.199	17525.37
506.567	17772.15
506.936	17825.48
507.304	18121.74
507.672	18205.13
508.041	18181.17
508.409	18430.89
508.777	18527.61
509.145	18790.88
509.514	18791.1
509.882	18932.34
510.25	18880.82
510.618	19148.83
510.986	19256.17
511.354	19382.5
511.722	19575.94
512.09	19705.2
512.458	19689.16
512.826	19935.93
513.193	19918.53
513.561	20136.83
513.929	20314.23
514.297	20448.69
514.664	20650.26
515.032	20767.55
515.4	20998.95
515.767	21029.01
516.135	21295.22
516.502	21134.32
516.869	21536.79
517.237	21714.64
517.604	21671.25
517.972	21996.44
518.339	22099.26
518.706	22139.71
519.073	22353.49
519.44	22575.18
519.808	22835.06
520.175	22921.16
520.542	23149.41
520.909	23327.48
521.276	23328.16
521.643	23645.66
522.009	23860.12
522.376	24065.77
522.743	24163.39
523.11	24434.57
523.477	24693.77
523.843	24761.79
524.21	25086.08
524.577	25217.6
524.943	25439.97
525.31	25596.12
525.676	25885.38
526.043	25925.6
526.409	26085.6
526.776	26319.49
527.142	26480.62
527.508	26684
527.874	26881.28
528.241	27091.67
528.607	27039.47
528.973	27531.21
529.339	27443.08
529.705	27813.92
530.071	27959.67
530.437	28038.09
530.803	28179.33
531.169	28450.73
531.535	28392.66
531.901	28598.98
532.267	28717.62
532.632	29023.83
532.998	29106.76
533.364	29210.71
533.73	29329.58
534.095	29576.36
534.461	29742.9
534.826	29918.49
535.192	29917.36
535.557	30241.87
535.923	30332.27
536.288	30483.22
536.653	30600.96
537.019	30508.99
537.384	30794.4
537.749	31020.84
538.114	30888.19
538.479	31019.93
538.845	31322.3
539.21	31134.73
539.575	31341.73
539.94	31415.85
540.305	31724.1
540.67	31679.8
541.034	31856.97
541.399	31949.85
541.764	32101.03
542.129	32161.37
542.494	32288.15
542.858	32421.25
543.223	32468.03
543.587	32738.53
543.952	32823.73
544.316	32938.3
544.681	32810.17
545.045	33175.13
545.41	33324.05
545.774	33432.75
546.138	33332.87
546.503	33593.65
546.867	33637.04
547.231	33945.96
547.595	33943.02
547.959	34034.77
548.324	34067.31
548.688	34147.76
549.052	34343.91
549.416	34358.15
549.779	34501.65
550.143	34674.53
550.507	34852.15
550.871	34964.24
551.235	34968.3
551.599	35159.03
551.962	35391.8
552.326	35350.67
552.689	35627.27
553.053	35588.85
553.417	35582.52
553.78	36124.88
554.143	35977.32
554.507	36305.22
554.87	36342.05
555.234	36745.43
555.597	36579.33
555.96	36784.08
556.323	37037.4
556.686	37103.61
557.05	37389.26
557.413	37423.38
557.776	37606.2
558.139	37913.76
558.502	37908.57
558.865	38078.73
559.228	38348.33
559.59	38490.7
559.953	38515.56
560.316	38774.08
560.679	38917.8
561.041	39176.33
561.404	39376.55
561.767	39525.25
562.129	39461.74
562.492	40009.3
562.854	39970.21
563.217	39941.28
563.579	40156.42
563.941	40468.95
564.304	40621.26
564.666	40983.29
565.028	41063.74
565.39	41259.89
565.753	41527.91
566.115	41528.58
566.477	41740.1
566.839	41971.06
567.201	42098.06
567.563	42218.96
567.925	42599.29
568.287	42521.78
568.648	42558.84
569.01	42976
569.372	43268.42
569.734	43271.14
570.095	43645.59
570.457	43739.37
570.819	43908.18
571.18	43973.49
571.542	44286.48
571.903	44493.03
572.265	44521.5
572.626	44742.96
572.987	44787.48
573.349	45017.08
573.71	45193.35
574.071	45275.83
574.432	45310.18
574.794	45660
575.155	45792.2
575.516	45717.4
575.877	45881.69
576.238	45951.07
576.599	46106.77
576.96	46078.97
577.32	46140.21
577.681	46391.51
578.042	46480.32
578.403	46566.42
578.763	46491.62
579.124	46667.43
579.485	46863.58
579.845	47109.23
580.206	47033.98
580.566	46813.19
580.927	47076.46
581.287	47150.58
581.648	47076.91
582.008	47241.88
582.368	47203.46
582.728	47480.97
583.089	47265.83
583.449	47294.53
583.809	47420.86
584.169	47573.17
584.529	47450.24
584.889	47765.71
585.249	47609.78
585.609	47393.97
585.969	47759.15
586.329	47476.22
586.688	47694.75
587.048	47553.06
587.408	47621.08
587.768	47571.36
588.127	47560.74
588.487	47590.8
588.846	47858.81
589.206	47532.72
589.565	47664.02
589.925	47847.29
590.284	47674.18
590.643	47595.09
591.003	47796.22
591.362	47912.14
591.721	47891.58
592.08	47828.76
592.44	48004.8
592.799	47826.04
593.158	47850.9
593.517	47783.79
593.876	47997.11
594.235	47934.74
594.593	47894.52
594.952	48047.06
595.311	48021.07
595.67	48013.61
596.029	48294.28
596.387	48198.01
596.746	48245.92
597.104	48009.09
597.463	48055.19
597.822	48212.7
598.18	48080.5
598.538	48038.69
598.897	48320.95
599.255	48111.91
599.613	48610.2
599.972	48410.44
600.33	48421.28
600.688	48301.06
601.046	48390.1
601.404	48514.84
601.762	48418.35
602.12	48729.3
602.478	48656.76
602.836	48731.11
603.194	48563.2
603.552	48622.63
603.91	48494.5
604.268	48869.86
604.625	48572.24
604.983	48768.84
605.341	48641.39
605.698	48885.68
606.056	48784.21
606.413	48801.61
606.771	48746.02
607.128	48980.59
607.485	48776.3
607.843	48833.93
608.2	49100.81
608.557	49223.97
608.914	48982.62
609.272	49171.55
609.629	49220.13
609.986	49431.2
610.343	49153.47
610.7	49475.27
611.057	49375.61
611.414	49253.58
611.771	49348.49
612.127	49373.8
612.484	49407.25
612.841	49466.68
613.198	49364.76
613.554	49501.25
613.911	49776.73
614.267	49705.09
614.624	49712.55
614.98	49835.71
615.337	50023.95
615.693	49959.1
616.05	49960.68
616.406	50139.88
616.762	49957.06
617.118	50007.91
617.475	50025.08
617.831	50036.83
618.187	50164.06
618.543	50131.29
618.899	50319.09
619.255	50265.98
619.611	50311.63
619.967	50387.79
620.323	50456.48
620.678	50244.29
621.034	50240.9
621.39	50179.43
621.746	50209.71
622.101	50627.33
622.457	50245.19
622.812	50425.98
623.168	50340.55
623.523	50305.75
623.879	50380.78
624.234	50172.88
624.589	50338.75
624.945	50308.92
625.3	50292.87
625.655	50263.27
626.01	50377.16
626.365	50356.15
626.72	50268.24
627.075	50288.13
627.43	50230.05
627.785	50290.61
628.14	50331.06
628.495	50255.81
628.85	50324.51
629.205	50155.02
629.559	50401.12
629.914	50161.8
630.269	50228.02
630.623	50233.89
630.978	50150.28
631.332	50222.37
631.687	50185.3
632.041	50079.54
632.396	50107.57
632.75	50064.63
633.104	49961.36
633.459	49809.72
633.813	49805.2
634.167	49776.28
634.521	49747.8
634.875	49740.57
635.229	49727.92
635.583	49518.88
635.937	49520.92
636.291	49457.64
636.645	49421.48
636.999	49485.89
637.352	49694.24
637.706	49334.71
638.06	49433.91
638.413	49275.95
638.767	49231.43
639.121	49282.05
639.474	49049.74
639.828	48984.21
640.181	49050.87
640.534	48923.42
640.888	48877.54
641.241	48694.72
641.594	48689.3
641.947	48774.04
642.301	48692.01
642.654	48714.61
643.007	48585.8
643.36	48504.67
643.713	48506.25
644.066	48562.75
644.419	48324.34
644.771	48058.13
645.124	47804.58
645.477	47629.89
645.83	47380.86
646.182	47217.47
646.535	47044.37
646.888	47252.05
647.24	46934.99
647.593	47158.49
647.945	47026.74
648.298	46858.61
648.65	46762.12
649.002	46727.32
649.355	46845.73
649.707	46818.16
650.059	46877.37
650.411	47291.82
650.763	47297.92
651.115	47746.27
651.467	47443.68
651.819	47468.09
652.171	47430.57
652.523	47338.15
652.875	47362.55
653.227	47089.11
653.578	47385.15
653.93	47270.13
654.282	47108.1
654.633	46957.82
654.985	47122.79
655.337	47168.21
655.688	47086.86
656.039	47035.11
656.391	46825.39
656.742	46949.46
657.094	47000.08
657.445	47003.02
657.796	46876.01
658.147	46705.62
658.498	46703.59
658.849	46749.24
659.2	46817.26
659.551	46693.65
659.902	46799.86
660.253	46725.28
660.604	46784.04
660.955	46441.45
661.306	46620.2
661.656	46497.04
662.007	46465.18
662.358	46419.75
662.708	46510.83
663.059	46529.36
663.409	46297.27
663.76	46580.43
664.11	46418.4
664.461	46452.97
664.811	46591.95
665.161	46560.54
665.511	46333.88
665.862	46507.44
666.212	46590.15
666.562	46508.79
666.912	46433.54
667.262	46244.17
667.612	46372.07
667.962	46334.78
668.312	46180.44
668.662	46368
669.011	46265.63
669.361	46161
669.711	46069.93
670.06	46005.75
670.41	46058.18
670.76	45888.47
671.109	46140.21
671.459	46080.55
671.808	45882.37
672.157	46076.71
672.507	45782.48
672.856	45869.71
673.205	45917.62
673.554	45972.08
673.904	45918.52
674.253	45939.99
674.602	45884.17
674.951	45374.36
675.3	45059.79
675.649	45710.17
675.998	45714.46
676.346	45759.21
676.695	45790.39
677.044	45414.81
677.393	45403.28
677.741	45497.07
678.09	45397.86
678.438	45422.27
678.787	45348.14
679.135	45311.08
679.484	45062.95
679.832	45316.51
680.181	44982.05
680.529	45144.08
680.877	45115.16
681.225	44987.02
681.573	45205.55
681.922	44841.04
682.27	44772.79
682.618	44789.29
682.966	44698.22
683.314	44798.33
683.661	44512.46
684.009	44267.49
684.357	44299.58
684.705	44118.57
685.053	44149.98
685.4	44122.19
685.748	43955.64
686.095	43897.11
686.443	43624.8
686.79	43611.47
687.138	43731.69
687.485	43659.37
687.832	43474.97
688.18	43367.18
688.527	43313.4
688.874	43235.88
689.221	43163.57
689.568	43131.25
689.915	42934.87
690.262	42896.91
690.609	42761.77
690.956	42777.82
691.303	42836.57
691.65	42620.76
691.997	42450.59
692.344	42237.27
692.69	42245.17
693.037	42143.26
693.383	41940.78
693.73	42019.87
694.077	41806.99
694.423	41875.69
694.769	41789.14
695.116	41665.08
695.462	41694.68
695.808	41537.62
696.155	41557.51
696.501	41300.11
696.847	41075.71
697.193	40985.55
697.539	41116.62
697.885	40676.85
698.231	40596.18
698.577	40572.22
698.923	40631.43
699.269	40338.33
699.614	40104.21
699.96	40233.48
700.306	40130.88
700.651	39979.47
700.997	39708.74
701.342	39636.66
701.688	39698.35
702.033	39439.82
702.379	39311.69
702.724	39282.54
703.069	39266.04
703.415	38767.53
703.76	38963.9
704.105	38889.78
704.45	38689.11
704.795	38451.6
705.14	38340.64
705.485	38321.89
705.83	38249.57
706.175	38286.18
706.52	38107.66
706.865	38083.25
707.209	37915.12
707.554	37812.52
707.899	37904.05
708.243	37621.12
708.588	37514
708.932	37443.27
709.277	37382.03
709.621	37413.66
709.966	37082.37
710.31	37300.22
710.654	37053.67
710.998	37095.93
711.342	37053.45
711.687	36947.01
712.031	36842.6
712.375	36649.62
712.719	36723.51
713.063	36454.82
713.407	36743.85
713.75	36377.98
714.094	36498.88
714.438	36352
714.782	36177.99
715.125	36049.63
715.469	36017.77
715.812	35836.53
716.156	35828.85
716.499	35830.65
716.843	35825.46
717.186	35675.86
717.53	35831.56
717.873	35705.23
718.216	35530.1
718.559	35299.37
718.902	35208.98
719.246	35205.81
719.589	35192.48
719.932	35023.9
720.275	34989.55
720.617	34902.99
720.96	34876.1
721.303	34881.98
721.646	34880.17
721.989	34695.09
722.331	34774.86
722.674	34603.79
723.016	34585.94
723.359	34480.18
723.701	34330.13
724.044	34168.55
724.386	33977.14
724.729	34310.69
725.071	34169.91
725.413	33943.02
725.755	34060.3
726.097	33822.57
726.439	33639.75
726.782	33784.61
727.124	33822.12
727.465	33494.9
727.807	33575.35
728.149	33383.71
728.491	33246.09
728.833	33382.13
729.175	33338.97
729.516	33195.24
729.858	33113.21
730.199	33144.17
730.541	32978.3
730.882	32844.29
731.224	33117.5
731.565	32868.92
731.906	32901.24
732.248	32885.42
732.589	32752.54
732.93	32619.89
733.271	32454.25
733.612	32690.85
733.953	32635.94
734.294	32476.84
734.635	32340.8
734.976	32444.08
735.317	32250.41
735.658	32244.08
735.999	32209.96
736.339	32117.31
736.68	32169.51
737.021	32152.11
737.361	32023.07
737.702	31968.38
738.042	31854.94
738.383	31756.86
738.723	31766.81
739.063	31746.92
739.404	31754.15
739.744	31680.25
740.084	31539.69
740.424	31685.23
740.764	31437.78
741.104	31593.03
741.444	31382.86
741.784	31184.67
742.124	31305.58
742.464	31276.2
742.804	31188.74
743.143	31146.71
743.483	31002.98
743.823	30912.37
744.162	30918.47
744.502	31007.05
744.841	30766.83
745.181	30921.18
745.52	30811.58
745.86	30684.8
746.199	30538.36
746.538	30710.11
746.877	30726.83
747.216	30627.17
747.556	30582.88
747.895	30603.22
748.234	30254.76
748.573	30347.18
748.911	30184.93
749.25	30269.44
749.589	30139.73
749.928	30078.26
750.267	30118.49
750.605	29998.94
750.944	29855.67
751.283	29752.62
751.621	29803.92
751.96	29552.63
752.298	29569.8
752.636	29520.54
752.975	29334.1
