Data from aluminium_macbook_case_FLMS001491_046.txt Node
Date: Tue Feb 07 10:43:40 GMT 2017
User: dcchb
Spectrometer: FLMS00149
Trigger mode: 0
Integration Time (sec): 2.000000E-2
Scans to average: 10
Electric dark correction enabled: true
Nonlinearity correction enabled: false
Boxcar width: 0
XAxis mode: Wavelengths
Number of Pixels in Spectrum: 2048
>>>>>Begin Spectral Data<<<<<
341.393	-2.6
341.776	-2.6
342.16	-2.6
342.543	-44.41
342.927	-73.56
343.31	-86.66
343.693	-68.13
344.077	-71.3
344.46	-48.25
344.843	-29.94
345.226	-30.39
345.61	-29.72
345.993	-35.59
346.376	-10.96
346.759	-4.18
347.142	28.36
347.525	50.73
347.908	63.16
348.291	67.23
348.674	74.46
349.057	131.18
349.44	125.53
349.823	131.86
350.206	168.24
350.588	238.3
350.971	262.93
351.354	277.62
351.737	295.47
352.119	297.73
352.502	311.52
352.884	336.83
353.267	336.6
353.65	345.19
354.032	343.61
354.414	362.36
354.797	386.09
355.179	363.72
355.562	374.57
355.944	370.95
356.326	409.14
356.709	396.49
357.091	382.25
357.473	409.82
357.855	384.28
358.238	409.59
358.62	411.4
359.002	408.92
359.384	400.55
359.766	398.29
360.148	407.11
360.53	423.15
360.912	404.17
361.294	410.72
361.676	403.72
362.057	409.37
362.439	406.88
362.821	430.38
363.203	423.83
363.584	421.12
363.966	428.58
364.348	394.9
364.729	410.27
365.111	423.83
365.493	402.81
365.874	413.44
366.256	410.95
366.637	406.2
367.019	432.42
367.4	430.61
367.781	416.37
368.163	423.15
368.544	424.51
368.925	438.97
369.306	453.89
369.688	419.54
370.069	431.29
370.45	462.7
370.831	468.12
371.212	447.56
371.593	457.05
371.974	451.4
372.355	441.68
372.736	466.99
373.117	466.09
373.498	445.07
373.879	462.7
374.26	457.05
374.641	465.86
375.021	462.7
375.402	470.61
375.783	482.13
376.163	519.2
376.544	534.56
376.925	506.99
377.305	509.48
377.686	504.51
378.066	524.84
378.447	512.19
378.827	533.21
379.208	542.7
379.588	530.72
379.968	537.73
380.349	546.09
380.729	528.46
381.109	547.44
381.489	582.02
381.87	563.49
382.25	576.14
382.63	566.88
383.01	575.47
383.39	587.67
383.77	589.48
384.15	595.35
384.53	613.43
384.91	610.04
385.29	604.84
385.67	639.87
386.049	647.1
386.429	649.81
386.809	640.55
387.189	652.07
387.568	667.89
387.948	662.24
388.328	670.83
388.707	679.19
389.087	673.99
389.466	663.37
389.846	711.28
390.225	712.64
390.605	723.48
390.984	735.69
391.363	743.37
391.743	750.6
392.122	758.51
392.501	775.69
392.881	780.21
393.26	789.47
393.639	790.15
394.018	810.26
394.397	823.59
394.776	815.23
395.155	833.31
395.534	834.44
395.913	840.77
396.292	846.64
396.671	877.15
397.05	884.16
397.429	886.42
397.808	906.53
398.186	904.04
398.565	914.67
398.944	898.62
399.323	948.79
399.701	936.59
400.08	945.62
400.458	963.03
400.837	977.49
401.215	961.22
401.594	982.91
401.972	996.24
402.351	1013.19
402.729	1036.7
403.107	1036.7
403.486	1060.88
403.864	1058.62
404.242	1051.16
404.62	1097.26
404.999	1118.95
405.377	1139.07
405.755	1133.64
406.133	1148.11
406.511	1152.63
406.889	1186.3
407.267	1190.36
407.645	1229.91
408.023	1217.03
408.401	1243.02
408.779	1268.55
409.156	1280.31
409.534	1275.79
409.912	1337.03
410.29	1338.61
410.667	1363.24
411.045	1364.14
411.422	1392.84
411.8	1418.15
412.178	1446.18
412.555	1449.57
412.933	1504.48
413.31	1477.36
413.687	1518.49
414.065	1552.84
414.442	1548.32
414.819	1562.56
415.197	1570.47
415.574	1632.39
415.951	1633.06
416.328	1668.32
416.705	1656.34
417.082	1694.76
417.46	1717.13
417.837	1743.12
418.214	1770.24
418.591	1771.82
418.967	1800.07
419.344	1826.05
419.721	1803.91
420.098	1806.85
420.475	1851.59
420.852	1873.28
421.228	1905.6
421.605	1913.28
421.982	1948.31
422.358	1965.71
422.735	1981.98
423.111	1998.03
423.488	2074.18
423.864	2075.09
424.241	2076.89
424.617	2108.76
424.994	2124.8
425.37	2147.63
425.746	2132.03
426.123	2194.41
426.499	2247.74
426.875	2258.58
427.251	2270.34
427.627	2366.38
428.003	2354.4
428.379	2365.25
428.756	2419.26
429.132	2426.94
429.507	2493.83
429.883	2504.23
430.259	2575.41
430.635	2607.5
431.011	2617.9
431.387	2691.57
431.763	2793.71
432.138	2741.28
432.514	2800.72
432.89	2822.86
433.265	2901.28
433.641	2894.73
434.016	2961.17
434.392	2981.73
434.767	3087.26
435.143	3061.28
435.518	3133.59
435.894	3132.91
436.269	3172.01
436.644	3254.72
437.02	3228.95
437.395	3276.19
437.77	3354.83
438.145	3366.35
438.52	3428.5
438.895	3442.96
439.271	3475.5
439.646	3574.26
440.021	3556.63
440.395	3618.1
440.77	3552.34
441.145	3662.62
441.52	3711.2
441.895	3743.74
442.27	3743.74
442.645	3723.4
443.019	3845.89
443.394	3831.65
443.769	3876.17
444.143	3806.57
444.518	3961.59
444.892	3930.86
445.267	3971.31
445.641	4058.09
446.016	4061.25
446.39	4075.49
446.764	4037.97
447.139	4145.09
447.513	4220.79
447.887	4173.34
448.262	4213.11
448.636	4237.06
449.01	4279.1
449.384	4389.83
449.758	4371.98
450.132	4446.32
450.506	4484.74
450.88	4514.34
451.254	4507.57
451.628	4596.83
452.002	4677.05
452.376	4717.73
452.75	4758.18
453.123	4766.09
453.497	4899.65
453.871	4925.86
454.244	5046.99
454.618	5094.44
454.992	5159.53
455.365	5099.41
455.739	5275.23
456.112	5322.23
456.486	5387.32
456.859	5423.25
457.232	5528.1
457.606	5550.25
457.979	5579.4
458.352	5731.49
458.725	5803.35
459.099	5874.76
459.472	5974.42
459.845	6040.63
460.218	6102.1
460.591	6103.91
460.964	6210.12
461.337	6340.74
461.71	6444.46
462.083	6570.34
462.456	6529.43
462.829	6585.25
463.201	6710.9
463.574	6799.03
463.947	6844.23
464.32	7044.9
464.692	7031.34
465.065	7133.26
465.438	7248.06
465.81	7368.28
466.183	7418.45
466.555	7575.06
466.928	7626.58
467.3	7656.63
467.672	7785.9
468.045	7978.21
468.417	7988.6
468.789	8085.1
469.161	8191.99
469.534	8351.08
469.906	8604.41
470.278	8636.72
470.65	8711.07
471.022	8844.85
471.394	9048.91
471.766	9090.72
472.138	9250.04
472.51	9414.55
472.882	9631.95
473.253	9639.41
473.625	9825.17
473.997	10113.52
474.369	10091.6
474.74	10200.75
475.112	10435.77
475.484	10629.89
475.855	10781.98
476.227	10919.15
476.598	11205.92
476.97	11300.15
477.341	11613.82
477.713	11686.59
478.084	11844.77
478.455	12239.79
478.827	12299.22
479.198	12709.38
479.569	12609.5
479.94	13047.45
480.311	13115.02
480.682	13454.22
481.053	13709.81
481.424	13971.95
481.795	14171.72
482.166	14317.7
482.537	14638.15
482.908	14970.57
483.279	15063.67
483.65	15337.56
484.021	15545.01
484.391	15815.06
484.762	15886.93
485.133	16065.91
485.503	16371.21
485.874	16781.37
486.244	16879.22
486.615	17226.78
486.985	17387.9
487.356	17864.05
487.726	17912.86
488.097	18352.85
488.467	18319.86
488.837	18768.43
489.207	18967.98
489.578	19245.26
489.948	19358.02
490.318	19778.58
490.688	19793.94
491.058	20108.74
491.428	20425.11
491.798	20539.01
492.168	20982.16
492.538	21015.83
492.908	21409.04
493.278	21558.19
493.648	21560
494.017	21889.71
494.387	22194.56
494.757	22331.28
495.126	22619.63
495.496	22681.1
495.866	22914.76
496.235	23096.45
496.605	23365.15
496.974	23518.14
497.344	23792.48
497.713	23950.44
498.082	24213.04
498.452	24425.91
498.821	24514.27
499.19	24576.19
499.559	24950.19
499.928	25128.27
500.298	25276.06
500.667	25479.22
501.036	25424.98
501.405	25795.37
501.774	25857.06
502.143	26044.85
502.512	26135.02
502.88	26441.23
503.249	26474.9
503.618	26704.27
503.987	26857.26
504.356	27031.27
504.724	27172.05
505.093	27380.64
505.462	27480.97
505.83	27702.89
506.199	27912.83
506.567	28320.95
506.936	28271.69
507.304	28657.21
507.672	28752.8
508.041	28974.49
508.409	29224.88
508.777	29489.73
509.145	29739.22
509.514	29631.42
509.882	30037.29
510.25	30214.69
510.618	30416.71
510.986	30546.88
511.354	30917.04
511.722	31089.24
512.09	31338.72
512.458	31362.45
512.826	31723.12
513.193	31884.92
513.561	32006.05
513.929	32234.52
514.297	32580.27
514.664	32795.41
515.032	32868.63
515.4	33085.34
515.767	33227.49
516.135	33659.34
516.502	33420.25
516.869	33969.16
517.237	34243.73
517.604	34245.31
517.972	34616.38
518.339	34846.2
518.706	34946.76
519.073	35196.25
519.44	35466.3
519.808	35914.2
520.175	35890.24
520.542	36452.26
520.909	36642.09
521.276	36827.39
521.643	37231.22
522.009	37443.87
522.376	37744.88
522.743	37975.84
523.11	38446.11
523.477	38625.31
523.843	38791.86
524.21	39291.51
524.577	39568.34
524.943	39632.52
525.31	39938.05
525.676	40237.93
526.043	40465.94
526.409	40643.11
526.776	41011.46
527.142	41084.68
527.508	41425.46
527.874	41841.5
528.241	41874.49
528.607	42066.58
528.973	42591.76
529.339	42448.49
529.705	42893.22
530.071	43286.66
530.437	43459.31
530.803	43775.01
531.169	43927.77
531.535	43979.52
531.901	44191.27
532.267	44405.05
532.632	44763.46
532.998	44839.16
533.364	45252.93
533.73	45207.74
534.095	45641.4
534.461	45715.97
534.826	46019.92
535.192	46148.5
535.557	46519.57
535.923	46431.66
536.288	46706.46
536.653	46797.3
537.019	46942.61
537.384	46951.19
537.749	47285.2
538.114	47317.96
538.479	47339.21
538.845	47457.4
539.21	47496.49
539.575	47678.86
539.94	47729.03
540.305	48009.25
540.67	48094.89
541.034	48242.23
541.399	48467.54
541.764	48524.94
542.129	48764.48
542.494	48823.01
542.858	48839.96
543.223	48964.7
543.587	49286.5
543.952	49234.07
544.316	49536.66
544.681	49332.38
545.045	49613.95
545.41	49924.9
545.774	49882.87
546.138	50085.8
546.503	50208.28
546.867	50238.79
547.231	50606.69
547.595	50536.41
547.959	50801.94
548.324	50846.01
548.688	50959
549.052	51068.37
549.416	51100.24
549.779	51280.35
550.143	51259.1
550.507	51568.7
550.871	51616.83
551.235	51603.28
551.599	51861.12
551.962	51968.92
552.326	52012.53
552.689	52285.52
553.053	52202.81
553.417	52271.28
553.78	52633.76
554.143	52541.1
554.507	52676.69
554.87	52807.54
555.234	53124.82
555.597	52891.83
555.96	53093.41
556.323	53143.35
556.686	53256.57
557.05	53458.82
557.413	53543.34
557.776	53673.73
558.139	53839.6
558.502	54030.56
558.865	54081.18
559.228	54309.42
559.59	54368.4
559.953	54481.39
560.316	54822.4
560.679	54693.36
561.041	54945.33
561.404	55055.61
561.767	55334.48
562.129	55269.85
562.492	55553.45
562.854	55464.64
563.217	55496.73
563.579	55721.13
563.941	55861.47
564.304	55952.54
564.666	56105.3
565.028	56156.6
565.39	56276.15
565.753	56372.87
566.115	56444.96
566.477	56490.38
566.839	56646.08
567.201	56853.53
567.563	56826.87
567.925	57008.56
568.287	56996.13
568.648	57119.97
569.01	57209.68
569.372	57263.24
569.734	57229.12
570.095	57451.71
570.457	57554.98
570.819	57578.26
571.18	57631.59
571.542	57792.94
571.903	57832.26
572.265	57921.08
572.626	57969.66
572.987	58091.24
573.349	58206.94
573.71	58249.43
574.071	58286.04
574.432	58406.71
574.794	58534.85
575.155	58539.14
575.516	58432.25
575.877	58601.51
576.238	58670.43
576.599	58734.16
576.96	58781.84
577.32	58826.59
577.681	58863.42
578.042	58986.36
578.403	59003.99
578.763	58987.26
579.124	59023.65
579.485	59184.32
579.845	59119.01
580.206	59144.09
580.566	59143.42
580.927	59166.47
581.287	59253.92
581.648	59168.27
582.008	59279.01
582.368	59163.3
582.728	59245.33
583.089	59242.4
583.449	59180.25
583.809	59225.9
584.169	59269.74
584.529	59175.05
584.889	59401.94
585.249	59170.31
585.609	59144.77
585.969	59275.62
586.329	59265.67
586.688	59288.05
587.048	59263.87
587.408	59254.15
587.768	59286.92
588.127	59309.51
588.487	59257.54
588.846	59414.14
589.206	59179.57
589.565	59279.91
589.925	59410.08
590.284	59352
590.643	59385.44
591.003	59440.81
591.362	59507.02
591.721	59478.78
592.08	59480.81
592.44	59575.72
592.799	59567.13
593.158	59575.5
593.517	59483.75
593.876	59580.24
594.235	59505.89
594.593	59476.97
594.952	59602.61
595.311	59497.08
595.67	59532.78
596.029	59671.31
596.387	59657.98
596.746	59668.83
597.104	59567.13
597.463	59560.35
597.822	59576.4
598.18	59555.38
598.538	59580.24
598.897	59661.82
599.255	59489.17
599.613	59836.96
599.972	59664.76
600.33	59700.24
600.688	59577.53
601.046	59701.37
601.404	59799.9
601.762	59666.34
602.12	59801.48
602.478	59774.36
602.836	59846
603.194	59715.38
603.552	59773.68
603.91	59678.54
604.268	59879.22
604.625	59819.11
604.983	60045.31
605.341	59842.61
605.698	59962.6
606.056	60031.98
606.413	59998.08
606.771	60088.93
607.128	60087.8
607.485	59970.51
607.843	60014.58
608.2	60223.16
608.557	60313.56
608.914	60214.12
609.272	60284.86
609.629	60329.6
609.986	60389.26
610.343	60278.98
610.7	60450.73
611.057	60349.94
611.414	60431.29
611.771	60427.68
612.127	60524.4
612.484	60409.15
612.841	60489.6
613.198	60440.11
613.554	60473.78
613.911	60598.07
614.267	60567.56
614.624	60530.27
614.98	60497.73
615.337	60613.66
615.693	60605.75
616.05	60555.13
616.406	60709.48
616.762	60613.43
617.118	60640.1
617.475	60611.63
617.831	60708.8
618.187	60623.6
618.543	60695.92
618.899	60766.42
619.255	60763.26
619.611	60714.45
619.967	60818.85
620.323	60866.31
620.678	60800.32
621.034	60715.13
621.39	60768.23
621.746	60756.48
622.101	60997.83
622.457	60763.26
622.812	60868.12
623.168	60940.88
623.523	60893.43
623.879	60968.45
624.234	60815.24
624.589	60920.09
624.945	60905.18
625.3	60911.73
625.655	60866.31
626.01	60939.3
626.365	60961.45
626.72	60946.99
627.075	60891.62
627.43	60843.71
627.785	60852.75
628.14	60841.45
628.495	60812.98
628.85	60803.71
629.205	60721.23
629.559	60935.91
629.914	60784.28
630.269	60761
630.623	60715.35
630.978	60596.94
631.332	60705.41
631.687	60733.88
632.041	60614.11
632.396	60625.41
632.75	60559.42
633.104	60587.67
633.459	60438.3
633.813	60410.05
634.167	60427.45
634.521	60433.1
634.875	60445.3
635.229	60381.12
635.583	60294.35
635.937	60210.51
636.291	60201.47
636.645	60250.05
636.999	60124.18
637.352	60219.09
637.706	60043.73
638.06	60110.17
638.413	60050.51
638.767	60037.63
639.121	60001.25
639.474	59816.85
639.828	59936.16
640.181	59917.18
640.534	59926.67
640.888	59801.25
641.241	59699.33
641.594	59823.85
641.947	59831.53
642.301	59780.91
642.654	59760.35
643.007	59766.45
643.36	59774.36
643.713	59683.29
644.066	59750.63
644.419	59612.56
644.771	59397.87
645.124	59211.21
645.477	59117.43
645.83	59054.38
646.182	58889.41
646.535	58776.19
646.888	58846.02
647.24	58731.68
647.593	58867.49
647.945	58779.13
648.298	58601.06
648.65	58468.41
649.002	58416.66
649.355	58594.96
649.707	58547.27
650.059	58632.02
650.411	58912.24
650.763	58877.66
651.115	59134.15
651.467	58989.07
651.819	58997.88
652.171	58880.82
652.523	58869.75
652.875	58835.85
653.227	58758.12
653.578	58902.52
653.93	58797.66
654.282	58747.95
654.633	58595.63
654.985	58632.7
655.337	58685.12
655.688	58611.45
656.039	58713.15
656.391	58484
656.742	58553.15
657.094	58559.7
657.445	58630.66
657.796	58552.02
658.147	58541.4
658.498	58490.78
658.849	58497.56
659.2	58413.04
659.551	58356.09
659.902	58471.57
660.253	58459.14
660.604	58409.2
660.955	58346.38
661.306	58344.57
661.656	58330.1
662.007	58354.06
662.358	58370.56
662.708	58392.25
663.059	58338.47
663.409	58195.64
663.76	58296.89
664.11	58247.17
664.461	58292.37
664.811	58237.9
665.161	58248.75
665.511	58175.98
665.862	58200.39
666.212	58309.77
666.562	58269.09
666.912	58209.66
667.262	58170.33
667.612	58190
667.962	58206.94
668.312	58074.29
668.662	58212.37
669.011	58091.47
669.361	57966.95
669.711	57974.63
670.06	57984.8
670.41	57962.2
670.76	57850.57
671.109	58005.37
671.459	57947.97
671.808	57905.48
672.157	57826.39
672.507	57709.56
672.856	57678.37
673.205	57742.55
673.554	57759.95
673.904	57599.5
674.253	57798.82
674.602	57672.95
674.951	57303.24
675.3	57117.26
675.649	57650.57
675.998	57500.3
676.346	57513.85
676.695	57585.72
677.044	57406.29
677.393	57443.12
677.741	57513.18
678.09	57432.95
678.438	57385.95
678.787	57465.04
679.135	57414.42
679.484	57267.08
679.832	57304.82
680.181	57136.92
680.529	57216.46
680.877	57112.96
681.225	57082.23
681.573	57255.78
681.922	57100.76
682.27	56958.84
682.618	57036.13
682.966	56949.58
683.314	56987.77
683.661	56829.35
684.009	56737.38
684.357	56627.1
684.705	56598.85
685.053	56757.26
685.4	56522.24
685.748	56441.11
686.095	56438.18
686.443	56318.86
686.79	56317.28
687.138	56372.87
687.485	56299.42
687.832	56176.71
688.18	56284.73
688.527	56012.43
688.874	56096.27
689.221	55990.96
689.568	55819.21
689.915	55807.46
690.262	55854.01
690.609	55711.42
690.956	55594.58
691.303	55571.76
691.65	55499.9
691.997	55388.04
692.344	55256.97
692.69	55261.03
693.037	55207.25
693.383	55004.77
693.73	55162.96
694.077	54918.89
694.423	54837.99
694.769	54807.03
695.116	54732.69
695.462	54681.61
695.808	54571.33
696.155	54668.51
696.501	54479.13
696.847	54358.91
697.193	54108.75
697.539	54300.15
697.885	54032.14
698.231	53865.14
698.577	53967.51
698.923	53871.46
699.269	53731.13
699.614	53647.97
699.96	53580.85
700.306	53622.43
700.651	53391.7
700.997	53243.46
701.342	53268.77
701.688	53228.54
702.033	53074.88
702.379	53088.21
702.724	53033.29
703.069	52974.99
703.415	52670.14
703.76	52691.16
704.105	52664.94
704.45	52508.56
704.795	52396.25
705.14	52253.65
705.485	52187.67
705.83	52053.43
706.175	52102.7
706.52	52029.71
706.865	52031.51
707.209	51900.22
707.554	51739.77
707.899	51864.74
708.243	51614.12
708.588	51584.07
708.932	51251.42
709.277	51309.5
709.621	51266.11
709.966	51108.15
710.31	51078.54
710.654	50796.07
710.998	50878.78
711.342	50924.88
711.687	50824.54
712.031	50638.56
712.375	50646.24
712.719	50639.69
713.063	50481.05
713.407	50559.01
713.75	50317.89
714.094	50373.7
714.438	50154.5
714.782	50109.53
715.125	49951.57
715.469	49963.09
715.812	49903.89
716.156	49554.74
716.499	49592.03
716.843	49541.41
717.186	49368.98
717.53	49616.89
717.873	49494.86
718.216	49415.31
718.559	49320.17
718.902	49148.2
719.246	49185.71
719.589	49005.6
719.932	48921.54
720.275	48912.27
720.617	48823.46
720.96	48664.6
721.303	48659.62
721.646	48618.27
721.989	48495.56
722.331	48532.62
722.674	48493.75
723.016	48381.44
723.359	48211.73
723.701	48303.93
724.044	48068.91
724.386	47912.53
724.729	48022.35
725.071	47820.78
725.413	47827.1
725.755	47703.49
726.097	47556.6
726.439	47228.7
726.782	47384.63
727.124	47497.62
727.465	47097.86
727.807	47229.61
728.149	47060.12
728.491	47116.84
728.833	46982.38
729.175	46796.62
729.516	46747.81
729.858	46719.79
730.199	46733.57
730.541	46668.94
730.882	46453.58
731.224	46553.47
731.565	46310.99
731.906	46207.71
732.248	46273.25
732.589	46169.29
732.93	45873.71
733.271	46010.88
733.612	45925.01
733.953	45932.46
734.294	45694.5
734.635	45691.34
734.976	45824.67
735.317	45627.84
735.658	45597.56
735.999	45504.45
736.339	45451.12
736.68	45505.36
737.021	45259.26
737.361	45174.52
737.702	45392.14
738.042	45122.77
738.383	45077.8
738.723	45248.87
739.063	44867.63
739.404	45005.48
739.744	44825.15
740.084	44800.06
740.424	44817.47
740.764	44848.43
741.104	44755.32
741.444	44574.31
741.784	44428.32
742.124	44547.19
742.464	44485.05
742.804	44260.42
743.143	44228.78
743.483	44205.73
743.823	43960.99
744.162	43948.79
744.502	44077.37
744.841	43700.66
745.181	43846.42
745.52	43699.3
745.86	43647.78
746.199	43652.3
746.538	43507.44
746.877	43511.29
747.216	43410.72
747.556	43213.67
747.895	43229.71
748.234	43108.81
748.573	43011.41
748.911	42879.44
749.25	42832.21
749.589	42693.45
749.928	42824.07
750.267	42749.95
750.605	42618.88
750.944	42328.49
751.283	42239.68
751.621	42257.76
751.96	42093.02
752.298	41947.03
