Data from aluminium_surface_pro_back_FLMS001491_00040.txt Node
Date: Wed Feb 08 15:33:59 GMT 2017
User: dcchb
Spectrometer: FLMS00149
Trigger mode: 0
Integration Time (sec): 2.000000E-2
Scans to average: 10
Electric dark correction enabled: true
Nonlinearity correction enabled: false
Boxcar width: 0
XAxis mode: Wavelengths
Number of Pixels in Spectrum: 2048
>>>>>Begin Spectral Data<<<<<
341.393	-2.99
341.776	-2.99
342.16	-2.99
342.543	-62.88
342.927	-81.41
343.31	-60.17
343.693	-64.01
344.077	-58.59
344.46	-84.57
344.843	-46.38
345.226	-42.32
345.61	-45.93
345.993	-14.52
346.376	-7.29
346.759	4.92
347.142	26.16
347.525	60.96
347.908	35.2
348.291	82.43
348.674	106.83
349.057	107.29
349.44	118.13
349.823	160.84
350.206	177.79
350.588	206.49
350.971	239.49
351.354	248.98
351.737	268.41
352.119	286.94
352.502	281.52
352.884	308.41
353.267	308.41
353.65	317
354.032	328.52
354.414	345.7
354.797	331.69
355.179	370.1
355.562	374.4
355.944	339.6
356.326	361.74
356.709	357
357.091	348.86
357.473	359.26
357.855	368.97
358.238	344.79
358.62	374.85
359.002	381.85
359.384	355.87
359.766	383.66
360.148	395.19
360.53	376.66
360.912	365.81
361.294	360.61
361.676	361.97
362.057	376.43
362.439	380.5
362.821	389.54
363.203	354.74
363.584	356.77
363.966	364.68
364.348	373.27
364.729	372.82
365.111	338.01
365.493	361.97
365.874	371.91
366.256	377.79
366.637	367.17
367.019	361.06
367.4	346.6
367.781	361.06
368.163	350.67
368.544	369.65
368.925	401.51
369.306	357.9
369.688	353.38
370.069	384.11
370.45	365.58
370.831	354.96
371.212	361.29
371.593	355.87
371.974	381.4
372.355	367.62
372.736	381.63
373.117	366.04
373.498	379.37
373.879	397.9
374.26	355.87
374.641	375.3
375.021	367.84
375.402	386.15
375.783	388.41
376.163	419.37
376.544	403.77
376.925	409.65
377.305	399.48
377.686	405.58
378.066	402.42
378.447	411.23
378.827	451.68
379.208	412.14
379.588	410.33
379.968	426.15
380.349	446.94
380.729	414.62
381.109	426.82
381.489	425.47
381.87	451.23
382.25	426.82
382.63	431.57
383.01	435.41
383.39	445.58
383.77	447.16
384.15	458.46
384.53	450.78
384.91	483.77
385.29	465.24
385.67	467.05
386.049	484.22
386.429	485.58
386.809	512.25
387.189	498.24
387.568	497.11
387.948	511.34
388.328	501.63
388.707	535.3
389.087	518.8
389.466	536.88
389.846	521.96
390.225	551.57
390.605	543.88
390.984	553.15
391.363	536.2
391.743	526.94
392.122	558.57
392.501	554.73
392.881	571.23
393.26	600.38
393.639	599.93
394.018	600.83
394.397	603.54
394.776	601.28
395.155	614.39
395.534	617.55
395.913	611.45
396.292	626.59
396.671	640.83
397.05	633.15
397.429	644.9
397.808	649.64
398.186	667.5
398.565	696.87
398.944	686.93
399.323	688.06
399.701	688.06
400.08	684.67
400.458	704.78
400.837	704.78
401.215	731
401.594	715.4
401.972	746.36
402.351	759.7
402.729	745.46
403.107	775.29
403.486	759.92
403.864	758.57
404.242	778.68
404.62	804.22
404.999	788.62
405.377	811
405.755	824.33
406.133	822.52
406.511	825.46
406.889	867.49
407.267	841.96
407.645	887.6
408.023	905.23
408.401	895.51
408.779	923.08
409.156	926.25
409.534	897.1
409.912	943.2
410.29	952.91
410.667	999.69
411.045	987.94
411.422	985
411.8	986.13
412.178	1021.61
412.555	1016.87
412.933	1064.1
413.31	1096.86
413.687	1087.37
414.065	1076.07
414.442	1096.64
414.819	1111.55
415.197	1120.37
415.574	1151.78
415.951	1166.01
416.328	1165.11
416.705	1198.56
417.082	1185.9
417.46	1186.35
417.837	1206.69
418.214	1224.77
418.591	1236.75
418.967	1250.31
419.344	1236.75
419.721	1278.78
420.098	1267.48
420.475	1288.05
420.852	1308.38
421.228	1334.6
421.605	1330.98
421.982	1347.48
422.358	1365.78
422.735	1396.06
423.111	1368.5
423.488	1414.82
423.864	1420.7
424.241	1428.15
424.617	1424.76
424.994	1461.6
425.37	1460.02
425.746	1485.33
426.123	1500.7
426.499	1513.8
426.875	1535.72
427.251	1558.77
427.627	1603.52
428.003	1587.02
428.379	1634.93
428.756	1633.8
429.132	1648.71
429.507	1686.23
429.883	1713.57
430.259	1750.86
430.635	1745.21
431.011	1765.55
431.387	1810.52
431.763	1823.62
432.138	1852.55
432.514	1874.92
432.89	1856.84
433.265	1928.03
433.641	1975.94
434.016	1949.04
434.392	2006.22
434.767	2018.65
435.143	2036.05
435.518	2030.62
435.894	2096.61
436.269	2087.57
436.644	2145.42
437.02	2155.59
437.395	2162.15
437.77	2225.42
438.145	2242.6
438.52	2234.24
438.895	2278.75
439.271	2325.08
439.646	2339.99
440.021	2323.05
440.395	2401.24
440.77	2374.57
441.145	2415.25
441.52	2436.72
441.895	2466.77
442.27	2474.68
442.645	2464.29
443.019	2517.39
443.394	2506.09
443.769	2539.31
444.143	2550.84
444.518	2598.97
444.892	2582.25
445.267	2587.9
445.641	2595.81
446.016	2633.32
446.39	2670.16
446.764	2665.18
447.139	2683.94
447.513	2703.6
447.887	2743.6
448.262	2762.58
448.636	2771.4
449.01	2797.16
449.384	2819.98
449.758	2839.19
450.132	2918.51
450.506	2917.83
450.88	2913.54
451.254	2942.92
451.628	2998.28
452.002	3026.08
452.376	3050.94
452.75	3076.92
453.123	3104.27
453.497	3168
453.871	3202.35
454.244	3204.61
454.618	3224.04
454.992	3306.98
455.365	3267.88
455.739	3414.77
456.112	3446.18
456.486	3478.95
456.859	3505.61
457.232	3545.16
457.606	3568.44
457.979	3620.87
458.352	3708.32
458.725	3693.86
459.099	3753.07
459.472	3815.66
459.845	3856.34
460.218	3925.49
460.591	3950.8
460.964	3952.16
461.337	4085.03
461.71	4133.39
462.083	4200.06
462.456	4214.3
462.829	4237.35
463.201	4271.47
463.574	4348.08
463.947	4447.06
464.32	4515.31
464.692	4516.21
465.065	4590.33
465.438	4635.08
465.81	4667.17
466.183	4718.69
466.555	4831.23
466.928	4797.11
467.3	4899.7
467.672	4975.18
468.045	5068.28
468.417	5073.26
468.789	5141.28
469.161	5206.36
469.534	5314.83
469.906	5430.99
470.278	5463.3
470.65	5555.73
471.022	5574.71
471.394	5703.97
471.766	5794.37
472.138	5811.99
472.51	5897.19
472.882	6012.67
473.253	6121.14
473.625	6207.01
473.997	6389.61
474.369	6357.52
474.74	6491.75
475.112	6552.99
475.484	6656.04
475.855	6818.75
476.227	6882.7
476.598	6991.62
476.97	7075.01
477.341	7296.47
477.713	7385.06
478.084	7408.34
478.455	7618.27
478.827	7664.6
479.198	7943.01
479.569	7944.14
479.94	8116.11
480.311	8215.09
480.682	8436.33
481.053	8626.38
481.424	8726.72
481.795	8836.32
482.166	8996.54
482.537	9107.27
482.908	9261.85
483.279	9419.81
483.65	9540.48
484.021	9733.02
484.391	9883.07
484.762	10014.6
485.133	10062.73
485.503	10208.04
485.874	10510.85
486.244	10533.45
486.615	10772.32
486.985	10858.87
487.356	11099.54
487.726	11137.5
488.097	11406.42
488.467	11438.96
488.837	11694.78
489.207	11898.61
489.578	11995.79
489.948	12212.28
490.318	12283.69
490.688	12349.22
491.058	12513.06
491.428	12667.63
491.798	12973.61
492.168	13110.11
492.538	13191.69
492.908	13371.57
493.278	13444.11
493.648	13550.1
494.017	13681.62
494.387	13794.84
494.757	13996.86
495.126	14103.75
495.496	14149.63
495.866	14286.8
496.235	14461.94
496.605	14602.72
496.974	14732.44
497.344	14870.74
497.713	14909.16
498.082	15085.87
498.452	15180.34
498.821	15199.77
499.19	15421.46
499.559	15568.35
499.928	15583.26
500.298	15748.46
500.667	15874.78
501.036	15942.58
501.405	16038.17
501.774	16054.89
502.143	16241.55
502.512	16364.94
502.88	16610.58
503.249	16583.24
503.618	16780.29
503.987	16847.41
504.356	16963.57
504.724	17050.79
505.093	17150
505.462	17342.31
505.83	17484.91
506.199	17603.77
506.567	17808.06
506.936	17768.29
507.304	18106.13
507.672	17999.02
508.041	18214.61
508.409	18346.13
508.777	18643.3
509.145	18734.14
509.514	18753.12
509.882	18844.65
510.25	18926.45
510.618	19094.81
510.986	19142.04
511.354	19431.52
511.722	19577.06
512.09	19779.54
512.458	19672.65
512.826	20035.12
513.193	20031.96
513.561	20215.23
513.929	20237.6
514.297	20489.12
514.664	20634.88
515.032	20764.82
515.4	20975.66
515.767	21116.22
516.135	21220.18
516.502	21168.43
516.869	21587.62
517.237	21782.42
517.604	21695.64
517.972	22001.17
518.339	22126.82
518.706	22204.33
519.073	22359.36
519.44	22565.68
519.808	22833.92
520.175	22854.48
520.542	23136.06
520.909	23314.13
521.276	23417.18
521.643	23561.36
522.009	23828.7
522.376	24026.88
522.743	24105.52
523.11	24416.02
523.477	24701.67
523.843	24638.62
524.21	24990.02
524.577	25178.94
524.943	25403.34
525.31	25576.9
525.676	25802.2
526.043	25930.79
526.409	26192.48
526.776	26474.73
527.142	26526.7
527.508	26708.17
527.874	26912.91
528.241	27023.87
528.607	27042.17
528.973	27371.88
529.339	27390.64
529.705	27790.63
530.071	27976.61
530.437	28125.08
530.803	28231.29
531.169	28387.9
531.535	28396.71
531.901	28577.27
532.267	28840.54
532.632	28934.55
532.998	28999.18
533.364	29315.78
533.73	29305.61
534.095	29651.82
534.461	29752.16
534.826	29966.39
535.192	30048.87
535.557	30350.11
535.923	30246.38
536.288	30395.75
536.653	30511.46
537.019	30571.8
537.384	30714.16
537.749	30870.77
538.114	31022.18
538.479	30998.68
538.845	31200.25
539.21	31217.43
539.575	31428.5
539.94	31439.12
540.305	31778.99
540.67	31647.25
541.034	31842.27
541.399	31999.55
541.764	32134.92
542.129	32214.46
542.494	32378.3
542.858	32475.7
543.223	32403.61
543.587	32687.67
543.952	32842.02
544.316	32922.47
544.681	32984.61
545.045	33029.36
545.41	33322.46
545.774	33410.82
546.138	33324.27
546.503	33678.61
546.867	33634.99
547.231	33869.56
547.595	33954.98
547.959	34060.06
548.324	33987.75
548.688	34224.81
549.052	34269.1
549.416	34540.73
549.779	34502.77
550.143	34688.75
550.507	34877.9
550.871	34911.34
551.235	34993.37
551.599	35301.61
551.962	35340.03
552.326	35497.09
552.689	35688.27
553.053	35413.7
553.417	35709.97
553.78	36077.41
554.143	35995.83
554.507	36272.21
554.87	36316.05
555.234	36731.18
555.597	36517.4
555.96	36737.51
556.323	36935.02
556.686	37025.64
557.05	37322.8
557.413	37432.18
557.776	37683.25
558.139	37889.57
558.502	37953.07
558.865	38083.24
559.228	38414.53
559.59	38345.6
559.953	38531.36
560.316	39012.7
560.679	38818.36
561.041	39146.71
561.404	39285.01
561.767	39542.63
562.129	39425.12
562.492	40019
562.854	39992.79
563.217	39951.21
563.579	40180.58
563.941	40402.05
564.304	40667.12
564.666	40828.25
565.028	41006.1
565.39	41087.9
565.753	41441.34
566.115	41563.37
566.477	41729.02
566.839	41697.6
567.201	42122.23
567.563	42201.32
567.925	42442.22
568.287	42623.46
568.648	42740.29
569.01	43164.01
569.372	43256.21
569.734	43187.06
570.095	43616.65
570.457	43737.32
570.819	43939.35
571.18	44064.55
571.542	44232
571.903	44347.25
572.265	44602.39
572.626	44831.99
572.987	44855.71
573.349	44975.71
573.71	45226.78
574.071	45331.86
574.432	45427
574.794	45817.27
575.155	45731.17
575.516	45690.72
575.877	45868.12
576.238	46009.81
576.599	46070.14
576.96	46102.91
577.32	46136.36
577.681	46290.7
578.042	46431.72
578.403	46448.89
578.763	46518.49
579.124	46633.52
579.485	46927.07
579.845	46967.75
580.206	46965.26
580.566	46998.48
580.927	46974.75
581.287	47183.56
581.648	46939.27
582.008	47254.75
582.368	47177.46
582.728	47388.08
583.089	47417
583.449	47298.13
583.809	47450
584.169	47552.59
584.529	47420.62
584.889	47830.1
585.249	47489.54
585.609	47503.55
585.969	47716.65
586.329	47558.02
586.688	47566.38
587.048	47557.11
587.408	47548.75
587.768	47636.43
588.127	47628.75
588.487	47720.95
588.846	47911.45
589.206	47589.88
589.565	47665.36
589.925	47722.08
590.284	47771.79
590.643	47692.93
591.003	47768.86
591.362	47790.55
591.721	47835.3
592.08	47786.94
592.44	47941.06
592.799	47903.54
593.158	47924.56
593.517	47968.4
593.876	47996.2
594.235	47806.6
594.593	47922.07
594.952	48047.27
595.311	47958
595.67	47986.25
596.029	48254.04
596.387	48197.77
596.746	48155.06
597.104	48056.31
597.463	48076.19
597.822	48156.64
598.18	48015.4
598.538	47955.97
598.897	48323.64
599.255	48108.96
599.613	48522.28
599.972	48286.36
600.33	48498.78
600.688	48221.73
601.046	48345.34
601.404	48429.4
601.762	48476.18
602.12	48700.81
602.478	48632.34
602.836	48755.5
603.194	48469.86
603.552	48553.02
603.91	48486.35
604.268	48732.67
604.625	48522.51
604.983	48601.15
605.341	48583.3
605.698	48860.13
606.056	48944.19
606.413	48786.23
606.771	48988.94
607.128	48993.68
607.485	48807.47
607.843	48826.68
608.2	49106.9
608.557	49137.86
608.914	49033.23
609.272	49199.55
609.629	49219.21
609.986	49327.91
610.343	49017.64
610.7	49278.87
611.057	49192.55
611.414	49285.88
611.771	49276.39
612.127	49439.55
612.484	49301.7
612.841	49538.75
613.198	49423.28
613.554	49572.65
613.911	49727.68
614.267	49761.12
614.624	49622.37
614.98	49787.11
615.337	49966.31
615.693	49928.8
616.05	49964.28
616.406	50169.25
616.762	49962.25
617.118	50013.77
617.475	49953.66
617.831	50132.18
618.187	50186.19
618.543	50035.01
618.899	50346.19
619.255	50334.44
619.611	50183.93
619.967	50349.81
620.323	50413.31
620.678	50261.67
621.034	50166.08
621.39	50188
621.746	50196.36
622.101	50545.51
622.457	50236.59
622.812	50228.23
623.168	50419.18
623.523	50217.15
623.879	50394.78
624.234	50144.84
624.589	50352.74
624.945	50279.75
625.3	50413.76
625.655	50284.5
626.01	50448.33
626.365	50307.1
626.72	50323.14
627.075	50213.99
627.43	50289.24
627.785	50322.46
628.14	50339.86
628.495	50239.3
628.85	50307.77
629.205	50172.18
629.559	50398.17
629.914	50156.82
630.269	50305.97
630.623	50220.09
630.978	50106.2
631.332	50357.72
631.687	50299.64
632.041	50083.82
632.396	50023.26
632.75	49966.54
633.104	50054.9
633.459	49857.84
633.813	49701.01
634.167	49760.67
634.521	49814.23
634.875	49802.02
635.229	49782.59
635.583	49482.48
635.937	49560.67
636.291	49548.47
636.645	49606.77
636.999	49493.11
637.352	49592.31
637.706	49295.6
638.06	49462.37
638.413	49300.12
638.767	49265.31
639.121	49330.62
639.474	48975.6
639.828	48994.81
640.181	48968.37
640.534	48973.8
640.888	48982.38
641.241	48657.87
641.594	48624.65
641.947	48846.79
642.301	48680.7
642.654	48692.9
643.007	48724.54
643.36	48588.27
643.713	48478.89
644.066	48590.08
644.419	48274.61
644.771	48036.65
645.124	47628.3
645.477	47619.93
645.83	47348.08
646.182	47180.17
646.535	46988.31
646.888	47183.79
647.24	46907.86
647.593	47140.4
647.945	46934.3
648.298	46743.8
648.65	46762.1
649.002	46730.24
649.355	46901.76
649.707	46663.8
650.059	46943.79
650.411	47275.31
650.763	47281.86
651.115	47689.09
651.467	47506.49
651.819	47450
652.171	47405.02
652.523	47275.54
652.875	47322.77
653.227	47166.61
653.578	47368.19
653.93	47232.6
654.282	46990.35
654.633	46892.27
654.985	47084.81
655.337	47108.76
655.688	47001.42
656.039	47161.42
656.391	46893.4
656.742	47006.17
657.094	46879.61
657.445	46982.21
657.796	46889.56
658.147	46754.87
658.498	46696.12
658.849	46801.65
659.2	46772.05
659.551	46598.27
659.902	46818.6
660.253	46663.8
660.604	46700.64
660.955	46457.03
661.306	46614.09
661.656	46641.88
662.007	46596.01
662.358	46463.58
662.708	46494.31
663.059	46470.36
663.409	46274.88
663.76	46576.8
664.11	46481.89
664.461	46564.14
664.811	46442.56
665.161	46516.69
665.511	46280.53
665.862	46375.9
666.212	46544.03
666.562	46537.93
666.912	46365.5
667.262	46291.61
667.612	46363.02
667.962	46412.73
668.312	46212.06
668.662	46357.82
669.011	46219.52
669.361	46255.68
669.711	46250.93
670.06	46038.73
670.41	46040.77
670.76	46030.6
671.109	46097.26
671.459	46102.69
671.808	45848.68
672.157	46008.45
672.507	45775.24
672.856	45810.49
673.205	45908.79
673.554	45965.29
673.904	45766.42
674.253	46109.92
674.602	45861.56
674.951	45327.11
675.3	45146.1
675.649	45648.01
675.998	45594.9
676.346	45702.7
676.695	45737.5
677.044	45367.34
677.393	45564.4
677.741	45551.51
678.09	45391.74
678.438	45330.73
678.787	45389.94
679.135	45326.89
679.484	45159.89
679.832	45235.82
680.181	44988.59
680.529	45208.7
680.877	45028.36
681.225	44956.05
681.573	45147.23
681.922	44773.68
682.27	44648.26
682.618	44968.48
682.966	44565.1
683.314	44758.09
683.661	44501.37
684.009	44323.75
684.357	44226.35
684.705	44082.4
685.053	44210.53
685.4	44065.68
685.748	43965.12
686.095	43883.76
686.443	43709.98
686.79	43556.76
687.138	43748.17
687.485	43637.89
687.832	43436.54
688.18	43505.47
688.527	43252.37
688.874	43225.7
689.221	43136.66
689.568	43122.88
689.915	43041.3
690.262	42979.15
690.609	42873.84
690.956	42820.29
691.303	42670.01
691.65	42613.29
691.997	42570.58
692.344	42370.13
692.69	42268.21
693.037	42323.35
693.383	41913.42
693.73	42191.15
694.077	41814.66
694.423	41879.07
694.769	41800.65
695.116	41788.22
695.462	41679.07
695.808	41646.98
696.155	41459.42
696.501	41199.31
696.847	41145.75
697.193	40855.82
697.539	41006.55
697.885	40661.02
698.231	40649.04
698.577	40571.31
698.923	40480.01
699.269	40281.82
699.614	40140.81
699.96	39933.36
700.306	40159.34
700.651	39924.09
700.997	39752.12
701.342	39811.78
701.688	39699.69
702.033	39441.39
702.379	39211.79
702.724	39208.86
703.069	39178.12
703.415	38847.96
703.76	38950.78
704.105	38907.4
704.45	38714.63
704.795	38463.56
705.14	38384.92
705.485	38348.77
705.83	38208.66
706.175	38222.89
706.52	38073.07
706.865	38120.52
707.209	37850.7
707.554	37796.46
707.899	37797.14
708.243	37636.02
708.588	37581.1
708.932	37381.79
709.277	37435.34
709.621	37512.18
709.966	37209.81
710.31	37287.78
710.654	37024.51
710.998	36979.54
711.342	37221.79
711.687	36955.13
712.031	36803.27
712.375	36703.84
712.719	36626.55
713.063	36584.74
713.407	36587.23
713.75	36424.3
714.094	36502.26
714.438	36283.96
714.782	36260.68
715.125	36081.48
715.469	36156.28
715.812	35985.66
716.156	35666.35
716.499	35805.78
716.843	35844.65
717.186	35541.16
717.53	35796.97
717.873	35785.22
718.216	35583.41
718.559	35349.52
718.902	35182.52
719.246	35119.47
719.589	35147.27
719.932	35032.47
720.275	34853.49
720.617	34982.53
720.96	34755.87
721.303	34888.97
721.646	34976.65
721.989	34592.25
722.331	34766.71
722.674	34632.48
723.016	34690.56
723.359	34439.26
723.701	34388.19
724.044	34203.34
724.386	34024.59
724.729	34152.94
725.071	34146.39
725.413	34076.79
725.755	33963.34
726.097	33805.83
726.439	33583.24
726.782	33626.18
727.124	33797.92
727.465	33568.55
727.807	33573.75
728.149	33529.46
728.491	33343.93
728.833	33436.8
729.175	33272.97
729.516	33234.55
729.858	33101.45
730.199	33133.54
730.541	33100.54
730.882	32969.02
731.224	33020.09
731.565	32938.96
731.906	32746.65
732.248	32971.28
732.589	32636.6
732.93	32533.33
733.271	32607
733.612	32624.17
733.953	32641.57
734.294	32519.09
734.635	32418.98
734.976	32447
735.317	32250.62
735.658	32135.37
735.999	32063.06
736.339	32161.58
736.68	32255.82
737.021	32063.06
737.361	31896.28
737.702	32014.92
738.042	31743.29
738.383	31880.46
738.723	31828.49
739.063	31672.33
739.404	31748.49
739.744	31597.98
740.084	31586.23
740.424	31509.4
740.764	31397.76
741.104	31473.01
741.444	31325.67
741.784	31228.95
742.124	31308.27
742.464	31161.16
742.804	31203.87
743.143	31066.25
743.483	31205
743.823	30981.05
744.162	30843.88
744.502	30898.34
744.841	30772.24
745.181	30910.09
745.52	30896.31
745.86	30765.46
746.199	30654.05
746.538	30616.77
746.877	30714.84
747.216	30601.4
747.556	30533.38
747.895	30528.18
748.234	30269.66
748.573	30275.31
748.911	30227.85
749.25	30256.32
749.589	29977.91
749.928	30004.8
750.267	30081.41
750.605	29963.9
750.944	29899.95
751.283	29734.08
751.621	29618.37
751.96	29494.76
752.298	29582.22
752.636	29552.61
752.975	29323.47
753.313	29267.2
753.651	29436.91
753.989	29228.55
