Data from aluminium_surface_pro_back_FLMS001491_00070.txt Node
Date: Wed Feb 08 15:34:24 GMT 2017
User: dcchb
Spectrometer: FLMS00149
Trigger mode: 0
Integration Time (sec): 2.000000E-2
Scans to average: 10
Electric dark correction enabled: true
Nonlinearity correction enabled: false
Boxcar width: 0
XAxis mode: Wavelengths
Number of Pixels in Spectrum: 2048
>>>>>Begin Spectral Data<<<<<
341.393	1.86
341.776	1.86
342.16	1.86
342.543	-56.21
342.927	-67.29
343.31	-69.55
343.693	-69.32
344.077	-57.12
344.46	-67.96
344.843	-55.31
345.226	-46.27
345.61	-25.93
345.993	-20.73
346.376	-0.17
346.759	19.49
347.142	16.33
347.525	40.73
347.908	52.48
348.291	82.77
348.674	83.67
349.057	116.89
349.44	112.82
349.823	146.04
350.206	160.96
350.588	212.71
350.971	242.54
351.354	242.99
351.737	292.03
352.119	295.64
352.502	274.17
352.884	301.74
353.267	300.16
353.65	325.92
354.032	315.98
354.414	323.89
354.797	342.65
355.179	352.36
355.562	345.81
355.944	344.68
356.326	367.05
356.709	367.96
357.091	361.18
357.473	377.67
357.855	367.73
358.238	360.72
358.62	387.62
359.002	365.24
359.384	402.08
359.766	398.46
360.148	379.48
360.53	397.56
360.912	365.24
361.294	393.04
361.676	387.84
362.057	360.5
362.439	379.03
362.821	378.58
363.203	372.48
363.584	383.1
363.966	372.7
364.348	378.13
364.729	364.57
365.111	365.24
365.493	351.46
365.874	376.32
366.256	364.11
366.637	368.41
367.019	374.28
367.4	374.51
367.781	384
368.163	355.3
368.544	382.65
368.925	386.94
369.306	399.37
369.688	375.64
370.069	382.65
370.45	390.33
370.831	391.91
371.212	377.67
371.593	392.14
371.974	404.57
372.355	393.72
372.736	388.52
373.117	397.79
373.498	387.62
373.879	397.33
374.26	374.28
374.641	370.89
375.021	386.71
375.402	404.79
375.783	427.16
376.163	437.33
376.544	442.53
376.925	420.84
377.305	412.48
377.686	418.35
378.066	428.75
378.447	416.99
378.827	410.89
379.208	442.08
379.588	410.44
379.968	437.11
380.349	455.64
380.729	436.43
381.109	443.43
381.489	470.1
381.87	470.78
382.25	472.13
382.63	466.94
383.01	475.52
383.39	470.78
383.77	480.72
384.15	452.25
384.53	502.64
384.91	479.37
385.29	493.6
385.67	480.04
386.049	518.23
386.429	516.43
386.809	520.72
387.189	503.77
387.568	493.38
387.948	516.88
388.328	525.69
388.707	534.28
389.087	544
389.466	530.21
389.846	569.53
390.225	567.27
390.605	572.92
390.984	573.15
391.363	589.65
391.743	600.72
392.122	589.19
392.501	596.88
392.881	597.33
393.26	612.02
393.639	630.77
394.018	623.77
394.397	626.48
394.776	624.9
395.155	650.43
395.534	661.73
395.913	659.47
396.292	644.33
396.671	679.59
397.05	671.9
397.429	676.65
397.808	663.54
398.186	670.77
398.565	723.43
398.944	708.51
399.323	711.45
399.701	737.44
400.08	735.18
400.458	759.58
400.837	764.33
401.215	728.85
401.594	745.57
401.972	778.79
402.351	783.54
402.729	784.67
403.107	800.49
403.486	793.26
403.864	814.95
404.242	817.89
404.62	830.54
404.999	853.14
405.377	873.93
405.755	845.46
406.133	865.34
406.511	890.2
406.889	876.19
407.267	916.87
407.645	935.17
408.023	956.87
408.401	956.42
408.779	994.61
409.156	963.42
409.534	983.99
409.912	1017.88
410.29	1026.02
410.667	1043.19
411.045	1028.96
411.422	1046.81
411.8	1063.76
412.178	1102.85
412.555	1094.49
412.933	1092.23
413.31	1145.56
413.687	1139.91
414.065	1172.91
414.442	1166.58
414.819	1184.21
415.197	1188.27
415.574	1214.04
415.951	1230.98
416.328	1221.04
416.705	1268.5
417.082	1287.93
417.46	1247.71
417.837	1302.17
418.214	1301.49
418.591	1310.98
418.967	1299.46
419.344	1318.21
419.721	1336.52
420.098	1344.43
420.475	1357.53
420.852	1372
421.228	1412.9
421.605	1418.55
421.982	1442.05
422.358	1458.78
422.735	1462.84
423.111	1456.29
423.488	1477.53
423.864	1488.83
424.241	1514.37
424.617	1532.9
424.994	1565.89
425.37	1575.61
425.746	1604.99
426.123	1609.28
426.499	1631.65
426.875	1662.84
427.251	1697.64
427.627	1710.75
428.003	1703.29
428.379	1728.6
428.756	1751.87
429.132	1757.07
429.507	1826.22
429.883	1850.4
430.259	1874.81
430.635	1843.4
431.011	1910.97
431.387	1933.34
431.763	1968.14
432.138	1962.72
432.514	2002.49
432.89	2025.54
433.265	2053.11
433.641	2073.45
434.016	2085.65
434.392	2160.45
434.767	2169.49
435.143	2179.43
435.518	2193.22
435.894	2263.95
436.269	2241.13
436.644	2309.37
437.02	2315.93
437.395	2334.91
437.77	2351.63
438.145	2396.83
438.52	2416.04
438.895	2436.15
439.271	2458.75
439.646	2514.11
440.021	2527.45
440.395	2534.91
440.77	2552.76
441.145	2583.94
441.52	2619.2
441.895	2636.37
442.27	2625.07
442.645	2638.41
443.019	2695.8
443.394	2696.26
443.769	2714.79
444.143	2743.94
444.518	2790.72
444.892	2753.43
445.267	2817.16
445.641	2847.67
446.016	2829.59
446.39	2848.34
446.764	2886.08
447.139	2885.4
447.513	2957.27
447.887	2957.27
448.262	2958.17
448.636	2993.65
449.01	3005.4
449.384	3049.02
449.758	3057.38
450.132	3118.62
450.506	3113.65
450.88	3112.52
451.254	3146.87
451.628	3221.44
452.002	3283.13
452.376	3289.24
452.75	3281.33
453.123	3334.88
453.497	3431.83
453.871	3452.17
454.244	3487.65
454.618	3499.17
454.992	3548.44
455.365	3571.71
455.739	3659.62
456.112	3663.91
456.486	3708.43
456.859	3763.35
457.232	3840.18
457.606	3827.75
457.979	3884.25
458.352	3979.84
458.725	4018.93
459.099	4058.25
459.472	4094.64
459.845	4146.16
460.218	4233.39
460.591	4230.91
460.964	4232.94
461.337	4365.82
461.71	4421.41
462.083	4432.93
462.456	4503.89
462.829	4544.57
463.201	4601.97
463.574	4650.78
463.947	4700.95
464.32	4870.66
464.692	4825.92
465.065	4867.95
465.438	4931.9
465.81	5010.09
466.183	5051
466.555	5228.85
466.928	5205.8
467.3	5222.07
467.672	5306.58
468.045	5453.25
468.417	5477.65
468.789	5497.09
469.161	5607.59
469.534	5663.64
469.906	5779.11
470.278	5853.24
470.65	5897.08
471.022	5971.2
471.394	6139.1
471.766	6168.48
472.138	6293.68
472.51	6407.35
472.882	6532.09
473.253	6590.84
473.625	6664.06
473.997	6805.98
474.369	6873.55
474.74	6992.42
475.112	7082.81
475.484	7164.39
475.855	7288.9
476.227	7373.65
476.598	7544.04
476.97	7590.14
477.341	7860.41
477.713	7943.58
478.084	8045.95
478.455	8287.07
478.827	8330.91
479.198	8501.53
479.569	8538.82
479.94	8828.07
480.311	8965.92
480.682	9104.22
481.053	9296.31
481.424	9484.33
481.795	9521.61
482.166	9687.49
482.537	9862.17
482.908	10061.94
483.279	10100.36
483.65	10361.59
484.021	10609.95
484.391	10629.61
484.762	10733.79
485.133	10854.69
485.503	11040.67
485.874	11269.82
486.244	11373.54
486.615	11601.56
486.985	11702.35
487.356	12026.41
487.726	12122.68
488.097	12390.24
488.467	12410.8
488.837	12603.11
489.207	12774.41
489.578	13131.01
489.948	13107.28
490.318	13302.08
490.688	13496.2
491.058	13569.19
491.428	13765.8
491.798	13878.11
492.168	14264.77
492.538	14316.97
492.908	14505.66
493.278	14724.42
493.648	14728.48
494.017	14954.24
494.387	15026.1
494.757	15223.61
495.126	15339.31
495.496	15328.24
495.866	15512.42
496.235	15773.65
496.605	15839.87
496.974	15923.25
497.344	16098.62
497.713	16217.71
498.082	16391.26
498.452	16492.96
498.821	16646.85
499.19	16666.28
499.559	16807.75
499.928	16993.51
500.298	17071.7
500.667	17254.52
501.036	17218.81
501.405	17469.43
501.774	17473.27
502.143	17726.37
502.512	17863.32
502.88	17990.77
503.249	17983.31
503.618	18203.65
503.987	18283.87
504.356	18263.98
504.724	18428.05
505.093	18477.76
505.462	18727.7
505.83	18789.17
506.199	18983.74
506.567	19324.52
506.936	19315.03
507.304	19536.49
507.672	19520.67
508.041	19790.27
508.409	19843.15
508.777	20011.96
509.145	20249.69
509.514	20300.09
509.882	20475.9
510.25	20551.38
510.618	20726.07
510.986	20836.12
511.354	20965.61
511.722	21159.27
512.09	21463.22
512.458	21439.49
512.826	21658.92
513.193	21801.52
513.561	21950.21
513.929	22152.24
514.297	22378.9
514.664	22383.42
515.032	22578.22
515.4	22868.16
515.767	22908.83
516.135	23084.42
516.502	22896.4
516.869	23448.93
517.237	23600.57
517.604	23509.04
517.972	23883.5
518.339	23983.38
518.706	24096.37
519.073	24260.21
519.44	24454.33
519.808	24598.96
520.175	24669.46
520.542	25115.1
520.909	25326.62
521.276	25250.69
521.643	25620.63
522.009	25774.07
522.376	25972.93
522.743	26102.2
523.11	26311.91
523.477	26696.53
523.843	26866.92
524.21	27094.49
524.577	27301.71
524.943	27397.3
525.31	27510.29
525.676	27871.19
526.043	28096.27
526.409	28214.91
526.776	28587.1
527.142	28688.79
527.508	28753.2
527.874	29099.86
528.241	29144.83
528.607	29376.91
528.973	29578.49
529.339	29658.49
529.705	29866.16
530.071	30269.09
530.437	30442.65
530.803	30622.75
531.169	30715.18
531.535	30835.4
531.901	30975.97
532.267	31077.88
532.632	31286.47
532.998	31485.1
533.364	31670.18
533.73	31715.38
534.095	32055.48
534.461	32047.12
534.826	32358.53
535.192	32360.79
535.557	32535.25
535.923	32643.49
536.288	32785.64
536.653	33025.63
537.019	32964.16
537.384	33125.74
537.749	33359.86
538.114	33398.95
538.479	33535.9
538.845	33815.21
539.21	33700.87
539.575	33915.55
539.94	34114.19
540.305	34245.26
540.67	34260.4
541.034	34394.41
541.399	34540.39
541.764	34748.97
542.129	34787.39
542.494	34828.07
542.858	34922.08
543.223	35072.81
543.587	35230.32
543.952	35210.66
544.316	35366.81
544.681	35418.79
545.045	35640.02
545.41	35776.52
545.774	35922.05
546.138	35957.08
546.503	36143.06
546.867	36115.04
547.231	36451.98
547.595	36572.2
547.959	36672.31
548.324	36656.04
548.688	36851.97
549.052	36790.95
549.416	36991.17
549.779	37124.96
550.143	37276.59
550.507	37427.09
550.871	37569.69
551.235	37675.68
551.599	38027.08
551.962	37962.67
552.326	38065.72
552.689	38291.93
553.053	38270.24
553.417	38419.61
553.78	38914.97
554.143	38638.81
554.507	39021.86
554.87	39114.96
555.234	39416.42
555.597	39333.49
555.96	39549.3
556.323	39736.64
556.686	39907.71
557.05	40063.41
557.413	40144.31
557.776	40444.19
558.139	40632.89
558.502	40711.53
558.865	40878.53
559.228	41246.88
559.59	41295.92
559.953	41337.5
560.316	41885.96
560.679	41923.93
561.041	42200.3
561.404	42433.74
561.767	42679.84
562.129	42457.47
562.492	42913.96
562.854	43073.5
563.217	43103.33
563.579	43218.58
563.941	43476.43
564.304	43768.62
564.666	43995.51
565.028	43979.24
565.39	44307.14
565.753	44547.13
566.115	44696.28
566.477	44860.35
566.839	44979.21
567.201	45320.67
567.563	45346.66
567.925	45632.98
568.287	45655.35
568.648	45906.87
569.01	45971.28
569.372	46415.11
569.734	46352.51
570.095	46670.92
570.457	46865.94
570.819	47024.36
571.18	47040.63
571.542	47366.04
571.903	47367.17
572.265	47506.15
572.626	47563.55
572.987	47776.2
573.349	47862.98
573.71	48070.43
574.071	48272.91
574.432	48268.62
574.794	48616.63
575.155	48593.36
575.516	48428.61
575.877	48766.91
576.238	48830.64
576.599	49009.16
576.96	48991.99
577.32	48997.64
577.681	49234.92
578.042	49358.76
578.403	49402.83
578.763	49569.6
579.124	49613.22
579.485	49645.98
579.845	49781.12
580.206	49773.66
580.566	49752.87
580.927	49749.71
581.287	49983.6
581.648	49862.93
582.008	50012.75
582.368	49942.92
582.728	50088.91
583.089	50062.92
583.449	50062.47
583.809	50158.96
584.169	50208.45
584.529	50102.47
584.889	50455.68
585.249	50274.21
585.609	50106.08
585.969	50326.64
586.329	50262.46
586.688	50285.06
587.048	50192.64
587.408	50148.34
587.768	50229.7
588.127	50272.63
588.487	50065.41
588.846	50461.33
589.206	50226.31
589.565	50323.48
589.925	50502.23
590.284	50559.18
590.643	50552.4
591.003	50533.42
591.362	50653.41
591.721	50581.33
592.08	50579.52
592.44	50650.7
592.799	50690.48
593.158	50623.13
593.517	50714.2
593.876	50694.54
594.235	50708.33
594.593	50768.44
594.952	50832.39
595.311	50657.03
595.67	50924.14
596.029	50959.62
596.387	50957.59
596.746	51089.56
597.104	50951.26
597.463	50843.92
597.822	50991.94
598.18	50930.92
598.538	50990.58
598.897	51062.67
599.255	50873.07
599.613	51364.58
599.972	51072.61
600.33	51273.28
600.688	51124.36
601.046	51233.74
601.404	51378.37
601.762	51254.75
602.12	51466.05
602.478	51468.08
602.836	51506.5
603.194	51325.03
603.552	51408.2
603.91	51353.96
604.268	51400.29
604.625	51429.21
604.983	51560.06
605.341	51455.65
605.698	51642.99
606.056	51654.29
606.413	51661.3
606.771	51731.35
607.128	51808.41
607.485	51691.13
607.843	51765.48
608.2	51938.35
608.557	51897.22
608.914	51843.89
609.272	51947.84
609.629	51968.63
609.986	52155.97
610.343	51836.66
610.7	52212.02
611.057	52072.36
611.414	52115.97
611.771	52159.36
612.127	52268.29
612.484	52211.34
612.841	52420.83
613.198	52251.11
613.554	52253.15
613.911	52582.4
614.267	52498.56
614.624	52454.5
614.98	52566.81
615.337	52593.48
615.693	52600.03
616.05	52543.53
616.406	52787.37
616.762	52605.45
617.118	52559.13
617.475	52584.44
617.831	52618.56
618.187	52775.62
618.543	52784.43
618.899	52913.02
619.255	52781.49
619.611	52751.44
619.967	52849.06
620.323	52892.68
620.678	52755.05
621.034	52771.1
621.39	52833.24
621.746	52754.6
622.101	53040.24
622.457	52757.77
622.812	52927.25
623.168	52842.96
623.523	52922.05
623.879	53020.36
624.234	52763.41
624.589	52853.36
624.945	52856.75
625.3	52943.3
625.655	52897.65
626.01	52891.77
626.365	52913.24
626.72	52912.79
627.075	52754.83
627.43	52758.9
627.785	52713.92
628.14	52851.55
628.495	52888.16
628.85	52757.77
629.205	52645.68
629.559	52852.9
629.914	52767.26
630.269	52870.53
630.623	52721.83
630.978	52742.4
631.332	52771.78
631.687	52889.51
632.041	52767.48
632.396	52768.84
632.75	52687.48
633.104	52668.5
633.459	52595.74
633.813	52612.23
634.167	52580.14
634.521	52485.23
634.875	52598.45
635.229	52579.24
635.583	52239.59
635.937	52314.16
636.291	52318.68
636.645	52317.78
636.999	52181.96
637.352	52268.51
637.706	52017.67
638.06	52273.71
638.413	52100.83
638.767	52033.04
639.121	52143.54
639.474	51883.89
639.828	51959.14
640.181	51846.15
640.534	51901.97
640.888	51854.96
641.241	51651.13
641.594	51644.57
641.947	51664.91
642.301	51650
642.654	51707.4
643.007	51702.2
643.36	51610.22
643.713	51472.15
644.066	51619.26
644.419	51438.7
644.771	51122.1
645.124	50932.5
645.477	50892.28
645.83	50673.07
646.182	50579.52
646.535	50438.05
646.888	50514.89
647.24	50249.13
647.593	50586.07
647.945	50414.55
648.298	50196.7
648.65	50094.33
649.002	50150.83
649.355	50194.67
649.707	50169.81
650.059	50302.69
650.411	50635.11
650.763	50633.53
651.115	50992.61
651.467	50807.99
651.819	50800.75
652.171	50663.36
652.523	50614.54
652.875	50746.07
653.227	50532.06
653.578	50646.18
653.93	50620.65
654.282	50451.61
654.633	50248.68
654.985	50384.72
655.337	50450.03
655.688	50370.71
656.039	50496.36
656.391	50124.84
656.742	50270.6
657.094	50361.44
657.445	50385.17
657.796	50297.49
658.147	50128.23
658.498	50180.88
658.849	50324.38
659.2	50058.63
659.551	50018.18
659.902	50138.17
660.253	50149.25
660.604	50065.18
660.955	49899.54
661.306	50046.2
661.656	49940.66
662.007	49933.66
662.358	50008.46
662.708	49928.24
663.059	49919.87
663.409	49799.43
663.76	49993.32
664.11	49861.57
664.461	49887.78
664.811	49929.82
665.161	49926.88
665.511	49808.69
665.862	49766.43
666.212	49984.28
666.562	49875.58
666.912	49842.81
667.262	49862.25
667.612	49793.1
667.962	49788.35
668.312	49742.48
668.662	49817.96
669.011	49677.39
669.361	49565.08
669.711	49636.04
670.06	49564.18
670.41	49433.56
670.76	49434.01
671.109	49523.05
671.459	49526.89
671.808	49464.97
672.157	49476.5
672.507	49302.94
672.856	49284.86
673.205	49320.79
673.554	49456.16
673.904	49238.54
674.253	49280.57
674.602	49440.11
674.951	48619.34
675.3	48408.95
675.649	49024.53
675.998	49093.91
676.346	48994.47
676.695	49030.41
677.044	48615.5
677.393	48731.2
677.741	48862.27
678.09	48764.42
678.438	48733.69
678.787	48768.49
679.135	48709.06
679.484	48387.71
679.832	48598.55
680.181	48314.49
680.529	48472.68
680.877	48413.02
681.225	48413.25
681.573	48576.18
681.922	48156.08
682.27	48220.03
682.618	48114.5
682.966	48128.73
683.314	48184.33
683.661	47977.1
684.009	47815.97
684.357	47700.95
684.705	47699.37
685.053	47967.38
685.4	47751.12
685.748	47671.35
686.095	47571.91
686.443	47371.24
686.79	47323.33
687.138	47415.08
687.485	47467.28
687.832	47329.43
688.18	47335.76
688.527	47100.96
688.874	47046.73
689.221	46994.53
689.568	46759.73
689.915	46711.37
690.262	46661.65
690.609	46493.52
690.956	46493.3
691.303	46510.92
691.65	46254.66
691.997	46230.93
692.344	46010.82
692.69	45961.79
693.037	46021.9
693.383	45612.87
693.73	45699.65
694.077	45463.95
694.423	45512.98
694.769	45414.91
695.116	45341.01
695.462	45280.45
695.808	45096.95
696.155	45143.95
696.501	44776.96
696.847	44827.8
697.193	44595.95
697.539	44720.69
697.885	44344.43
698.231	44162.96
698.577	44252.23
698.923	44135.62
699.269	43835.51
699.614	43764.56
699.96	43770.43
700.306	43784.22
700.651	43609.53
700.997	43510.1
701.342	43486.37
701.688	43247.05
702.033	43210.67
702.379	43040.73
702.724	43026.27
703.069	42998.93
703.415	42625.15
703.76	42682.78
704.105	42512.39
704.45	42443.46
704.795	42206.18
705.14	42028.1
705.485	42108.1
705.83	41965.51
706.175	41939.07
706.52	41956.02
706.865	41682.8
707.209	41594.9
707.554	41430.38
707.899	41656.14
708.243	41362.13
708.588	41316.48
708.932	41112.2
709.277	41117.17
709.621	41136.38
709.966	40865.87
710.31	40837.17
710.654	40467.92
710.998	40730.51
711.342	40718.99
711.687	40509.05
712.031	40322.61
712.375	40274.48
712.719	40402.38
713.063	40478.09
713.407	40437.64
713.75	40100.25
714.094	40115.84
714.438	39912.45
714.782	40019.12
715.125	39739.12
715.469	39780.71
715.812	39551.56
716.156	39489.19
716.499	39364.67
716.843	39480.15
717.186	39125.58
717.53	39248.74
717.873	39156.32
718.216	39202.19
718.559	39107.95
718.902	38664.58
719.246	38737.57
719.589	38518.59
719.932	38416.9
720.275	38333.06
720.617	38293.29
720.96	38360.18
721.303	38378.03
721.646	38316.11
721.989	38022.11
722.331	38152.5
722.674	38002.9
723.016	37991.15
723.359	37829.8
723.701	37847.65
724.044	37446.08
724.386	37372.18
724.729	37546.41
725.071	37511.61
725.413	37417.15
725.755	37355.68
726.097	37336.7
726.439	37098.74
726.782	37059.87
727.124	37307.55
727.465	36897.62
727.807	37082.02
728.149	36976.94
728.491	36877.96
728.833	36801.57
729.175	36804.74
729.516	36701.92
729.858	36571.3
730.199	36628.7
730.541	36501.47
730.882	36427.57
731.224	36482.94
731.565	36229.16
731.906	36339.67
732.248	36226.22
732.589	35952.56
732.93	36000.69
733.271	35936.29
733.612	35909.17
733.953	35989.84
734.294	35748.95
734.635	35719.57
734.976	35830.98
735.317	35579.23
735.658	35355.29
735.999	35481.38
736.339	35482.29
736.68	35563.87
737.021	35305.12
737.361	35238.23
737.702	35259.47
738.042	35213.37
738.383	35058.12
738.723	35136.53
739.063	34992.81
739.404	35060.15
739.744	34885.92
740.084	34818.58
740.424	34773.38
740.764	34671.91
741.104	34852.02
741.444	34554.63
741.784	34407.51
742.124	34553.5
742.464	34400.28
742.804	34319.83
743.143	34175.88
743.483	34202.77
743.823	34105.6
744.162	34041.87
744.502	34167.29
744.841	33847.3
745.181	34125.49
745.52	33872.16
745.86	33875.1
746.199	33704.48
746.538	33759.17
746.877	33807.3
747.216	33819.51
747.556	33665.39
747.895	33579.06
748.234	33524.37
748.573	33322.57
748.911	33406.18
749.25	33370.93
749.589	33287.54
749.928	33273.53
750.267	33242.57
750.605	33110.37
750.944	33079.86
751.283	32804.62
751.621	32992.41
751.96	32730.72
752.298	32839.64
752.636	32763.94
