Data from aluminium_macbook_case_FLMS001491_095.txt Node
Date: Tue Feb 07 10:44:27 GMT 2017
User: dcchb
Spectrometer: FLMS00149
Trigger mode: 0
Integration Time (sec): 2.000000E-2
Scans to average: 10
Electric dark correction enabled: true
Nonlinearity correction enabled: false
Boxcar width: 0
XAxis mode: Wavelengths
Number of Pixels in Spectrum: 2048
>>>>>Begin Spectral Data<<<<<
341.393	-12.64
341.776	-12.64
342.16	-12.64
342.543	-53.77
342.927	-49.25
343.31	-71.85
343.693	-81.79
344.077	-46.54
344.46	-54.67
344.843	-22.36
345.226	-37.72
345.61	-46.76
345.993	-41.34
346.376	-9.93
346.759	2.73
347.142	25.1
347.525	56.51
347.908	52.67
348.291	71.88
348.674	78.43
349.057	125.66
349.44	123.85
349.823	106.9
350.206	175.38
350.588	236.39
350.971	250.85
351.354	282.72
351.737	288.82
352.119	291.53
352.502	323.62
352.884	319.1
353.267	344.64
353.65	333.34
354.032	327.92
354.414	369.72
354.797	346.9
355.179	372.66
355.562	386.9
355.944	386.9
356.326	386.67
356.709	381.25
357.091	407.46
357.473	405.2
357.855	417.18
358.238	400.91
358.62	402.72
359.002	401.81
359.384	388.93
359.766	413.34
360.148	404.52
360.53	412.66
360.912	403.39
361.294	404.52
361.676	389.38
362.057	416.5
362.439	410.17
362.821	402.49
363.203	401.36
363.584	397.74
363.966	409.95
364.348	410.62
364.729	419.44
365.111	430.51
365.493	428.25
365.874	430.29
366.256	416.05
366.637	419.66
367.019	435.48
367.4	427.57
367.781	412.43
368.163	425.09
368.544	427.12
368.925	425.09
369.306	437.97
369.688	439.32
370.069	449.04
370.45	425.31
370.831	451.3
371.212	451.08
371.593	458.53
371.974	451.75
372.355	468.02
372.736	467.12
373.117	458.76
373.498	484.75
373.879	478.19
374.26	442.94
374.641	443.84
375.021	465.54
375.402	459.44
375.783	483.84
376.163	518.87
376.544	511.64
376.925	479.55
377.305	505.31
377.686	511.41
378.066	512.99
378.447	514.8
378.827	522.49
379.208	534.46
379.588	509.61
379.968	529.49
380.349	536.95
380.729	529.04
381.109	524.75
381.489	562.94
381.87	557.74
382.25	590.96
382.63	552.32
383.01	565.2
383.39	592.09
383.77	602.71
384.15	586.89
384.53	606.1
384.91	610.85
385.29	616.27
385.67	634.57
386.049	638.42
386.429	630.96
386.809	649.04
387.189	674.12
387.568	649.26
387.948	647.91
388.328	679.54
388.707	697.17
389.087	687.45
389.466	718.87
389.846	695.82
390.225	708.92
390.605	715.25
390.984	740.11
391.363	728.36
391.743	743.27
392.122	774.01
392.501	781.91
392.881	800.45
393.26	808.58
393.639	790.5
394.018	786.43
394.397	795.93
394.776	811.97
395.155	835.7
395.534	846.55
395.913	840.44
396.292	849.03
396.671	847
397.05	878.18
397.429	881.12
397.808	900.78
398.186	924.28
398.565	919.54
398.944	938.75
399.323	925.64
399.701	913.44
400.08	907.11
400.458	942.81
400.837	982.81
401.215	972.87
401.594	987.78
401.972	1015.58
402.351	1039.99
402.729	1030.5
403.107	1053.32
403.486	1052.64
403.864	1052.19
404.242	1072.08
404.62	1094.9
404.999	1096.03
405.377	1110.72
405.755	1115.01
406.133	1143.94
406.511	1160.21
406.889	1166.54
407.267	1198.63
407.645	1204.05
408.023	1243.6
408.401	1240.21
408.779	1248.79
409.156	1293.31
409.534	1299.64
409.912	1330.37
410.29	1340.32
410.667	1368.79
411.045	1387.32
411.422	1405.85
411.8	1414.67
412.178	1467.09
412.555	1457.83
412.933	1469.13
413.31	1497.38
413.687	1543.7
414.065	1526.08
414.442	1529.01
414.819	1578.05
415.197	1558.39
415.574	1629.35
415.951	1642
416.328	1650.37
416.705	1669.57
417.082	1656.02
417.46	1710.25
417.837	1702.34
418.214	1745.73
418.591	1784.37
418.967	1773.98
419.344	1799.74
419.721	1834.99
420.098	1831.15
420.475	1867.31
420.852	1859.85
421.228	1923.81
421.605	1939.85
421.982	1936.69
422.358	1974.2
422.735	1983.69
423.111	1966.52
423.488	2035.89
423.864	2078.15
424.241	2048.1
424.617	2113.18
424.994	2136
425.37	2138.26
425.746	2181.43
426.123	2221.2
426.499	2198.15
426.875	2215.55
427.251	2286.28
427.627	2346.85
428.003	2349.78
428.379	2381.19
428.756	2461.19
429.132	2443.79
429.507	2519.72
429.883	2509.55
430.259	2548.65
430.635	2606.73
431.011	2634.52
431.387	2698.25
431.763	2711.13
432.138	2742.09
432.514	2786.61
432.89	2841.97
433.265	2887.17
433.641	2912.71
434.016	2926.94
434.392	3001.29
434.767	3064.11
435.143	3043.32
435.518	3078.35
435.894	3163.32
436.269	3136.2
436.644	3215.3
437.02	3266.37
437.395	3272.7
437.77	3342.98
438.145	3380.26
438.52	3409.19
438.895	3476.76
439.271	3466.36
439.646	3567.38
440.021	3572.35
440.395	3607.6
440.77	3587.04
441.145	3609.18
441.52	3688.5
441.895	3720.14
442.27	3733.25
442.645	3727.6
443.019	3816.41
443.394	3803.53
443.769	3903.41
444.143	3849.18
444.518	3915.17
444.892	3927.14
445.267	3969.18
445.641	4055.5
446.016	4034.48
446.39	4069.06
446.764	4135.95
447.139	4125.1
447.513	4176.85
447.887	4187.02
448.262	4208.04
448.636	4237.42
449.01	4315.61
449.384	4370.29
449.758	4430.18
450.132	4462.95
450.506	4476.51
450.88	4577.29
451.254	4509.27
451.628	4581.81
452.002	4669.72
452.376	4681.7
452.75	4775.93
453.123	4808.7
453.497	4914.91
453.871	4893.22
454.244	5010.28
454.618	5016.38
454.992	5101.35
455.365	5137.28
455.739	5251.18
456.112	5331.85
456.486	5385.86
456.859	5413.66
457.232	5555.35
457.606	5537.95
457.979	5553.09
458.352	5744.95
458.725	5851.16
459.099	5858.17
459.472	6008.67
459.845	6029.23
460.218	6090.93
460.591	6163.24
460.964	6188.1
461.337	6280.75
461.71	6399.85
462.083	6516.23
462.456	6516.45
462.829	6542.44
463.201	6744.02
463.574	6704.47
463.947	6881.42
464.32	6965.71
464.692	7036.67
465.065	7144.91
465.438	7171.13
465.81	7354.62
466.183	7461.74
466.555	7621.73
466.928	7626.03
467.3	7683.88
467.672	7825.12
468.045	7992.57
468.417	8087.03
468.789	8060.37
469.161	8268.5
469.534	8420.58
469.906	8559.56
470.278	8598.21
470.65	8688.83
471.022	8944.64
471.394	9001.36
471.766	9151.86
472.138	9190.73
472.51	9428.69
472.882	9569.93
473.253	9696.48
473.625	9864.84
473.997	10097.15
474.369	10101.9
474.74	10272.74
475.112	10499.4
475.484	10630.92
475.855	10814.19
476.227	10942.1
476.598	11292.82
476.97	11328.3
477.341	11590.9
477.713	11841.96
478.084	11868.4
478.455	12290.99
478.827	12293.7
479.198	12700.7
479.569	12750.87
479.94	13144.3
480.311	13199.44
480.682	13520.79
481.053	13835.58
481.424	14003.71
481.795	14039.42
482.166	14350.6
482.537	14582.23
482.908	14902
483.279	15035.55
483.65	15243.23
484.021	15714.4
484.391	15788.3
484.762	15956.43
485.133	16095.64
485.503	16359.58
485.874	16867.37
486.244	16960.47
486.615	17364.08
486.985	17569.95
487.356	17840.22
487.726	18003.83
488.097	18448.79
488.467	18483.37
488.837	18835
489.207	19045.62
489.578	19489.9
489.948	19475.89
490.318	19813.96
490.688	19930.34
491.058	20157.45
491.428	20452.58
491.798	20631.11
492.168	21063.64
492.538	21136.41
492.908	21386.57
493.278	21703.17
493.648	21594.93
494.017	22036.72
494.387	22135.7
494.757	22308.81
495.126	22683.94
495.496	22755.35
495.866	22946.98
496.235	23201.89
496.605	23466.97
496.974	23612.05
497.344	23884.81
497.713	23986.28
498.082	24297.68
498.452	24515.08
498.821	24771.11
499.19	24805.69
499.559	25020.37
499.928	25124.1
500.298	25382.85
500.667	25585.33
501.036	25567.03
501.405	25923.85
501.774	25989.61
502.143	26193.9
502.512	26348.25
502.88	26574
503.249	26693.1
503.618	26783.94
503.987	26901.45
504.356	27134.67
504.724	27351.39
505.093	27386.19
505.462	27599.29
505.83	27780.53
506.199	28077.47
506.567	28337.12
506.936	28357.01
507.304	28733.72
507.672	28916.32
508.041	29121.96
508.409	29288.28
508.777	29654.38
509.145	29839.68
509.514	29944.54
509.882	30089.84
510.25	30433.11
510.618	30561.92
510.986	30819.99
511.354	31079.2
511.722	31398.96
512.09	31720.99
512.458	31653.87
512.826	31894.54
513.193	31945.61
513.561	32170.92
513.929	32459.95
514.297	32735.65
514.664	32968.41
515.032	32922.76
515.4	33308.52
515.767	33484.56
516.135	33708.73
516.502	33548.51
516.869	34219.23
517.237	34382.84
517.604	34297.42
517.972	34816.05
518.339	35115.93
518.706	35040.45
519.073	35419.87
519.44	35544.62
519.808	36065.05
520.175	36144.83
520.542	36695.77
520.909	36849.89
521.276	36954.07
521.643	37423.66
522.009	37678.12
522.376	37999.01
522.743	38089.63
523.11	38502.96
523.477	38832.21
523.843	39063.39
524.21	39590.39
524.577	39806.43
524.943	39915.57
525.31	40015.01
525.676	40549.46
526.043	40691.15
526.409	40833.29
526.776	41297.01
527.142	41376.1
527.508	41767.73
527.874	42000.72
528.241	42181.96
528.607	42394.83
528.973	42635.96
529.339	42656.75
529.705	43171.08
530.071	43440.91
530.437	43580.34
530.803	43797.51
531.169	44180.55
531.535	44125.63
531.901	44286.08
532.267	44601.33
532.632	44915.67
532.998	45050.81
533.364	45301.65
533.73	45494.41
534.095	45822.09
534.461	46022.08
534.826	46242.41
535.192	46328.51
535.557	46669.75
535.923	46684.44
536.288	46754.49
536.653	47042.62
537.019	46947.71
537.384	47332.78
537.749	47362.16
538.114	47445.55
538.479	47565.54
538.845	47908.81
539.21	47741.81
539.575	47970.05
539.94	48103.16
540.305	48316.48
540.67	48234.23
541.034	48395.58
541.399	48647.1
541.764	48692.29
542.129	48919.63
542.494	48978.61
542.858	49216.8
543.223	49258.15
543.587	49511.48
543.952	49482.55
544.316	49562.78
544.681	49678.71
545.045	49847.07
545.41	50096.55
545.774	50179.03
546.138	50201.86
546.503	50378.8
546.867	50360.5
547.231	50682.75
547.595	50834.84
547.959	50854.72
548.324	50987.37
548.688	51081.83
549.052	51256.07
549.416	51385.1
549.779	51480.02
550.143	51519.79
550.507	51841.14
550.871	51865.54
551.235	51794.81
551.599	52167.23
551.962	52173.56
552.326	52163.16
552.689	52360.22
553.053	52329.71
553.417	52401.8
553.78	52809.92
554.143	52768.8
554.507	52859.42
554.87	52957.04
555.234	53297.14
555.597	53091.95
555.96	53349.35
556.323	53439.06
556.686	53404.03
557.05	53712.95
557.413	53759.05
557.776	53841.31
558.139	54086.05
558.502	54160.4
558.865	54223.22
559.228	54494.17
559.59	54459.37
559.953	54582.31
560.316	54877.22
560.679	54847.39
561.041	55124.21
561.404	55220.71
561.767	55403.3
562.129	55348.39
562.492	55626.35
562.854	55678.78
563.217	55755.38
563.579	55857.75
563.941	56013
564.304	56092.1
564.666	56261.81
565.028	56361.24
565.39	56338.87
565.753	56545.19
566.115	56627.45
566.477	56672.42
566.839	56784.51
567.201	57023.15
567.563	56997.16
567.925	57098.4
568.287	57182.92
568.648	57220.43
569.01	57368.9
569.372	57598.05
569.734	57480.54
570.095	57615.22
570.457	57731.15
570.819	57840.53
571.18	57800.75
571.542	57980.41
571.903	57986.06
572.265	58076.68
572.626	58154.87
572.987	58211.14
573.349	58275.54
573.71	58421.08
574.071	58436.9
574.432	58536.33
574.794	58669.88
575.155	58701.97
575.516	58588.98
575.877	58696.55
576.238	58767.96
576.599	58833.72
576.96	58878.69
577.32	58923.89
577.681	59026.94
578.042	59111.68
578.403	59018.35
578.763	59132.7
579.124	59185.12
579.485	59260.15
579.845	59302.86
580.206	59276.42
580.566	59270.77
580.927	59267.61
581.287	59369.3
581.648	59314.16
582.008	59471.22
582.368	59354.84
582.728	59460.37
583.089	59334.73
583.449	59449.07
583.809	59394.61
584.169	59458.79
584.529	59438.68
584.889	59611.1
585.249	59421.73
585.609	59379.92
585.969	59549.41
586.329	59459.24
586.688	59493.59
587.048	59518.22
587.408	59422.18
587.768	59551.22
588.127	59510.77
588.487	59448.17
588.846	59651.33
589.206	59398
589.565	59466.93
589.925	59587.37
590.284	59496.75
590.643	59558
591.003	59540.14
591.362	59656.52
591.721	59550.31
592.08	59509.64
592.44	59635.96
592.799	59676.64
593.158	59635.96
593.517	59610.2
593.876	59679.12
594.235	59619.69
594.593	59655.62
594.952	59728.16
595.311	59599.8
595.67	59661.04
596.029	59826.46
596.387	59812.9
596.746	59816.52
597.104	59692.68
597.463	59713.47
597.822	59849.06
598.18	59706.69
598.538	59709.86
598.897	59845.45
599.255	59679.57
599.613	60066.23
599.972	59801.15
600.33	59858.1
600.688	59787.14
601.046	59883.41
601.404	60002.5
601.762	59873.92
602.12	60068.04
602.478	60088.6
602.836	60062.39
603.194	59901.26
603.552	60046.8
603.91	59917.76
604.268	60052.9
604.625	59960.02
604.983	60190.52
605.341	60011.54
605.698	60102.84
606.056	60114.14
606.413	60124.08
606.771	60214.02
607.128	60161.6
607.485	60160.92
607.843	60165.21
608.2	60313
608.557	60358.43
608.914	60250.18
609.272	60338.99
609.629	60407.92
609.986	60468.71
610.343	60393.23
610.7	60529.5
611.057	60498.31
611.414	60496.73
611.771	60503.28
612.127	60630.96
612.484	60597.29
612.841	60654.92
613.198	60551.87
613.554	60570.62
613.911	60760.45
614.267	60724.29
614.624	60650.62
614.98	60658.76
615.337	60815.36
615.693	60751.41
616.05	60685.88
616.406	60849.94
616.762	60791.64
617.118	60793.22
617.475	60853.33
617.831	60907.11
618.187	60896.49
618.543	60948.47
618.899	61028.69
619.255	60985.53
619.611	60955.7
619.967	61049.03
620.323	61073.44
620.678	61034.57
621.034	60876.61
621.39	60953.89
621.746	60932.88
622.101	61176.48
622.457	60922.25
622.812	60999.54
623.168	61025.08
623.523	61022.14
623.879	61090.39
624.234	60936.94
624.589	60967.9
624.945	61010.61
625.3	61022.36
625.655	61040.44
626.01	61062.14
626.365	60969.94
626.72	60895.14
627.075	60905.08
627.43	60925.42
627.785	60846.78
628.14	60941.91
628.495	60927.45
628.85	60887.23
629.205	60835.25
629.559	60939.88
629.914	60816.72
630.269	60869.37
630.623	60784.63
630.978	60691.75
631.332	60834.57
631.687	60854.46
632.041	60712.54
632.396	60734.69
632.75	60655.37
633.104	60731.52
633.459	60597.06
633.813	60577.4
634.167	60594.58
634.521	60563.62
634.875	60551.87
635.229	60550.51
635.583	60426.45
635.937	60436.17
636.291	60353.91
636.645	60475.94
636.999	60340.57
637.352	60420.35
637.706	60231.65
638.06	60348.94
638.413	60271.65
638.767	60218.77
639.121	60326.56
639.474	60111.2
639.828	60062.62
640.181	60088.38
640.534	60054.71
640.888	60000.24
641.241	59827.82
641.594	59954.37
641.947	59983.07
642.301	59856.07
642.654	59858.55
643.007	59837.31
643.36	59840.47
643.713	59787.37
644.066	59803.19
644.419	59699.91
644.771	59462.63
645.124	59296.08
645.477	59279.13
645.83	59102.87
646.182	58987.84
646.535	58812.25
646.888	58894.96
647.24	58799.82
647.593	58809.99
647.945	58791.69
648.298	58664.69
648.65	58610.45
649.002	58565.48
649.355	58666.49
649.707	58577.46
650.059	58765.25
650.411	59005.02
650.763	59028.29
651.115	59254.28
651.467	59125.92
651.819	59147.61
652.171	59026.26
652.523	59077.56
652.875	59082.75
653.227	58925.47
653.578	59055.18
653.93	58955.75
654.282	58881.18
654.633	58809.77
654.985	58905.58
655.337	58798.47
655.688	58866.04
656.039	58968.86
656.391	58719.15
656.742	58698.36
657.094	58756.44
657.445	58790.33
657.796	58836.43
658.147	58731.58
658.498	58753.5
658.849	58840.05
659.2	58706.04
659.551	58599.15
659.902	58655.42
660.253	58593.28
660.604	58659.94
660.955	58521.41
661.306	58496.33
661.656	58515.54
662.007	58536.33
662.358	58493.39
662.708	58420.17
663.059	58368.2
663.409	58220.18
663.76	58459.04
664.11	58399.61
664.461	58375.43
664.811	58291.81
665.161	58254.98
665.511	58176.34
665.862	58304.02
666.212	58307.86
666.562	58257.47
666.912	58279.84
667.262	58163.68
667.612	58202.1
667.962	58273.51
668.312	58184.92
668.662	58224.25
669.011	58197.58
669.361	58115.32
669.711	58071.26
670.06	58034.42
670.41	57967.3
670.76	57965.95
671.109	57977.92
671.459	57971.82
671.808	58002.78
672.157	58026.29
672.507	57782
672.856	57886.4
673.205	57963.46
673.554	57997.13
673.904	57822.22
674.253	57942.67
674.602	57881.2
674.951	57531.16
675.3	57417.49
675.649	57813.18
675.998	57760.3
676.346	57780.19
676.695	57850.7
677.044	57637.37
677.393	57726.63
677.741	57759.4
678.09	57742
678.438	57621.55
678.787	57682.57
679.135	57634.66
679.484	57363.25
679.832	57542.91
680.181	57304.27
680.529	57502.01
680.877	57351.27
681.225	57289.36
681.573	57476.47
681.922	57205.74
682.27	57088.46
682.618	57236.48
682.966	57042.13
683.314	57154.44
683.661	57048.46
684.009	56898.18
684.357	56818.41
684.705	56749.26
685.053	56743.61
685.4	56675.13
685.748	56555.59
686.095	56578.19
686.443	56445.54
686.79	56381.58
687.138	56458.42
687.485	56464.07
687.832	56234.92
688.18	56347.46
688.527	56188.82
688.874	56093.45
689.221	56065.21
689.568	55971.88
689.915	55940.46
690.262	55853.91
690.609	55808.72
690.956	55694.37
691.303	55688.04
691.65	55530.98
691.997	55578.44
692.344	55396.98
692.69	55334.15
693.037	55394.26
693.383	55176.64
693.73	55294.38
694.077	55023.65
694.423	55146.13
694.769	55086.48
695.116	54967.61
695.462	54924.45
695.808	54880.61
696.155	54844.67
696.501	54690.55
696.847	54644.68
697.193	54484.91
697.539	54637.9
697.885	54354.07
698.231	54233.62
698.577	54257.34
698.923	54176.22
699.269	53957.69
699.614	53788.2
699.96	53794.76
700.306	53805.83
700.651	53703.69
700.997	53616.01
701.342	53557.93
701.688	53499.62
702.033	53386.41
702.379	53342.79
702.724	53224.83
703.069	53261.66
703.415	52905.52
703.76	52900.32
704.105	52905.97
704.45	52793.65
704.795	52556.82
705.14	52568.8
705.485	52574.9
705.83	52251.3
706.175	52330.39
706.52	52146.21
706.865	52129.94
707.209	51937.18
707.554	51803.85
707.899	51931.76
708.243	51731.08
708.588	51574.48
708.932	51377.42
709.277	51432.11
709.621	51348.27
709.966	51114.15
710.31	51263.75
710.654	50934.72
710.998	51052.91
711.342	51012.91
711.687	50895.85
712.031	50711.68
712.375	50616.99
712.719	50659.93
713.063	50616.54
713.407	50807.27
713.75	50458.57
714.094	50515.52
714.438	50305.81
714.782	50298.8
715.125	50120.96
715.469	50331.12
715.812	50051.58
716.156	50007.51
716.499	49845.26
716.843	49960.96
717.186	49626.96
717.53	49941.53
717.873	49847.97
718.216	49548.54
718.559	49575.43
718.902	49344.71
719.246	49443.23
719.589	49309.45
719.932	49250.7
720.275	49188.78
720.617	49177.25
720.96	48936.58
721.303	49051.61
721.646	49075.56
721.989	48680.09
722.331	48917.82
722.674	48711.95
723.016	48750.37
723.359	48631.5
723.701	48626.53
724.044	48482.36
724.386	48328.01
724.729	48286.65
725.071	48294.79
725.413	48228.35
725.755	48165.75
726.097	47814.8
726.439	47845.31
726.782	47796.72
727.124	47730.51
727.465	47723.51
727.807	47545.43
728.149	47434.02
728.491	47262.5
728.833	47390.18
729.175	47095.72
729.516	47071.09
729.858	47014.37
730.199	46919.68
730.541	46900.7
730.882	46716.3
731.224	46839.91
731.565	46590.43
731.906	46646.7
732.248	46647.38
732.589	46402.86
732.93	46171.23
733.271	46253.04
733.612	46288.06
733.953	46133.72
734.294	45957.45
734.635	45726.5
734.976	45885.14
735.317	45767.4
735.658	45717.68
735.999	45667.06
736.339	45555.2
736.68	45700.28
737.021	45513.17
737.361	45249.67
737.702	45553.39
738.042	45288.77
738.383	45304.81
738.723	45288.54
739.063	45181.43
739.404	45318.6
739.744	45090.35
740.084	44930.81
740.424	45049.23
740.764	44910.25
741.104	45082.67
741.444	44725.62
741.784	44645.62
742.124	44662.12
742.464	44780.31
742.804	44541.44
743.143	44444.27
743.483	44561.33
743.823	44148.23
744.162	44388.23
744.502	44343.93
744.841	44000.21
745.181	44203.15
745.52	43908.69
745.86	43939.65
746.199	44046.77
746.538	43891.97
746.877	43922.7
747.216	43721.12
747.556	43678.19
747.895	43602.48
748.234	43487.01
748.573	43277.52
748.911	43441.58
749.25	43348.7
749.589	42955.49
749.928	43011.76
750.267	43034.14
750.605	42891.09
750.944	42737.2
751.283	42607.26
751.621	42679.12
751.96	42341.5
752.298	42539.23
