Data from aluminium_macbook_case_FLMS001491_089.txt Node
Date: Tue Feb 07 10:44:18 GMT 2017
User: dcchb
Spectrometer: FLMS00149
Trigger mode: 0
Integration Time (sec): 2.000000E-2
Scans to average: 10
Electric dark correction enabled: true
Nonlinearity correction enabled: false
Boxcar width: 0
XAxis mode: Wavelengths
Number of Pixels in Spectrum: 2048
>>>>>Begin Spectral Data<<<<<
341.393	-20.17
341.776	-20.17
342.16	-20.17
342.543	-57.68
342.927	-50.45
343.31	-65.82
343.693	-60.39
344.077	-70.79
344.46	-80.51
344.843	-51.81
345.226	-44.12
345.61	-17.01
345.993	-18.36
346.376	1.3
346.759	11.69
347.142	15.08
347.525	38.36
347.908	76.33
348.291	63.22
348.674	72.26
349.057	130.56
349.44	129.88
349.823	141.86
350.206	162.43
350.588	234.51
350.971	255.98
351.354	277.9
351.737	290.56
352.119	308.41
352.502	296.21
352.884	324.45
353.267	344.12
353.65	352.7
354.032	357
354.414	365.36
354.797	388.63
355.179	392.7
355.562	363.1
355.944	406.03
356.326	392.02
356.709	385.47
357.091	401.06
357.473	416.88
357.855	418.01
358.238	402.87
358.62	389.54
359.002	412.14
359.384	425.24
359.766	408.07
360.148	399.26
360.53	439.03
360.912	439.71
361.294	415.53
361.676	417.79
362.057	399.71
362.439	423.66
362.821	412.81
363.203	414.4
363.584	435.86
363.966	424.11
364.348	433.38
364.729	436.99
365.111	440.16
365.493	419.59
365.874	432.7
366.256	437.22
366.637	434.06
367.019	420.72
367.4	453.49
367.781	428.41
368.163	451.23
368.544	421.18
368.925	436.99
369.306	445.81
369.688	456.65
370.069	446.71
370.45	453.26
370.831	461.17
371.212	458.01
371.593	472.25
371.974	461.17
372.355	497.78
372.736	483.77
373.117	503.89
373.498	496.2
373.879	471.34
374.26	464.56
374.641	465.02
375.021	470.67
375.402	469.54
375.783	518.57
376.163	518.35
376.544	568.06
376.925	538.23
377.305	514.51
377.686	527.16
378.066	540.95
378.447	542.75
378.827	531.45
379.208	534.39
379.588	555.64
379.968	558.35
380.349	548.4
380.729	566.03
381.109	558.57
381.489	589.76
381.87	603.32
382.25	589.76
382.63	588.18
383.01	597.67
383.39	606.48
383.77	604.45
384.15	602.87
384.53	629.53
384.91	635.18
385.29	653.49
385.67	658.01
386.049	653.49
386.429	643.77
386.809	693.26
387.189	679.25
387.568	677.89
387.948	674.73
388.328	701.85
388.707	710.66
389.087	736.42
389.466	739.36
389.846	725.35
390.225	744.33
390.605	736.87
390.984	767.38
391.363	770.54
391.743	775.74
392.122	790.21
392.501	794.5
392.881	815.06
393.26	836.76
393.639	845.8
394.018	842.18
394.397	855.51
394.776	863.2
395.155	850.32
395.534	897.77
395.913	878.11
396.292	902.74
396.671	902.29
397.05	920.15
397.429	918.34
397.808	922.18
398.186	948.62
398.565	931.44
398.944	964.44
399.323	947.49
399.701	966.02
400.08	1004.44
400.458	1012.35
400.837	1039.24
401.215	1065.9
401.594	1046.92
401.972	1052.12
402.351	1057.32
402.729	1071.1
403.107	1098.67
403.486	1124.21
403.864	1134.83
404.242	1149.52
404.62	1127.82
404.999	1142.74
405.377	1173.02
405.755	1194.49
406.133	1198.33
406.511	1220.93
406.889	1251.21
407.267	1286.69
407.645	1281.72
408.023	1284.88
408.401	1326.91
408.779	1339.12
409.156	1363.3
409.534	1366.91
409.912	1390.64
410.29	1407.82
410.667	1424.76
411.045	1453.01
411.422	1456.4
411.8	1487.14
412.178	1525.1
412.555	1560.58
412.933	1579.79
413.31	1581.37
413.687	1622.73
414.065	1611.65
414.442	1671.54
414.819	1666.57
415.197	1694.81
415.574	1735.49
415.951	1699.79
416.328	1743.17
416.705	1782.72
417.082	1766.45
417.46	1811.42
417.837	1832.66
418.214	1835.15
418.591	1879.67
418.967	1874.92
419.344	1912.89
419.721	1911.76
420.098	1938.65
420.475	1982.26
420.852	1993.11
421.228	1964.41
421.605	2007.12
421.982	2032.88
422.358	2077.63
422.735	2088.48
423.111	2115.82
423.488	2138.87
423.864	2171.19
424.241	2185.65
424.617	2217.96
424.994	2265.19
425.37	2257.06
425.746	2304.74
426.123	2362.82
426.499	2324.63
426.875	2408.69
427.251	2406.66
427.627	2462.03
428.003	2507.67
428.379	2482.82
428.756	2585.19
429.132	2557.39
429.507	2669.93
429.883	2650.5
430.259	2702.92
430.635	2709.02
431.011	2785.18
431.387	2874.9
431.763	2881.22
432.138	2906.31
432.514	2969.81
432.89	2985.4
433.265	3059.52
433.641	3115.12
434.016	3125.96
434.392	3135.91
434.767	3244.15
435.143	3278.73
435.518	3279.63
435.894	3294.09
436.269	3364.15
436.644	3427.2
437.02	3474.65
437.395	3490.25
437.77	3536.35
438.145	3571.83
438.52	3616.35
438.895	3674.88
439.271	3683.69
439.646	3728.66
440.021	3787.64
440.395	3809.33
440.77	3809.33
441.145	3833.06
441.52	3886.62
441.895	3915.77
442.27	3963.91
442.645	3969.78
443.019	4048.65
443.394	3993.74
443.769	4081.42
444.143	4078.48
444.518	4151.47
444.892	4124.58
445.267	4136.78
445.641	4259.94
446.016	4303.11
446.39	4281.64
446.764	4320.06
447.139	4304.01
447.513	4352.82
447.887	4367.74
448.262	4420.17
448.636	4467.4
449.01	4516.43
449.384	4602.31
449.758	4655.41
450.132	4699.48
450.506	4736.54
450.88	4769.76
451.254	4780.16
451.628	4849.76
452.002	4924.33
452.376	4910.77
452.75	5037.33
453.123	5040.71
453.497	5092.01
453.871	5151.67
454.244	5232.12
454.618	5306.47
454.992	5377.2
455.365	5416.52
455.739	5566.8
456.112	5617.42
456.486	5666.01
456.859	5692.45
457.232	5818.77
457.606	5852.22
457.979	5881.6
458.352	6056.06
458.725	6116.17
459.099	6105.32
459.472	6337.4
459.845	6397.06
460.218	6380.57
460.591	6489.04
460.964	6535.59
461.337	6709.37
461.71	6788.69
462.083	6884.06
462.456	6920.44
462.829	6957.05
463.201	7076.14
463.574	7107.33
463.947	7155.69
464.32	7396.81
464.692	7400.2
465.065	7458.05
465.438	7623.7
465.81	7749.57
466.183	7881.77
466.555	8074.53
466.928	8006.74
467.3	8080.86
467.672	8241.08
468.045	8423.22
468.417	8473.17
468.789	8520.85
469.161	8697.12
469.534	8837.68
469.906	8997.45
470.278	9074.28
470.65	9199.02
471.022	9355.63
471.394	9566.47
471.766	9697.77
472.138	9696.86
472.51	9961.26
472.882	10094.82
473.253	10243.06
473.625	10353.8
473.997	10606.44
474.369	10650.06
474.74	10802.37
475.112	10986.55
475.484	11117.39
475.855	11436.48
476.227	11544.95
476.598	11911.72
476.97	11990.81
477.341	12246.18
477.713	12438.49
478.084	12555.55
478.455	12921.64
478.827	12957.79
479.198	13464
479.569	13470.1
479.94	13828.28
480.311	13946.02
480.682	14226.91
481.053	14507.13
481.424	14821.25
481.795	14894.47
482.166	15136.49
482.537	15371.74
482.908	15759.53
483.279	15825.29
483.65	16223.92
484.021	16465.73
484.391	16644.93
484.762	16883.12
485.133	17001.98
485.503	17299.83
485.874	17597.67
486.244	17843.09
486.615	18206.02
486.985	18367.6
487.356	18751.77
487.726	18976.17
488.097	19389.04
488.467	19441.69
488.837	19880.1
489.207	20056.14
489.578	20455.45
489.948	20553.3
490.318	20826.51
490.688	21003.46
491.058	21285.03
491.428	21604.12
491.798	21703.78
492.168	22297.21
492.538	22238.45
492.908	22526.81
493.278	22797.08
493.648	22845.67
494.017	23142.16
494.387	23396.62
494.757	23611.3
495.126	23884.06
495.496	23935.13
495.866	24159.99
496.235	24389.58
496.605	24606.75
496.974	24830.25
497.344	25089.68
497.713	25292.61
498.082	25519.72
498.452	25696.44
498.821	25978.02
499.19	26022.54
499.559	26383.88
499.928	26503.65
500.298	26759.92
500.667	26994.94
501.036	26976.64
501.405	27267.7
501.774	27361.48
502.143	27564.42
502.512	27588.82
502.88	27949.72
503.249	27934.12
503.618	28175.93
503.987	28254.34
504.356	28469.25
504.724	28726.19
505.093	28951.27
505.462	29038.95
505.83	29213.64
506.199	29422.9
506.567	29813.85
506.936	29811.14
507.304	30106.72
507.672	30318.47
508.041	30529.54
508.409	30779.7
508.777	31126.13
509.145	31370.42
509.514	31414.26
509.882	31648.6
510.25	31715.27
510.618	32108.93
510.986	32193
511.354	32762.7
511.722	32740.1
512.09	33161.78
512.458	33151.84
512.826	33466.18
513.193	33677.02
513.561	33734.65
513.929	34003.12
514.297	34518.36
514.664	34605.59
515.032	34787.96
515.4	34955.63
515.767	35268.17
516.135	35291.67
516.502	35269.3
516.869	35970.3
517.237	36057.3
517.604	36009.17
517.972	36453.9
518.339	36684.4
518.706	36826.32
519.073	37059.76
519.44	37274.44
519.808	37818.16
520.175	37671.72
520.542	38244.14
520.909	38618.59
521.276	38748.53
521.643	39124.79
522.009	39255.18
522.376	39708.28
522.743	40104.88
523.11	40264.2
523.477	40818.76
523.843	41035.47
524.21	41453.32
524.577	41667.32
524.943	41864.15
525.31	42118.38
525.676	42461.88
526.043	42634.53
526.409	42992.26
526.776	43295.75
527.142	43306.83
527.508	43738.91
527.874	44010.99
528.241	44175.28
528.607	44150.65
528.973	44648.94
529.339	44685.32
529.705	45141.81
530.071	45344.74
530.437	45590.61
530.803	45813.88
531.169	46071.95
531.535	46161.22
531.901	46354.2
532.267	46596.01
532.632	46885.49
532.998	46946.05
533.364	47197.35
533.73	47379.71
534.095	47809.76
534.461	47750.55
534.826	48033.26
535.192	48240.93
535.557	48430.08
535.923	48440.7
536.288	48760.24
536.653	48883.86
537.019	48893.12
537.384	49061.25
537.749	49127.47
538.114	49332.88
538.479	49322.71
538.845	49732.2
539.21	49588.92
539.575	49882.93
539.94	50023.03
540.305	50202.01
540.67	50130.15
541.034	50273.42
541.399	50335.8
541.764	50576.69
542.129	50640.19
542.494	50711.6
542.858	50882
543.223	50960.64
543.587	51053.52
543.952	51115.89
544.316	51294.64
544.681	51267.07
545.045	51454.18
545.41	51709.09
545.774	51801.75
546.138	51816.66
546.503	51894.17
546.867	51874.06
547.231	52351.11
547.595	52345.69
547.959	52437.89
548.324	52558.56
548.688	52729.18
549.052	52800.14
549.416	52821.83
549.779	52945.67
550.143	53077.87
550.507	53311.54
550.871	53277.19
551.235	53400.35
551.599	53592.66
551.962	53691.19
552.326	53658.42
552.689	53958.3
553.053	53817.74
553.417	53907.45
553.78	54286.65
554.143	54243.71
554.507	54424.28
554.87	54400.55
555.234	54667.88
555.597	54555.12
555.96	54749.69
556.323	54828.11
556.686	54851.83
557.05	55102.22
557.413	55168.21
557.776	55229.45
558.139	55441.65
558.502	55471.03
558.865	55533.4
559.228	55793.73
559.59	55872.6
559.953	55942.65
560.316	56163.21
560.679	56203.89
561.041	56395.07
561.404	56514.84
561.767	56699.02
562.129	56640.26
562.492	56971.1
562.854	56934.27
563.217	56992.34
563.579	57140.14
563.941	57287.48
564.304	57372.9
564.666	57555.49
565.028	57559.79
565.39	57666.68
565.753	57810.4
566.115	57885.2
566.477	58038.87
566.839	58176.04
567.201	58247.23
567.563	58214.91
567.925	58389.82
568.287	58465.3
568.648	58459.2
569.01	58596.59
569.372	58763.37
569.734	58756.36
570.095	58863.93
570.457	58917.26
570.819	59018.96
571.18	58983.93
571.542	59188.22
571.903	59217.37
572.265	59314.77
572.626	59308.44
572.987	59371.94
573.349	59475.22
573.71	59569.68
574.071	59658.71
574.432	59688.77
574.794	59936.67
575.155	59885.6
575.516	59775.55
575.877	59974.19
576.238	60012.83
576.599	60115.42
576.96	60044.47
577.32	60137.12
577.681	60249.66
578.042	60304.8
578.403	60300.73
578.763	60404.46
579.124	60357.23
579.485	60467.05
579.845	60527.84
580.206	60449.2
580.566	60484.91
580.927	60486.26
581.287	60619.59
581.648	60495.3
582.008	60640.16
582.368	60521.74
582.728	60628.63
583.089	60569.88
583.449	60521.52
583.809	60617.33
584.169	60579.59
584.529	60618.69
584.889	60762.64
585.249	60501.63
585.609	60520.61
585.969	60625.92
586.329	60564.9
586.688	60637.9
587.048	60597.9
587.408	60577.11
587.768	60641.74
588.127	60698.01
588.487	60568.29
588.846	60712.7
589.206	60604.23
589.565	60661.17
589.925	60813.26
590.284	60696.65
590.643	60826.59
591.003	60795.63
591.362	60871.11
591.721	60818.91
592.08	60853.03
592.44	60832.47
592.799	60892.35
593.158	60856.2
593.517	60867.27
593.876	60904.1
594.235	60880.38
594.593	60866.59
594.952	60967.61
595.311	60835.18
595.67	60865.69
596.029	61019.81
596.387	61011.22
596.746	61055.29
597.104	60891.9
597.463	60906.82
597.822	61003.54
598.18	60873.82
598.538	60915.63
598.897	61031.33
599.255	60871.79
599.613	61217.54
599.972	60976.65
600.33	61025.68
600.688	60941.62
601.046	61065.68
601.404	61145.23
601.762	61071.56
602.12	61153.59
602.478	61155.85
602.836	61172.12
603.194	61017.77
603.552	61109.98
603.91	61010.77
604.268	61167.15
604.625	61149.52
604.983	61266.81
605.341	61117.21
605.698	61322.62
606.056	61319.24
606.413	61311.33
606.771	61435.16
607.128	61482.17
607.485	61337.77
607.843	61441.72
608.2	61598.32
608.557	61626.8
608.914	61531.66
609.272	61669.73
609.629	61624.09
609.986	61779.11
610.343	61667.93
610.7	61786.79
611.057	61702.73
611.414	61738.89
611.771	61801.03
612.127	61821.14
612.484	61789.05
612.841	61809.84
613.198	61747.02
613.554	61831.31
613.911	61897.3
614.267	61887.58
614.624	61877.41
614.98	61899.78
615.337	61925.55
615.693	61906.11
616.05	61850.29
616.406	62029.05
616.762	61924.87
617.118	61966
617.475	61997.18
617.831	61998.31
618.187	62002.16
618.543	62006.67
618.899	62103.4
619.255	62039.22
619.611	62043.96
619.967	62090.74
620.323	62128.71
620.678	62122.15
621.034	62056.39
621.39	62042.61
621.746	62023.17
622.101	62245.31
622.457	62093
622.812	62153.79
623.168	62211.42
623.523	62139.33
623.879	62253.22
624.234	62091.64
624.589	62158.76
624.945	62234.47
625.3	62268.59
625.655	62271.75
626.01	62234.92
626.365	62239.44
626.72	62241.92
627.075	62171.19
627.43	62175.94
627.785	62170.29
628.14	62221.36
628.495	62260.68
628.85	62163.96
629.205	62089.16
629.559	62225.88
629.914	62133.23
630.269	62075.6
630.623	62008.03
630.978	61974.59
631.332	62057.07
631.687	62041.48
632.041	61928.48
632.396	61907.69
632.75	61862.27
633.104	61857.3
633.459	61768.49
633.813	61759
634.167	61770.07
634.521	61706.57
634.875	61684.42
635.229	61668.83
635.583	61477.2
635.937	61558.78
636.291	61460.93
636.645	61532.11
636.999	61490.3
637.352	61480.59
637.706	61314.26
638.06	61398.78
638.413	61392
638.767	61295.73
639.121	61308.84
639.474	61248.73
639.828	61222.06
640.181	61238.11
640.534	61292.34
640.888	61129.18
641.241	61030.43
641.594	61127.83
641.947	61164.21
642.301	61089.64
642.654	61124.89
643.007	61097.77
643.36	61120.14
643.713	61035.4
644.066	61085.12
644.419	60968.28
644.771	60818.23
645.124	60661.4
645.477	60591.57
645.83	60382.99
646.182	60362.42
646.535	60225.93
646.888	60290.11
647.24	60128.31
647.593	60271.58
647.945	60097.8
648.298	60053.05
648.65	59987.52
649.002	59968.08
649.355	60037.91
649.707	59981.64
650.059	60037.91
650.411	60330.56
650.763	60347.96
651.115	60520.39
651.467	60388.64
651.819	60343.89
652.171	60297.79
652.523	60260.96
652.875	60295.31
653.227	60165.59
653.578	60277.45
653.93	60146.61
654.282	60022.09
654.633	60011.92
654.985	60119.72
655.337	60046.05
655.688	60012.83
656.039	60079.72
656.391	59921.08
656.742	59878.82
657.094	59889.89
657.445	59981.87
657.796	59938.25
658.147	59901.65
658.498	59873.17
658.849	59904.36
659.2	59899.39
659.551	59786.17
659.902	59893.96
660.253	59879.05
660.604	59927.86
660.955	59791.37
661.306	59892.15
661.656	59816
662.007	59818.03
662.358	59841.99
662.708	59747.98
663.059	59741.88
663.409	59717.92
663.76	59808.99
664.11	59739.39
664.461	59769.22
664.811	59803.79
665.161	59752.95
665.511	59661.2
665.862	59688.54
666.212	59764.25
666.562	59787.52
666.912	59665.04
667.262	59702.78
667.612	59635.66
667.962	59613.52
668.312	59475.89
668.662	59717.02
669.011	59593.63
669.361	59535.55
669.711	59453.07
670.06	59458.49
670.41	59343.47
670.76	59327.65
671.109	59387.31
671.459	59281.77
671.808	59267.09
672.157	59329.46
672.507	59058.73
672.856	59122.23
673.205	59119.97
673.554	59258.27
673.904	59049.46
674.253	59221.44
674.602	59119.97
674.951	58678.4
675.3	58579.87
675.649	58996.13
675.998	58987.55
676.346	58945.06
676.695	58982.57
677.044	58807.21
677.393	58882.69
677.741	58902.12
678.09	58840.66
678.438	58760.43
678.787	58865.74
679.135	58872.52
679.484	58632.3
679.832	58823.93
680.181	58620.78
680.529	58747.78
680.877	58646.09
681.225	58641.11
681.573	58746.2
681.922	58572.41
682.27	58533.77
682.618	58565.41
682.966	58453.55
683.314	58513.89
683.661	58412.64
684.009	58303.27
684.357	58306.88
684.705	58282.03
685.053	58361.12
685.4	58241.8
685.748	58114.8
686.095	58077.96
686.443	58019.21
686.79	57996.61
687.138	57966.78
687.485	57973.56
687.832	57879.33
688.18	57898.99
688.527	57739.89
688.874	57714.36
689.221	57638.2
689.568	57463.07
689.915	57509.84
690.262	57487.02
690.609	57332.45
690.956	57268.27
691.303	57219.46
691.65	57008.16
691.997	57040.48
692.344	56917.09
692.69	56840.26
693.037	56816.75
693.383	56577.66
693.73	56632.58
694.077	56445.01
694.423	56419.7
694.769	56334.06
695.116	56282.53
695.462	56271.91
695.808	56145.13
696.155	56113.04
696.501	55998.25
696.847	55913.73
697.193	55851.13
697.539	55873.73
697.885	55661.3
698.231	55632.61
698.577	55556
698.923	55466.73
699.269	55364.36
699.614	55271.03
699.96	55188.32
700.306	55182.22
700.651	55140.41
700.997	55091.6
701.342	55020.87
701.688	55017.71
702.033	54834.21
702.379	54803.02
702.724	54815.23
703.069	54867.88
703.415	54466.08
703.76	54570.03
704.105	54584.27
704.45	54422.24
704.795	54287.78
705.14	54296.82
705.485	54289.59
705.83	54156.26
706.175	54214.79
706.52	53961.01
706.865	54030.16
707.209	53830.84
707.554	53758.76
707.899	53888.02
708.243	53675.59
708.588	53592.43
708.932	53366.45
709.277	53439.89
709.621	53420.46
709.966	53156.29
710.31	53252.55
710.654	53000.58
710.998	53062.96
711.342	52972.56
711.687	52904.77
712.031	52698.44
712.375	52591.56
712.719	52690.76
713.063	52469.07
713.407	52667.71
713.75	52331.22
714.094	52415.06
714.438	52104.56
714.782	52149.08
715.125	51933.04
715.469	52066.37
715.812	51824.57
716.156	51727.17
716.499	51689.66
716.843	51609.89
717.186	51456.22
717.53	51526.95
717.873	51479.72
718.216	51448.31
718.559	51235.21
718.902	51110.01
719.246	51106.17
719.589	50976.23
719.932	50905.05
720.275	50801.32
720.617	50801.77
720.96	50641.32
721.303	50676.13
721.646	50550.03
721.989	50463.48
722.331	50558.39
722.674	50351.61
723.016	50507.54
723.359	50290.82
723.701	50347.55
724.044	50264.38
724.386	50028.68
724.729	50240.88
725.071	50027.33
725.413	50014.22
725.755	49989.59
726.097	49856.26
726.439	49840.67
726.782	49738.07
727.124	49941
727.465	49668.69
727.807	49754.57
728.149	49675.7
728.491	49459.43
728.833	49767
729.175	49480.9
729.516	49386.67
729.858	49294.01
730.199	49399.1
730.541	49279.55
730.882	49117.07
731.224	49307.35
731.565	48999.11
731.906	49023.06
732.248	49074.59
732.589	48723.18
732.93	48626.69
733.271	48734.26
733.612	48639.57
733.953	48637.99
734.294	48528.84
734.635	48445.68
734.976	48475.96
735.317	48169.07
735.658	48210.43
735.999	48076.19
736.339	47975.63
736.68	47996.2
737.021	47925.24
737.361	47665.13
737.702	47827.16
738.042	47687.96
738.383	47637.11
738.723	47500.39
739.063	47378.13
739.404	47398.7
739.744	47221.53
740.084	47073.06
740.424	47024.47
740.764	46845.94
741.104	46988.76
741.444	46753.74
741.784	46711.03
742.124	46706.29
742.464	46538.83
742.804	46558.49
743.143	46313.75
743.483	46418.16
743.823	45989.92
744.162	46039.18
744.502	46110.6
744.841	45888.68
745.181	46023.37
745.52	45829.47
745.86	45855.69
746.199	45810.49
746.538	45755.12
746.877	45714.45
747.216	45712.87
747.556	45657.27
747.895	45558.29
748.234	45246.44
748.573	45359.65
748.911	45322.82
749.25	45217.74
749.589	45056.61
749.928	45185.65
750.267	45168.93
750.605	45066.78
750.944	44894.36
751.283	44760.12
751.621	44932.1
751.96	44703.85
