Data from aluminium_macbook_case_FLMS001491_026.txt Node
Date: Tue Feb 07 10:43:26 GMT 2017
User: dcchb
Spectrometer: FLMS00149
Trigger mode: 0
Integration Time (sec): 2.000000E-2
Scans to average: 10
Electric dark correction enabled: true
Nonlinearity correction enabled: false
Boxcar width: 0
XAxis mode: Wavelengths
Number of Pixels in Spectrum: 2048
>>>>>Begin Spectral Data<<<<<
341.393	-43.25
341.776	-43.25
342.16	-43.25
342.543	-76.47
342.927	-77.37
343.31	-67.2
343.693	-64.49
344.077	-65.17
344.46	-51.61
344.843	-59.97
345.226	-52.29
345.61	-25.62
345.993	-12.29
346.376	-9.12
346.759	5.79
347.142	18.9
347.525	34.49
347.908	47.15
348.291	79.01
348.674	101.38
349.057	121.04
349.44	117.2
349.823	136.18
350.206	164.2
350.588	219.34
350.971	245.33
351.354	268.61
351.737	283.3
352.119	291.43
352.502	311.55
352.884	315.39
353.267	316.07
353.65	364.65
354.032	352
354.414	342.05
354.797	358.32
355.179	367.82
355.562	374.37
355.944	374.14
356.326	385.44
356.709	416.4
357.091	372.56
357.473	399
357.855	403.07
358.238	399.68
358.62	403.52
359.002	404.2
359.384	415.27
359.766	411.43
360.148	399.45
360.53	422.28
360.912	436.74
361.294	403.29
361.676	406.23
362.057	415.72
362.439	415.05
362.821	417.08
363.203	426.34
363.584	429.96
363.966	414.37
364.348	404.65
364.729	429.06
365.111	395.16
365.493	391.32
365.874	405.1
366.256	401.26
366.637	420.92
367.019	415.95
367.4	399.45
367.781	423.86
368.163	408.49
368.544	430.19
368.925	421.6
369.306	434.93
369.688	428.83
370.069	421.15
370.45	429.73
370.831	425.44
371.212	445.33
371.593	445.1
371.974	426.8
372.355	438.55
372.736	457.98
373.117	475.61
373.498	457.3
373.879	441.94
374.26	439
374.641	451.43
375.021	467.25
375.402	481.48
375.783	486
376.163	518.32
376.544	523.74
376.925	495.04
377.305	510.86
377.686	514.25
378.066	506.34
378.447	497.3
378.827	533.23
379.208	532.78
379.588	513.8
379.968	521.26
380.349	536.62
380.729	551.99
381.109	542.27
381.489	556.06
381.87	555.83
382.25	553.12
382.63	566.45
383.01	561.03
383.39	602.61
383.77	599.45
384.15	591.09
384.53	592.67
384.91	605.55
385.29	607.58
385.67	641.71
386.049	633.34
386.429	637.86
386.809	638.32
387.189	636.51
387.568	640.8
387.948	659.78
388.328	670.18
388.707	676.06
389.087	660.24
389.466	694.13
389.846	688.03
390.225	692.78
390.605	715.15
390.984	734.13
391.363	750.18
391.743	736.17
392.122	747.24
392.501	761.48
392.881	751.31
393.26	775.49
393.639	789.95
394.018	806.22
394.397	792.66
394.776	804.19
395.155	811.65
395.534	834.02
395.913	846.45
396.292	847.8
396.671	847.35
397.05	861.14
397.429	860.23
397.808	874.24
398.186	883.96
398.565	894.58
398.944	909.72
399.323	919.89
399.701	926.67
400.08	932.77
400.458	927.12
400.837	976.84
401.215	966.22
401.594	985.65
401.972	981.36
402.351	976.16
402.729	998.08
403.107	1028.14
403.486	1042.83
403.864	1054.35
404.242	1069.27
404.62	1071.75
404.999	1096.38
405.377	1114.01
405.755	1119.43
406.133	1125.76
406.511	1128.02
406.889	1135.48
407.267	1179.09
407.645	1205.31
408.023	1226.78
408.401	1216.83
408.779	1242.59
409.156	1268.81
409.534	1276.04
409.912	1319.2
410.29	1328.02
410.667	1338.86
411.045	1374.79
411.422	1380.67
411.8	1405.98
412.178	1462.93
412.555	1469.03
412.933	1463.61
413.31	1456.37
413.687	1517.39
414.065	1547.45
414.442	1524.17
414.819	1579.31
415.197	1565.98
415.574	1623.6
415.951	1613.21
416.328	1627.22
416.705	1640.1
417.082	1640.1
417.46	1691.85
417.837	1692.3
418.214	1735.46
418.591	1742.47
418.967	1755.12
419.344	1792.64
419.721	1826.76
420.098	1827.21
420.475	1837.83
420.852	1819.98
421.228	1902.24
421.605	1937.04
421.982	1935.91
422.358	1924.84
422.735	1976.59
423.111	1972.07
423.488	2011.84
423.864	2020.43
424.241	2085.51
424.617	2094.32
424.994	2111.95
425.37	2164.83
425.746	2147.88
426.123	2176.13
426.499	2187.2
426.875	2249.57
427.251	2303.81
427.627	2319.85
428.003	2380.42
428.379	2350.59
428.756	2394.2
429.132	2416.8
429.507	2448.89
429.883	2505.61
430.259	2559.4
430.635	2589.45
431.011	2610.02
431.387	2639.17
431.763	2704.02
432.138	2739.05
432.514	2767.53
432.89	2803.91
433.265	2861.31
433.641	2901.99
434.016	2911.03
434.392	2960.52
434.767	3021.3
435.143	3020.17
435.518	3062.43
435.894	3110.79
436.269	3137.01
436.644	3195.76
437.02	3273.95
437.395	3272.6
437.77	3326.83
438.145	3373.39
438.52	3409.09
438.895	3403.44
439.271	3438.24
439.646	3513.5
440.021	3543.78
440.395	3565.92
440.77	3554.4
441.145	3583.32
441.52	3692.93
441.895	3696.09
442.27	3716.2
442.645	3682.53
443.019	3767.27
443.394	3805.01
443.769	3839.81
444.143	3823.77
444.518	3932.47
444.892	3925.46
445.267	3974.73
445.641	3987.83
446.016	3958
446.39	4043.88
446.764	4084.55
447.139	4092.91
447.513	4129.98
447.887	4170.43
448.262	4167.04
448.636	4207.26
449.01	4304.43
449.384	4321.61
449.758	4317.77
450.132	4394.38
450.506	4419.46
450.88	4440.25
451.254	4496.52
451.628	4541.72
452.002	4626.46
452.376	4616.07
452.75	4739.9
453.123	4719.79
453.497	4819.9
453.871	4836.4
454.244	5000.24
454.618	5042.72
454.992	5101.93
455.365	5122.49
455.739	5263.96
456.112	5244.3
456.486	5315.26
456.859	5336.5
457.232	5504.86
457.606	5498.75
457.979	5543.27
458.352	5723.83
458.725	5747.56
459.099	5767.22
459.472	5882.47
459.845	5983.49
460.218	6061.45
460.591	6066.65
460.964	6101
461.337	6290.37
461.71	6345.29
462.083	6493.76
462.456	6495.11
462.829	6589.8
463.201	6717.03
463.574	6717.48
463.947	6800.64
464.32	7030.01
464.692	7029.79
465.065	7106.17
465.438	7226.84
465.81	7343.22
466.183	7361.08
466.555	7546.84
466.928	7594.74
467.3	7639.04
467.672	7796.55
468.045	7994.51
468.417	7928.97
468.789	7995.64
469.161	8115.63
469.534	8265.91
469.906	8480.6
470.278	8532.35
470.65	8680.59
471.022	8815.28
471.394	8974.37
471.766	9057.08
472.138	9180.69
472.51	9401.7
472.882	9575.48
473.253	9696.61
473.625	9822.03
473.997	10052.53
474.369	10130.5
474.74	10233.54
475.112	10467.44
475.484	10605.96
475.855	10809.12
476.227	10912.62
476.598	11242.56
476.97	11300.41
477.341	11589.89
477.713	11683.68
478.084	11785.14
478.455	12087.51
478.827	12221.06
479.198	12571.79
479.569	12609.08
479.94	12960.7
480.311	13153.02
480.682	13398.43
481.053	13701.93
481.424	13971.07
481.795	14049.94
482.166	14348.01
482.537	14574.67
482.908	14934.66
483.279	15028.45
483.65	15417.14
484.021	15681.31
484.391	15864.58
484.762	16037.01
485.133	16119.04
485.503	16419.82
485.874	16745.92
486.244	16867.72
486.615	17297.31
486.985	17427.93
487.356	17776.62
487.726	17846.45
488.097	18285.54
488.467	18411.86
488.837	18771.4
489.207	18903.15
489.578	19196.02
489.948	19365.28
490.318	19607.54
490.688	19700.19
491.058	20099.27
491.428	20290.46
491.798	20561.41
492.168	21107.38
492.538	21140.38
492.908	21302.41
493.278	21686.58
493.648	21795.5
494.017	22116.85
494.387	22283.62
494.757	22500.11
495.126	22730.39
495.496	22803.61
495.866	23129.48
496.235	23180.77
496.605	23480.43
496.974	23733.53
497.344	23770.59
497.713	23933.07
498.082	24119.73
498.452	24488.76
498.821	24579.16
499.19	24588.42
499.559	24856.44
499.928	25088.52
500.298	25138.69
500.667	25454.61
501.036	25372.36
501.405	25686.47
501.774	25639.92
502.143	25986.8
502.512	26248.94
502.88	26502.5
503.249	26569.16
503.618	26840.34
503.987	27023.39
504.356	27324.39
504.724	27326.2
505.093	27513.77
505.462	27708.79
505.83	27953.08
506.199	28212.51
506.567	28491.6
506.936	28497.25
507.304	28896.1
507.672	29032.37
508.041	29185.36
508.409	29345.58
508.777	29694.95
509.145	29775.63
509.514	29880.03
509.882	30159.8
510.25	30150.08
510.618	30387.82
510.986	30580.35
511.354	30915.71
511.722	31040
512.09	31331.52
512.458	31332.65
512.826	31811.28
513.193	31898.51
513.561	32066.87
513.929	32357.71
514.297	32557.03
514.664	32864.36
515.032	33064.58
515.4	33412.37
515.767	33480.16
516.135	33808.29
516.502	33738.69
516.869	34416.86
517.237	34623.86
517.604	34545.9
517.972	35105.43
518.339	35339.1
518.706	35357.63
519.073	35631.52
519.44	35802.14
519.808	36275.8
520.175	36117.16
520.542	36689.57
520.909	36851.83
521.276	36830.59
521.643	37326.39
522.009	37359.61
522.376	37690.45
522.743	38059.48
523.11	38314.61
523.477	38671.89
523.843	38944.43
524.21	39410.4
524.577	39617.18
524.943	39710.51
525.31	39955.02
525.676	40371.96
526.043	40560.66
526.409	40787.09
526.776	41273.63
527.142	41373.52
527.508	41701.42
527.874	42183.66
528.241	42403.77
528.607	42481.96
528.973	42792.46
529.339	42990.88
529.705	43433.58
530.071	43683.29
530.437	43944.97
530.803	44103.84
531.169	44426.09
531.535	44280.78
531.901	44577.05
532.267	44665.41
532.632	44957.38
532.998	44920.54
533.364	45296.58
533.73	45389.23
534.095	45808.65
534.461	45861.53
534.826	46125.03
535.192	46166.38
535.557	46485.7
535.923	46498.58
536.288	46764.34
536.653	46846.37
537.019	46843.66
537.384	47035.74
537.749	47224.89
538.114	47362.51
538.479	47452.45
538.845	47655.39
539.21	47753.24
539.575	47939.67
539.94	48117.29
540.305	48362.94
540.67	48388.02
541.034	48662.36
541.399	48700.56
541.764	48761.12
542.129	48960.66
542.494	49154.1
542.858	49415.34
543.223	49348.22
543.587	49682
543.952	49561.55
544.316	49776.01
544.681	49710.92
545.045	49950.24
545.41	50160.4
545.774	50212.83
546.138	50216.67
546.503	50345.48
546.867	50288.31
547.231	50693.27
547.595	50746.83
547.959	50768.98
548.324	50826.83
548.688	50952.02
549.052	51069.98
549.416	51160.83
549.779	51199.47
550.143	51306.36
550.507	51506.81
550.871	51691.66
551.235	51730.53
551.599	51990.64
551.962	52178.43
552.326	52171.2
552.689	52345.43
553.053	52283.06
553.417	52312.21
553.78	52733.44
554.143	52752.43
554.507	52954.91
554.87	53073.55
555.234	53335.91
555.597	53306.31
555.96	53411.39
556.323	53599.41
556.686	53688.67
557.05	53827.88
557.413	53956.69
557.776	54020.19
558.139	54125.72
558.502	54217.7
558.865	54321.42
559.228	54479.84
559.59	54553.06
559.953	54591.25
560.316	54835.76
560.679	54836.21
561.041	55059.71
561.404	55108.75
561.767	55316.43
562.129	55157.34
562.492	55542.64
562.854	55476.42
563.217	55545.8
563.579	55704.67
563.941	55874.6
564.304	56008.16
564.666	56099.01
565.028	56166.12
565.39	56276.85
565.753	56395.72
566.115	56580.8
566.477	56706.67
566.839	56730.18
567.201	56948.47
567.563	56964.97
567.925	57084.74
568.287	57168.13
568.648	57231.4
569.01	57408.58
569.372	57519.98
569.734	57471.85
570.095	57638.4
570.457	57813.76
570.819	57882.01
571.18	57866.87
571.542	58001.1
571.903	58055.56
572.265	58137.37
572.626	58205.39
572.987	58270.25
573.349	58320.19
573.71	58357.25
574.071	58398.38
574.432	58487.19
574.794	58619.16
575.155	58476.12
575.516	58491.94
575.877	58638.83
576.238	58625.49
576.599	58751.82
576.96	58765.83
577.32	58823.23
577.681	58923.79
578.042	58881.53
578.403	58863.68
578.763	58982.77
579.124	59019.83
579.485	59074.52
579.845	59128.53
580.206	59124.24
580.566	59135.76
580.927	59189.55
581.287	59319.03
581.648	59278.13
582.008	59394.96
582.368	59347.06
582.728	59487.62
583.089	59404.68
583.449	59403.1
583.809	59430.22
584.169	59512.02
584.529	59469.76
584.889	59691.23
585.249	59526.49
585.609	59492.59
585.969	59576.88
586.329	59418.01
586.688	59558.12
587.048	59532.59
587.408	59455.98
587.768	59498.46
588.127	59485.13
588.487	59362.87
588.846	59589.53
589.206	59347.28
589.565	59378.47
589.925	59526.49
590.284	59453.04
590.643	59368.75
591.003	59414.85
591.362	59486.94
591.721	59466.15
592.08	59418.92
592.44	59448.3
592.799	59399.94
593.158	59437.67
593.517	59448.3
593.876	59540.72
594.235	59424.12
594.593	59507.28
594.952	59557.9
595.311	59484.23
595.67	59516.32
596.029	59675.41
596.387	59725.12
596.746	59785.46
597.104	59641.51
597.463	59680.61
597.822	59822.98
598.18	59725.58
598.538	59728.51
598.897	59919.02
599.255	59684.9
599.613	60069.75
599.972	59939.81
600.33	59975.29
600.688	59873.14
601.046	59984.33
601.404	60033.82
601.762	60053.48
602.12	60122.4
602.478	60111.78
602.836	60113.81
603.194	60036.53
603.552	59968.73
603.91	59988.17
604.268	60103.87
604.625	60029.52
604.983	60087.6
605.341	59940.03
605.698	60034.72
606.056	60069.52
606.413	60008.51
606.771	60124.89
607.128	60159.46
607.485	60051.44
607.843	60022.97
608.2	60082.4
608.557	60193.81
608.914	60077.43
609.272	60232
609.629	60266.13
609.986	60302.51
610.343	60226.13
610.7	60343.19
611.057	60416.18
611.414	60350.42
611.771	60445.11
612.127	60476.74
612.484	60467.93
612.841	60539.11
613.198	60521.71
613.554	60557.42
613.911	60634.48
614.267	60665.89
614.624	60612.56
614.98	60777.75
615.337	60923.74
615.693	60895.04
616.05	60799.22
616.406	60908.82
616.762	60890.52
617.118	60914.7
617.475	60929.16
617.831	60937.75
618.187	60942.72
618.543	60968.26
618.899	61065.88
619.255	61053
619.611	60957.41
619.967	61084.18
620.323	61101.36
620.678	61025.43
621.034	60974.58
621.39	60954.92
621.746	60833.34
622.101	61168.7
622.457	60914.7
622.812	60930.52
623.168	60963.28
623.523	60912.89
623.879	60922.61
624.234	60777.75
624.589	60878.09
624.945	60889.61
625.3	60841.48
625.655	60767.13
626.01	60809.39
626.365	60761.26
626.72	60754.93
627.075	60772.33
627.43	60772.33
627.785	60730.97
628.14	60796.73
628.495	60763.06
628.85	60742.27
629.205	60680.58
629.559	60851.87
629.914	60752.67
630.269	60780.92
630.623	60727.58
630.978	60655.5
631.332	60769.16
631.687	60809.16
632.041	60729.62
632.396	60767.36
632.75	60662.5
633.104	60676.51
633.459	60587.25
633.813	60659.56
634.167	60679
634.521	60639
634.875	60615.5
635.229	60616.17
635.583	60486.69
635.937	60523.3
636.291	60489.17
636.645	60521.04
636.999	60380.02
637.352	60506.8
637.706	60310.42
638.06	60371.44
638.413	60346.13
638.767	60204.21
639.121	60230.42
639.474	60057.09
639.828	60062.74
640.181	60116.98
640.534	60014.61
640.888	59992.46
641.241	59829.75
641.594	59837.44
641.947	59849.64
642.301	59698.68
642.654	59769.19
643.007	59749.08
643.36	59680.83
643.713	59570.1
644.066	59675.86
644.419	59509.99
644.771	59335.08
645.124	59149.32
645.477	59028.65
645.83	58902.55
646.182	58742.78
646.535	58732.61
646.888	58760.63
647.24	58604.93
647.593	58728.54
647.945	58655.77
648.298	58513.86
648.65	58521.77
649.002	58527.64
649.355	58654.42
649.707	58559.05
650.059	58696.9
650.411	58973.51
650.763	59039.27
651.115	59234.97
651.467	59219.6
651.819	59205.36
652.171	59140.28
652.523	59116.78
652.875	59138.02
653.227	59022.32
653.578	59205.36
653.93	59139.6
654.282	58958.59
654.633	58928.31
654.985	58958.14
655.337	58954.07
655.688	58878.14
656.039	59017.57
656.391	58798.37
656.742	58769.9
657.094	58862.77
657.445	58906.84
657.796	58808.31
658.147	58777.35
658.498	58764.92
658.849	58659.62
659.2	58663.68
659.551	58577.81
659.902	58698.94
660.253	58566.51
660.604	58545.49
660.955	58423.46
661.306	58455.1
661.656	58339.17
662.007	58379.17
662.358	58341.21
662.708	58281.77
663.059	58268.89
663.409	58110.25
663.76	58162
664.11	58195.9
664.461	58188.67
664.811	58093.3
665.161	58094.88
665.511	58050.59
665.862	58143.25
666.212	58088.56
666.562	58116.13
666.912	58081.55
667.262	58018.95
667.612	58006.3
667.962	58054.21
668.312	58067.54
668.662	58186.41
669.011	58045.39
669.361	58087.43
669.711	58178.05
670.06	58130.14
670.41	58038.84
670.76	58083.13
671.109	58162.23
671.459	58125.62
671.808	58067.99
672.157	58138.5
672.507	57940.76
672.856	57931.05
673.205	58041.33
673.554	58045.39
673.904	57967.43
674.253	58105.73
674.602	57991.16
674.951	57661.45
675.3	57505.52
675.649	57957.26
675.998	57870.48
676.346	57823.03
676.695	57916.13
677.044	57704.39
677.393	57778.28
677.741	57733.99
678.09	57678.4
678.438	57656.03
678.787	57656.03
679.135	57626.2
679.484	57366.99
679.832	57456.48
680.181	57363.6
680.529	57342.36
680.877	57252.87
681.225	57181.24
681.573	57287.9
681.922	57108.47
682.27	56994.35
682.618	56955.48
682.966	56858.31
683.314	56907.12
683.661	56781.25
684.009	56754.13
684.357	56662.15
684.705	56588.71
685.053	56560.01
685.4	56521.59
685.748	56411.09
686.095	56359.11
686.443	56237.08
686.79	56295.38
687.138	56230.3
687.485	56266.01
687.832	56189.4
688.18	56270.98
688.527	56066.24
688.874	55998.89
689.221	56024.66
689.568	55934.72
689.915	55896.3
690.262	55873.25
690.609	55845.23
690.956	55751.9
691.303	55776.98
691.65	55657.66
691.997	55653.37
692.344	55473.03
692.69	55505.35
693.037	55481.17
693.383	55178.35
693.73	55372.92
694.077	55193.04
694.423	55187.39
694.769	55139.93
695.116	55014.29
695.462	55009.09
695.808	54878.7
696.155	54970.45
696.501	54821.07
696.847	54745.82
697.193	54556.9
697.539	54668.53
697.885	54433.06
698.231	54332.27
698.577	54358.26
698.923	54263.57
699.269	54178.6
699.614	53941.77
699.96	53926.63
700.306	53853.19
700.651	53730.25
700.997	53629.47
701.342	53550.37
701.688	53424.5
702.033	53322.58
702.379	53306.08
702.724	53165.07
703.069	53228.8
703.415	52765.76
703.76	52853.89
704.105	52695.25
704.45	52641.02
704.795	52444.86
705.14	52389.95
705.485	52232.44
705.83	52107.7
706.175	52164.42
706.52	51964.42
706.865	51955.84
707.209	51847.14
707.554	51596.3
707.899	51711.32
708.243	51557.2
708.588	51454.83
708.932	51220.94
709.277	51253.71
709.621	51313.59
709.966	51119.93
710.31	51138.68
710.654	50794.06
710.998	51014.17
711.342	50975.75
711.687	50831.12
712.031	50720.16
712.375	50615.76
712.719	50714.97
713.063	50581.86
713.407	50748.19
713.75	50530.34
714.094	50420.06
714.438	50413.28
714.782	50493.73
715.125	50274.75
715.469	50461.64
715.812	50264.81
716.156	49978.04
716.499	50006.96
716.843	50098.03
717.186	49737.36
717.53	50046.06
717.873	49955.66
718.216	49805.16
718.559	49821.2
718.902	49417.37
719.246	49500.76
719.589	49338.28
719.932	49261.9
720.275	49271.61
720.617	49144.16
720.96	49042.92
721.303	49012.86
721.646	48971.96
721.989	48896.03
722.331	49009.02
722.674	48759.76
723.016	48681.35
723.359	48589.82
723.701	48612.87
724.044	48299.44
724.386	48221.7
724.729	48306.89
725.071	48093.57
725.413	48017.41
725.755	47956.85
726.097	47793.91
726.439	47587.14
726.782	47609.51
727.124	47748.72
727.465	47475.5
727.807	47375.17
728.149	47252.46
728.491	47073.93
728.833	47211.78
729.175	46816.09
729.516	46903.31
729.858	46739.03
730.199	46795.07
730.541	46627.62
730.882	46700.16
731.224	46659.71
731.565	46388.98
731.906	46439.37
732.248	46370.45
732.589	46145.59
732.93	46012.49
733.271	46013.62
733.612	46170.23
733.953	46148.08
734.294	45852.27
734.635	45792.38
734.976	45898.14
735.317	45773.17
735.658	45509
735.999	45711.71
736.339	45583.35
736.68	45720.75
737.021	45421.55
737.361	45355.78
737.702	45529.57
738.042	45231.95
738.383	45473.3
738.723	45487.98
739.063	45280.76
739.404	45396.46
739.744	45174.55
740.084	45104.27
740.424	45037.83
740.764	44999.41
741.104	45105.17
741.444	44692.3
741.784	44709.47
742.124	44780.88
742.464	44605.52
742.804	44642.13
743.143	44607.78
743.483	44586.77
743.823	44313.55
744.162	44332.76
744.502	44408.47
744.841	44116.27
745.181	44329.82
745.52	43940.91
745.86	44076.72
746.199	43917.63
746.538	43754.92
746.877	43791.98
747.216	43721.7
747.556	43650.29
747.895	43606.45
748.234	43283.3
748.573	43269.06
748.911	43306.8
749.25	43103.41
749.589	42992.23
749.928	42988.39
750.267	42911.1
750.605	42733.93
750.944	42702.52
751.283	42453.71
751.621	42558.8
751.96	42247.84
752.298	42473.83
752.636	42186.83
