Data from aluminium_macbook_case_FLMS001491_027.txt Node
Date: Tue Feb 07 10:43:26 GMT 2017
User: dcchb
Spectrometer: FLMS00149
Trigger mode: 0
Integration Time (sec): 2.000000E-2
Scans to average: 10
Electric dark correction enabled: true
Nonlinearity correction enabled: false
Boxcar width: 0
XAxis mode: Wavelengths
Number of Pixels in Spectrum: 2048
>>>>>Begin Spectral Data<<<<<
341.393	-38.94
341.776	-38.94
342.16	-38.94
342.543	-56.11
342.927	-75.77
343.31	-79.16
343.693	-80.29
344.077	-75.77
344.46	-61.09
344.843	-49.11
345.226	-35.32
345.61	-48.43
345.993	-15.89
346.376	-4.82
346.759	11.45
347.142	7.61
347.525	67.05
347.908	62.53
348.291	82.87
348.674	101.62
349.057	116.76
349.44	130.1
349.823	157.21
350.206	163.09
350.588	239.25
350.971	249.64
351.354	273.14
351.737	272.01
352.119	289.19
352.502	285.35
352.884	312.92
353.267	324.67
353.65	348.39
354.032	355.4
354.414	379.13
354.797	385.46
355.179	369.19
355.562	372.57
355.944	382.97
356.326	386.13
356.709	400.82
357.091	406.25
357.473	399.24
357.855	404.44
358.238	394.27
358.62	409.86
359.002	410.31
359.384	416.19
359.766	448.73
360.148	406.25
360.53	411.67
360.912	403.76
361.294	422.52
361.676	412.12
362.057	413.48
362.439	398.34
362.821	407.6
363.203	394.72
363.584	402.63
363.966	413.48
364.348	396.76
364.729	408.05
365.111	380.94
365.493	402.18
365.874	405.12
366.256	405.57
366.637	395.85
367.019	409.86
367.4	422.29
367.781	432.46
368.163	419.58
368.544	414.61
368.925	452.12
369.306	431.1
369.688	435.4
370.069	434.95
370.45	455.96
370.831	446.47
371.212	428.62
371.593	455.06
371.974	446.92
372.355	439.47
372.736	445.12
373.117	434.04
373.498	449.41
373.879	472.46
374.26	449.18
374.641	443.31
375.021	440.82
375.402	472.23
375.783	483.31
376.163	514.94
376.544	503.42
376.925	511.33
377.305	494.38
377.686	521.05
378.066	502.74
378.447	500.03
378.827	533.02
379.208	504.77
379.588	509.97
379.968	540.25
380.349	533.47
380.729	534.38
381.109	542.97
381.489	560.37
381.87	532.12
382.25	552.68
382.63	565.79
383.01	554.04
383.39	571.44
383.77	583.19
384.15	574.83
384.53	605.79
384.91	594.04
385.29	606.69
385.67	631.78
386.049	644.21
386.429	615.73
386.809	651.21
387.189	637.65
387.568	648.95
387.948	660.03
388.328	673.58
388.707	687.37
389.087	680.82
389.466	698.89
389.846	690.08
390.225	716.52
390.605	704.54
390.984	719.23
391.363	728.95
391.743	715.39
392.122	765.56
392.501	757.2
392.881	775.73
393.26	797.87
393.639	782.73
394.018	807.59
394.397	792
394.776	807.82
395.155	825.9
395.534	836.97
395.913	850.08
396.292	860.47
396.671	860.47
397.05	861.15
397.429	873.8
397.808	892.34
398.186	911.32
398.565	910.41
398.944	901.15
399.323	931.88
399.701	915.16
400.08	927.59
400.458	963.52
400.837	976.63
401.215	968.04
401.594	965.78
401.972	1018.66
402.351	1020.47
402.729	1029.73
403.107	1029.96
403.486	1021.82
403.864	1085.1
404.242	1079.68
404.62	1067.47
404.999	1075.38
405.377	1103.18
405.755	1103.63
406.133	1137.53
406.511	1128.26
406.889	1171.65
407.267	1194.47
407.645	1206.68
408.023	1221.14
408.401	1218.88
408.779	1215.94
409.156	1285.09
409.534	1260.46
409.912	1303.17
410.29	1341.14
410.667	1354.7
411.045	1370.74
411.422	1366.9
411.8	1412.55
412.178	1410.51
412.555	1466.33
412.933	1464.52
413.31	1484.64
413.687	1506.1
414.065	1517.86
414.442	1520.34
414.819	1571.41
415.197	1565.09
415.574	1609.15
415.951	1596.27
416.328	1628.81
416.705	1680.56
417.082	1675.37
417.46	1691.64
417.837	1687.34
418.214	1726.66
418.591	1741.58
418.967	1768.47
419.344	1791.97
419.721	1781.8
420.098	1798.98
420.475	1822.93
420.852	1885.76
421.228	1870.39
421.605	1924.62
421.982	1914.23
422.358	1942.25
422.735	2003.27
423.111	1989.48
423.488	2049.59
423.864	2028.8
424.241	2019.09
424.617	2082.81
424.994	2098.18
425.37	2129.36
425.746	2171.4
426.123	2170.95
426.499	2190.15
426.875	2215.92
427.251	2264.73
427.627	2319.42
428.003	2359.42
428.379	2402.58
428.756	2394.44
429.132	2433.09
429.507	2496.81
429.883	2480.99
430.259	2582.23
430.635	2584.95
431.011	2609.8
431.387	2684.15
431.763	2719.86
432.138	2709.46
432.514	2747.43
432.89	2795.34
433.265	2852.74
433.641	2908.1
434.016	2931.6
434.392	2970.47
434.767	3034.43
435.143	3012.28
435.518	3076.46
435.894	3111.49
436.269	3171.37
436.644	3188.77
437.02	3267.87
437.395	3261.09
437.77	3289.33
438.145	3367.52
438.52	3390.8
438.895	3444.13
439.271	3455.88
439.646	3537.92
440.021	3569.1
440.395	3599.83
440.77	3551.7
441.145	3610
441.52	3676.89
441.895	3676.67
442.27	3709.66
442.645	3705.59
443.019	3797.34
443.394	3807.74
443.769	3843.9
444.143	3768.87
444.518	3933.61
444.892	3886.38
445.267	3961.18
445.641	3981.75
446.016	4028.75
446.39	4081.18
446.764	4113.04
447.139	4112.36
447.513	4173.38
447.887	4143.55
448.262	4180.61
448.636	4167.96
449.01	4293.6
449.384	4292.7
449.758	4338.8
450.132	4436.42
450.506	4367.72
450.88	4476.2
451.254	4496.76
451.628	4630.54
452.002	4636.42
452.376	4642.29
452.75	4694.95
453.123	4774.72
453.497	4865.34
453.871	4934.94
454.244	4990.31
454.618	5000.48
454.992	5110.76
455.365	5110.08
455.739	5250.64
456.112	5320.02
456.486	5354.14
456.859	5375.83
457.232	5570.63
457.606	5476.17
457.979	5577.86
458.352	5704.41
458.725	5750.96
459.099	5801.58
459.472	5930.62
459.845	5956.38
460.218	6068.47
460.591	6068.7
460.964	6101.01
461.337	6289.71
461.71	6403.38
462.083	6498.97
462.456	6548.68
462.829	6511.62
463.201	6716.81
463.574	6752.07
463.947	6825.96
464.32	6973.53
464.692	7018.28
465.065	7104.6
465.438	7180.76
465.81	7323.35
466.183	7419.62
466.555	7578.26
466.928	7641.54
467.3	7613.06
467.672	7738.48
468.045	7955.88
468.417	7981.64
468.789	8011.47
469.161	8097.12
469.534	8317.45
469.906	8449.88
470.278	8554.73
470.65	8630.89
471.022	8831.79
471.394	8953.14
471.766	9079.24
472.138	9170.76
472.51	9382.96
472.882	9539.34
473.253	9676.51
473.625	9883.96
473.997	10072.21
474.369	10125.54
474.74	10260.9
475.112	10421.12
475.484	10643.94
475.855	10792.41
476.227	10930.72
476.598	11252.06
476.97	11311.5
477.341	11598.72
477.713	11749
478.084	11796
478.455	12156.9
478.827	12225.6
479.198	12586.49
479.569	12616.09
479.94	13001.4
480.311	13127.49
480.682	13423.98
481.053	13694.71
481.424	13976.29
481.795	14069.62
482.166	14301.25
482.537	14532.43
482.908	14907.79
483.279	15002.7
483.65	15424.83
484.021	15646.3
484.391	15909.57
484.762	16067.3
485.133	16162.22
485.503	16435.88
485.874	16804.01
486.244	16963.78
486.615	17213.71
486.985	17423.65
487.356	17770.54
487.726	17913.36
488.097	18329.39
488.467	18304.76
488.837	18775.03
489.207	18980.45
489.578	19248.46
489.948	19367.56
490.318	19679.19
490.688	19763.48
491.058	20088.89
491.428	20386.96
491.798	20612.72
492.168	20964.58
492.538	21133.39
492.908	21337.22
493.278	21776.98
493.648	21736.76
494.017	22076.86
494.387	22285.9
494.757	22545.1
495.126	22894.47
495.496	22791.42
495.866	23062.6
496.235	23343.72
496.605	23497.39
496.974	23629.59
497.344	23982.58
497.713	24046.98
498.082	24089.47
498.452	24433.41
498.821	24442.22
499.19	24640.41
499.559	24866.39
499.928	25065.71
500.298	25253.5
500.667	25374.63
501.036	25369.88
501.405	25672.47
501.774	25811.91
502.143	26078.79
502.512	26239.47
502.88	26483.75
503.249	26550.42
503.618	26847.59
503.987	26989.28
504.356	27287.57
504.724	27407.34
505.093	27526.89
505.462	27772.31
505.83	28027.89
506.199	28264.04
506.567	28492.29
506.936	28550.14
507.304	28996.46
507.672	28996
508.041	29153.97
508.409	29342.89
508.777	29647.06
509.145	29866.04
509.514	29843.89
509.882	30169.53
510.25	30175.86
510.618	30447.04
510.986	30651.78
511.354	30793.24
511.722	31135.38
512.09	31298.54
512.458	31388.71
512.826	31685.88
513.193	31782.14
513.561	32126.99
513.929	32410.15
514.297	32630.71
514.664	32955.67
515.032	33105.95
515.4	33477.47
515.767	33584.58
516.135	33924.24
516.502	33858.47
516.869	34418.91
517.237	34448.29
517.604	34663.42
517.972	35021.16
518.339	35233.81
518.706	35303.41
519.073	35539.11
519.44	35874.47
519.808	36220.67
520.175	36199.88
520.542	36527.78
520.909	36847.1
521.276	36786.98
521.643	37253.19
522.009	37571.37
522.376	37835.32
522.743	38047.74
523.11	38404.8
523.477	38693.15
523.843	38750.1
524.21	39328.16
524.577	39535.84
524.943	39707.59
525.31	40087.91
525.676	40355.25
526.043	40667.33
526.409	40844.73
526.776	41302.57
527.142	41391.16
527.508	41662.56
527.874	42080.63
528.241	42305.48
528.607	42486.5
528.973	42969.42
529.339	42933.26
529.705	43374.83
530.071	43780.47
530.437	43992.44
530.803	44140.92
531.169	44382.27
531.535	44223.17
531.901	44522.83
532.267	44672.43
532.632	45054.56
532.998	45134.11
533.364	45239.19
533.73	45483.25
534.095	45763.7
534.461	45869.91
534.826	45998.49
535.192	46174.53
535.557	46450.69
535.923	46537.01
536.288	46791.69
536.653	46893.84
537.019	46772.03
537.384	47111.68
537.749	47332.92
538.114	47354.16
538.479	47390.77
538.845	47852
539.21	47713.48
539.575	47926.35
539.94	48190.07
540.305	48440.01
540.67	48497.64
541.034	48603.85
541.399	48903.73
541.764	48827.57
542.129	49010.84
542.494	49250.16
542.858	49390.5
543.223	49481.79
543.587	49598.85
543.952	49651.96
544.316	49875.68
544.681	49709.81
545.045	49953.19
545.41	50173.3
545.774	50234.54
546.138	50161.55
546.503	50385.05
546.867	50369.23
547.231	50675.89
547.595	50712.95
547.959	50838.59
548.324	50808.08
548.688	50945.26
549.052	51100.05
549.416	51134.18
549.779	51244.01
550.143	51273.61
550.507	51594.5
550.871	51721.51
551.235	51738.91
551.599	51985
551.962	52015.28
552.326	52168.5
552.689	52396.29
553.053	52290.98
553.417	52359.68
553.78	52825.89
554.143	52676.74
554.507	52972.55
554.87	53021.59
555.234	53414.8
555.597	53197.63
555.96	53405.53
556.323	53551.52
556.686	53627.67
557.05	53810.94
557.413	53937.95
557.776	53986.53
558.139	54155.57
558.502	54170.71
558.865	54263.36
559.228	54437.82
559.59	54527.08
559.953	54493.64
560.316	54874.87
560.679	54832.16
561.041	55064.47
561.404	55131.81
561.767	55380.17
562.129	55218.36
562.492	55468.98
562.854	55520.96
563.217	55555.3
563.579	55689.54
563.941	55898.57
564.304	55936.99
564.666	56145.35
565.028	56188.51
565.39	56275.74
565.753	56412.68
566.115	56580.59
566.477	56657.65
566.839	56740.58
567.201	56943.52
567.563	56990.07
567.925	57098.54
568.287	57233.9
568.648	57251.53
569.01	57429.15
569.372	57611.07
569.734	57493.11
570.095	57692.88
570.457	57908.69
570.819	57837.05
571.18	57870.95
571.542	58069.14
571.903	58023.26
572.265	58104.62
572.626	58216.25
572.987	58287.66
573.349	58350.03
573.71	58307.1
574.071	58373.54
574.432	58446.98
574.794	58642.46
575.155	58645.39
575.516	58545.28
575.877	58598.39
576.238	58680.87
576.599	58768.1
576.96	58739.18
577.32	58789.8
577.681	58902.79
578.042	58994.08
578.403	58938.04
578.763	58956.35
579.124	59000.19
579.485	59123.57
579.845	59196.79
580.206	59177.36
580.566	59237.24
580.927	59257.35
581.287	59363.57
581.648	59295.32
582.008	59446.28
582.368	59351.14
582.728	59414.64
583.089	59414.41
583.449	59462.32
583.809	59453.28
584.169	59543.67
584.529	59454.86
584.889	59677.91
585.249	59475.65
585.609	59447.63
585.969	59629.32
586.329	59556.56
586.688	59604.24
587.048	59531.47
587.408	59550
587.768	59493.73
588.127	59450.8
588.487	59423
588.846	59556.1
589.206	59392.94
589.565	59436.11
589.925	59607.18
590.284	59423.45
590.643	59404.7
591.003	59460.96
591.362	59517.23
591.721	59505.71
592.08	59459.38
592.44	59512.49
592.799	59484.24
593.158	59492.15
593.517	59507.74
593.876	59465.03
594.235	59496.44
594.593	59516.1
594.952	59538.7
595.311	59465.48
595.67	59572.6
596.029	59652.6
596.387	59674.52
596.746	59748.19
597.104	59679.04
597.463	59632.49
597.822	59724.69
598.18	59776.44
598.538	59763.33
598.897	59869.54
599.255	59751.58
599.613	60077.9
599.972	59874.51
600.33	59945.92
600.688	59888.98
601.046	60011.91
601.404	60092.36
601.762	60000.16
602.12	60161.96
602.478	60076.54
602.836	60110.21
603.194	59958.13
603.552	60076.32
603.91	59945.25
604.268	60060.72
604.625	60011.01
604.983	60133.94
605.341	59965.13
605.698	60140.95
606.056	60032.7
606.413	60079.25
606.771	60140.27
607.128	60159.93
607.485	60041.06
607.843	60014.4
608.2	60120.61
608.557	60226.82
608.914	60118.8
609.272	60240.83
609.629	60182.98
609.986	60372.81
610.343	60229.98
610.7	60385.69
611.057	60380.94
611.414	60357.66
611.771	60449.64
612.127	60442.86
612.484	60479.7
612.841	60622.97
613.198	60474.72
613.554	60562.86
613.911	60705
614.267	60675.4
614.624	60652.8
614.98	60725.56
615.337	60955.16
615.693	60886.92
616.05	60881.72
616.406	60996.97
616.762	60901.15
617.118	60879.91
617.475	60957.65
617.831	60990.64
618.187	60940.47
618.543	60997.2
618.899	61083.3
619.255	61038.32
619.611	61008.95
619.967	61064.76
620.323	61161.49
620.678	61049.62
621.034	61008.04
621.39	60970.76
621.746	60872.91
622.101	61154.71
622.457	60923.3
622.812	60900.47
623.168	60952.23
623.523	60879.91
623.879	60969.63
624.234	60792.46
624.589	60862.96
624.945	60874.94
625.3	60914.26
625.655	60777.77
626.01	60788.16
626.365	60825.45
626.72	60788.16
627.075	60837.65
627.43	60767.37
627.785	60697.77
628.14	60771.21
628.495	60735.73
628.85	60767.15
629.205	60693.7
629.559	60894.37
629.914	60714.27
630.269	60752
630.623	60794.49
630.978	60724.89
631.332	60757.43
631.687	60826.13
632.041	60689.41
632.396	60829.52
632.75	60718.78
633.104	60748.16
633.459	60608.96
633.813	60647.15
634.167	60617.54
634.521	60703.64
634.875	60644.21
635.229	60604.89
635.583	60501.16
635.937	60550.88
636.291	60521.05
636.645	60533.03
636.999	60417.78
637.352	60483.99
637.706	60375.52
638.06	60445.57
638.413	60299.59
638.767	60256.88
639.121	60267.05
639.474	60071.34
639.828	60044.9
640.181	60175.52
640.534	60109.54
640.888	59950.67
641.241	59776.66
641.594	59934.17
641.947	59876.1
642.301	59727.17
642.654	59754.29
643.007	59728.75
643.36	59715.2
643.713	59553.17
644.066	59672.48
644.419	59454.64
644.771	59346.62
645.124	59133.97
645.477	59072.27
645.83	58878.38
646.182	58785.95
646.535	58695.79
646.888	58797.71
647.24	58606.52
647.593	58764.71
647.945	58618.05
648.298	58524.04
648.65	58566.53
649.002	58442.23
649.355	58650.82
649.707	58581.21
650.059	58658.73
650.411	58953.18
650.763	58983.92
651.115	59235.89
651.467	59204.47
651.819	59261.65
652.171	59173.06
652.523	59128.09
652.875	59121.99
653.227	59011.94
653.578	59171.48
653.93	59105.04
654.282	58975.33
654.633	58940.3
654.985	58938.27
655.337	58982.33
655.688	58988.66
656.039	59048.32
656.391	58830.92
656.742	58858.27
657.094	58790.7
657.445	58866.63
657.796	58805.84
658.147	58753.41
658.498	58748.89
658.849	58771.94
659.2	58670.7
659.551	58650.59
659.902	58624.15
660.253	58525.62
660.604	58552.29
660.955	58405.17
661.306	58464.15
661.656	58371.73
662.007	58333.08
662.358	58286.76
662.708	58350.71
663.059	58265.97
663.409	58100.32
663.76	58237.95
664.11	58215.57
664.461	58205.4
664.811	58064.62
665.161	58101.68
665.511	58096.71
665.862	58133.99
666.212	58142.58
666.562	58204.73
666.912	58046.54
667.262	58079.31
667.612	58088.12
667.962	58117.95
668.312	58050.38
668.662	58222.58
669.011	58134.67
669.361	58154.78
669.711	58172.86
670.06	58143.94
670.41	58134.9
670.76	58018.29
671.109	58203.6
671.459	58090.61
671.808	58024.17
672.157	58178.74
672.507	57991.17
672.856	57993.21
673.205	58004.73
673.554	58092.41
673.904	57971.29
674.253	58075.92
674.602	58012.87
674.951	57656.49
675.3	57490.17
675.649	57889.71
675.998	57933.55
676.346	57866.88
676.695	57918.18
677.044	57774
677.393	57739.2
677.741	57767.45
678.09	57696.27
678.438	57663.27
678.787	57682.25
679.135	57651.52
679.484	57400.68
679.832	57472.54
680.181	57336.95
680.529	57400.45
680.877	57251.53
681.225	57194.13
681.573	57359.78
681.922	57046.11
682.27	56980.35
682.618	57014.02
682.966	56968.15
683.314	56947.13
683.661	56785.1
684.009	56756.86
684.357	56659
684.705	56650.87
685.053	56581.04
685.4	56552.11
685.748	56411.33
686.095	56397.77
686.443	56278.22
686.79	56288.84
687.138	56277.09
687.485	56243.65
687.832	56174.95
688.18	56255.63
688.527	55990.55
688.874	56118.45
689.221	56008.17
689.568	55977.67
689.915	55911.91
690.262	55953.03
690.609	55840.72
690.956	55840.72
691.303	55795.07
691.65	55609.31
691.997	55662.65
692.344	55508.3
692.69	55441.41
693.037	55451.58
693.383	55228.53
693.73	55330.9
694.077	55233.05
694.423	55186.95
694.769	55150.34
695.116	55054.3
695.462	55002.55
695.808	54935.43
696.155	55031.93
696.501	54676.68
696.847	54703.12
697.193	54571.15
697.539	54653.63
697.885	54460.64
698.231	54349.01
698.577	54348.78
698.923	54307.65
699.269	54031.28
699.614	53875.35
699.96	53810.49
700.306	53842.13
700.651	53698.18
700.997	53572.08
701.342	53523.95
701.688	53452.08
702.033	53317.62
702.379	53246.89
702.724	53178.64
703.069	53150.85
703.415	52835.6
703.76	52807.58
704.105	52698.88
704.45	52638.32
704.795	52417.08
705.14	52396.07
705.485	52340.25
705.83	52071.78
706.175	52115.17
706.52	52041.5
706.865	51887.6
707.209	51865.23
707.554	51712.69
707.899	51685.8
708.243	51560.38
708.588	51437.67
708.932	51314.06
709.277	51331.01
709.621	51394.51
709.966	51092.6
710.31	51160.84
710.654	50823.23
710.998	51060.96
711.342	50987.74
711.687	50895.09
712.031	50757.92
712.375	50663.68
712.719	50823.23
713.063	50647.19
713.407	50685.38
713.75	50479.51
714.094	50491.94
714.438	50482.67
714.782	50419.62
715.125	50366.06
715.469	50417.59
715.812	50110.7
716.156	50006.75
716.499	50066.86
716.843	50179.85
717.186	49810.15
717.53	50118.61
717.873	49966.07
718.216	49764.72
718.559	49616.03
718.902	49449.7
719.246	49543.26
719.589	49280.89
719.932	49293.32
720.275	49252.65
720.617	49201.57
720.96	49126.1
721.303	49123.61
721.646	49066.21
721.989	48724.98
722.331	49028.24
722.674	48696.5
723.016	48747.8
723.359	48650.85
723.701	48652.44
724.044	48368.6
724.386	48062.62
724.729	48184.2
725.071	48055.61
725.413	47969.52
725.755	48052
726.097	47695.62
726.439	47614.5
726.782	47546.02
727.124	47649.75
727.465	47457.89
727.807	47323.66
728.149	47239.82
728.491	46994.63
728.833	47188.29
729.175	46784.69
729.516	46869.21
729.858	46730.23
730.199	46902.88
730.541	46785.14
730.882	46626.27
731.224	46702.43
731.565	46370.01
731.906	46312.84
732.248	46364.13
732.589	46095.44
732.93	46064.48
733.271	46117.59
733.612	46017.7
733.953	46134.31
734.294	45844.15
734.635	45897.03
734.976	45813.87
735.317	45577.71
735.658	45616.58
735.999	45634.66
736.339	45642.12
736.68	45725.51
737.021	45462.69
737.361	45380.43
737.702	45540.88
738.042	45361.22
738.383	45323.71
738.723	45504.72
739.063	45229.93
739.404	45388.57
739.744	45295.46
740.084	45103.38
740.424	45061.34
740.764	44919.88
741.104	45160.55
741.444	44810.05
741.784	44788.13
742.124	44780.9
742.464	44634.91
742.804	44645.99
743.143	44622.94
743.483	44608.02
743.823	44427.24
744.162	44344.3
744.502	44355.83
744.841	44200.58
745.181	44233.34
745.52	43932.33
745.86	43997.42
746.199	43863.86
746.538	43841.94
746.877	43841.04
747.216	43847.59
747.556	43612.57
747.895	43657.31
748.234	43449.41
748.573	43326.25
748.911	43305.23
749.25	43128.29
749.589	42888.07
749.928	42984.56
750.267	42985.47
750.605	42836.32
750.944	42611.69
751.283	42609.66
751.621	42500.05
751.96	42296.44
752.298	42394.75
