Data from aluminium_macbook_case_FLMS001491_024.txt Node
Date: Tue Feb 07 10:43:26 GMT 2017
User: dcchb
Spectrometer: FLMS00149
Trigger mode: 0
Integration Time (sec): 2.000000E-2
Scans to average: 10
Electric dark correction enabled: true
Nonlinearity correction enabled: false
Boxcar width: 0
XAxis mode: Wavelengths
Number of Pixels in Spectrum: 2048
>>>>>Begin Spectral Data<<<<<
341.393	3.7
341.776	3.7
342.16	3.7
342.543	-79.69
342.927	-63.87
343.31	-56.64
343.693	-43.76
344.077	-76.52
344.46	-76.07
344.843	-50.99
345.226	-42.17
345.61	-34.94
345.993	-22.29
346.376	0.54
346.759	-6.47
347.142	24.72
347.525	43.47
347.908	62.46
348.291	84.15
348.674	96.81
349.057	97.71
349.44	101.55
349.823	153.08
350.206	174.32
350.588	217.25
350.971	244.37
351.354	267.2
351.737	283.24
352.119	291.38
352.502	315.56
352.884	323.69
353.267	350.81
353.65	339.96
354.032	351.26
354.414	373.18
354.797	362.34
355.179	376.12
355.562	383.8
355.944	368.44
356.326	396.23
356.709	402.11
357.091	387.87
357.473	415.44
357.855	420.64
358.238	394.88
358.62	384.48
359.002	398.72
359.384	396.46
359.766	402.11
360.148	410.47
360.53	396.46
360.912	413.18
361.294	407.98
361.676	431.49
362.057	413.63
362.439	413.63
362.821	400.3
363.203	411.15
363.584	413.18
363.966	412.96
364.348	404.82
364.729	415.67
365.111	414.76
365.493	405.05
365.874	415.67
366.256	417.25
366.637	407.98
367.019	397.59
367.4	428.32
367.781	421.99
368.163	440.75
368.544	411.83
368.925	411.83
369.306	437.36
369.688	452.73
370.069	446.85
370.45	443.01
370.831	410.7
371.212	437.14
371.593	436.01
371.974	449.79
372.355	461.09
372.736	481.43
373.117	483.91
373.498	460.64
373.879	456.8
374.26	446.17
374.641	445.5
375.021	455.89
375.402	475.55
375.783	485.27
376.163	526.17
376.544	525.95
376.925	506.06
377.305	476.68
377.686	497.92
378.066	509.68
378.447	516.46
378.827	514.2
379.208	530.24
379.588	512.84
379.968	510.13
380.349	549
380.729	534.31
381.109	546.29
381.489	544.48
381.87	549.67
382.25	543.57
382.63	552.16
383.01	577.47
383.39	574.08
383.77	584.02
384.15	576.79
384.53	585.15
384.91	625.38
385.29	593.97
385.67	636.68
386.049	625.15
386.429	623.35
386.809	635.55
387.189	654.08
387.568	657.47
387.948	659.5
388.328	681.2
388.707	684.59
389.087	679.61
389.466	689.78
389.846	686.17
390.225	700.63
390.605	701.99
390.984	691.59
391.363	713.96
391.743	734.3
392.122	746.51
392.501	778.6
392.881	774.53
393.26	782.21
393.639	789.22
394.018	800.52
394.397	789.44
394.776	854.75
395.155	820.63
395.534	825.37
395.913	828.31
396.292	848.88
396.671	866.5
397.05	870.12
397.429	878.93
397.808	894.52
398.186	899.72
398.565	896.56
398.944	880.97
399.323	913.51
399.701	920.96
400.08	935.88
400.458	951.25
400.837	967.74
401.215	960.96
401.594	983.56
401.972	991.92
402.351	1013.62
402.729	981.75
403.107	1043.22
403.486	1050.68
403.864	1058.36
404.242	1075.54
404.62	1086.84
404.999	1059.04
405.377	1077.8
405.755	1127.51
406.133	1139.04
406.511	1146.04
406.889	1177.91
407.267	1199.15
407.645	1218.36
408.023	1209.54
408.401	1224.69
408.779	1251.8
409.156	1267.17
409.534	1301.97
409.912	1312.37
410.29	1315.98
410.667	1365.25
411.045	1359.6
411.422	1392.36
411.8	1414.28
412.178	1412.25
412.555	1453.83
412.933	1464
413.31	1491.34
413.687	1506.49
414.065	1492.93
414.442	1517.78
414.819	1582.87
415.197	1594.39
415.574	1601.4
415.951	1607.73
416.328	1652.92
416.705	1658.12
417.082	1651.11
417.46	1670.32
417.837	1746.93
418.214	1719.36
418.591	1762.3
418.967	1732.92
419.344	1749.87
419.721	1840.94
420.098	1807.27
420.475	1857.89
420.852	1884.78
421.228	1901.96
421.605	1894.27
421.982	1931.56
422.358	1963.42
422.735	1960.03
423.111	1979.69
423.488	2009.75
423.864	2055.62
424.241	2072.35
424.617	2092.01
424.994	2099.24
425.37	2106.7
425.746	2176.98
426.123	2164.32
426.499	2200.25
426.875	2214.94
427.251	2262.17
427.627	2311.21
428.003	2324.54
428.379	2381.72
428.756	2428.04
429.132	2454.26
429.507	2509.17
429.883	2489.74
430.259	2565.67
430.635	2573.58
431.011	2605.44
431.387	2670.97
431.763	2690.86
432.138	2708.94
432.514	2781.93
432.89	2789.16
433.265	2829.61
433.641	2869.61
434.016	2900.8
434.392	2964.07
434.767	3041.81
435.143	3011.98
435.518	3083.17
435.894	3127.91
436.269	3113.9
436.644	3217.4
437.02	3238.19
437.395	3276.83
437.77	3289.04
438.145	3351.64
438.52	3410.39
438.895	3402.26
439.271	3438.64
439.646	3502.37
440.021	3497.62
440.395	3534.46
440.77	3514.79
441.145	3587.11
441.52	3637.05
441.895	3677.28
442.27	3712.53
442.645	3755.69
443.019	3745.97
443.394	3781.68
443.769	3825.75
444.143	3830.27
444.518	3907.55
444.892	3919.53
445.267	3909.59
445.641	3997.04
446.016	4020.09
446.39	4027.1
446.764	4080.66
447.139	4048.57
447.513	4155.23
447.887	4146.19
448.262	4189.81
448.636	4246.75
449.01	4253.76
449.384	4321.33
449.758	4388.22
450.132	4420.53
450.506	4394.77
450.88	4438.16
451.254	4463.24
451.628	4525.16
452.002	4630.02
452.376	4655.1
452.75	4713.86
453.123	4764.03
453.497	4841.31
453.871	4851.03
454.244	4972.84
454.618	5048.54
454.992	5107.3
455.365	5089.22
455.739	5231.36
456.112	5312.49
456.486	5348.42
456.859	5380.06
457.232	5528.07
457.606	5462.54
457.979	5567.4
458.352	5695.3
458.725	5700.95
459.099	5785.47
459.472	5886.71
459.845	5979.36
460.218	6016.88
460.591	6085.57
460.964	6127.61
461.337	6247.83
461.71	6425.23
462.083	6483.76
462.456	6494.38
462.829	6545.68
463.201	6733.02
463.574	6726.01
463.947	6799.23
464.32	6963.97
464.692	7010.3
465.065	7047.13
465.438	7189.5
465.81	7342.04
466.183	7376.84
466.555	7605.31
466.928	7600.11
467.3	7611.41
467.672	7726.66
468.045	7958.75
468.417	7984.96
468.789	8012.53
469.161	8135.92
469.534	8239.42
469.906	8471.95
470.278	8504.72
470.65	8638.28
471.022	8825.84
471.394	8944.71
471.766	9064.48
472.138	9164.59
472.51	9388.76
472.882	9518.48
473.253	9699.94
473.625	9853.84
473.997	10051.8
474.369	10163.66
474.74	10258.8
475.112	10442.3
475.484	10619.01
475.855	10790.08
476.227	10856.07
476.598	11243.4
476.97	11299.9
477.341	11591.64
477.713	11739.89
478.084	11874.8
478.455	12134.45
478.827	12290.16
479.198	12512.75
479.569	12622.35
479.94	13050.59
480.311	13103.7
480.682	13439.51
481.053	13752.72
481.424	13938.93
481.795	14067.96
482.166	14352.7
482.537	14608.51
482.908	14932.57
483.279	15110.2
483.65	15359
484.021	15761.7
484.391	15935.26
484.762	16050.96
485.133	16172.77
485.503	16465.41
485.874	16669.25
486.244	16913.54
486.615	17207.32
486.985	17417.71
487.356	17730.47
487.726	17796
488.097	18313.5
488.467	18342.88
488.837	18697.45
489.207	18915.97
489.578	19168.39
489.948	19355.28
490.318	19731.32
490.688	19757.53
491.058	20048.82
491.428	20376.95
491.798	20554.35
492.168	21054.67
492.538	20983.71
492.908	21417.83
493.278	21669.8
493.648	21683.58
494.017	22136.45
494.387	22291.48
494.757	22509.55
495.126	22780.05
495.496	22807.85
495.866	23069.99
496.235	23302.52
496.605	23548.84
496.974	23741.61
497.344	23867.03
497.713	24011.43
498.082	24254.59
498.452	24446
498.821	24490.97
499.19	24587.69
499.559	24876.49
499.928	25024.51
500.298	25182.02
500.667	25407.1
501.036	25486.65
501.405	25713.76
501.774	25678.28
502.143	26091.15
502.512	26202.56
502.88	26535.66
503.249	26522.33
503.618	26797.8
503.987	27053.38
504.356	27227.84
504.724	27327.05
505.093	27412.25
505.462	27751.67
505.83	27956.64
506.199	28197.31
506.567	28572.89
506.936	28567.47
507.304	28879.78
507.672	29003.84
508.041	29207.23
508.409	29377.84
508.777	29609.25
509.145	29787.1
509.514	29875.68
509.882	30139.86
510.25	30215.11
510.618	30438.38
510.986	30584.14
511.354	30834.53
511.722	31078.14
512.09	31280.39
512.458	31303.22
512.826	31638.12
513.193	31902.07
513.561	32107.26
513.929	32326.47
514.297	32552
514.664	32944.76
515.032	32957.64
515.4	33448.24
515.767	33532.08
516.135	33886.88
516.502	33822.92
516.869	34348.79
517.237	34561.44
517.604	34553.98
517.972	35054.53
518.339	35252.94
518.706	35349.66
519.073	35494.74
519.44	35927.5
519.808	36155.74
520.175	36181.05
520.542	36708.27
520.909	36773.81
521.276	36834.6
521.643	37342.83
522.009	37464.86
522.376	37759.09
522.743	37966.54
523.11	38302.58
523.477	38628.22
523.843	38731.04
524.21	39329.22
524.577	39509.1
524.943	39660.06
525.31	39887.17
525.676	40256.88
526.043	40637.89
526.409	40780.48
526.776	41238.55
527.142	41425.44
527.508	41862.26
527.874	42000.56
528.241	42308.35
528.607	42516.71
528.973	42998.05
529.339	42974.77
529.705	43325.5
530.071	43805.03
530.437	43938.14
530.803	44081.64
531.169	44408.18
531.535	44333.83
531.901	44472.81
532.267	44577.67
532.632	44996.42
532.998	45016.08
533.364	45214.94
533.73	45398.44
534.095	45736.51
534.461	45922.72
534.826	46075.71
535.192	46172.2
535.557	46451.97
535.923	46488.35
536.288	46724.51
536.653	46932.18
537.019	46632.53
537.384	46985.29
537.749	47299.86
538.114	47321.55
538.479	47458.95
538.845	47570.81
539.21	47669.57
539.575	47977.81
539.94	48040.63
540.305	48346.38
540.67	48331.47
541.034	48512.26
541.399	48764.9
541.764	48954.96
542.129	49080.83
542.494	49091.68
542.858	49309.3
543.223	49467.26
543.587	49741.15
543.952	49567.59
544.316	49793.13
544.681	49798.78
545.045	49971.2
545.41	50158.77
545.774	50238.54
546.138	50198.31
546.503	50270.85
546.867	50345.2
547.231	50663.16
547.595	50587.23
547.959	50752.42
548.324	50872.65
548.688	50998.74
549.052	51176.37
549.416	51181.56
549.779	51184.5
550.143	51283.26
550.507	51586.07
550.871	51591.95
551.235	51631.27
551.599	51953.52
551.962	51985.38
552.326	52174.53
552.689	52245.72
553.053	52190.8
553.417	52282.55
553.78	52763.9
554.143	52597.8
554.507	52911.69
554.87	53095.64
555.234	53338.57
555.597	53271
555.96	53358.23
556.323	53615.62
556.686	53600.26
557.05	53797.09
557.413	53914.37
557.776	53921.83
558.139	54197.76
558.502	54197.98
558.865	54249.28
559.228	54464.64
559.59	54500.8
559.953	54626.67
560.316	54824.86
560.679	54876.16
561.041	55066.89
561.404	55111.4
561.767	55251.29
562.129	55236.37
562.492	55519.08
562.854	55559.3
563.217	55544.39
563.579	55680.43
563.941	55836.36
564.304	55936.24
564.666	56157.03
565.028	56195.67
565.39	56247.19
565.753	56466.62
566.115	56510.92
566.477	56575.55
566.839	56731.02
567.201	56965.59
567.563	56980.28
567.925	57109.54
568.287	57161.52
568.648	57231.35
569.01	57400.61
569.372	57576.88
569.734	57444
570.095	57731.45
570.457	57800.6
570.819	57913.82
571.18	57852.8
571.542	58081.27
571.903	58045.11
572.265	58157.2
572.626	58168.27
572.987	58158.56
573.349	58265.22
573.71	58337.99
574.071	58425.44
574.432	58474.71
574.794	58648.94
575.155	58569.39
575.516	58511.77
575.877	58623.85
576.238	58642.84
576.599	58738.2
576.96	58759.67
577.32	58816.17
577.681	58924.41
578.042	58926.44
578.403	58966.22
578.763	58942.94
579.124	59051.41
579.485	59090.06
579.845	59203.27
580.206	59144.52
580.566	59234.91
580.927	59196.27
581.287	59309.26
581.648	59254.35
582.008	59370.95
582.368	59328.47
582.728	59398.3
583.089	59366.89
583.449	59425.87
583.809	59432.87
584.169	59536.82
584.529	59477.39
584.889	59643.94
585.249	59405.3
585.609	59503.6
585.969	59632.42
586.329	59514.9
586.688	59582.25
587.048	59574.34
587.408	59443.49
587.768	59465.19
588.127	59512.19
588.487	59379.99
588.846	59555.81
589.206	59437.39
589.565	59461.12
589.925	59524.62
590.284	59398.97
590.643	59406.21
591.003	59410.5
591.362	59477.16
591.721	59479.42
592.08	59457.5
592.44	59516.71
592.799	59481.01
593.158	59471.97
593.517	59462.93
593.876	59487.11
594.235	59458.18
594.593	59487.79
594.952	59615.47
595.311	59409.14
595.67	59566.88
596.029	59695.92
596.387	59725.29
596.746	59716.71
597.104	59629.03
597.463	59656.6
597.822	59757.61
598.18	59719.19
598.538	59664.73
598.897	59892.07
599.255	59721.45
599.613	60037.83
599.972	59857.04
600.33	60020.43
600.688	59915.12
601.046	59967.77
601.404	60087.54
601.762	59994.67
602.12	60052.97
602.478	60082.57
602.836	60113.31
603.194	60024.95
603.552	60053.65
603.91	59966.87
604.268	60083.7
604.625	59956.7
604.983	60080.76
605.341	59943.37
605.698	60185.39
606.056	60142.46
606.413	59971.84
606.771	60133.87
607.128	60104.27
607.485	59962.58
607.843	60039.86
608.2	60173.19
608.557	60215.22
608.914	60132.74
609.272	60240.53
609.629	60236.24
609.986	60310.14
610.343	60229.01
610.7	60414.54
611.057	60371.83
611.414	60372.73
611.771	60432.85
612.127	60514.2
612.484	60491.83
612.841	60590.13
613.198	60522.11
613.554	60558.94
613.911	60691.6
614.267	60700.86
614.624	60594.2
614.98	60730.01
615.337	60914.87
615.693	60832.38
616.05	60854.3
616.406	60932.72
616.762	60862.44
617.118	60856.79
617.475	60877.35
617.831	60969.1
618.187	60953.28
618.543	60965.49
618.899	61114.64
619.255	61005.49
619.611	61027.86
619.967	61045.71
620.323	61085.71
620.678	61030.8
621.034	60931.59
621.39	60928.43
621.746	60943.34
622.101	61085.26
622.457	60872.61
622.812	60887.07
623.168	60926.62
623.523	60864.93
623.879	60943.12
624.234	60772.05
624.589	60826.73
624.945	60885.94
625.3	60890.01
625.655	60822.44
626.01	60789.22
626.365	60803.46
626.72	60754.19
627.075	60756.68
627.43	60780.86
627.785	60722.33
628.14	60789.67
628.495	60848.43
628.85	60728.66
629.205	60686.4
629.559	60801.42
629.914	60690.47
630.269	60777.47
630.623	60708.77
630.978	60659.28
631.332	60754.65
631.687	60833.29
632.041	60681.88
632.396	60791.03
632.75	60671.26
633.104	60772.27
633.459	60594.42
633.813	60651.6
634.167	60586.29
634.521	60588.32
634.875	60683.69
635.229	60620.41
635.583	60451.15
635.937	60545.84
636.291	60408.67
636.645	60468.55
636.999	60426.74
637.352	60477.14
637.706	60285.73
638.06	60352.62
638.413	60327.54
638.767	60219.07
639.121	60250.48
639.474	60067.43
639.828	60090.71
640.181	60099.52
640.534	60045.29
640.888	59954.21
641.241	59804.16
641.594	59875.35
641.947	59882.58
642.301	59783.6
642.654	59771.62
643.007	59713.09
643.36	59682.81
643.713	59589.48
644.066	59684.17
644.419	59476.71
644.771	59333.89
645.124	59163.95
645.477	59043.28
645.83	58906.56
646.182	58772.78
646.535	58741.37
646.888	58745.21
647.24	58582.27
647.593	58736.62
647.945	58582.95
648.298	58572.56
648.65	58519.22
649.002	58449.85
649.355	58590.63
649.707	58544.76
650.059	58667.69
650.411	59017.06
650.763	58990.62
651.115	59217.96
651.467	59188.13
651.819	59226.55
652.171	59126.67
652.523	59087.57
652.875	59136.61
653.227	59055.71
653.578	59141.81
653.93	59081.24
654.282	58953.11
654.633	58932.32
654.985	58996.27
655.337	59023.39
655.688	59025.88
656.039	59037.4
656.391	58868.14
656.742	58778.88
657.094	58805.32
657.445	58881.02
657.796	58776.84
658.147	58736.85
658.498	58732.78
658.849	58813.68
659.2	58736.85
659.551	58605.1
659.902	58653.01
660.253	58552.44
660.604	58530.07
660.955	58384.99
661.306	58479
661.656	58337.31
662.007	58326.69
662.358	58323.75
662.708	58311.32
663.059	58172.79
663.409	58074.94
663.76	58196.97
664.11	58137.09
664.461	58211.21
664.811	58109.97
665.161	58079.69
665.511	58008.73
665.862	58043.98
666.212	58188.39
666.562	58153.81
666.912	58138.67
667.262	58124.88
667.612	58096.41
667.962	58163.53
668.312	58121.04
668.662	58193.81
669.011	58121.72
669.361	58176.86
669.711	58185.67
670.06	58157.43
670.41	58123.08
670.76	58110.87
671.109	58222.51
671.459	58111.55
671.808	58127.37
672.157	58093.7
672.507	57940.48
672.856	57948.39
673.205	57968.28
673.554	58098.44
673.904	57916.98
674.253	58118.78
674.602	57999.24
674.951	57688.74
675.3	57552.02
675.649	57929.86
675.998	57849.19
676.346	57824.33
676.695	57998.79
677.044	57725.8
677.393	57899.58
677.741	57766.25
678.09	57745.46
678.438	57636.31
678.787	57634.28
679.135	57611.9
679.484	57376.43
679.832	57471.12
680.181	57318.13
680.529	57344.57
680.877	57236.77
681.225	57145.93
681.573	57302.31
681.922	57094.63
682.27	56921.3
682.618	57047.62
682.966	56937.34
683.314	56901.41
683.661	56860.51
684.009	56662.32
684.357	56618.03
684.705	56577.58
685.053	56560.63
685.4	56531.25
685.748	56413.29
686.095	56417.36
686.443	56325.38
686.79	56322.9
687.138	56228.66
687.485	56283.8
687.832	56172.62
688.18	56254.2
688.527	56050.81
688.874	56052.4
689.221	56003.81
689.568	56001.55
689.915	55899.18
690.262	55924.26
690.609	55817.37
690.956	55788.9
691.303	55820.09
691.65	55618.74
691.997	55604.05
692.344	55415.58
692.69	55417.38
693.037	55416.03
693.383	55345.75
693.73	55374.45
694.077	55211.97
694.423	55208.58
694.769	55111.63
695.116	55027.79
695.462	54995.47
695.808	54933.1
696.155	55014.46
696.501	54774.69
696.847	54749.83
697.193	54581.25
697.539	54605.2
697.885	54384.64
698.231	54338.77
698.577	54388.26
698.923	54263.29
699.269	54084.31
699.614	53965.67
699.96	53847.26
700.306	53834.83
700.651	53648.39
700.997	53564.55
701.342	53510.54
701.688	53442.07
702.033	53236.88
702.379	53269.87
702.724	53194.39
703.069	53152.36
703.415	52892.25
703.76	52708.53
704.105	52777.23
704.45	52577.46
704.795	52481.19
705.14	52292.04
705.485	52214.31
705.83	52107.42
706.175	52083.69
706.52	52049.56
706.865	51907.42
707.209	51814.32
707.554	51619.74
707.899	51702.68
708.243	51478.51
708.588	51443.93
708.932	51266.76
709.277	51302.01
709.621	51520.09
709.966	51045.3
710.31	51215.46
710.654	50893.21
710.998	50914.23
711.342	50869.26
711.687	50980.44
712.031	50739.77
712.375	50705.19
712.719	50721.69
713.063	50581.58
713.407	50756.72
713.75	50471.98
714.094	50573.44
714.438	50488.93
714.782	50373.9
715.125	50327.35
715.469	50408.25
715.812	50170.07
716.156	50001.03
716.499	50095.26
716.843	50028.83
717.186	49885.1
717.53	50010.07
717.873	49938.88
718.216	49792.22
718.559	49661.6
718.902	49441.95
719.246	49394.04
719.589	49381.84
719.932	49298.22
720.275	49160.6
720.617	49166.7
720.96	49141.39
721.303	48938.68
721.646	49024.33
721.989	48894.39
722.331	48887.84
722.674	48709.54
723.016	48763.77
723.359	48584.12
723.701	48629.77
724.044	48259.38
724.386	48077.69
724.729	48240.85
725.071	48046.96
725.413	48066.62
725.755	48022.55
726.097	47830.69
726.439	47538.95
726.782	47601.09
727.124	47709.11
727.465	47481.32
727.807	47431.83
728.149	47299.18
728.491	47110.26
728.833	47188.9
729.175	46990.49
729.516	46808.12
729.858	46625.07
730.199	46893.09
730.541	46576.04
730.882	46494.23
731.224	46618.75
731.565	46245.65
731.906	46450.16
732.248	46348.47
732.589	46177.85
732.93	45980.57
733.271	46097.4
733.612	46171.3
733.953	46117.06
734.294	45823.29
734.635	45874.58
734.976	45826
735.317	45658.32
735.658	45582.16
735.999	45613.8
736.339	45568.38
736.68	45758.43
737.021	45572.9
737.361	45325.22
737.702	45421.49
738.042	45374.03
738.383	45452.22
738.723	45512.56
739.063	45169.52
739.404	45309.4
739.744	45232.79
740.084	45020.37
740.424	45006.81
740.764	45023.31
741.104	45104.66
741.444	44725.24
741.784	44649.98
742.124	44724.56
742.464	44659.25
742.804	44668.74
743.143	44536.31
743.483	44595.3
743.823	44484.34
744.162	44286.38
744.502	44331.8
744.841	44059.04
745.181	44279.37
745.52	43942.88
745.86	44097.91
746.199	43924.13
746.538	43967.52
746.877	43819.5
747.216	43752.61
747.556	43606.62
747.895	43671.03
748.234	43301.77
748.573	43200.08
748.911	43314.65
749.25	43136.13
749.589	43021.78
749.928	42967.99
750.267	43131.83
750.605	42781.56
750.944	42689.36
751.283	42511.96
751.621	42560.77
751.96	42294.57
752.298	42377.73
