Data from aluminium_macbook_case_FLMS001491_097.txt Node
Date: Tue Feb 07 10:44:28 GMT 2017
User: dcchb
Spectrometer: FLMS00149
Trigger mode: 0
Integration Time (sec): 2.000000E-2
Scans to average: 10
Electric dark correction enabled: true
Nonlinearity correction enabled: false
Boxcar width: 0
XAxis mode: Wavelengths
Number of Pixels in Spectrum: 2048
>>>>>Begin Spectral Data<<<<<
341.393	-27.89
341.776	-27.89
342.16	-27.89
342.543	-64.05
342.927	-57.5
343.31	-52.3
343.693	-57.5
344.077	-53.66
344.46	-59.31
344.843	-46.88
345.226	-45.3
345.61	-45.3
345.993	-9.14
346.376	-0.1
346.759	8.04
347.142	29.05
347.525	43.06
347.908	58.88
348.291	61.37
348.674	63.63
349.057	105.44
349.44	143.4
349.823	149.28
350.206	191.76
350.588	250.97
350.971	253.23
351.354	252.55
351.737	283.96
352.119	300.91
352.502	321.25
352.884	329.84
353.267	319.89
353.65	366.9
354.032	343.17
354.414	362.83
354.797	376.16
355.179	377.52
355.562	385.88
355.944	390.85
356.326	391.76
356.709	372.32
357.091	417.97
357.473	388.82
357.855	421.13
358.238	431.98
358.62	416.39
359.002	416.84
359.384	402.38
359.766	421.13
360.148	434.47
360.53	445.99
360.912	425.43
361.294	420.23
361.676	419.1
362.057	399.21
362.439	450.51
362.821	427.69
363.203	436.95
363.584	428.59
363.966	441.7
364.348	429.72
364.729	424.75
365.111	417.74
365.493	416.84
365.874	437.4
366.256	438.08
366.637	413.68
367.019	432.21
367.4	421.13
367.781	448.25
368.163	443.28
368.544	443.51
368.925	416.61
369.306	439.66
369.688	443.28
370.069	422.04
370.45	464.3
370.831	439.44
371.212	451.64
371.593	441.47
371.974	462.71
372.355	431.75
372.736	466.1
373.117	470.85
373.498	469.72
373.879	491.64
374.26	449.38
374.641	451.19
375.021	462.49
375.402	458.19
375.783	475.82
376.163	509.72
376.544	520.11
376.925	502.49
377.305	503.16
377.686	502.26
378.066	500.68
378.447	518.53
378.827	523.28
379.208	521.92
379.588	538.64
379.968	527.8
380.349	548.59
380.729	559.66
381.109	552.65
381.489	556.04
381.87	570.06
382.25	571.64
382.63	565.76
383.01	588.59
383.39	611.86
383.77	590.62
384.15	588.81
384.53	585.2
384.91	619.77
385.29	623.84
385.67	622.26
386.049	638.98
386.429	627.91
386.809	672.65
387.189	653.44
387.568	648.7
387.948	655.25
388.328	664.06
388.707	680.34
389.087	723.05
389.466	714.23
389.846	699.09
390.225	716.49
390.605	737.28
390.984	726.66
391.363	752.65
391.743	777.96
392.122	758.98
392.501	779.99
392.881	787.9
393.26	774.57
393.639	789.94
394.018	781.58
394.397	830.61
394.776	832.2
395.155	821.57
395.534	826.77
395.913	861.12
396.292	854.12
396.671	862.7
397.05	851.18
397.429	862.48
397.808	885.53
398.186	902.93
398.565	921.91
398.944	926.2
399.323	919.88
399.701	970.95
400.08	935.7
400.458	955.81
400.837	952.64
401.215	987.67
401.594	994.23
401.972	1018.41
402.351	1028.8
402.729	1031.06
403.107	1034
403.486	1075.58
403.864	1054.34
404.242	1090.27
404.62	1089.82
404.999	1114.9
405.377	1115.58
405.755	1156.48
406.133	1154.67
406.511	1147.89
406.889	1202.13
407.267	1183.37
407.645	1228.34
408.023	1238.74
408.401	1263.82
408.779	1283.94
409.156	1316.02
409.534	1289.58
409.912	1330.26
410.29	1336.36
410.667	1346.08
411.045	1406.42
411.422	1406.87
411.8	1431.28
412.178	1447.09
412.555	1454.33
412.933	1493.2
413.31	1502.91
413.687	1506.08
414.065	1560.99
414.442	1541.78
414.819	1581.78
415.197	1623.14
415.574	1638.28
415.951	1665.17
416.328	1648.9
416.705	1663.36
417.082	1686.41
417.46	1690.48
417.837	1748.78
418.214	1730.93
418.591	1759.18
418.967	1792.17
419.344	1805.96
419.721	1849.12
420.098	1835.79
420.475	1865.84
420.852	1863.58
421.228	1893.41
421.605	1933.86
421.982	1969.57
422.358	1991.49
422.735	2005.95
423.111	1999.85
423.488	2058.6
423.864	2052.28
424.241	2094.76
424.617	2110.81
424.994	2113.74
425.37	2145.61
425.746	2173.18
426.123	2215.66
426.499	2230.35
426.875	2271.71
427.251	2309.22
427.627	2368.43
428.003	2375.66
428.379	2390.35
428.756	2433.28
429.132	2452.94
429.507	2495.65
429.883	2537.69
430.259	2595.09
430.635	2582.21
431.011	2614.07
431.387	2706.04
431.763	2740.62
432.138	2751.02
432.514	2777.46
432.89	2809.77
433.265	2913.95
433.641	2919.6
434.016	2944.23
434.392	2961.18
434.767	3050.22
435.143	3068.52
435.518	3120.95
435.894	3169.99
436.269	3175.64
436.644	3249.53
437.02	3258.57
437.395	3275.52
437.77	3328.4
438.145	3410.21
438.52	3440.26
438.895	3428.96
439.271	3479.81
439.646	3559.13
440.021	3598.45
440.395	3607.72
440.77	3581.95
441.145	3642.07
441.52	3729.97
441.895	3694.27
442.27	3725.9
442.645	3767.49
443.019	3871.66
443.394	3822.85
443.769	3856.97
444.143	3848.16
444.518	3931.78
444.892	3935.62
445.267	3954.83
445.641	4022.17
446.016	4047.25
446.39	4067.59
446.764	4122.73
447.139	4130.41
447.513	4169.06
447.887	4195.72
448.262	4216.97
448.636	4263.97
449.01	4336.51
449.384	4396.62
449.758	4363.18
450.132	4449.05
450.506	4473
450.88	4533.79
451.254	4528.6
451.628	4595.94
452.002	4673
452.376	4664.41
452.75	4763.84
453.123	4804.52
453.497	4848.81
453.871	4885.87
454.244	4989.37
454.618	5003.61
454.992	5107.11
455.365	5157.96
455.739	5243.61
456.112	5308.24
456.486	5376.48
456.859	5442.7
457.232	5526.99
457.606	5587.1
457.979	5638.62
458.352	5753.65
458.725	5763.14
459.099	5822.57
459.472	5969.69
459.845	6045.17
460.218	6122.45
460.591	6157.48
460.964	6225.73
461.337	6333.07
461.71	6448.77
462.083	6550.46
462.456	6499.84
462.829	6597.24
463.201	6690.35
463.574	6687.86
463.947	6858.25
464.32	7016.44
464.692	7059.15
465.065	7164.01
465.438	7194.06
465.81	7332.36
466.183	7459.14
466.555	7644.45
466.928	7676.08
467.3	7654.62
467.672	7847.15
468.045	8034.27
468.417	8064.77
468.789	8102.29
469.161	8270.42
469.534	8388.61
469.906	8511.32
470.278	8569.62
470.65	8674.7
471.022	8871.08
471.394	9053.22
471.766	9042.15
472.138	9237.62
472.51	9439.2
472.882	9586.99
473.253	9764.16
473.625	9856.59
473.997	10098.17
474.369	10126.41
474.74	10283.47
475.112	10495.9
475.484	10631.49
475.855	10854.3
476.227	10984.02
476.598	11236.67
476.97	11373.61
477.341	11674.62
477.713	11793.49
478.084	11930.66
478.455	12248.39
478.827	12373.59
479.198	12717.53
479.569	12733.35
479.94	13123.4
480.311	13202.49
480.682	13507.57
481.053	13820.55
481.424	13994.34
481.795	14119.3
482.166	14443.14
482.537	14583.47
482.908	14889.91
483.279	15029.34
483.65	15336.45
484.021	15608.3
484.391	15779.15
484.762	15972.59
485.133	16156.54
485.503	16355.4
485.874	16832.23
486.244	16980.7
486.615	17336.85
486.985	17564.64
487.356	17772.77
487.726	17980.67
488.097	18405.97
488.467	18441.68
488.837	18896.81
489.207	19092.28
489.578	19271.94
489.948	19506.28
490.318	19835.31
490.688	19900.85
491.058	20201.63
491.428	20405.92
491.798	20568.17
492.168	21083.19
492.538	21204.99
492.908	21340.81
493.278	21613.57
493.648	21725.66
494.017	21960.23
494.387	22143.5
494.757	22393.44
495.126	22620.78
495.496	22745.07
495.866	22962.01
496.235	23265.28
496.605	23415.56
496.974	23656.45
497.344	23867.75
497.713	24081.75
498.082	24253.73
498.452	24577.56
498.821	24665.92
499.19	24816.42
499.559	25021.62
499.928	25214.15
500.298	25421.15
500.667	25707.93
501.036	25631.32
501.405	25916.96
501.774	26000.35
502.143	26215.26
502.512	26320.56
502.88	26570.5
503.249	26602.59
503.618	26745.64
503.987	26994.67
504.356	27133.42
504.724	27272.86
505.093	27534.09
505.462	27498.61
505.83	27810.92
506.199	28031.25
506.567	28468.76
506.936	28356.67
507.304	28827.39
507.672	28955.07
508.041	29175.86
508.409	29310.09
508.777	29602.29
509.145	29825.33
509.514	29947.36
509.882	30179.22
510.25	30329.27
510.618	30606.78
510.986	30656.72
511.354	31054.23
511.722	31247.89
512.09	31660.99
512.458	31525.85
512.826	31937.59
513.193	32026.18
513.561	32073.86
513.929	32441.53
514.297	32818.25
514.664	32907.51
515.032	33043.1
515.4	33411.9
515.767	33549.53
516.135	33677.21
516.502	33521.96
516.869	34102.73
517.237	34223.41
517.604	34334.59
517.972	34701.36
518.339	35083.95
518.706	35017.51
519.073	35251.4
519.44	35614.11
519.808	35956.02
520.175	36080.08
520.542	36527.3
520.909	36912.6
521.276	36979.95
521.643	37464.23
522.009	37634.39
522.376	38108.28
522.743	38168.84
523.11	38588.49
523.477	38886.11
523.843	39150.06
524.21	39496.94
524.577	39699.2
524.943	39933.54
525.31	40032.75
525.676	40495.33
526.043	40660.98
526.409	40839.73
526.776	41313.84
527.142	41410.56
527.508	41704.79
527.874	41894.39
528.241	42261.39
528.607	42186.36
528.973	42731.88
529.339	42690.08
529.705	43086
530.071	43386.56
530.437	43454.13
530.803	43893.66
531.169	43992.19
531.535	43983.6
531.901	44311.73
532.267	44594.66
532.632	44899.29
532.998	45031.94
533.364	45401.19
533.73	45530.46
534.095	45900.62
534.461	46037.56
534.826	46219.93
535.192	46287.95
535.557	46724.32
535.923	46667.15
536.288	46772.46
536.653	47053.13
537.019	47024.88
537.384	47288.15
537.749	47436.39
538.114	47522.27
538.479	47477.97
538.845	47865.99
539.21	47684.75
539.575	47978.75
539.94	48096.04
540.305	48285.86
540.67	48198.18
541.034	48588
541.399	48615.12
541.764	48688.79
542.129	48856.7
542.494	48927.2
542.858	49132.17
543.223	49198.38
543.587	49519.95
543.952	49495.1
544.316	49673.4
544.681	49585.49
545.045	49875.2
545.41	50038.13
545.774	50181.41
546.138	50173.95
546.503	50418.24
546.867	50373.27
547.231	50697.33
547.595	50729.19
547.959	50963.76
548.324	50956.98
548.688	51037.2
549.052	51170.99
549.416	51362.62
549.779	51427.7
550.143	51511.32
550.507	51870.18
550.871	51874.02
551.235	51893
551.599	52078.53
551.962	52046.67
552.326	52160.56
552.689	52444.85
553.053	52233.78
553.417	52428.13
553.78	52808.91
554.143	52645.07
554.507	52824.05
554.87	52968.45
555.234	53223.13
555.597	53101.1
555.96	53306.97
556.323	53431.26
556.686	53454.77
557.05	53606.18
557.413	53728.21
557.776	53870.8
558.139	54080.97
558.502	54102.66
558.865	54234.86
559.228	54476.21
559.59	54524.8
559.953	54599.37
560.316	54946.48
560.679	54920.49
561.041	55131.78
561.404	55159.81
561.767	55380.14
562.129	55338.33
562.492	55641.6
562.854	55624.43
563.217	55664.65
563.579	55855.83
563.941	56052.44
564.304	56117.3
564.666	56271.87
565.028	56371.53
565.39	56358.87
565.753	56519.54
566.115	56613.1
566.477	56716.15
566.839	56801.12
567.201	56989.59
567.563	56945.97
567.925	57147.78
568.287	57208.79
568.648	57238.62
569.01	57383.48
569.372	57547.54
569.734	57464.83
570.095	57691.72
570.457	57754.99
570.819	57751.6
571.18	57833.63
571.542	57958.83
571.903	58032.05
572.265	58085.15
572.626	58133.97
572.987	58202.44
573.349	58310.23
573.71	58361.98
574.071	58384.81
574.432	58495.99
574.794	58706.83
575.155	58556.78
575.516	58621.64
575.877	58805.81
576.238	58702.76
576.599	58847.17
576.96	58864.34
577.32	58913.61
577.681	59059.14
578.042	59065.24
578.403	59041.74
578.763	59116.99
579.124	59156.54
579.485	59210.77
579.845	59245.8
580.206	59231.79
580.566	59228.63
580.927	59342.3
581.287	59359.02
581.648	59231.34
582.008	59361.5
582.368	59375.29
582.728	59463.42
583.089	59456.87
583.449	59417.77
583.809	59438.11
584.169	59462.07
584.529	59430.43
584.889	59612.8
585.249	59446.47
585.609	59373.03
585.969	59519.24
586.329	59425.68
586.688	59508.17
587.048	59461.61
587.408	59500.48
587.768	59459.81
588.127	59483.53
588.487	59430.2
588.846	59600.59
589.206	59415.74
589.565	59423.65
589.925	59568.05
590.284	59530.77
590.643	59515.17
591.003	59598.11
591.362	59614.83
591.721	59588.62
592.08	59533.7
592.44	59594.94
592.799	59660.71
593.158	59625
593.517	59620.25
593.876	59709.74
594.235	59650.99
594.593	59649.18
594.952	59691.89
595.311	59577.54
595.67	59651.89
596.029	59738.44
596.387	59773.7
596.746	59807.59
597.104	59725.56
597.463	59755.17
597.822	59778.89
598.18	59705.9
598.538	59657.99
598.897	59816.63
599.255	59660.03
599.613	59975.27
599.972	59862.28
600.33	59883.3
600.688	59833.36
601.046	59937.53
601.404	60009.85
601.762	59956.74
602.12	60021.37
602.478	60011.66
602.836	60102.28
603.194	59961.71
603.552	60003.52
603.91	59933.47
604.268	60017.98
604.625	59951.32
604.983	60067.02
605.341	59977.76
605.698	60024.54
606.056	60184.08
606.413	60112.44
606.771	60185.89
607.128	60180.47
607.485	60036.51
607.843	60128.26
608.2	60257.07
608.557	60318.09
608.914	60208.94
609.272	60391.31
609.629	60354.7
609.986	60446.67
610.343	60351.53
610.7	60588.82
611.057	60467.24
611.414	60497.07
611.771	60489.61
612.127	60611.19
612.484	60590.85
612.841	60688.47
613.198	60605.99
613.554	60588.82
613.911	60794.91
614.267	60723.95
614.624	60654.8
614.98	60756.95
615.337	60814.35
615.693	60697.97
616.05	60685.76
616.406	60917.4
616.762	60807.34
617.118	60822.93
617.475	60863.16
617.831	60914.68
618.187	60885.76
618.543	60929.6
618.899	61042.82
619.255	60993.33
619.611	60995.36
619.967	61050.05
620.323	61078.97
620.678	61052.53
621.034	60918.98
621.39	60963.72
621.746	60955.59
622.101	61128.01
622.457	60921.46
622.812	60994.23
623.168	61042.59
623.523	60997.17
623.879	61141.8
624.234	60919.66
624.589	60972.99
624.945	60994.91
625.3	61020.44
625.655	60992.65
626.01	61020.44
626.365	60970.73
626.72	60922.14
627.075	60931.86
627.43	60898.64
627.785	60883.95
628.14	60960.11
628.495	60911.75
628.85	60915.59
629.205	60801.69
629.559	60934.8
629.914	60776.16
630.269	60765.76
630.623	60798.3
630.978	60690.96
631.332	60811.86
631.687	60778.87
632.041	60747.46
632.396	60799.21
632.75	60625.88
633.104	60693.67
633.459	60563.28
633.813	60565.09
634.167	60604.18
634.521	60560.34
634.875	60606.9
635.229	60531.19
635.583	60448.48
635.937	60458.88
636.291	60455.94
636.645	60432.44
636.999	60396.51
637.352	60411.65
637.706	60252.33
638.06	60311.99
638.413	60320.8
638.767	60220.24
639.121	60249.39
639.474	60155.38
639.828	60110.19
640.181	60132.33
640.534	60082.84
640.888	59973.24
641.241	59861.6
641.594	59940.02
641.947	59964.2
642.301	59895.73
642.654	59836.07
643.007	59842.4
643.36	59785.45
643.713	59763.75
644.066	59959.91
644.419	59674.72
644.771	59490.99
645.124	59302.07
645.477	59262.52
645.83	59091.45
646.182	58923.32
646.535	58820.28
646.888	58893.27
647.24	58729.88
647.593	58867.96
647.945	58820.28
648.298	58594.97
648.65	58594.29
649.002	58546.84
649.355	58656.66
649.707	58621.86
650.059	58719.26
650.411	59000.61
650.763	58976.88
651.115	59293.94
651.467	59185.46
651.819	59165.58
652.171	59031.8
652.523	59052.81
652.875	58985.92
653.227	58969.88
653.578	59068.4
653.93	59005.13
654.282	58814.17
654.633	58818.24
654.985	58900.27
655.337	58906.83
655.688	58911.35
656.039	58961.97
656.391	58714.74
656.742	58754.74
657.094	58744.57
657.445	58878.58
657.796	58854.4
658.147	58742.09
658.498	58790.67
658.849	58791.12
659.2	58742.99
659.551	58573.73
659.902	58630.45
660.253	58661.41
660.604	58628.42
660.955	58427.07
661.306	58533.05
661.656	58522.2
662.007	58514.07
662.358	58444.47
662.708	58478.14
663.059	58377.8
663.409	58281.08
663.76	58410.57
664.11	58324.02
664.461	58414.64
664.811	58343.45
665.161	58280.85
665.511	58197.24
665.862	58320.18
666.212	58349.1
666.562	58289.22
666.912	58220.07
667.262	58112.95
667.612	58152.95
667.962	58161.08
668.312	58164.02
668.662	58228.65
669.011	58141.42
669.361	58105.27
669.711	58088.77
670.06	57998.6
670.41	58002.44
670.76	57964.03
671.109	58117.7
671.459	57974.87
671.808	57961.09
672.157	57973.52
672.507	57796.8
672.856	57864.14
673.205	57872.5
673.554	57925.61
673.904	57826.4
674.253	57979.85
674.602	57901.66
674.951	57485.85
675.3	57454.66
675.649	57820.75
675.998	57772.62
676.346	57804.93
676.695	57864.59
677.044	57677.71
677.393	57767.42
677.741	57803.8
678.09	57721.77
678.438	57613.08
678.787	57578.95
679.135	57613.98
679.484	57439.29
679.832	57483.36
680.181	57385.28
680.529	57479.07
680.877	57366.08
681.225	57340.99
681.573	57410.37
681.922	57240.43
682.27	57098.74
682.618	57175.35
682.966	57068.46
683.314	57105.07
683.661	57032.98
684.009	56870.95
684.357	56866.88
684.705	56751.18
685.053	56684.74
685.4	56680.9
685.748	56609.49
686.095	56510.96
686.443	56454.91
686.79	56454.91
687.138	56444.52
687.485	56398.87
687.832	56344.41
688.18	56306.9
688.527	56195.94
688.874	56102.61
689.221	56028.48
689.568	55948.03
689.915	55961.59
690.262	55924.98
690.609	55747.59
690.956	55680.92
691.303	55704.43
691.65	55536.29
691.997	55565.67
692.344	55434.83
692.69	55388.95
693.037	55402.74
693.383	55150.99
693.73	55272.12
694.077	55073.93
694.423	55190.09
694.769	55056.31
695.116	54969.98
695.462	54941.73
695.808	54877.55
696.155	54940.15
696.501	54649.54
696.847	54672.59
697.193	54445.02
697.539	54569.54
697.885	54395.53
698.231	54285.93
698.577	54232.37
698.923	54223.33
699.269	53956
699.614	53821.08
699.96	53791.03
700.306	53858.6
700.651	53742.67
700.997	53640.75
701.342	53534.31
701.688	53476.46
702.033	53362.57
702.379	53377.03
702.724	53267.43
703.069	53225.17
703.415	52938.17
703.76	52829.92
704.105	52893.88
704.45	52767.33
704.795	52683.26
705.14	52468.8
705.485	52422.7
705.83	52316.04
706.175	52327.34
706.52	52266.78
706.865	52165.99
707.209	52059.32
707.554	51900.46
707.899	51918.99
708.243	51648.26
708.588	51662.27
708.932	51412.33
709.277	51452.79
709.621	51409.62
709.966	51190.19
710.31	51331.43
710.654	51014.83
710.998	51003.98
711.342	51041.95
711.687	50819.58
712.031	50744.56
712.375	50698.68
712.719	50697.33
713.063	50598.34
713.407	50823.42
713.75	50519.48
714.094	50469.76
714.438	50247.85
714.782	50304.79
715.125	50137.79
715.469	50308.18
715.812	50107.06
716.156	49942.32
716.499	50009.66
716.843	49992.26
717.186	49757.91
717.53	49857.57
717.873	49826.39
718.216	49731.02
718.559	49606.05
718.902	49427.3
719.246	49348.89
719.589	49334.88
719.932	49179.62
720.275	49237.48
720.617	49148.44
720.96	48974.66
721.303	49016.92
721.646	48915.23
721.989	48837.04
722.331	48880.65
722.674	48704.61
723.016	48735.34
723.359	48599.3
723.701	48638.17
724.044	48436.14
724.386	48328.8
724.729	48365.41
725.071	48362.02
725.413	48232.98
725.755	48225.07
726.097	47868.02
726.439	47736.73
726.782	47788.02
727.124	47870.05
727.465	47660.34
727.807	47589.16
728.149	47524.98
728.491	47336.51
728.833	47505.32
729.175	47192.56
729.516	47063.52
729.858	47054.03
730.199	46988.72
730.541	46781.27
730.882	46714.61
731.224	46836.41
731.565	46612.69
731.906	46524.33
732.248	46490.88
732.589	46267.39
732.93	46340.6
733.271	46366.14
733.612	46275.07
733.953	46335.18
734.294	45932.48
734.635	45884.8
734.976	45979.48
735.317	45684.35
735.658	45780.39
735.999	45694.52
736.339	45636.67
736.68	45639.83
737.021	45478.25
737.361	45397.58
737.702	45548.76
738.042	45400.74
738.383	45327.3
738.723	45396.9
739.063	45191.71
739.404	45244.14
739.744	44952.84
740.084	44912.84
740.424	45047.76
740.764	44785.84
741.104	44961.66
741.444	44824.26
741.784	44607.09
742.124	44733.64
742.464	44580.65
742.804	44619.97
743.143	44502.01
743.483	44554.66
743.823	44205.74
744.162	44186.99
744.502	44212.98
744.841	44098.85
745.181	44085.07
745.52	44057.05
745.86	44054.34
746.199	43954.23
746.538	43880.33
746.877	43918.52
747.216	43770.05
747.556	43637.4
747.895	43570.73
748.234	43398.99
748.573	43475.59
748.911	43435.14
749.25	43327.58
749.589	43008.94
749.928	43043.52
750.267	43196.96
750.605	42923.52
750.944	42832.22
751.283	42596.75
751.621	42686.46
751.96	42447.82
752.298	42417.77
