Data from aluminium_surface_pro_back_FLMS001491_00074.txt Node
Date: Wed Feb 08 15:34:31 GMT 2017
User: dcchb
Spectrometer: FLMS00149
Trigger mode: 0
Integration Time (sec): 2.000000E-2
Scans to average: 10
Electric dark correction enabled: true
Nonlinearity correction enabled: false
Boxcar width: 0
XAxis mode: Wavelengths
Number of Pixels in Spectrum: 2048
>>>>>Begin Spectral Data<<<<<
341.393	5.54
341.776	5.54
342.16	5.54
342.543	-60.68
342.927	-74.01
343.31	-65.2
343.693	-76.04
344.077	-68.36
344.46	-64.29
344.843	-51.41
345.226	-34.24
345.61	-9.6
345.993	-32.65
346.376	-7.34
346.759	1.24
347.142	29.72
347.525	45.08
347.908	61.58
348.291	61.81
348.674	92.09
349.057	117.62
349.44	122.82
349.823	164.63
350.206	156.04
350.588	211.41
350.971	239.88
351.354	234.91
351.737	248.47
352.119	270.84
352.502	303.16
352.884	310.61
353.267	303.16
353.65	332.99
354.032	339.99
354.414	339.77
354.797	346.54
355.179	345.41
355.562	348.13
355.944	363.49
356.326	375.02
356.709	376.6
357.091	362.14
357.473	378.86
357.855	382.02
358.238	382.7
358.62	377.5
359.002	379.76
359.384	367.33
359.766	395.81
360.148	372.53
360.53	367.79
360.912	397.84
361.294	366.88
361.676	365.53
362.057	369.37
362.439	391.52
362.821	368.92
363.203	383.38
363.584	367.56
363.966	388.58
364.348	358.75
364.729	373.66
365.111	378.86
365.493	373.44
365.874	346.54
366.256	379.31
366.637	375.92
367.019	379.76
367.4	370.27
367.781	377.5
368.163	369.14
368.544	381.57
368.925	363.95
369.306	375.02
369.688	379.99
370.069	365.3
370.45	382.02
370.831	376.37
371.212	396.26
371.593	391.97
371.974	385.64
372.355	400.78
372.736	370.95
373.117	385.87
373.498	393.1
373.879	381.8
374.26	396.94
374.641	408.24
375.021	389.93
375.402	408.46
375.783	429.03
376.163	425.64
376.544	417.96
376.925	416.37
377.305	418.63
377.686	408.69
378.066	428.35
378.447	424.51
378.827	422.02
379.208	426.77
379.588	445.53
379.968	463.38
380.349	444.17
380.729	456.15
381.109	452.76
381.489	457.73
381.87	458.86
382.25	465.64
382.63	484.39
383.01	455.92
383.39	485.98
383.77	477.16
384.15	489.59
384.53	469.25
384.91	485.98
385.29	493.66
385.67	497.05
386.049	524.17
386.429	516.48
386.809	523.94
387.189	511.51
387.568	511.96
387.948	511.96
388.328	529.14
388.707	549.93
389.087	559.87
389.466	558.52
389.846	570.04
390.225	581.34
390.605	573.43
390.984	587.22
391.363	586.99
391.743	593.54
392.122	612.53
392.501	590.61
392.881	584.05
393.26	613.66
393.639	597.16
394.018	639.42
394.397	626.76
394.776	629.02
395.155	647.1
395.534	647.78
395.913	647.33
396.292	666.08
396.671	670.38
397.05	692.98
397.429	696.59
397.808	697.5
398.186	703.15
398.565	702.24
398.944	721.45
399.323	730.04
399.701	739.75
400.08	741.11
400.458	776.59
400.837	753.09
401.215	771.62
401.594	771.39
401.972	750.6
402.351	786.31
402.729	804.16
403.107	822.01
403.486	801.9
403.864	853.2
404.242	831.96
404.62	856.14
404.999	850.26
405.377	845.29
405.755	855.46
406.133	898.62
406.511	903.82
406.889	908.34
407.267	907.66
407.645	936.81
408.023	946.08
408.401	949.92
408.779	949.24
409.156	968
409.534	996.47
409.912	1021.78
410.29	1012.29
410.667	1027.2
411.045	1058.39
411.422	1077.15
411.8	1029.46
412.178	1113.98
412.555	1112.4
412.933	1132.74
413.31	1146.98
413.687	1175
414.065	1166.41
414.442	1160.31
414.819	1184.49
415.197	1215
415.574	1212.74
415.951	1205.96
416.328	1236.01
416.705	1220.65
417.082	1257.71
417.46	1292.96
417.837	1272.85
418.214	1339.06
418.591	1329.34
418.967	1313.52
419.344	1334.77
419.721	1365.73
420.098	1361.43
420.475	1383.58
420.852	1388.55
421.228	1398.27
421.605	1444.59
421.982	1475.55
422.358	1454.31
422.735	1462.45
423.111	1467.19
423.488	1495.44
423.864	1519.17
424.241	1554.2
424.617	1547.42
424.994	1548.77
425.37	1600.75
425.746	1586.51
426.123	1635.55
426.499	1626.74
426.875	1664.02
427.251	1653.85
427.627	1687.53
428.003	1748.09
428.379	1757.81
428.756	1732.5
429.132	1783.34
429.507	1833.06
429.883	1819.27
430.259	1877.35
430.635	1887.07
431.011	1921.19
431.387	1948.31
431.763	1981.53
432.138	1967.74
432.514	2020.17
432.89	2029.89
433.265	2103.79
433.641	2091.36
434.016	2125.48
434.392	2133.84
434.767	2169.32
435.143	2179.72
435.518	2181.52
435.894	2221.75
436.269	2291.13
436.644	2307.85
437.02	2321.18
437.395	2344.46
437.77	2356.44
438.145	2395.98
438.52	2424.91
438.895	2454.96
439.271	2468.52
439.646	2498.13
440.021	2531.57
440.395	2547.39
440.77	2527.5
441.145	2541.52
441.52	2586.26
441.895	2601.4
442.27	2645.24
442.645	2657.44
443.019	2694.51
443.394	2703.32
443.769	2673.72
444.143	2730.44
444.518	2791.23
444.892	2740.61
445.267	2798.68
445.641	2814.95
446.016	2831.45
446.39	2855.86
446.764	2888.17
447.139	2881.39
447.513	2950.32
447.887	2951
448.262	2956.65
448.636	2963.42
449.01	3000.26
449.384	3032.8
449.758	3078
450.132	3099.01
450.506	3088.17
450.88	3118
451.254	3169.3
451.628	3202.51
452.002	3262.4
452.376	3262.17
452.75	3280.7
453.123	3295.39
453.497	3371.78
453.871	3396.41
454.244	3473.47
454.618	3455.62
454.992	3518.21
455.365	3544.65
455.739	3635.72
456.112	3670.98
456.486	3682.5
456.859	3715.72
457.232	3779.45
457.606	3786.45
457.979	3826.68
458.352	3986.67
458.725	3990.74
459.099	4041.81
459.472	4076.62
459.845	4141.92
460.218	4130.4
460.591	4193.68
460.964	4184.86
461.337	4349.83
461.71	4389.38
462.083	4447
462.456	4456.94
462.829	4491.97
463.201	4581.01
463.574	4586.43
463.947	4672.76
464.32	4769.25
464.692	4818.07
465.065	4901.68
465.438	4902.13
465.81	5006.08
466.183	5003.15
466.555	5174.44
466.928	5192.29
467.3	5214.89
467.672	5269.58
468.045	5401.78
468.417	5416.92
468.789	5472.51
469.161	5577.82
469.534	5591.6
469.906	5787.53
470.278	5798.38
470.65	5833.63
471.022	5960.18
471.394	6075.66
471.766	6122.21
472.138	6205.15
472.51	6343.22
472.882	6452.6
473.253	6525.82
473.625	6630
473.997	6705.47
474.369	6778.47
474.74	6856.66
475.112	7005.13
475.484	7117.89
475.855	7284.67
476.227	7251.67
476.598	7625.68
476.97	7579.12
477.341	7827.48
477.713	7902.5
478.084	7919.9
478.455	8226.79
478.827	8220.24
479.198	8510.17
479.569	8572.77
479.94	8752.65
480.311	8874.46
480.682	9029.48
481.053	9236.48
481.424	9380.88
481.795	9506.98
482.166	9552.18
482.537	9736.81
482.908	10003.69
483.279	10008.44
483.65	10243.01
484.021	10448.65
484.391	10530.68
484.762	10594.41
485.133	10736.33
485.503	10898.36
485.874	11095.19
486.244	11231.46
486.615	11495.18
486.985	11696.08
487.356	11884.09
487.726	11987.82
488.097	12238.89
488.467	12255.16
488.837	12536.51
489.207	12643.17
489.578	12826.22
489.948	12897.18
490.318	13052.2
490.688	13202.7
491.058	13401.79
491.428	13623.03
491.798	13727.21
492.168	14005.85
492.538	14105.28
492.908	14238.61
493.278	14468.21
493.648	14480.86
494.017	14679.05
494.387	14879.04
494.757	14975.76
495.126	15133.5
495.496	15215.53
495.866	15265.7
496.235	15459.14
496.605	15567.16
496.974	15659.36
497.344	15934.38
497.713	16003.99
498.082	16175.51
498.452	16234.26
498.821	16412.79
499.19	16462.28
499.559	16599.9
499.928	16703.63
500.298	16953.57
500.667	17060
501.036	17148.81
501.405	17350.62
501.774	17293.22
502.143	17544.74
502.512	17609.59
502.88	17697.73
503.249	17825.86
503.618	17977.27
503.987	18102.91
504.356	18186.53
504.724	18297.48
505.093	18336.35
505.462	18533.19
505.83	18628.55
506.199	18761.2
506.567	19026.73
506.936	18966.17
507.304	19255.43
507.672	19330.68
508.041	19433.05
508.409	19645.25
508.777	19842.76
509.145	20030.32
509.514	20075.74
509.882	20164.55
510.25	20267.15
510.618	20452.46
510.986	20485.9
511.354	20729.06
511.722	20977.41
512.09	21104.87
512.458	21171.53
512.826	21299.21
513.193	21575.36
513.561	21560.22
513.929	21759.31
514.297	22032.98
514.664	22161.34
515.032	22269.36
515.4	22533.08
515.767	22604.04
516.135	22760.19
516.502	22796.12
516.869	23203.12
517.237	23330.8
517.604	23342.55
517.972	23593.16
518.339	23745.93
518.706	23907.06
519.073	24011.23
519.44	24211
519.808	24589.97
520.175	24450.77
520.542	24910.19
520.909	25013.24
521.276	25043.07
521.643	25272.67
522.009	25411.87
522.376	25774.58
522.743	25859.77
523.11	26155.58
523.477	26558.28
523.843	26567.32
524.21	26829.24
524.577	26986.52
524.943	27158.49
525.31	27444.14
525.676	27743.56
526.043	27819.04
526.409	27967.97
526.776	28299.93
527.142	28461.29
527.508	28539.48
527.874	28852.69
528.241	28897.66
528.607	28974.72
528.973	29279.12
529.339	29269.63
529.705	29710.07
530.071	29910.74
530.437	29932.21
530.803	30081.13
531.169	30269.83
531.535	30297.17
531.901	30594.34
532.267	30716.37
532.632	30932.41
532.998	31053.76
533.364	31300.76
533.73	31387.31
534.095	31603.58
534.461	31770.58
534.826	31924.7
535.192	32005.15
535.557	32312.71
535.923	32263.22
536.288	32404.46
536.653	32638.8
537.019	32563.55
537.384	32645.58
537.749	32901.85
538.114	33082.41
538.479	33184.78
538.845	33361.5
539.21	33297.99
539.575	33493.7
539.94	33624.31
540.305	33712.67
540.67	33737.76
541.034	33897.75
541.399	33995.15
541.764	34203.73
542.129	34228.59
542.494	34492.99
542.858	34660.9
543.223	34643.5
543.587	34875.35
543.952	34808.24
544.316	35017.72
544.681	34921.45
545.045	35369.35
545.41	35303.37
545.774	35450.48
546.138	35553.08
546.503	35716.69
546.867	35684.15
547.231	36173.63
547.595	36145.83
547.959	36271.02
548.324	36319.84
548.688	36453.84
549.052	36521.64
549.416	36566.84
549.779	36593.5
550.143	36876.88
550.507	37064.22
550.871	37205.24
551.235	37251.11
551.599	37470.31
551.962	37438.68
552.326	37617.65
552.689	37903.75
553.053	37651.78
553.417	37924.09
553.78	38342.83
554.143	38330.63
554.507	38464.41
554.87	38618.31
555.234	39024.62
555.597	38917.73
555.96	39043.83
556.323	39152.3
556.686	39409.02
557.05	39684.27
557.413	39747.99
557.776	39704.83
558.139	40091.26
558.502	40158.83
558.865	40368.54
559.228	40650.8
559.59	40690.79
559.953	40955.19
560.316	41284.9
560.679	41249.65
561.041	41535.97
561.404	41644.22
561.767	41977.99
562.129	42002.62
562.492	42346.34
562.854	42358.55
563.217	42342.73
563.579	42558.54
563.941	42933.9
564.304	42991.3
564.666	43512.19
565.028	43564.62
565.39	43550.61
565.753	43920.09
566.115	44090.48
566.477	44313.52
566.839	44443.92
567.201	44671.48
567.563	44864.47
567.925	45051.13
568.287	45156.89
568.648	45177.46
569.01	45385.13
569.372	45722.3
569.734	45767.72
570.095	46028.96
570.457	46072.8
570.819	46386.24
571.18	46447.03
571.542	46763.86
571.903	46697.19
572.265	46983.28
572.626	46968.82
572.987	47115.94
573.349	47264.18
573.71	47588.69
574.071	47522.71
574.432	47767.44
574.794	48039.98
575.155	48004.05
575.516	47974.44
575.877	48166.76
576.238	48164.72
576.599	48315
576.96	48405.62
577.32	48533.98
577.681	48660.08
578.042	48821.65
578.403	48766.97
578.763	48785.04
579.124	49013.06
579.485	49059.16
579.845	49141.87
580.206	49143.45
580.566	49257.35
580.927	49376.67
581.287	49576.89
581.648	49368.08
582.008	49587.06
582.368	49492.82
582.728	49598.58
583.089	49557.23
583.449	49627.28
583.809	49701.63
584.169	49728.75
584.529	49643.78
584.889	49957.44
585.249	49728.52
585.609	49686.72
585.969	49915.41
586.329	49696.21
586.688	49862.98
587.048	49755.41
587.408	49820.95
587.768	49859.82
588.127	49780.27
588.487	49727.39
588.846	50090.32
589.206	49852.36
589.565	49943.21
589.925	50052.81
590.284	49886.26
590.643	50013.26
591.003	50071.56
591.362	50192.92
591.721	50038.12
592.08	50122.86
592.44	50183.43
592.799	50229.75
593.158	50170.32
593.517	50199.47
593.876	50257.77
594.235	50263.88
594.593	50201.73
594.952	50319.69
595.311	50113.15
595.67	50331.44
596.029	50481.05
596.387	50495.51
596.746	50561.5
597.104	50447.37
597.463	50345.23
597.822	50529.86
598.18	50437.66
598.538	50431.78
598.897	50635.84
599.255	50345.23
599.613	50939.34
599.972	50571.21
600.33	50685.79
600.688	50556.52
601.046	50688.95
601.404	50838.32
601.762	50761.26
602.12	51031.99
602.478	51019.79
602.836	50926.23
603.194	50819.34
603.552	50916.74
603.91	50816.86
604.268	50974.14
604.625	50849.4
604.983	51041.26
605.341	50851.43
605.698	51091.65
606.056	51161.93
606.413	51071.99
606.771	51258.65
607.128	51224.3
607.485	51105.66
607.843	51106.11
608.2	51343.62
608.557	51430.17
608.914	51277.63
609.272	51525.76
609.629	51455.94
609.986	51587.91
610.343	51409.16
610.7	51645.76
611.057	51559.21
611.414	51538.64
611.771	51550.4
612.127	51634.69
612.484	51574.8
612.841	51748.58
613.198	51699.77
613.554	51679.21
613.911	51850.05
614.267	51819.77
614.624	51742.71
614.98	51812.99
615.337	51948.8
615.693	51948.8
616.05	51881.23
616.406	51985.19
616.762	51982.25
617.118	51943.15
617.475	51981.12
617.831	52071.29
618.187	52008.69
618.543	52104.96
618.899	52295.01
619.255	52157.61
619.611	52187.67
619.967	52373.43
620.323	52338.17
620.678	52225.41
621.034	52291.62
621.39	52210.72
621.746	52223.15
622.101	52525.06
622.457	52280.55
622.812	52429.02
623.168	52449.13
623.523	52347.21
623.879	52487.32
624.234	52235.35
624.589	52414.1
624.945	52459.3
625.3	52378.85
625.655	52409.58
626.01	52435.34
626.365	52462.01
626.72	52310.15
627.075	52272.41
627.43	52297.95
627.785	52273.31
628.14	52407.1
628.495	52451.84
628.85	52344.95
629.205	52202.13
629.559	52416.81
629.914	52129.14
630.269	52327.1
630.623	52269.7
630.978	52085.98
631.332	52293.2
631.687	52418.17
632.041	52205.75
632.396	52213.88
632.75	52209.81
633.104	52152.64
633.459	52019.08
633.813	52013.21
634.167	51936.83
634.521	51924.17
634.875	51863.38
635.229	51905.64
635.583	51680.34
635.937	51813.44
636.291	51812.31
636.645	51730.05
636.999	51621.58
637.352	51758.98
637.706	51517.18
638.06	51596.27
638.413	51570.51
638.767	51462.94
639.121	51512.43
639.474	51323.74
639.828	51323.51
640.181	51393.34
640.534	51304.07
640.888	51116.28
641.241	51055.49
641.594	51105.21
641.947	51160.12
642.301	51150.41
642.654	51112.67
643.007	51098.88
643.36	50938.21
643.713	51074.7
644.066	51153.34
644.419	50784.77
644.771	50650.31
645.124	50263.2
645.477	50222.97
645.83	49923.77
646.182	49899.82
646.535	49702.31
646.888	49855.3
647.24	49640.84
647.593	49867.5
647.945	49690.78
648.298	49475.2
648.65	49347.29
649.002	49335.54
649.355	49346.16
649.707	49385.03
650.059	49499.83
650.411	49812.36
650.763	49883.77
651.115	50269.75
651.467	50042.64
651.819	50023.43
652.171	49887.84
652.523	49959.03
652.875	49831.35
653.227	49872.7
653.578	50091.68
653.93	50003.32
654.282	49741.63
654.633	49742.76
654.985	49746.6
655.337	49759.93
655.688	49761.97
656.039	49898.24
656.391	49542.77
656.742	49598.36
657.094	49613.5
657.445	49557
657.796	49674.51
658.147	49428.19
658.498	49302.09
658.849	49365.37
659.2	49434.97
659.551	49222.77
659.902	49343.9
660.253	49213.73
660.604	49258.03
660.955	49172.83
661.306	49282.66
661.656	49293.05
662.007	49238.59
662.358	49260.74
662.708	49155.43
663.059	49154.3
663.409	48889.45
663.76	49181.87
664.11	49052.61
664.461	49269.78
664.811	49243.11
665.161	48990.69
665.511	49033.17
665.862	49049.67
666.212	49103
666.562	49050.57
666.912	48950.24
667.262	48881.77
667.612	48906.17
667.962	48903.46
668.312	48772.62
668.662	49043.12
669.011	48883.57
669.361	48900.75
669.711	48808.55
670.06	48776.91
670.41	48722.22
670.76	48588.44
671.109	48843.8
671.459	48678.83
671.808	48686.29
672.157	48708.21
672.507	48320.42
672.856	48425.51
673.205	48398.61
673.554	48539.85
673.904	48354.77
674.253	48518.39
674.602	48383.93
674.951	47919.98
675.3	47724.73
675.649	48347.99
675.998	48278.84
676.346	48190.03
676.695	48230.71
677.044	47888.35
677.393	47934.22
677.741	48077.04
678.09	48019.19
678.438	47733.55
678.787	47860.55
679.135	47885.41
679.484	47649.26
679.832	47726.77
680.181	47476.38
680.529	47741.23
680.877	47672.53
681.225	47477.51
681.573	47662.36
681.922	47471.86
682.27	47300.56
682.618	47415.36
682.966	47298.3
683.314	47374.01
683.661	47214.24
684.009	46948.71
684.357	47003.4
684.705	46762.27
685.053	46813.8
685.4	46768.15
685.748	46566.35
686.095	46572
686.443	46299.01
686.79	46344.66
687.138	46406.8
687.485	46479.34
687.832	46321.61
688.18	46287.94
688.527	46022.41
688.874	46047.49
689.221	45893.37
689.568	45819.47
689.915	45605.47
690.262	45659.7
690.609	45568.63
690.956	45525.02
691.303	45387.85
691.65	45409.31
691.997	45224.23
692.344	44851.36
692.69	44804.58
693.037	44876.9
693.383	44555.55
693.73	44687.3
694.077	44380.87
694.423	44410.02
694.769	44139.29
695.116	44126.41
695.462	44058.16
695.808	43947.43
696.155	43920.77
696.501	43710.38
696.847	43744.05
697.193	43321.46
697.539	43639.64
697.885	43365.75
698.231	43151.52
698.577	43202.59
698.923	42918.08
699.269	42946.1
699.614	42686.22
699.96	42714.02
700.306	42715.37
700.651	42403.29
700.997	42364.87
701.342	42345.44
701.688	42136.18
702.033	42012.12
702.379	41971.66
702.724	41801.5
703.069	41813.48
703.415	41241.29
703.76	41397.89
704.105	41443.32
704.45	41177.34
704.795	40945.03
705.14	40961.97
705.485	40934.63
705.83	40762.43
706.175	40842.43
706.52	40696.22
706.865	40487.86
707.209	40451.25
707.554	40273.18
707.899	40375.32
708.243	40155.89
708.588	40031.83
708.932	39719.07
709.277	39543.03
709.621	39704.61
709.966	39433.2
710.31	39553.2
710.654	39290.15
710.998	39301.68
711.342	39419.64
711.687	39180.1
712.031	39003.61
712.375	38860.11
712.719	38941.91
713.063	38887.23
713.407	38986.21
713.75	38753.22
714.094	38853.55
714.438	38511.42
714.782	38646.55
715.125	38529.27
715.469	38490.85
715.812	38236.62
716.156	38129.28
716.499	38217.41
716.843	38152.33
717.186	37808.84
717.53	38128.15
717.873	38034.14
718.216	37892.9
718.559	37736.07
718.902	37518.45
719.246	37472.35
719.589	37358.45
719.932	37143.54
720.275	37174.73
720.617	37131.11
720.96	37049.08
721.303	37150.55
721.646	37116.2
721.989	36839.6
722.331	36940.61
722.674	36825.13
723.016	36806.15
723.359	36678.02
723.701	36744.91
724.044	36534.29
724.386	36406.16
724.729	36553.28
725.071	36478.48
725.413	36379.5
725.755	36454.3
726.097	36341.98
726.439	36108.54
726.782	36236.22
727.124	36270.57
727.465	36043.23
727.807	35963.69
728.149	35918.26
728.491	35839.17
728.833	35805.05
729.175	35732.05
729.516	35601.66
729.858	35598.95
730.199	35542.68
730.541	35594.21
730.882	35373.19
731.224	35418.16
731.565	35153.31
731.906	35246.87
732.248	35336.13
732.589	35008.23
732.93	34904.96
733.271	34995.35
733.612	34994.9
733.953	34919.65
734.294	34669.26
734.635	34483.27
734.976	34679.2
735.317	34458.42
735.658	34506.1
735.999	34395.37
736.339	34384.29
736.68	34367.57
737.021	34192.89
737.361	34109.05
737.702	34207.58
738.042	34005.77
738.383	34041.03
738.723	34058.2
739.063	33904.53
739.404	33878.77
739.744	33875.15
740.084	33632.67
740.424	33770.3
740.764	33568.04
741.104	33648.27
741.444	33501.38
741.784	33418.22
742.124	33399.46
742.464	33466.35
742.804	33351.78
743.143	33203.53
743.483	33311.33
743.823	33130.09
744.162	33011
744.502	32992.69
744.841	32883.32
745.181	33135.06
745.52	32889.19
745.86	32847.84
746.199	32678.8
746.538	32626.15
746.877	32645.13
747.216	32656.88
747.556	32474.51
747.895	32382.09
748.234	32277.46
748.573	32223.67
748.911	32266.84
749.25	32177.57
749.589	32194.29
749.928	32083.56
750.267	32136.67
750.605	32056.45
750.944	31794.08
751.283	31744.59
751.621	31816.23
751.96	31435.67
752.298	31517.02
752.636	31457.59
752.975	31462.79
753.313	31252.4
