Data from aluminium_macbook_case_FLMS001491_085.txt Node
Date: Tue Feb 07 10:44:17 GMT 2017
User: dcchb
Spectrometer: FLMS00149
Trigger mode: 0
Integration Time (sec): 2.000000E-2
Scans to average: 10
Electric dark correction enabled: true
Nonlinearity correction enabled: false
Boxcar width: 0
XAxis mode: Wavelengths
Number of Pixels in Spectrum: 2048
>>>>>Begin Spectral Data<<<<<
341.393	-15.23
341.776	-15.23
342.16	-15.23
342.543	-39.18
342.927	-50.48
343.31	-74.89
343.693	-67.2
344.077	-58.16
344.46	-57.71
344.843	-47.54
345.226	-31.5
345.61	-18.39
345.993	-39.18
346.376	-8.67
346.759	3.08
347.142	33.59
347.525	26.58
347.908	62.29
348.291	70.42
348.674	105
349.057	102.29
349.44	123.98
349.823	155.17
350.206	187.93
350.588	246.91
350.971	279.68
351.354	299.12
351.737	307.7
352.119	317.2
352.502	318.1
352.884	335.73
353.267	341.83
353.65	363.3
354.032	366.46
354.414	355.84
354.797	377.08
355.179	392.45
355.562	371.88
355.944	404.42
356.326	388.61
356.709	417.76
357.091	420.92
357.473	392.9
357.855	426.8
358.238	422.5
358.62	406.91
359.002	431.09
359.384	415.95
359.766	423.41
360.148	436.74
360.53	441.49
360.912	401.26
361.294	434.25
361.676	438.1
362.057	417.98
362.439	437.87
362.821	422.95
363.203	420.92
363.584	418.66
363.966	430.86
364.348	427.7
364.729	432.22
365.111	432.67
365.493	402.84
365.874	424.99
366.256	440.58
366.637	428.6
367.019	428.83
367.4	438.55
367.781	451.65
368.163	455.27
368.544	447.59
368.925	452.11
369.306	485.78
369.688	462.05
370.069	474.71
370.45	467.25
370.831	471.32
371.212	462.05
371.593	460.24
371.974	454.82
372.355	443.52
372.736	495.72
373.117	474.93
373.498	471.77
373.879	469.96
374.26	479.9
374.641	473.8
375.021	470.41
375.402	478.77
375.783	495.04
376.163	556.28
376.544	547.47
376.925	496.63
377.305	525.55
377.686	520.35
378.066	543.63
378.447	536.85
378.827	544.53
379.208	534.36
379.588	551.77
379.968	577.75
380.349	593.12
380.729	567.58
381.109	578.66
381.489	586.34
381.87	595.83
382.25	580.24
382.63	594.7
383.01	613.01
383.39	623.18
383.77	611.2
384.15	627.7
384.53	639.45
384.91	621.37
385.29	638.32
385.67	633.12
386.049	676.51
386.429	664.76
386.809	681.48
387.189	657.75
387.568	681.71
387.948	707.69
388.328	712.44
388.707	733.91
389.087	735.26
389.466	721.25
389.846	733.91
390.225	735.49
390.605	775.26
390.984	763.51
391.363	789.5
391.743	775.94
392.122	788.37
392.501	781.14
392.881	822.94
393.26	819.1
393.639	823.17
394.018	875.37
394.397	862.27
394.776	845.77
395.155	873.11
395.534	894.13
395.913	892.32
396.292	930.51
396.671	907.46
397.05	933.9
397.429	927.35
397.808	944.3
398.186	956.27
398.565	949.72
398.944	965.54
399.323	966.44
399.701	995.82
400.08	1005.31
400.458	1021.36
400.837	1026.1
401.215	1028.59
401.594	1042.15
401.972	1082.37
402.351	1062.03
402.729	1097.51
403.107	1114.91
403.486	1109.04
403.864	1116.04
404.242	1154.24
404.62	1162.37
404.999	1157.62
405.377	1174.57
405.755	1187.23
406.133	1211.41
406.511	1183.39
406.889	1232.65
407.267	1290.28
407.645	1259.77
408.023	1314.23
408.401	1325.08
408.779	1333.44
409.156	1353.55
409.534	1389.94
409.912	1398.75
410.29	1419.31
410.667	1434
411.045	1463.61
411.422	1468.35
411.8	1486.88
412.178	1498.18
412.555	1523.04
412.933	1588.12
413.31	1579.53
413.687	1603.94
414.065	1624.28
414.442	1651.4
414.819	1639.87
415.197	1681.45
415.574	1749.25
415.951	1735.01
416.328	1724.39
416.705	1790.15
417.082	1803.26
417.46	1826.76
417.837	1845.52
418.214	1872.63
418.591	1861.34
418.967	1894.78
419.344	1887.55
419.721	1939.53
420.098	1895.01
420.475	1973.87
420.852	2003.93
421.228	2005.74
421.605	2017.94
421.982	2043.7
422.358	2078.5
422.735	2136.81
423.111	2118.05
423.488	2159.63
423.864	2165.51
424.241	2186.3
424.617	2214.09
424.994	2255.45
425.37	2283.25
425.746	2296.13
426.123	2336.35
426.499	2370.25
426.875	2383.36
427.251	2473.52
427.627	2440.98
428.003	2481.66
428.379	2518.04
428.756	2553.52
429.132	2583.58
429.507	2595.1
429.883	2654.99
430.259	2717.13
430.635	2721.65
431.011	2803.01
431.387	2865.6
431.763	2896.34
432.138	2918.03
432.514	2939.95
432.89	3010.68
433.265	3090.46
433.641	3107.86
434.016	3113.28
434.392	3196.22
434.767	3266.95
435.143	3216.55
435.518	3309.43
435.894	3330.68
436.269	3383.1
436.644	3391.24
437.02	3452.93
437.395	3454.97
437.77	3550.33
438.145	3532.7
438.52	3619.93
438.895	3657.67
439.271	3650.21
439.646	3752.81
440.021	3769.53
440.395	3812.02
440.77	3808.4
441.145	3854.28
441.52	3946.7
441.895	3976.08
442.27	3988.06
442.645	3978.12
443.019	3983.54
443.394	4040.71
443.769	4067.83
444.143	4074.84
444.518	4199.35
444.892	4160.26
445.267	4187.6
445.641	4235.74
446.016	4252.46
446.39	4273.48
446.764	4345.11
447.139	4297.88
447.513	4408.39
447.887	4368.16
448.262	4457.88
448.636	4547.14
449.01	4573.35
449.384	4585.78
449.758	4665.1
450.132	4691.77
450.506	4667.36
450.88	4752.56
451.254	4745.78
451.628	4838.43
452.002	4888.6
452.376	4973.34
452.75	5022.61
453.123	5044.08
453.497	5132.66
453.871	5153
454.244	5238.65
454.618	5313.22
454.992	5354.35
455.365	5397.51
455.739	5554.35
456.112	5560.9
456.486	5644.51
456.859	5715.47
457.232	5853.77
457.606	5842.47
457.979	5930.61
458.352	6084.73
458.725	6145.97
459.099	6160.88
459.472	6332.63
459.845	6363.36
460.218	6472.06
460.591	6480.42
460.964	6507.09
461.337	6669.57
461.71	6778.27
462.083	6899.39
462.456	6917.47
462.829	6940.07
463.201	7037.7
463.574	7096
463.947	7232.95
464.32	7371.47
464.692	7408.76
465.065	7494.18
465.438	7685.59
465.81	7761.97
466.183	7841.52
466.555	8036.77
466.928	8086.26
467.3	8055.07
467.672	8250.32
468.045	8419.13
468.417	8492.12
468.789	8565.57
469.161	8702.51
469.534	8843.07
469.906	9010.75
470.278	9047.36
470.65	9224.76
471.022	9408.48
471.394	9569.83
471.766	9736.16
472.138	9772.31
472.51	9894.57
472.882	10114
473.253	10160.1
473.625	10332.75
473.997	10507.89
474.369	10688.67
474.74	10778.84
475.112	11042.11
475.484	11204.82
475.855	11485.49
476.227	11508.99
476.598	11874.86
476.97	11948.3
477.341	12206.6
477.713	12413.37
478.084	12554.61
478.455	12858.33
478.827	12923.64
479.198	13366.8
479.569	13397.08
479.94	13855.6
480.311	13926.33
480.682	14223.5
481.053	14588.91
481.424	14839.75
481.795	14928.56
482.166	15140.99
482.537	15428.44
482.908	15694.42
483.279	15817.35
483.65	16184.35
484.021	16534.85
484.391	16688.74
484.762	16898.68
485.133	17107.71
485.503	17251.21
485.874	17673.35
486.244	17867.24
486.615	18240.34
486.985	18402.6
487.356	18757.39
487.726	18931.39
488.097	19317.83
488.467	19425.39
488.837	19905.15
489.207	20151.93
489.578	20365.93
489.948	20638.47
490.318	20990.32
490.688	20992.58
491.058	21283.65
491.428	21599.57
491.798	21735.61
492.168	22243.17
492.538	22224.87
492.908	22382.83
493.278	22788.24
493.648	22904.4
494.017	23203.37
494.387	23332.41
494.757	23698.05
495.126	23861.21
495.496	23995.89
495.866	24163.8
496.235	24436.33
496.605	24603.11
496.974	24864.57
497.344	25087.39
497.713	25305.92
498.082	25611.22
498.452	25714.04
498.821	25931.21
499.19	26073.58
499.559	26346.34
499.928	26609.84
500.298	26718.31
500.667	26967.57
501.036	26923.05
501.405	27169.82
501.774	27285.3
502.143	27659.53
502.512	27617.72
502.88	27943.59
503.249	28059.06
503.618	28169.12
503.987	28251.15
504.356	28497.47
504.724	28637.58
505.093	28780.85
505.462	29107.62
505.83	29344.23
506.199	29314.85
506.567	29811.79
506.936	29746.25
507.304	30230.53
507.672	30302.4
508.041	30562.95
508.409	30740.12
508.777	31034.35
509.145	31336.04
509.514	31472.53
509.882	31642.47
510.25	31773.32
510.618	32082.69
510.986	32373.53
511.354	32544.6
511.722	32777.36
512.09	33159.5
512.458	33279.94
512.826	33500.28
513.193	33577.79
513.561	33787.5
513.929	34209.41
514.297	34443.53
514.664	34656.63
515.032	34791.54
515.4	35060.69
515.767	35184.75
516.135	35379.78
516.502	35331.64
516.869	35914.23
517.237	36080.1
517.604	35984.73
517.972	36597.15
518.339	36715.11
518.706	36887.08
519.073	36965.5
519.44	37333.4
519.808	37697
520.175	37711.92
520.542	38280.94
520.909	38610.65
521.276	38696.52
521.643	39073.69
522.009	39407.69
522.376	39695.82
522.743	39933.78
523.11	40273.66
523.477	40778.73
523.843	40892.63
524.21	41333.29
524.577	41662.77
524.943	41901.64
525.31	42096.21
525.676	42423.66
526.043	42632.01
526.409	42784.33
526.776	43329.62
527.142	43265.22
527.508	43624.98
527.874	43896.16
528.241	44148.58
528.607	44263.38
528.973	44742.92
529.339	44665.63
529.705	45125.96
530.071	45389.68
530.437	45615.44
530.803	45919.61
531.169	46189.44
531.535	46166.84
531.901	46384.91
532.267	46524.57
532.632	46711
532.998	46986.02
533.364	47240.71
533.73	47315.96
534.095	47632.56
534.461	47951.42
534.826	47999.33
535.192	48127.01
535.557	48486.78
535.923	48515.02
536.288	48769.03
536.653	48938.06
537.019	48789.37
537.384	49104.16
537.749	49273.42
538.114	49293.08
538.479	49374.21
538.845	49665.95
539.21	49585.28
539.575	49818.27
539.94	49954.08
540.305	50162.44
540.67	50081.31
541.034	50319.04
541.399	50430.91
541.764	50507.74
542.129	50603.56
542.494	50785.7
542.858	50886.71
543.223	50919.25
543.587	51108.4
543.952	51238.79
544.316	51303.65
544.681	51384.55
545.045	51521.27
545.41	51668.84
545.774	51686.69
546.138	51797.65
546.503	51935.5
546.867	52006.01
547.231	52298.43
547.595	52383.85
547.959	52483.28
548.324	52544.07
548.688	52705.42
549.052	52802.37
549.416	52911.07
549.779	52934.34
550.143	53047.33
550.507	53211.17
550.871	53449.13
551.235	53471.73
551.599	53708.79
551.962	53756.69
552.326	53736.58
552.689	53913.53
553.053	53790.14
553.417	54015.67
553.78	54353.97
554.143	54268.54
554.507	54397.13
554.87	54415.89
555.234	54706.73
555.597	54574.3
555.96	54733.84
556.323	54881.41
556.686	54838.47
557.05	55142.87
557.413	55123.44
557.776	55191.91
558.139	55438.46
558.502	55560.49
558.865	55596.65
559.228	55832.57
559.59	55880.93
559.953	55972
560.316	56217.19
560.679	56117.76
561.041	56435.95
561.404	56560.91
561.767	56739.44
562.129	56620.12
562.492	56927.68
562.854	56971.07
563.217	57072.54
563.579	57065.08
563.941	57265.53
564.304	57392.98
564.666	57469.36
565.028	57639.98
565.39	57716.14
565.753	57797.72
566.115	57926.98
566.477	58002.91
566.839	58100.76
567.201	58235.22
567.563	58250.14
567.925	58437.02
568.287	58442.67
568.648	58499.17
569.01	58609.67
569.372	58740.29
569.734	58708.2
570.095	58883.56
570.457	58941.87
570.819	58991.13
571.18	58985.03
571.542	59236.78
571.903	59251.46
572.265	59279.71
572.626	59332.82
572.987	59402.87
573.349	59482.65
573.71	59608.07
574.071	59657.1
574.432	59753.15
574.794	59905.01
575.155	59935.51
575.516	59836.99
575.877	59912.01
576.238	60024.1
576.599	60071.56
576.96	60146.58
577.32	60153.14
577.681	60243.08
578.042	60389.29
578.403	60361.72
578.763	60352.68
579.124	60431.09
579.485	60445.11
579.845	60530.3
580.206	60490.98
580.566	60491.21
580.927	60535.27
581.287	60560.13
581.648	60509.06
582.008	60647.13
582.368	60592.9
582.728	60662.28
583.089	60638.32
583.449	60624.54
583.809	60628.15
584.169	60630.19
584.529	60589.51
584.889	60708.38
585.249	60535.05
585.609	60578.89
585.969	60704.31
586.329	60584.76
586.688	60620.47
587.048	60602.84
587.408	60584.76
587.768	60599.9
588.127	60608.27
588.487	60594.03
588.846	60767.13
589.206	60590.41
589.565	60682.84
589.925	60765.1
590.284	60714.93
590.643	60780.24
591.003	60822.95
591.362	60886.9
591.721	60832.89
592.08	60804.19
592.44	60808.49
592.799	60879.9
593.158	60817.07
593.517	60831.08
593.876	60869.73
594.235	60873.79
594.593	60876.96
594.952	60963.06
595.311	60844.42
595.67	60873.57
596.029	60914.02
596.387	61018.2
596.746	61039.21
597.104	60923.74
597.463	60924.64
597.822	60985.2
598.18	60892.55
598.538	60886.22
598.897	61083.96
599.255	60845.55
599.613	61146.1
599.972	60940.46
600.33	61079.21
600.688	60966.45
601.046	61031.76
601.404	61062.26
601.762	61032.66
602.12	61161.47
602.478	61156.95
602.836	61157.86
603.194	61028.37
603.552	61081.02
603.91	61078.76
604.268	61240.11
604.625	61100
604.983	61201.7
605.341	61161.7
605.698	61276.27
606.056	61374.12
606.413	61305.42
606.771	61430.39
607.128	61457.28
607.485	61410.28
607.843	61379.32
608.2	61535.92
608.557	61581.35
608.914	61488.47
609.272	61599.43
609.629	61621.12
609.986	61792.19
610.343	61663.15
610.7	61780.44
611.057	61750.38
611.414	61726.2
611.771	61678.75
612.127	61869.7
612.484	61837.39
612.841	61931.85
613.198	61754.9
613.554	61824.73
613.911	61885.52
614.267	61841.45
614.624	61840.55
614.98	61853.66
615.337	62000.54
615.693	61987.44
616.05	61862.7
616.406	62013.43
616.762	61964.16
617.118	61951.05
617.475	61936.82
617.831	62042.13
618.187	61983.82
618.543	61964.61
618.899	62121.9
619.255	62065.85
619.611	62016.82
619.967	62098.17
620.323	62136.59
620.678	62070.6
621.034	62016.82
621.39	62048
621.746	61984.95
622.101	62270.14
622.457	62104.05
622.812	62157.6
623.168	62199.41
623.523	62167.32
623.879	62250.93
624.234	62033.31
624.589	62199.64
624.945	62215.45
625.3	62226.3
625.655	62239.41
626.01	62237.15
626.365	62280.54
626.72	62199.18
627.075	62217.26
627.43	62219.07
627.785	62174.78
628.14	62211.84
628.495	62263.59
628.85	62193.99
629.205	62139.75
629.559	62253.87
629.914	62088
630.269	62045.74
630.623	62034.89
630.978	61962.35
631.332	62019.98
631.687	62071.28
632.041	61954.67
632.396	62024.27
632.75	61849.81
633.104	61847.78
633.459	61774.56
633.813	61708.58
634.167	61743.83
634.521	61677.84
634.875	61752.87
635.229	61634.9
635.583	61506.55
635.937	61578.41
636.291	61532.08
636.645	61502.25
636.999	61406.44
637.352	61468.36
637.706	61308.36
638.06	61422.03
638.413	61382.03
638.767	61348.81
639.121	61396.27
639.474	61263.62
639.828	61254.8
640.181	61229.72
640.534	61303.16
640.888	61201.24
641.241	61086.9
641.594	61154.24
641.947	61162.6
642.301	61116.95
642.654	61091.64
643.007	61109.72
643.36	61101.13
643.713	61092.55
644.066	61093.22
644.419	60963.06
644.771	60920.12
645.124	60628.83
645.477	60565.55
645.83	60482.62
646.182	60320.59
646.535	60274.26
646.888	60244.21
647.24	60119.46
647.593	60264.09
647.945	60178.9
648.298	60053.25
648.65	60105.68
649.002	59949.07
649.355	60012.12
649.707	59972.35
650.059	60045.12
650.411	60356.07
650.763	60312.91
651.115	60502.73
651.467	60381.6
651.819	60342.06
652.171	60272
652.523	60258.9
652.875	60261.61
653.227	60172.57
653.578	60219.8
653.93	60161.05
654.282	60121.5
654.633	60035.62
654.985	60084.21
655.337	60051.44
655.688	60055.06
656.039	60055.51
656.391	59859.81
656.742	59915.4
657.094	59934.16
657.445	59987.49
657.796	59921.28
658.147	59885.35
658.498	59858.91
658.849	59895.97
659.2	59934.38
659.551	59820.49
659.902	59895.97
660.253	59782.52
660.604	59900.71
660.955	59737.55
661.306	59838.12
661.656	59772.58
662.007	59772.81
662.358	59850.32
662.708	59759.7
663.059	59782.3
663.409	59586.6
663.76	59816.42
664.11	59820.26
664.461	59817.1
664.811	59755.41
665.161	59861.62
665.511	59617.33
665.862	59717.22
666.212	59776.65
666.562	59834.73
666.912	59698.91
667.262	59630.44
667.612	59637.22
667.962	59626.82
668.312	59527.16
668.662	59675.41
669.011	59586.15
669.361	59546.15
669.711	59465.02
670.06	59447.84
670.41	59384.34
670.76	59274.29
671.109	59332.37
671.459	59347.73
671.808	59279.71
672.157	59334.85
672.507	59104.8
672.856	59154.29
673.205	59160.85
673.554	59210.79
673.904	59120.62
674.253	59205.59
674.602	59096.44
674.951	58687.86
675.3	58612.16
675.649	59045.37
675.998	58914.3
676.346	58999.27
676.695	59013.96
677.044	58785.71
677.393	58884.47
677.741	58885.15
678.09	58792.95
678.438	58791.14
678.787	58849.22
679.135	58821.87
679.484	58702.1
679.832	58795.88
680.181	58690.58
680.529	58720.86
680.877	58680.86
681.225	58669.33
681.573	58759.27
681.922	58517.7
682.27	58492.39
682.618	58570.35
682.966	58462.56
683.314	58527.64
683.661	58479.28
684.009	58319.51
684.357	58303.24
684.705	58308.21
685.053	58277.7
685.4	58214.88
685.748	58146.18
686.095	58104.38
686.443	58023.47
686.79	57982.12
687.138	58009.24
687.485	57999.75
687.832	57912.74
688.18	57902.8
688.527	57733.76
688.874	57672.98
689.221	57582.58
689.568	57550.04
689.915	57459.87
690.262	57444.73
690.609	57390.95
690.956	57233.66
691.303	57254.23
691.65	57072.09
691.997	57092.88
692.344	56860.12
692.69	56856.05
693.037	56872.77
693.383	56573.12
693.73	56669.84
694.077	56476.4
694.423	56443.63
694.769	56329.06
695.116	56228.27
695.462	56196.18
695.808	56107.59
696.155	56161.83
696.501	55989.18
696.847	55962.06
697.193	55659.24
697.539	55848.16
697.885	55678.45
698.231	55599.81
698.577	55569.75
698.923	55541.28
699.269	55324.79
699.614	55243.89
699.96	55270.78
700.306	55293.38
700.651	55153.27
700.997	55084.57
701.342	55009.99
701.688	54962.99
702.033	54818.13
702.379	54848.64
702.724	54779.94
703.069	54894.52
703.415	54522.78
703.76	54528.2
704.105	54679.61
704.45	54421.99
704.795	54328.88
705.14	54138.15
705.485	54264.93
705.83	54104.93
706.175	54212.28
706.52	54120.3
706.865	54033.07
707.209	53919.85
707.554	53812.51
707.899	54017.25
708.243	53731.16
708.588	53686.19
708.932	53453.43
709.277	53410.04
709.621	53377.72
709.966	53172.75
710.31	53211.62
710.654	53047.11
710.998	53044.4
711.342	52926.43
711.687	52904.96
712.031	52752.88
712.375	52520.12
712.719	52699.55
713.063	52486.9
713.407	52629.72
713.75	52349.27
714.094	52373.23
714.438	52119.67
714.782	52135.95
715.125	51980.47
715.469	52050.52
715.812	51894.82
716.156	51653.02
716.499	51655.73
716.843	51738.44
717.186	51499.35
717.53	51521.27
717.873	51504.1
718.216	51426.13
718.559	51307.49
718.902	50969.42
719.246	51097.1
719.589	50903.44
719.932	50889.88
720.275	50849.43
720.617	50795.19
720.96	50731.91
721.303	50680.62
721.646	50599.94
721.989	50416.44
722.331	50600.17
722.674	50429.32
723.016	50440.62
723.359	50420.51
723.701	50491.47
724.044	50135.77
724.386	50095.32
724.729	50211.93
725.071	49978.94
725.413	49988.88
725.755	50002.22
726.097	49951.6
726.439	49776.69
726.782	49737.36
727.124	49892.84
727.465	49788.44
727.807	49757.7
728.149	49581.66
728.491	49636.35
728.833	49567.2
729.175	49464.38
729.516	49416.47
729.858	49397.94
730.199	49394.55
730.541	49329.92
730.882	49161.79
731.224	49291.05
731.565	48915.01
731.906	48993.2
732.248	49048.34
732.589	48900.32
732.93	48636.6
733.271	48511.63
733.612	48617.62
733.953	48717.96
734.294	48328.59
734.635	48446.55
734.976	48456.04
735.317	48215.6
735.658	48277.74
735.999	48101.02
736.339	47939.22
736.68	47962.72
737.021	47834.36
737.361	47621.49
737.702	47928.82
738.042	47670.75
738.383	47464.2
738.723	47702.16
739.063	47180.6
739.404	47318.9
739.744	47199.13
740.084	47089.52
740.424	46913.94
740.764	46849.53
741.104	47028.06
741.444	46677.56
741.784	46600.72
742.124	46718.46
742.464	46568.41
742.804	46489.54
743.143	46308.08
743.483	46461.29
743.823	46116.44
744.162	46029.89
744.502	46066.95
744.841	45962.55
745.181	46112.15
745.52	45872.61
745.86	45925.49
746.199	45868.31
746.538	45796.45
746.877	45839.39
747.216	45728.43
747.556	45618.38
747.895	45572.5
748.234	45289.35
748.573	45374.09
748.911	45200.08
749.25	45246.86
749.589	45076.24
749.928	45134.32
750.267	45181.1
750.605	45031.95
750.944	44876.93
751.283	44767.78
751.621	44848.23
751.96	44520.1
752.298	44627.67
