Data from aluminium_macbook_case_FLMS001491_061.txt Node
Date: Tue Feb 07 10:44:01 GMT 2017
User: dcchb
Spectrometer: FLMS00149
Trigger mode: 0
Integration Time (sec): 2.000000E-2
Scans to average: 10
Electric dark correction enabled: true
Nonlinearity correction enabled: false
Boxcar width: 0
XAxis mode: Wavelengths
Number of Pixels in Spectrum: 2048
>>>>>Begin Spectral Data<<<<<
341.393	-8.53
341.776	-8.53
342.16	-8.53
342.543	-49.43
342.927	-68.19
343.31	-68.42
343.693	-64.8
344.077	-77
344.46	-54.86
344.843	-59.15
345.226	-51.02
345.61	-36.78
345.993	-23.9
346.376	-5.82
346.759	-4.01
347.142	40.96
347.525	38.7
347.908	68.08
348.291	80.05
348.674	97.46
349.057	120.51
349.44	140.17
349.823	152.14
350.206	174.97
350.588	232.14
350.971	256.09
351.354	273.95
351.737	266.26
352.119	311.91
352.502	304.91
352.884	325.02
353.267	334.74
353.65	343.78
354.032	364.79
354.414	375.19
354.797	331.8
355.179	385.36
355.562	389.42
355.944	372.25
356.326	388.52
356.709	387.62
357.091	400.05
357.473	419.93
357.855	394.17
358.238	414.51
358.62	395.75
359.002	384.45
359.384	430.78
359.766	414.51
360.148	430.55
360.53	435.53
360.912	436.43
361.294	413.6
361.676	417.45
362.057	426.26
362.439	411.8
362.821	407.5
363.203	407.96
363.584	405.24
363.966	397.11
364.348	418.8
364.729	377
365.111	391.91
365.493	423.77
365.874	433.27
366.256	425.13
366.637	418.12
367.019	441.85
367.4	434.17
367.781	438.01
368.163	425.13
368.544	445.69
368.925	440.95
369.306	436.88
369.688	428.75
370.069	439.37
370.45	440.5
370.831	440.72
371.212	453.38
371.593	463.1
371.974	460.38
372.355	446.6
372.736	451.12
373.117	474.85
373.498	459.03
373.879	475.07
374.26	450.44
374.641	442.76
375.021	473.49
375.402	476.88
375.783	499.93
376.163	527.5
376.544	519.82
376.925	494.73
377.305	504.22
377.686	523.88
378.066	504.22
378.447	530.89
378.827	518.91
379.208	538.12
379.588	535.64
379.968	551.91
380.349	550.32
380.729	533.83
381.109	562.53
381.489	571.79
381.87	566.14
382.25	570.89
382.63	565.92
383.01	573.6
383.39	593.26
383.77	591.91
384.15	614.5
384.53	607.27
384.91	607.05
385.29	615.86
385.67	630.32
386.049	636.88
386.429	634.62
386.809	655.41
387.189	654.95
387.568	663.54
387.948	679.13
388.328	696.54
388.707	703.77
389.087	687.95
389.466	700.38
389.846	708.96
390.225	724.33
390.605	714.84
390.984	715.52
391.363	728.85
391.743	744.22
392.122	766.36
392.501	760.94
392.881	779.7
393.26	786.7
393.639	807.72
394.018	814.5
394.397	836.19
394.776	837.77
395.155	828.28
395.534	852.92
395.913	843.88
396.292	856.76
396.671	901.28
397.05	884.1
397.429	893.82
397.808	892.91
398.186	906.47
398.565	915.06
398.944	893.59
399.323	962.07
399.701	950.99
400.08	964.55
400.458	958
400.837	971.33
401.215	981.95
401.594	1005.23
401.972	1019.46
402.351	1023.31
402.729	1027.6
403.107	1047.94
403.486	1077.77
403.864	1087.94
404.242	1056.07
404.62	1109.18
404.999	1115.06
405.377	1125.45
405.755	1145.34
406.133	1165.9
406.511	1182.62
406.889	1223.08
407.267	1204.32
407.645	1222.62
408.023	1225.11
408.401	1251.55
408.779	1306.24
409.156	1303.07
409.534	1320.93
409.912	1329.97
410.29	1355.28
410.667	1371.09
411.045	1398.66
411.422	1439.11
411.8	1435.27
412.178	1469.62
412.555	1489.73
412.933	1508.04
413.31	1503.29
413.687	1546.91
414.065	1549.39
414.442	1567.25
414.819	1598.88
415.197	1628.04
415.574	1648.83
415.951	1667.58
416.328	1679.33
416.705	1689.28
417.082	1706.23
417.46	1720.92
417.837	1747.58
418.214	1730.86
418.591	1803.62
418.967	1793
419.344	1837.3
419.721	1880.91
420.098	1868.03
420.475	1923.17
420.852	1914.58
421.228	1908.71
421.605	1950.51
421.982	1964.52
422.358	1967.24
422.735	2032.77
423.111	2046.1
423.488	2065.54
423.864	2091.53
424.241	2113.9
424.617	2161.13
424.994	2178.3
425.37	2175.14
425.746	2188.02
426.123	2283.84
426.499	2238.42
426.875	2299.21
427.251	2327.9
427.627	2359.09
428.003	2402.25
428.379	2435.7
428.756	2441.57
429.132	2479.31
429.507	2516.15
429.883	2552.08
430.259	2617.16
430.635	2616.26
431.011	2654.9
431.387	2715.24
431.763	2760.44
432.138	2797.27
432.514	2796.37
432.89	2852.18
433.265	2950.04
433.641	2948
434.016	3028.9
434.392	3051.5
434.767	3103.7
435.143	3115.91
435.518	3154.55
435.894	3169.24
436.269	3218.05
436.644	3261.21
437.02	3346.64
437.395	3392.28
437.77	3427.31
438.145	3450.14
438.52	3436.35
438.895	3496.69
439.271	3535.1
439.646	3618.49
440.021	3599.96
440.395	3638.83
440.77	3654.88
441.145	3665.95
441.52	3745.04
441.895	3735.33
442.27	3817.36
442.645	3815.78
443.019	3868.2
443.394	3895.77
443.769	3915.43
444.143	3888.77
444.518	4011.7
444.892	4023.45
445.267	4035.43
445.641	4050.35
446.016	4129.44
446.39	4154.52
446.764	4204.47
447.139	4128.99
447.513	4253.5
447.887	4254.86
448.262	4273.62
448.636	4344.58
449.01	4356.78
449.384	4392.26
449.758	4484.46
450.132	4533.72
450.506	4523.33
450.88	4569.65
451.254	4658.01
451.628	4691.68
452.002	4734.62
452.376	4787.05
452.75	4817.78
453.123	4838.8
453.497	4970.1
453.871	4993.6
454.244	5060.94
454.618	5090.32
454.992	5159.24
455.365	5236.08
455.739	5360.82
456.112	5420.25
456.486	5448.95
456.859	5466.81
457.232	5665.22
457.606	5581.6
457.979	5748.38
458.352	5800.36
458.725	5907.7
459.099	5979.33
459.472	6055.49
459.845	6150.18
460.218	6168.48
460.591	6279.89
460.964	6265.65
461.337	6398.76
461.71	6534.57
462.083	6643.5
462.456	6640.11
462.829	6682.37
463.201	6830.84
463.574	6884.17
463.947	6928.91
464.32	7111.51
464.692	7154.67
465.065	7244.84
465.438	7351.28
465.81	7385.4
466.183	7608.44
466.555	7714.66
466.928	7766.41
467.3	7823.58
467.672	7897.48
468.045	8100.86
468.417	8080.52
468.789	8200.29
469.161	8320.97
469.534	8453.85
469.906	8645.93
470.278	8723.89
470.65	8876.66
471.022	8969.31
471.394	9141.29
471.766	9273.94
472.138	9405.23
472.51	9559.13
472.882	9760.48
473.253	9871.89
473.625	10001.38
473.997	10247.24
474.369	10260.8
474.74	10469.39
475.112	10639.32
475.484	10858.53
475.855	10988.47
476.227	11156.37
476.598	11459.87
476.97	11472.75
477.341	11760.65
477.713	11971.72
478.084	12065.73
478.455	12437.02
478.827	12497.13
479.198	12955.42
479.569	12843.79
479.94	13204.68
480.311	13372.59
480.682	13694.84
481.053	13975.51
481.424	14189.29
481.795	14351.09
482.166	14546.57
482.537	14751.98
482.908	15128.92
483.279	15326.89
483.65	15616.6
484.021	15921.22
484.391	16120.31
484.762	16289.12
485.133	16465.39
485.503	16716.91
485.874	16989.67
486.244	17320.73
486.615	17583.55
486.985	17745.35
487.356	18073.93
487.726	18292.46
488.097	18663.29
488.467	18680.7
488.837	19153
489.207	19318.64
489.578	19547.11
489.948	19778.97
490.318	19962.24
490.688	20211.5
491.058	20465.06
491.428	20590.02
491.798	20900.75
492.168	21346.39
492.538	21464.12
492.908	21698.92
493.278	22046.48
493.648	22060.49
494.017	22412.57
494.387	22636.98
494.757	22888.72
495.126	23054.82
495.496	23093.91
495.866	23345.21
496.235	23712.88
496.605	23837.4
496.974	24046.88
497.344	24252.07
497.713	24480.77
498.082	24586.98
498.452	24862.23
498.821	24958.04
499.19	25010.92
499.559	25193.07
499.928	25498.6
500.298	25564.58
500.667	25937.45
501.036	25772.03
501.405	26179.26
501.774	26277.56
502.143	26488.85
502.512	26690.65
502.88	26881.84
503.249	26964.32
503.618	27280.7
503.987	27386
504.356	27468.26
504.724	27742.15
505.093	27821.92
505.462	28147.56
505.83	28315.47
506.199	28519.53
506.567	28925.4
506.936	28944.83
507.304	29305.95
507.672	29338.95
508.041	29592.95
508.409	29824.36
508.777	29983.45
509.145	30412.82
509.514	30380.27
509.882	30545.92
510.25	30783.88
510.618	30994.27
510.986	30954.27
511.354	31413.92
511.722	31618.89
512.09	31954.7
512.458	31874.02
512.826	32104.07
513.193	32342.93
513.561	32509.94
513.929	32849.14
514.297	33299.29
514.664	33349.24
515.032	33504.49
515.4	33822.44
515.767	33895.66
516.135	34164.58
516.502	34031.7
516.869	34957.33
517.237	34948.29
517.604	34889.53
517.972	35379.69
518.339	35654.26
518.706	35692.9
519.073	35888.6
519.44	36221.93
519.808	36668.02
520.175	36699.88
520.542	37058.52
520.909	37279.3
521.276	37379.86
521.643	37866.18
522.009	38290.8
522.376	38398.59
522.743	38742.09
523.11	38949.54
523.477	39373.71
523.843	39519.02
524.21	39961.72
524.577	40202.39
524.943	40456.39
525.31	40525.54
525.676	40876.72
526.043	41255.69
526.409	41242.81
526.776	41699.98
527.142	41885.96
527.508	42149.46
527.874	42538.37
528.241	42757.35
528.607	42909.66
528.973	43306.71
529.339	43309.43
529.705	43699.7
530.071	44152.12
530.437	44247.03
530.803	44555.27
531.169	44808.6
531.535	44882.72
531.901	45088.59
532.267	45328.36
532.632	45616.26
532.998	45825.29
533.364	46094.44
533.73	46212.17
534.095	46601.99
534.461	46519.06
534.826	46800.41
535.192	46894.87
535.557	47193.84
535.923	47153.62
536.288	47430.67
536.653	47652.59
537.019	47441.52
537.384	47789.76
537.749	47860.94
538.114	48060.94
538.479	48035.18
538.845	48291.67
539.21	48178.45
539.575	48355.17
539.94	48665.44
540.305	48778.89
540.67	48816.85
541.034	48929.84
541.399	49191.98
541.764	49269.95
542.129	49487.34
542.494	49498.19
542.858	49636.04
543.223	49726.66
543.587	49919.65
543.952	50106.54
544.316	50268.79
544.681	50260.88
545.045	50532.97
545.41	50650.7
545.774	50660.87
546.138	50863.58
546.503	50988.55
546.867	50997.59
547.231	51322.1
547.595	51451.81
547.959	51374.07
548.324	51556.89
548.688	51671.24
549.052	51777.23
549.416	51913.72
549.779	51942.42
550.143	51943.32
550.507	52221.28
550.871	52236.88
551.235	52296.76
551.599	52500.6
551.962	52581.72
552.326	52705.79
552.689	52791.44
553.053	52702.63
553.417	52834.37
553.78	53202.73
554.143	53049.74
554.507	53162.73
554.87	53402.04
555.234	53709.6
555.597	53510.97
555.96	53703.05
556.323	53864.63
556.686	53855.59
557.05	54164.06
557.413	54258.29
557.776	54383.71
558.139	54541.67
558.502	54587.77
558.865	54679.52
559.228	54947.31
559.59	55048.55
559.953	55082.45
560.316	55442.67
560.679	55332.16
561.041	55630.01
561.404	55724.47
561.767	55920.39
562.129	55798.36
562.492	56063.89
562.854	56131.91
563.217	56112.93
563.579	56256.43
563.941	56363.32
564.304	56541.85
564.666	56682.18
565.028	56674.72
565.39	56797.21
565.753	56898.67
566.115	56928.96
566.477	57099.57
566.839	57114.71
567.201	57322.17
567.563	57292.79
567.925	57462.27
568.287	57462.5
568.648	57540.92
569.01	57705.43
569.372	57823.85
569.734	57845.09
570.095	58020.9
570.457	58153.1
570.819	58206.89
571.18	58190.16
571.542	58291.41
571.903	58390.84
572.265	58481.68
572.626	58590.15
572.987	58613.66
573.349	58725.29
573.71	58779.08
574.071	58870.6
574.432	58954.89
574.794	59143.81
575.155	59149.69
575.516	59051.39
575.877	59233.75
576.238	59271.49
576.599	59413.64
576.96	59389.23
577.32	59377.25
577.681	59504.48
578.042	59562.33
578.403	59615.89
578.763	59618.15
579.124	59626.29
579.485	59739.05
579.845	59677.58
580.206	59656.34
580.566	59599.39
580.927	59634.19
581.287	59704.25
581.648	59592.61
582.008	59733.85
582.368	59677.58
582.728	59799.16
583.089	59768.2
583.449	59702.67
583.809	59743.57
584.169	59799.84
584.529	59712.16
584.889	59910.35
585.249	59793.74
585.609	59726.4
585.969	59901.31
586.329	59832.61
586.688	59794.42
587.048	59821.08
587.408	59778.15
587.768	59801.2
588.127	59870.35
588.487	59829.9
588.846	59988.08
589.206	59836.22
589.565	59911.25
589.925	60060.17
590.284	59900.85
590.643	60042.77
591.003	60123.22
591.362	60194.41
591.721	60118.7
592.08	60157.12
592.44	60179.27
592.799	60134.97
593.158	60111.24
593.517	60142.43
593.876	60165.71
594.235	60091.58
594.593	60180.4
594.952	60198.47
595.311	60011.36
595.67	60115.54
596.029	60201.86
596.387	60201.19
596.746	60166.84
597.104	60078.25
597.463	60039.61
597.822	60164.12
598.18	60109.21
598.538	60045.94
598.897	60180.85
599.255	60008.65
599.613	60361.41
599.972	60193.73
600.33	60210.22
600.688	60148.08
601.046	60206.16
601.404	60273.5
601.762	60278.7
602.12	60421.74
602.478	60326.61
602.836	60400.95
603.194	60259.04
603.552	60307.4
603.91	60298.81
604.268	60443.66
604.625	60405.93
604.983	60449.31
605.341	60461.07
605.698	60547.62
606.056	60607.05
606.413	60576.99
606.771	60684.11
607.128	60716.88
607.485	60641.17
607.843	60712.36
608.2	60794.84
608.557	60892.01
608.914	60856.54
609.272	60963.88
609.629	60988.28
609.986	61074.61
610.343	60968.17
610.7	61082.52
611.057	61127.04
611.414	61053.59
611.771	60986.93
612.127	61087.49
612.484	61054.27
612.841	61034.84
613.198	61021.05
613.554	60950.09
613.911	61082.74
614.267	61042.29
614.624	61075.51
614.98	61048.39
615.337	61167.71
615.693	61123.2
616.05	61069.86
616.406	61185.79
616.762	61044.33
617.118	61074.61
617.475	61048.85
617.831	61189.63
618.187	61221.27
618.543	61296.75
618.899	61364.77
619.255	61237.32
619.611	61258.78
619.967	61337.88
620.323	61381.27
620.678	61277.09
621.034	61318.67
621.39	61233.47
621.746	61245.45
622.101	61505.78
622.457	61310.31
622.812	61385.56
623.168	61464.88
623.523	61502.39
623.879	61541.72
624.234	61413.58
624.589	61487.93
624.945	61572
625.3	61562.73
625.655	61512.79
626.01	61564.77
626.365	61572.9
626.72	61543.97
627.075	61494.71
627.43	61498.55
627.785	61459.46
628.14	61525.9
628.495	61558.44
628.85	61488.84
629.205	61375.62
629.559	61530.19
629.914	61349.86
630.269	61426.69
630.623	61322.29
630.978	61191.89
631.332	61288.84
631.687	61327.03
632.041	61183.31
632.396	61207.49
632.75	61033.03
633.104	61108.51
633.459	60913.26
633.813	60930.43
634.167	60923.43
634.521	60948.96
634.875	60965.23
635.229	60827.61
635.583	60788.51
635.937	60764.56
636.291	60725.92
636.645	60737.44
636.999	60668.97
637.352	60698.8
637.706	60585.81
638.06	60636.2
638.413	60599.59
638.767	60528.86
639.121	60549.42
639.474	60439.82
639.828	60439.15
640.181	60453.61
640.534	60462.42
640.888	60376.55
641.241	60276.44
641.594	60329.77
641.947	60422.2
642.301	60309.43
642.654	60434.17
643.007	60406.15
643.36	60360.96
643.713	60346.94
644.066	60455.42
644.419	60274.18
644.771	60136.1
645.124	59887.75
645.477	59847.3
645.83	59667.87
646.182	59611.37
646.535	59497.7
646.888	59544.25
647.24	59401.21
647.593	59520.07
647.945	59407.76
648.298	59265.39
648.65	59272.4
649.002	59143.81
649.355	59197.37
649.707	59223.81
650.059	59292.06
650.411	59532.05
650.763	59548.55
651.115	59875.09
651.467	59660.41
651.819	59602.56
652.171	59585.83
652.523	59485.72
652.875	59433.52
653.227	59277.37
653.578	59432.62
653.93	59379.51
654.282	59268.78
654.633	59178.39
654.985	59211.15
655.337	59158.95
655.688	59161.89
656.039	59186.52
656.391	59003.7
656.742	59062.01
657.094	59089.35
657.445	59090.25
657.796	59046.64
658.147	59016.58
658.498	58946.53
658.849	59069.24
659.2	58945.4
659.551	58979.52
659.902	58997.83
660.253	58880.09
660.604	58988.79
660.955	58873.31
661.306	59007.09
661.656	58898.17
662.007	58970.71
662.358	58938.85
662.708	58976.36
663.059	58939.52
663.409	58850.26
663.76	58950.14
664.11	58916.25
664.461	58978.84
664.811	59001.44
665.161	59032.85
665.511	58949.92
665.862	58949.47
666.212	59061.55
666.562	59008.67
666.912	58932.07
667.262	58838.74
667.612	58852.75
667.962	58852.52
668.312	58866.53
668.662	58918.96
669.011	58801.22
669.361	58719.64
669.711	58725.97
670.06	58614.56
670.41	58544.51
670.76	58563.94
671.109	58629.48
671.459	58509.7
671.808	58508.57
672.157	58450.27
672.507	58378.41
672.856	58251.18
673.205	58357.84
673.554	58364.17
673.904	58230.62
674.253	58305.42
674.602	58240.11
674.951	57877.86
675.3	57737.3
675.649	58140
675.998	58053.45
676.346	58078.76
676.695	58130.73
677.044	57892.77
677.393	58041.92
677.741	58044.18
678.09	57887.57
678.438	57839.21
678.787	57945.65
679.135	57890.96
679.484	57772.32
679.832	57854.58
680.181	57695.49
680.529	57761.02
680.877	57679.22
681.225	57721.25
681.573	57836.05
681.922	57641.93
682.27	57549.05
682.618	57633.57
682.966	57558.77
683.314	57629.05
683.661	57507.92
684.009	57404.87
684.357	57417.53
684.705	57430.18
685.053	57447.81
685.4	57404.87
685.748	57276.52
686.095	57253.01
686.443	57204.43
686.79	57121.49
687.138	57171.43
687.485	57122.85
687.832	57028.39
688.18	57067.03
688.527	56879.01
688.874	56875.85
689.221	56827.04
689.568	56739.58
689.915	56565.35
690.262	56625.01
690.609	56538.68
690.956	56480.83
691.303	56364.22
691.65	56289.88
691.997	56262.08
692.344	56060.05
692.69	56049.66
693.037	55986.83
693.383	55762.21
693.73	55856.21
694.077	55690.12
694.423	55514.98
694.769	55476.34
695.116	55377.81
695.462	55375.32
695.808	55187.76
696.155	55164.03
696.501	54967.42
696.847	55001.1
697.193	54748.67
697.539	54864.15
697.885	54643.59
698.231	54588.23
698.577	54516.14
698.923	54439.76
699.269	54269.14
699.614	54114.79
699.96	54107.11
700.306	54103.72
700.651	53983.27
700.997	53922.25
701.342	53826.44
701.688	53729.04
702.033	53714.35
702.379	53642.71
702.724	53630.74
703.069	53695.82
703.415	53286.11
703.76	53280.46
704.105	53445.66
704.45	53306.68
704.795	53087.93
705.14	53034.37
705.485	53049.51
705.83	52875.5
706.175	52871.43
706.52	52814.49
706.865	52769.74
707.209	52762.51
707.554	52694.26
707.899	52846.12
708.243	52603.42
708.588	52557.32
708.932	52395.29
709.277	52372.24
709.621	52368.4
709.966	52079.37
710.31	52294.05
710.654	51985.58
710.998	52004.11
711.342	52030.33
711.687	51835.3
712.031	51668.98
712.375	51530.45
712.719	51634.86
713.063	51458.59
713.407	51598.7
713.75	51387.41
714.094	51412.04
714.438	51233.51
714.782	51261.53
715.125	50996.23
715.469	51036.45
715.812	50877.81
716.156	50615.22
716.499	50655.22
716.843	50616.8
717.186	50382.46
717.53	50546.07
717.873	50488.22
718.216	50382.01
718.559	50113.77
718.902	49891.85
719.246	49936.14
719.589	49855.69
719.932	49665.19
720.275	49499.55
720.617	49529.38
720.96	49384.52
721.303	49370.28
721.646	49267.01
721.989	49045.09
722.331	49179.1
722.674	49027.47
723.016	49004.87
723.359	48866.57
723.701	48884.19
724.044	48623.64
724.386	48444.21
724.729	48635.16
725.071	48408.95
725.413	48421.16
725.755	48321.5
726.097	48152.24
726.439	47994.05
726.782	48125.12
727.124	48427.71
727.465	48102.07
727.807	48102.75
728.149	47992.92
728.491	48058.91
728.833	47971.68
729.175	47849.87
729.516	47949.08
729.858	47855.07
730.199	47805.81
730.541	47711.34
730.882	47726.94
731.224	47779.59
731.565	47467.06
731.906	47545.7
732.248	47633.61
732.589	47241.3
732.93	47262.99
733.271	47351.58
733.612	47371.92
733.953	47323.11
734.294	47199.04
734.635	47036.33
734.976	47193.84
735.317	46968.99
735.658	46966.96
735.999	46848.77
736.339	46704.82
736.68	46731.71
737.021	46549.34
737.361	46492.39
737.702	46616.91
738.042	46407.88
738.383	46144.15
738.723	46288.1
739.063	46136.92
739.404	46222.12
739.744	46026.42
740.084	45868.91
740.424	45863.94
740.764	45704.17
741.104	45763.37
741.444	45423.04
741.784	45346.89
742.124	45412.87
742.464	45342.59
742.804	45136.04
743.143	44944.64
743.483	45063.05
743.823	44879.55
744.162	44764.3
744.502	44800.01
744.841	44558.43
745.181	44666.45
745.52	44463.97
745.86	44441.6
746.199	44210.19
746.538	44080.93
746.877	44121.16
747.216	44172.45
747.556	43866.93
747.895	43842.75
748.234	43647.27
748.573	43568.4
748.911	43569.31
749.25	43443.66
749.589	43400.27
749.928	43350.33
750.267	43308.97
750.605	43232.37
750.944	43073.05
751.283	43031.02
751.621	43052.94
751.96	42704.47
