Data from aluminium_macbook_case_FLMS001491_037.txt Node
Date: Tue Feb 07 10:43:31 GMT 2017
User: dcchb
Spectrometer: FLMS00149
Trigger mode: 0
Integration Time (sec): 2.000000E-2
Scans to average: 10
Electric dark correction enabled: true
Nonlinearity correction enabled: false
Boxcar width: 0
XAxis mode: Wavelengths
Number of Pixels in Spectrum: 2048
>>>>>Begin Spectral Data<<<<<
341.393	-27.46
341.776	-27.46
342.16	-27.46
342.543	-67.46
342.927	-92.09
343.31	-43.5
343.693	-71.52
344.077	-58.64
344.46	-53.9
344.843	-36.95
345.226	-29.26
345.61	-34.24
345.993	-33.78
346.376	-14.35
346.759	9.38
347.142	27.46
347.525	18.19
347.908	61.58
348.291	57.96
348.674	81.01
349.057	120.56
349.44	100.9
349.823	127.34
350.206	182.26
350.588	238.3
350.971	246.89
351.354	277.62
351.737	288.47
352.119	294.12
352.502	314
352.884	314.91
353.267	343.61
353.65	331.63
354.032	356.71
354.414	365.98
354.797	359.2
355.179	388.8
355.562	362.14
355.944	379.09
356.326	387.9
356.709	403.27
357.091	396.26
357.473	402.81
357.855	405.75
358.238	397.84
358.62	401.91
359.002	399.42
359.384	421.34
359.766	418.86
360.148	398.97
360.53	405.53
360.912	419.09
361.294	433.55
361.676	410.5
362.057	410.72
362.439	417.28
362.821	404.17
363.203	401.68
363.584	408.92
363.966	397.39
364.348	403.49
364.729	410.72
365.111	397.62
365.493	385.87
365.874	420.21
366.256	405.53
366.637	411.85
367.019	407.56
367.4	402.59
367.781	412.98
368.163	451.63
368.544	426.09
368.925	431.51
369.306	435.81
369.688	421.34
370.069	416.15
370.45	444.85
370.831	436.03
371.212	435.13
371.593	440.55
371.974	441.68
372.355	447.78
372.736	472.64
373.117	463.6
373.498	470.16
373.879	459.08
374.26	433.77
374.641	443.94
375.021	428.58
375.402	463.6
375.783	488.69
376.163	511.74
376.544	498.18
376.925	482.13
377.305	498.4
377.686	490.27
378.066	510.38
378.447	493.89
378.827	506.09
379.208	503.6
379.588	516.48
379.968	523.94
380.349	514
380.729	549.48
381.109	555.35
381.489	532.98
381.87	561.91
382.25	561.23
382.63	565.3
383.01	560.32
383.39	562.81
383.77	572.53
384.15	580.21
384.53	600.1
384.91	608.46
385.29	602.58
385.67	604.84
386.049	625.18
386.429	617.5
386.809	642.58
387.189	638.51
387.568	638.97
387.948	648.46
388.328	654.11
388.707	670.15
389.087	644.84
389.466	683.48
389.846	691.39
390.225	711.05
390.605	694.56
390.984	725.07
391.363	729.59
391.743	741.34
392.122	730.72
392.501	771.84
392.881	761.67
393.26	757.16
393.639	768.91
394.018	815.01
394.397	807.1
394.776	811.62
395.155	815.46
395.534	832.63
395.913	840.77
396.292	833.76
396.671	845.29
397.05	837.83
397.429	859.98
397.808	872.63
398.186	877.6
398.565	906.3
398.944	903.59
399.323	898.17
399.701	926.42
400.08	919.41
400.458	937.49
400.837	967.77
401.215	966.64
401.594	962.35
401.972	999.41
402.351	1007.32
402.729	1013.87
403.107	1033.76
403.486	1032.63
403.864	1051.38
404.242	1059.07
404.62	1076.24
404.999	1105.39
405.377	1070.37
405.755	1110.37
406.133	1125.06
406.511	1161.44
406.889	1179.29
407.267	1167.99
407.645	1188.33
408.023	1222.68
408.401	1233.3
408.779	1274.43
409.156	1286.41
409.534	1260.64
409.912	1311.49
410.29	1340.87
410.667	1336.8
411.045	1397.82
411.422	1361.66
411.8	1399.17
412.178	1440.75
412.555	1449.34
412.933	1443.24
413.31	1470.36
413.687	1502.22
414.065	1481.66
414.442	1555.78
414.819	1560.75
415.197	1564.37
415.574	1597.13
415.951	1637.58
416.328	1621.99
416.705	1639.39
417.082	1636.68
417.46	1676.23
417.837	1696.79
418.214	1725.04
418.591	1746.06
418.967	1746.06
419.344	1767.07
419.721	1801.87
420.098	1792.38
420.475	1853.4
420.852	1880.52
421.228	1880.29
421.605	1901.98
421.982	1940.17
422.358	1932.49
422.735	1962.77
423.111	1990.12
423.488	2009.78
423.864	2032.6
424.241	2043.22
424.617	2084.58
424.994	2103.11
425.37	2103.33
425.746	2123.22
426.123	2158.47
426.499	2198.47
426.875	2218.81
427.251	2281.41
427.627	2330.67
428.003	2334.06
428.379	2391.01
428.756	2390.78
429.132	2453.61
429.507	2497.67
429.883	2493.61
430.259	2548.97
430.635	2581.74
431.011	2604.34
431.387	2671.68
431.763	2698.12
432.138	2707.39
432.514	2749.87
432.89	2796.42
433.265	2854.5
433.641	2886.59
434.016	2906.7
434.392	2947.83
434.767	3003.42
435.143	3046.36
435.518	3066.93
435.894	3134.95
436.269	3194.38
436.644	3213.14
437.02	3267.15
437.395	3253.36
437.77	3307.82
438.145	3350.08
438.52	3386.92
438.895	3429.4
439.271	3409.06
439.646	3539.91
440.021	3547.59
440.395	3554.6
440.77	3535.61
441.145	3562.96
441.52	3666.91
441.895	3665.1
442.27	3731.77
442.645	3730.18
443.019	3750.52
443.394	3756.62
443.769	3867.58
444.143	3816.74
444.518	3910.52
444.892	3908.71
445.267	3977.41
445.641	3996.39
446.016	4018.09
446.39	4044.75
446.764	4122.49
447.139	4080.68
447.513	4171.75
447.887	4193.9
448.262	4198.42
448.636	4237.97
449.01	4225.99
449.384	4342.82
449.758	4368.81
450.132	4401.81
450.506	4424.4
450.88	4445.42
451.254	4462.14
451.628	4531.29
452.002	4607.68
452.376	4655.81
452.75	4707.79
453.123	4744.17
453.497	4817.61
453.871	4957.5
454.244	5006.31
454.618	5080.88
454.992	5122.01
455.365	5132.18
455.739	5210.6
456.112	5317.71
456.486	5334.66
456.859	5407.43
457.232	5531.04
457.606	5524.94
457.979	5562
458.352	5734.88
458.725	5773.07
459.099	5788.44
459.472	5912.27
459.845	6043.34
460.218	5997.47
460.591	6060.52
460.964	6085.38
461.337	6276.78
461.71	6345.48
462.083	6471.81
462.456	6505.93
462.829	6575.76
463.201	6711.12
463.574	6775.98
463.947	6802.42
464.32	7027.95
464.692	6987.27
465.065	7140.72
465.438	7233.6
465.81	7338.9
466.183	7356.53
466.555	7599.69
466.928	7533.25
467.3	7648.05
467.672	7755.39
468.045	7982.05
468.417	7998.55
468.789	8019.56
469.161	8118.09
469.534	8317.86
469.906	8438.76
470.278	8445.31
470.65	8607.12
471.022	8850.95
471.394	8981.57
471.766	9057.05
472.138	9207.1
472.51	9451.84
472.882	9568.67
473.253	9671.72
473.625	9783.58
473.997	10033.07
474.369	10156.68
474.74	10262.67
475.112	10427.18
475.484	10578.14
475.855	10812.48
476.227	10967.28
476.598	11215.64
476.97	11318.69
477.341	11549.87
477.713	11673.48
478.084	11786.92
478.455	12120.7
478.827	12249.51
479.198	12561.82
479.569	12641.14
479.94	12955.7
480.311	13076.61
480.682	13415.35
481.053	13718.85
481.424	13908.22
481.795	14112.96
482.166	14358.61
482.537	14545.95
482.908	14816.67
483.279	15091.92
483.65	15383.66
484.021	15695.07
484.391	15836.76
484.762	16046.24
485.133	16158.11
485.503	16487.14
485.874	16789.5
486.244	16895.26
486.615	17300.68
486.985	17412.08
487.356	17709.93
487.726	17960.77
488.097	18208
488.467	18363.25
488.837	18746.06
489.207	18923.91
489.578	19171.81
489.948	19397.57
490.318	19623.1
490.688	19725.02
491.058	20042.3
491.428	20373.36
491.798	20547.37
492.168	20922.05
492.538	21136.96
492.908	21396.39
493.278	21776.26
493.648	21735.36
494.017	22049.7
494.387	22261.45
494.757	22576.92
495.126	22802.68
495.496	22803.58
495.866	23017.36
496.235	23326.73
496.605	23564.69
496.974	23714.29
497.344	23931.01
497.713	24044.45
498.082	24201.51
498.452	24439.47
498.821	24573.25
499.19	24590.2
499.559	24926.24
499.928	25008.27
500.298	25159.23
500.667	25376.17
501.036	25388.37
501.405	25791.3
501.774	25766.89
502.143	26090.27
502.512	26288.24
502.88	26540.21
503.249	26538.4
503.618	26794.89
503.987	26963.02
504.356	27106.29
504.724	27341.09
505.093	27544.47
505.462	27647.52
505.83	28003.44
506.199	28220.61
506.567	28545.58
506.936	28500.38
507.304	28898.56
507.672	29009.29
508.041	29037.99
508.409	29269.63
508.777	29611.54
509.145	29956.61
509.514	29796.39
509.882	30120.45
510.25	30141.47
510.618	30408.8
510.986	30547.78
511.354	30901.45
511.722	31098.73
512.09	31373.75
512.458	31452.85
512.826	31645.38
513.193	31901.2
513.561	32062.09
513.929	32359.94
514.297	32659.82
514.664	32851.45
515.032	33015.74
515.4	33406.92
515.767	33557.42
516.135	33716.74
516.502	33716.06
516.869	34315.14
517.237	34513.56
517.604	34659.54
517.972	34925.97
518.339	35189.47
518.706	35436.24
519.073	35583.36
519.44	35742.9
519.808	36244.58
520.175	36087.75
520.542	36560.73
520.909	36750.33
521.276	36897
521.643	37319.58
522.009	37401.39
522.376	37770.42
522.743	37969.74
523.11	38326.56
523.477	38736.5
523.843	38952.54
524.21	39158.18
524.577	39506.64
524.943	39657.38
525.31	39909.35
525.676	40275.21
526.043	40638.14
526.409	40819.83
526.776	41267.28
527.142	41436.31
527.508	41794.72
527.874	42139.12
528.241	42350.86
528.607	42592.44
528.973	42901.36
529.339	42965.31
529.705	43438.74
530.071	43819.53
530.437	43903.14
530.803	44009.35
531.169	44368.44
531.535	44362.34
531.901	44392.62
532.267	44548.32
532.632	44898.14
532.998	44987.86
533.364	45321.18
533.73	45417.68
534.095	45845.91
534.461	45848.4
534.826	46013.59
535.192	46199.35
535.557	46550.53
535.923	46425.78
536.288	46840.92
536.653	46777.41
537.019	46936.73
537.384	47065.99
537.749	47290.17
538.114	47332.65
538.479	47437.74
538.845	47710.04
539.21	47668.46
539.575	48013.54
539.94	47955.24
540.305	48388.22
540.67	48401.1
541.034	48600.64
541.399	48845.16
541.764	48967.86
542.129	49167.63
542.494	49209.67
542.858	49372.83
543.223	49500.96
543.587	49653.95
543.952	49608.98
544.316	49755.64
544.681	49859.37
545.045	49895.75
545.41	50053.26
545.774	50178.23
546.138	50194.27
546.503	50292.58
546.867	50323.54
547.231	50605.56
547.595	50652.57
547.959	50820.92
548.324	50843.07
548.688	50888.72
549.052	51114.02
549.416	51098.66
549.779	51179.56
550.143	51260.23
550.507	51548.59
550.871	51562.37
551.235	51543.62
551.599	51917.17
551.962	52052.08
552.326	52171.85
552.689	52367.55
553.053	52231.96
553.417	52359.41
553.78	52860.64
554.143	52640.08
554.507	52940.19
554.87	53067.64
555.234	53391.03
555.597	53339.73
555.96	53436
556.323	53558.48
556.686	53615.88
557.05	53834.18
557.413	53865.82
557.776	53972.48
558.139	54141.51
558.502	54237.78
558.865	54221.29
559.228	54469.87
559.59	54515.29
559.953	54560.94
560.316	54913.7
560.679	54854.26
561.041	54939.91
561.404	55079.57
561.767	55182.62
562.129	55186.68
562.492	55556.84
562.854	55544.19
563.217	55552.55
563.579	55660.8
563.941	55883.62
564.304	55920
564.666	56230.72
565.028	56233.44
565.39	56337.84
565.753	56507.33
566.115	56571.51
566.477	56682.24
566.839	56799.07
567.201	56966.3
567.563	56970.59
567.925	57094.66
568.287	57206.52
568.648	57214.2
569.01	57415.1
569.372	57537.81
569.734	57556.11
570.095	57695.09
570.457	57814.41
570.819	57887.18
571.18	57886.95
571.542	58077.91
571.903	58092.82
572.265	58143.44
572.626	58229.32
572.987	58236.55
573.349	58258.02
573.71	58345.92
574.071	58424.57
574.432	58447.16
574.794	58634.5
575.155	58601.51
575.516	58559.7
575.877	58632.47
576.238	58665.69
576.599	58839.02
576.96	58806.02
577.32	58787.49
577.681	58884.89
578.042	58907.94
578.403	58933.48
578.763	58994.72
579.124	58991.56
579.485	59139.57
579.845	59184.77
580.206	59141.61
580.566	59182.06
580.927	59216.86
581.287	59334.15
581.648	59261.61
582.008	59365.56
582.368	59325.11
582.728	59459.79
583.089	59391.09
583.449	59410.3
583.809	59491.43
584.169	59553.12
584.529	59413.47
584.889	59642.16
585.249	59530.75
585.609	59436.74
585.969	59657.3
586.329	59487.59
586.688	59561.26
587.048	59543.63
587.408	59479
587.768	59490.07
588.127	59488.94
588.487	59443.75
588.846	59629.96
589.206	59391.32
589.565	59418.44
589.925	59560.81
590.284	59384.99
590.643	59428.61
591.003	59530.3
591.362	59507.7
591.721	59435.61
592.08	59469.74
592.44	59557.19
592.799	59433.13
593.158	59459.79
593.517	59466.12
593.876	59577.3
594.235	59477.87
594.593	59578.66
594.952	59616.62
595.311	59528.27
595.67	59620.24
596.029	59671.09
596.387	59652.56
596.746	59690.75
597.104	59601.48
597.463	59686.91
597.822	59758.77
598.18	59701.37
598.538	59764.42
598.897	59881.02
599.255	59656.85
599.613	60008.48
599.972	59838.77
600.33	59987.24
600.688	59878.31
601.046	60056.61
601.404	60047.8
601.762	60010.06
602.12	60174.12
602.478	60133.45
602.836	60101.81
603.194	60034.69
603.552	60097.74
603.91	59922.15
604.268	60067.91
604.625	60002.38
604.983	60070.62
605.341	59953.56
605.698	60084.86
606.056	60104.52
606.413	60014.81
606.771	60091.64
607.128	60144.97
607.485	59983.39
607.843	60014.81
608.2	60189.94
608.557	60174.58
608.914	60078.76
609.272	60181.81
609.629	60208.7
609.986	60360.33
610.343	60235.37
610.7	60360.79
611.057	60390.84
611.414	60361.24
611.771	60390.39
612.127	60525.53
612.484	60499.09
612.841	60598.75
613.198	60534.34
613.554	60564.85
613.911	60698.4
614.267	60732.98
614.624	60649.59
614.98	60724.84
615.337	60845.07
615.693	60801.9
616.05	60820.21
616.406	61007.1
616.762	60826.08
617.118	60909.92
617.475	60901.11
617.831	60962.35
618.187	60986.98
618.543	61026.3
618.899	61129.81
619.255	61023.14
619.611	61029.92
619.967	61071.28
620.323	61094.33
620.678	60951.5
621.034	60892.52
621.39	60951.73
621.746	60881.68
622.101	61100.43
622.457	60882.13
622.812	60939.98
623.168	60948.34
623.523	60911.28
623.879	61008
624.234	60792.64
624.589	60836.48
624.945	60856.37
625.3	60878.51
625.655	60850.04
626.01	60817.5
626.365	60824.5
626.72	60747.44
627.075	60783.83
627.43	60774.33
627.785	60682.81
628.14	60766.42
628.495	60751.96
628.85	60805.29
629.205	60661.12
629.559	60823.82
629.914	60646.88
630.269	60785.18
630.623	60757.16
630.978	60641.23
631.332	60812.98
631.687	60801.68
632.041	60692.75
632.396	60843.26
632.75	60737.5
633.104	60721.91
633.459	60667.22
633.813	60626.09
634.167	60691.85
634.521	60619.76
634.875	60675.13
635.229	60608.01
635.583	60487.34
635.937	60499.77
636.291	60505.64
636.645	60488.69
636.999	60416.83
637.352	60463.38
637.706	60364.18
638.06	60454.12
638.413	60365.98
638.767	60271.07
639.121	60254.35
639.474	60028.82
639.828	60101.36
640.181	60061.13
640.534	60072.88
640.888	59923.96
641.241	59810.97
641.594	59864.75
641.947	59875.15
642.301	59784.98
642.654	59754.93
643.007	59719.22
643.36	59695.04
643.713	59671.99
644.066	59617.98
644.419	59444.65
644.771	59323.3
645.124	59076.07
645.477	59041.27
645.83	58877.21
646.182	58762.86
646.535	58665.92
646.888	58751.34
647.24	58542.53
647.593	58667.5
647.945	58637.67
648.298	58549.53
648.65	58469.08
649.002	58551.34
649.355	58663.88
649.707	58595.86
650.059	58717.67
650.411	58997.21
650.763	59035.62
651.115	59275.16
651.467	59197.2
651.819	59178.44
652.171	59095.73
652.523	59105.45
652.875	59112.46
653.227	59021.39
653.578	59220.93
653.93	59172.12
654.282	59069.29
654.633	58954.04
654.985	58960.82
655.337	58957.66
655.688	58913.37
656.039	59036.3
656.391	58808.28
656.742	58814.16
657.094	58806.93
657.445	58880.82
657.796	58836.76
658.147	58717.21
658.498	58749.53
658.849	58714.95
659.2	58619.59
659.551	58593.6
659.902	58636.09
660.253	58523.55
660.604	58547.5
660.955	58445.58
661.306	58404.9
661.656	58366.26
662.007	58318.81
662.358	58295.53
662.708	58260.28
663.059	58295.3
663.409	58018.25
663.76	58223.44
664.11	58109.32
664.461	58182.99
664.811	58175.76
665.161	58129.21
665.511	58074.74
665.862	58041.98
666.212	58113.84
666.562	58175.31
666.912	58105.48
667.262	58087.4
667.612	58170.33
667.962	58122.88
668.312	58119.49
668.662	58220.5
669.011	58119.71
669.361	58149.32
669.711	58171.24
670.06	58070.68
670.41	58022.09
670.76	58043.11
671.109	58168.98
671.459	58082.65
671.808	58054.18
672.157	58136.44
672.507	57919.95
672.856	58016.44
673.205	57901.42
673.554	58080.17
673.904	57952.71
674.253	58083.56
674.602	58045.59
674.951	57620.29
675.3	57469.56
675.649	57941.19
675.998	57841.08
676.346	57896.22
676.695	57946.84
677.044	57722.66
677.393	57829.78
677.741	57795.66
678.09	57659.61
678.438	57662.33
678.787	57573.29
679.135	57546.85
679.484	57434.08
679.832	57444.25
680.181	57313.63
680.529	57384.82
680.877	57191.15
681.225	57200.42
681.573	57290.13
681.922	57079.06
682.27	57042.23
682.618	56951.84
682.966	56851.95
683.314	56917.26
683.661	56823.03
684.009	56650.6
684.357	56594.78
684.705	56512.3
685.053	56632.52
685.4	56568.57
685.748	56435.24
686.095	56443.83
686.443	56268.69
686.79	56260.33
687.138	56264.17
687.485	56277.05
687.832	56112.76
688.18	56176.49
688.527	56060.79
688.874	55985.99
689.221	55963.39
689.568	55935.14
689.915	55903.5
690.262	55894.69
690.609	55837.74
690.956	55744.64
691.303	55760.68
691.65	55583.74
691.997	55577.41
692.344	55439.56
692.69	55522.04
693.037	55463.29
693.383	55257.87
693.73	55350.52
694.077	55101.04
694.423	55218.32
694.769	55101.04
695.116	55044.99
695.462	55035.05
695.808	54921.38
696.155	55016.97
696.501	54774.72
696.847	54761.16
697.193	54468.06
697.539	54623.76
697.885	54382.64
698.231	54328.63
698.577	54305.58
698.923	54283.43
699.269	54076.21
699.614	53870.56
699.96	53841.41
700.306	53763.22
700.651	53654.75
700.997	53501.76
701.342	53438.71
701.688	53489.33
702.033	53322.1
702.379	53268.09
702.724	53116.68
703.069	53285.49
703.415	52798.72
703.76	52883.02
704.105	52793.08
704.45	52678.5
704.795	52510.37
705.14	52362.35
705.485	52274.44
705.83	52064.28
706.175	52156.71
706.52	52080.1
706.865	51828.35
707.209	51803.95
707.554	51598.53
707.899	51685.08
708.243	51515.59
708.588	51471.75
708.932	51125.32
709.277	51238.77
709.621	51268.37
709.966	51111.99
710.31	51235.83
710.654	50839.23
710.998	50843.52
711.342	50944.99
711.687	50820.02
712.031	50742.06
712.375	50539.8
712.719	50758.78
713.063	50568.05
713.407	50689.18
713.75	50430.65
714.094	50541.83
714.438	50353.37
714.782	50364.89
715.125	50183.2
715.469	50342.52
715.812	50076.31
716.156	49920.61
716.499	50029.98
716.843	50070.21
717.186	49796.54
717.53	50097.78
717.873	49873.15
718.216	49840.61
718.559	49665.47
718.902	49317.69
719.246	49602.42
719.589	49468.19
719.932	49211.02
720.275	49244.02
720.617	49271.36
720.96	49027.52
721.303	48962.22
721.646	48977.13
721.989	48781.43
722.331	49020.74
722.674	48734.65
723.016	48791.37
723.359	48566.97
723.701	48525.16
724.044	48192.74
724.386	48086.08
724.729	48236.58
725.071	48133.76
725.413	48017.16
725.755	47962.24
726.097	47744.39
726.439	47582.82
726.782	47408.81
727.124	47735.36
727.465	47457.62
727.807	47401.58
728.149	47316.38
728.491	47190.06
728.833	47207.01
729.175	47046.79
729.516	46877.07
729.858	46573.35
730.199	46856.73
730.541	46655.38
730.882	46573.13
731.224	46730.64
731.565	46264.21
731.906	46363.87
732.248	46384.43
732.589	46160.26
732.93	46107.38
733.271	46009.07
733.612	46168.84
733.953	46122.97
734.294	45801.39
734.635	45792.13
734.976	45894.27
735.317	45510.1
735.658	45703.54
735.999	45613.6
736.339	45464.68
736.68	45686.6
737.021	45461.97
737.361	45334.74
737.702	45561.4
738.042	45442.99
738.383	45330.9
738.723	45359.6
739.063	45217
739.404	45281.41
739.744	45176.55
740.084	45066.27
740.424	45007.74
740.764	44789.44
741.104	44955.99
741.444	44660.18
741.784	44528.21
742.124	44781.76
742.464	44596.23
742.804	44506.97
743.143	44509.9
743.483	44478.27
743.823	44216.35
744.162	44249.8
744.502	44459.06
744.841	44152.17
745.181	44333.64
745.52	43943.14
745.86	44028.33
746.199	43809.13
746.538	43786.31
746.877	43950.6
747.216	43836.47
747.556	43569.14
747.895	43412.3
748.234	43237.85
748.573	43177.96
748.911	43156.27
749.25	43278.75
749.589	42996.95
749.928	42960.34
750.267	43000.79
750.605	42792.66
750.944	42824.52
751.283	42363.07
751.621	42555.38
751.96	42339.79
