Data from aluminium_surface_pro_back_FLMS001491_00093.txt Node
Date: Wed Feb 08 15:34:47 GMT 2017
User: dcchb
Spectrometer: FLMS00149
Trigger mode: 0
Integration Time (sec): 2.000000E-2
Scans to average: 10
Electric dark correction enabled: true
Nonlinearity correction enabled: false
Boxcar width: 0
XAxis mode: Wavelengths
Number of Pixels in Spectrum: 2048
>>>>>Begin Spectral Data<<<<<
341.393	5.07
341.776	5.07
342.16	5.07
342.543	-63.63
342.927	-91.88
343.31	-76.51
343.693	-89.62
344.077	-67.47
344.46	-58.43
344.843	-56.4
345.226	-33.12
345.61	-31.99
345.993	-13.23
346.376	-7.81
346.759	8.69
347.142	11.85
347.525	55.46
347.908	62.92
348.291	93.2
348.674	102.02
349.057	100.44
349.44	126.65
349.823	145.18
350.206	170.26
350.588	203.48
350.971	232.18
351.354	245.97
351.737	241.9
352.119	263.59
352.502	281
352.884	291.39
353.267	321.45
353.65	308.11
354.032	319.64
354.414	327.32
354.797	338.4
355.179	332.97
355.562	351.28
355.944	332.52
356.326	376.81
356.709	374.1
357.091	348.79
357.473	379.07
357.855	381.33
358.238	379.3
358.62	385.63
359.002	383.14
359.384	369.35
359.766	357.6
360.148	379.98
360.53	372.07
360.912	368
361.294	374.78
361.676	368.68
362.057	358.73
362.439	369.35
362.821	369.13
363.203	371.84
363.584	365.29
363.966	354.67
364.348	354.67
364.729	370.94
365.111	364.38
365.493	346.98
365.874	369.58
366.256	358.73
366.637	373.87
367.019	371.61
367.4	346.08
367.781	347.89
368.163	351.05
368.544	352.86
368.925	341.56
369.306	353.76
369.688	374.78
370.069	374.33
370.45	375.68
370.831	368.68
371.212	402.57
371.593	381.78
371.974	376.81
372.355	381.78
372.736	387.66
373.117	388.79
373.498	374.78
373.879	383.59
374.26	404.38
374.641	370.71
375.021	382.01
375.402	389.69
375.783	416.13
376.163	421.78
376.544	410.48
376.925	403.93
377.305	416.59
377.686	410.26
378.066	387.89
378.447	417.72
378.827	396.02
379.208	421.78
379.588	416.36
379.968	425.4
380.349	426.98
380.729	426.53
381.109	429.69
381.489	438.96
381.87	440.31
382.25	430.6
382.63	457.49
383.01	435.12
383.39	479.63
383.77	440.77
384.15	477.83
384.53	465.85
384.91	460.43
385.29	469.92
385.67	476.02
386.049	471.05
386.429	484.15
386.809	485.06
387.189	478.73
387.568	501.1
387.948	516.02
388.328	525.96
388.707	525.73
389.087	528.9
389.466	518.5
389.846	528.9
390.225	548.33
390.605	545.4
390.984	554.43
391.363	568.67
391.743	552.4
392.122	577.94
392.501	587.65
392.881	583.13
393.26	578.61
393.639	580.42
394.018	583.13
394.397	591.27
394.776	618.84
395.155	614.55
395.534	616.35
395.913	642.79
396.292	639.63
396.671	641.44
397.05	645.51
397.429	640.99
397.808	670.82
398.186	659.74
398.565	659.74
398.944	650.93
399.323	691.61
399.701	684.15
400.08	705.17
400.458	712.62
400.837	710.81
401.215	707.65
401.594	718.27
401.972	758.72
402.351	734.32
402.729	740.64
403.107	757.37
403.486	773.86
403.864	799.17
404.242	792.17
404.62	789.68
404.999	793.75
405.377	815.67
405.755	818.83
406.133	850.92
406.511	838.49
406.889	854.31
407.267	855.44
407.645	867.87
408.023	909.23
408.401	891.6
408.779	924.37
409.156	934.09
409.534	923.92
409.912	925.27
410.29	969.79
410.667	981.09
411.045	998.49
411.422	999.62
411.8	980.41
412.178	1054.53
412.555	1040.3
412.933	1029
413.31	1057.02
413.687	1102.22
414.065	1077.58
414.442	1100.63
414.819	1139.96
415.197	1146.74
415.574	1124.82
415.951	1141.09
416.328	1158.49
416.705	1176.34
417.082	1138.37
417.46	1179.5
417.837	1214.08
418.214	1212.95
418.591	1236.45
418.967	1216.79
419.344	1299.27
419.721	1286.17
420.098	1281.42
420.475	1299.27
420.852	1353.96
421.228	1338.82
421.605	1335.21
421.982	1348.54
422.358	1365.94
422.735	1384.02
423.111	1401.19
423.488	1414.98
423.864	1411.14
424.241	1436.45
424.617	1453.39
424.994	1475.54
425.37	1490.46
425.746	1466.28
426.123	1506.05
426.499	1552.37
426.875	1570
427.251	1584.46
427.627	1603.45
428.003	1628.3
428.379	1632.82
428.756	1664.91
429.132	1651.81
429.507	1680.73
429.883	1726.16
430.259	1762.09
430.635	1736.78
431.011	1774.29
431.387	1788.53
431.763	1816.55
432.138	1868.3
432.514	1889.99
432.89	1876.89
433.265	1912.82
433.641	1991.91
434.016	1940.84
434.392	2020.84
434.767	2025.58
435.143	2047.5
435.518	2062.42
435.894	2111.46
436.269	2106.94
436.644	2179.7
437.02	2199.59
437.395	2178.8
437.77	2200.94
438.145	2242.75
438.52	2267.84
438.895	2316.2
439.271	2287.95
439.646	2375.18
440.021	2372.01
440.395	2360.94
440.77	2373.37
441.145	2395.97
441.52	2443.88
441.895	2446.14
442.27	2471.45
442.645	2477.1
443.019	2516.64
443.394	2478.45
443.769	2544.44
444.143	2542.63
444.518	2565
444.892	2573.59
445.267	2569.75
445.641	2648.39
446.016	2637.09
446.39	2698.78
446.764	2667.83
447.139	2697.66
447.513	2704.89
447.887	2741.27
448.262	2714.15
448.636	2765.68
449.01	2825.56
449.384	2819.23
449.758	2811.32
450.132	2880.7
450.506	2893.36
450.88	2945.11
451.254	2921.38
451.628	3004.31
452.002	2996.4
452.376	3037.31
452.75	3060.36
453.123	3074.82
453.497	3161.82
453.871	3145.33
454.244	3212.22
454.618	3209.51
454.992	3281.14
455.365	3301.03
455.739	3388.94
456.112	3399.33
456.486	3406.56
456.859	3467.13
457.232	3551.19
457.606	3538.54
457.979	3582.6
458.352	3688.82
458.725	3698.31
459.099	3771.98
459.472	3833.44
459.845	3852.2
460.218	3881.13
460.591	3906.89
460.964	3950.96
461.337	4061.01
461.71	4130.16
462.083	4172.42
462.456	4188.69
462.829	4194.34
463.201	4273.88
463.574	4257.16
463.947	4325.18
464.32	4500.77
464.692	4451.51
465.065	4509.13
465.438	4573.31
465.81	4634.33
466.183	4663.93
466.555	4786.41
466.928	4833.87
467.3	4836.81
467.672	4957.03
468.045	5080.19
468.417	5060.3
468.789	5102.34
469.161	5138.04
469.534	5264.37
469.906	5353.4
470.278	5378.71
470.65	5457.13
471.022	5535.09
471.394	5656
471.766	5704.36
472.138	5789.78
472.51	5888.98
472.882	6033.61
473.253	6099.15
473.625	6143.21
473.997	6309.99
474.369	6290.55
474.74	6379.59
475.112	6519.7
475.484	6662.52
475.855	6789.98
476.227	6838.56
476.598	7018.22
476.97	7083.75
477.341	7210.98
477.713	7306.12
478.084	7371.2
478.455	7527.13
478.827	7638.77
479.198	7850.51
479.569	7820.91
479.94	8096.38
480.311	8148.59
480.682	8396.71
481.053	8554.45
481.424	8713.54
481.795	8799.42
482.166	8984.27
482.537	9013.65
482.908	9226.3
483.279	9272.85
483.65	9572.95
484.021	9751.03
484.391	9871.48
484.762	9882.1
485.133	9995.99
485.503	10127.52
485.874	10329.09
486.244	10467.85
486.615	10732.92
486.985	10839.81
487.356	10990.09
487.726	11087.94
488.097	11327.26
488.467	11412.23
488.837	11508.27
489.207	11725.89
489.578	11901.93
489.948	12028.48
490.318	12254.01
490.688	12252.66
491.058	12557.06
491.428	12673.66
491.798	12862.59
492.168	13021
492.538	13204.72
492.908	13278.62
493.278	13437.26
493.648	13478.61
494.017	13769.45
494.387	13787.53
494.757	14065.72
495.126	14055.55
495.496	14134.87
495.866	14190.01
496.235	14444.46
496.605	14506.61
496.974	14586.16
497.344	14835.19
497.713	14863.89
498.082	15058.01
498.452	15255.74
498.821	15320.15
499.19	15409.41
499.559	15610.54
499.928	15662.96
500.298	15791.77
500.667	15947.48
501.036	15918.78
501.405	16129.62
501.774	16148.6
502.143	16297.75
502.512	16458.65
502.88	16493.45
503.249	16620
503.618	16695.25
503.987	16747.91
504.356	16883.27
504.724	17013.44
505.093	17112.87
505.462	17165.3
505.83	17371.85
506.199	17509.47
506.567	17735.23
506.936	17713.08
507.304	17966.63
507.672	17981.77
508.041	18129.34
508.409	18230.81
508.777	18421.76
509.145	18580.18
509.514	18567.75
509.882	18871.24
510.25	18772.03
510.618	18934.06
510.986	19128.41
511.354	19180.84
511.722	19528.62
512.09	19569.98
512.458	19578.34
512.826	19805.45
513.193	19946.24
513.561	20007.93
513.929	20261.04
514.297	20366.57
514.664	20642.04
515.032	20607.69
515.4	20832.55
515.767	20940.57
516.135	21014.01
516.502	21007.46
516.869	21470.72
517.237	21581.45
517.604	21649.25
517.972	21869.81
518.339	22024.83
518.706	22069.58
519.073	22247.42
519.44	22448.77
519.808	22661.65
520.175	22747.75
520.542	23011.92
520.909	23235.19
521.276	23159.26
521.643	23481.97
522.009	23654.84
522.376	23847.38
522.743	23976.19
523.11	24206.24
523.477	24443.98
523.843	24667.92
524.21	24933.91
524.577	25028.37
524.943	25173.9
525.31	25341.35
525.676	25648.01
526.043	25784.96
526.409	25875.35
526.776	26259.97
527.142	26413.87
527.508	26503.13
527.874	26671.26
528.241	26813.18
528.607	27013.4
528.973	27350.11
529.339	27261.3
529.705	27565.25
530.071	27783.78
530.437	27828.52
530.803	28162.52
531.169	28190.32
531.535	28211.11
531.901	28347.83
532.267	28546.92
532.632	28658.55
532.998	28878.89
533.364	28917.3
533.73	29091.09
534.095	29227.58
534.461	29549.15
534.826	29611.3
535.192	29729.94
535.557	29905.53
535.923	29935.36
536.288	30084.73
536.653	30304.61
537.019	30176.71
537.384	30356.36
537.749	30602.01
538.114	30590.93
538.479	30732.17
538.845	30928.1
539.21	30903.69
539.575	31229.11
539.94	31138.04
540.305	31288.54
540.67	31443.11
541.034	31387.07
541.399	31712.26
541.764	31668.64
542.129	31837.91
542.494	32029.31
542.858	32084.45
543.223	32160.61
543.587	32510.88
543.952	32312.24
544.316	32482.18
544.681	32528.74
545.045	32638.56
545.41	32982.96
545.774	32996.52
546.138	32933.47
546.503	33112.9
546.867	33146.8
547.231	33373.01
547.595	33405.32
547.959	33550.86
548.324	33693.22
548.688	33747.01
549.052	33880.11
549.416	34017.28
549.779	34031.97
550.143	34206.66
550.507	34374.34
550.871	34372.75
551.235	34413.43
551.599	34772.97
551.962	34798.51
552.326	34923.47
552.689	35115.11
553.053	34926.41
553.417	35177.25
553.78	35677.58
554.143	35464.03
554.507	35634.87
554.87	35799.84
555.234	36117.57
555.597	35950.11
555.96	36328.41
556.323	36436.2
556.686	36379.93
557.05	36655.86
557.413	36896.08
557.776	36926.13
558.139	37395.73
558.502	37277.99
558.865	37577.19
559.228	37797.98
559.59	37856.05
559.953	37954.58
560.316	38343.05
560.679	38348.7
561.041	38644.28
561.404	38765.18
561.767	39103.7
562.129	38899.42
562.492	39350.93
562.854	39365.84
563.217	39427.08
563.579	39593.63
563.941	39882.89
564.304	40152.04
564.666	40334.18
565.028	40324.46
565.39	40498.47
565.753	40866.82
566.115	40899.59
566.477	41188.85
566.839	41234.72
567.201	41545
567.563	41612.34
567.925	41844.2
568.287	41855.5
568.648	42241.93
569.01	42337.74
569.372	42610.28
569.734	42400.34
570.095	42828.35
570.457	42893.66
570.819	43121
571.18	43146.54
571.542	43393.99
571.903	43431.95
572.265	43704.03
572.626	43773.86
572.987	43862.67
573.349	44050.01
573.71	44252.04
574.071	44413.85
574.432	44512.83
574.794	44718.25
575.155	44790.11
575.516	44778.81
575.877	45087.73
576.238	45178.35
576.599	45318
576.96	45256.08
577.32	45491.11
577.681	45592.12
578.042	45677.99
578.403	45633.48
578.763	45804.54
579.124	45845.45
579.485	46016.74
579.845	46218.32
580.206	46134.48
580.566	46152.56
580.927	46199.34
581.287	46286.34
581.648	46145.1
582.008	46363.17
582.368	46371.99
582.728	46490.18
583.089	46501.48
583.449	46498.31
583.809	46461.25
584.169	46720
584.529	46605.2
584.889	46876.15
585.249	46566.78
585.609	46623.05
585.969	46866.66
586.329	46693.33
586.688	46728.14
587.048	46814.24
587.408	46740.79
587.768	46696.27
588.127	46625.31
588.487	46626.67
588.846	46805.87
589.206	46609.72
589.565	46848.58
589.925	46877.96
590.284	46863.95
590.643	46767.68
591.003	46865.08
591.362	46995.93
591.721	46910.73
592.08	46862.14
592.44	47079.54
592.799	46931.07
593.158	46950.05
593.517	46950.73
593.876	46986.21
594.235	46947.34
594.593	47023.04
594.952	47197.28
595.311	47066.66
595.67	47229.14
596.029	47375.8
596.387	47392.75
596.746	47408.12
597.104	47194.79
597.463	47161.12
597.822	47356.14
598.18	47381
598.538	47267.33
598.897	47457.38
599.255	47185.52
599.613	47725.4
599.972	47352.07
600.33	47619.41
600.688	47461.22
601.046	47475.01
601.404	47651.05
601.762	47649.69
602.12	47776.7
602.478	47839.07
602.836	47816.02
603.194	47632.52
603.552	47838.62
603.91	47646.53
604.268	47863.7
604.625	47769.46
604.983	47989.8
605.341	47861.44
605.698	48065.05
606.056	48222.79
606.413	48145.95
606.771	48335.33
607.128	48382.56
607.485	48096.91
607.843	48246.29
608.2	48409.45
608.557	48492.38
608.914	48409
609.272	48587.07
609.629	48588.88
609.986	48774.86
610.343	48583.45
610.7	48833.84
611.057	48716.33
611.414	48747.07
611.771	48748.42
612.127	48823.22
612.484	48805.82
612.841	48919.04
613.198	48904.8
613.554	49031.8
613.911	49089.88
614.267	48974.18
614.624	49020.96
614.98	48988.64
615.337	49301.4
615.693	49257.33
616.05	49145.93
616.406	49485.58
616.762	49254.62
617.118	49326.49
617.475	49336.65
617.831	49372.36
618.187	49525.35
618.543	49492.81
618.899	49718.11
619.255	49626.59
619.611	49541.62
619.967	49686.93
620.323	49737.77
620.678	49675.63
621.034	49560.38
621.39	49432.25
621.746	49572.35
622.101	50092.79
622.457	49591.34
622.812	49752.24
623.168	49849.41
623.523	49688.06
623.879	49990.42
624.234	49642.18
624.589	49819.58
624.945	49813.48
625.3	49906.58
625.655	49877.21
626.01	49848.96
626.365	49930.54
626.72	49935.74
627.075	49795.63
627.43	49809.18
627.785	49698.45
628.14	49895.51
628.495	49886.24
628.85	49823.2
629.205	49586.82
629.559	49846.02
629.914	49674.5
630.269	49684.44
630.623	49726.47
630.978	49543.2
631.332	49694.84
631.687	49790.65
632.041	49620.49
632.396	49541.62
632.75	49514.73
633.104	49573.26
633.459	49349.76
633.813	49347.95
634.167	49218.92
634.521	49289.2
634.875	49387.95
635.229	49281.06
635.583	49035.42
635.937	48952.26
636.291	48994.52
636.645	48952.71
636.999	48941.41
637.352	48969.43
637.706	48666.16
638.06	48757.91
638.413	48640.63
638.767	48593.17
639.121	48672.94
639.474	48322.22
639.828	48285.61
640.181	48380.07
640.534	48340.07
640.888	48332.84
641.241	48053.52
641.594	48249
641.947	48277.93
642.301	48150.47
642.654	48125.84
643.007	48052.17
643.36	48179.62
643.713	48019.85
644.066	48199.28
644.419	47875.68
644.771	47595.01
645.124	47305.52
645.477	47235.24
645.83	46927
646.182	46808.36
646.535	46654.24
646.888	46671.19
647.24	46563.39
647.593	46759.1
647.945	46698.31
648.298	46460.35
648.65	46358.2
649.002	46275.49
649.355	46438.65
649.707	46357.75
650.059	46453.11
650.411	46868.02
650.763	46973.33
651.115	47231.4
651.467	47185.3
651.819	47111.18
652.171	46986.89
652.523	46912.54
652.875	46857.62
653.227	46679.32
653.578	46908.02
653.93	46875.93
654.282	46546.22
654.633	46451.53
654.985	46717.74
655.337	46620.12
655.688	46508.03
656.039	46743.05
656.391	46400.01
656.742	46535.82
657.094	46542.83
657.445	46801.81
657.796	46448.37
658.147	46555.94
658.498	46444.75
658.849	46486.33
659.2	46517.07
659.551	46417.18
659.902	46452.89
660.253	46435.49
660.604	46524.3
660.955	46198.66
661.306	46425.32
661.656	46341.93
662.007	46332.89
662.358	46290.63
662.708	46251.76
663.059	46084.31
663.409	45847.71
663.76	46252.67
664.11	46177.64
664.461	46122.73
664.811	46117.98
665.161	46188.49
665.511	45834.83
665.862	46007.25
666.212	46211.09
666.562	46018.1
666.912	45860.81
667.262	45885.22
667.612	45775.84
667.962	45899.01
668.312	45677.32
668.662	45893.58
669.011	45708.28
669.361	45735.39
669.711	45576.08
670.06	45406.14
670.41	45409.53
670.76	45466.7
671.109	45477.1
671.459	45322.97
671.808	45264.9
672.157	45423.09
672.507	45045.47
672.856	45126.37
673.205	45052.7
673.554	45352.8
673.904	45026.94
674.253	45304.67
674.602	45015.64
674.951	44432.15
675.3	44185.38
675.649	44850.45
675.998	44821.29
676.346	44768.19
676.695	44980.84
677.044	44591.92
677.393	44681.86
677.741	44772.71
678.09	44695.19
678.438	44625.59
678.787	44672.14
679.135	44793.05
679.484	44397.12
679.832	44574.75
680.181	44325.94
680.529	44541.3
680.877	44492.94
681.225	44174.53
681.573	44467.86
681.922	44223.57
682.27	44066.96
682.618	44120.75
682.966	44162.55
683.314	44241.65
683.661	43965.72
684.009	43755.33
684.357	43858.83
684.705	43715.11
685.053	43689.12
685.4	43586.3
685.748	43376.59
686.095	43417.71
686.443	43161
686.79	43091.4
687.138	43145.18
687.485	43050.72
687.832	43027.67
688.18	43016.14
688.527	42821.8
688.874	42771.63
689.221	42749.26
689.568	42415.48
689.915	42422.71
690.262	42515.82
690.609	42282.15
690.956	42248.93
691.303	42093.68
691.65	41862.73
691.997	41960.35
692.344	41627.93
692.69	41575.5
693.037	41759.68
693.383	41486.24
693.73	41636.52
694.077	41249.41
694.423	41181.61
694.769	41106.59
695.116	40980.49
695.462	40933.94
695.808	40757.9
696.155	40833.38
696.501	40587.51
696.847	40523.78
697.193	40341.41
697.539	40378.02
697.885	40140.51
698.231	40043.57
698.577	39971.03
698.923	40024.13
699.269	39726.29
699.614	39485.61
699.96	39467.99
700.306	39449.01
700.651	39286.07
700.997	39173.76
701.342	39122.01
701.688	38923.6
702.033	38844.05
702.379	38795.91
702.724	38807.44
703.069	38775.35
703.415	38240
703.76	38478.64
704.105	38428.02
704.45	38390.28
704.795	38034.81
705.14	37948.93
705.485	37896.73
705.83	37867.35
706.175	37677.3
706.52	37716.17
706.865	37411.32
707.209	37483.63
707.554	37367.25
707.899	37476.63
708.243	37107.82
708.588	37148.73
708.932	36907.6
709.277	36813.37
709.621	36928.39
709.966	36749.87
710.31	36569.31
710.654	36410.67
710.998	36504.22
711.342	36527.95
711.687	36383.77
712.031	36201.63
712.375	36107.85
712.719	36243.89
713.063	36099.71
713.407	36202.54
713.75	35898.14
714.094	35879.83
714.438	35707.41
714.782	35705.83
715.125	35522.1
715.469	35633.06
715.812	35436.91
716.156	35148.55
716.499	35327.31
716.843	35232.62
717.186	35120.53
717.53	35237.82
717.873	35294.76
718.216	35135.9
718.559	34959.63
718.902	34708.34
719.246	34805.06
719.589	34736.81
719.932	34476.93
720.275	34446.65
720.617	34421.79
720.96	34364.85
721.303	34296.82
721.646	34322.36
721.989	34090.5
722.331	34163.72
722.674	34109.48
723.016	34124.85
723.359	33935.7
723.701	33937.74
724.044	33756.5
724.386	33668.14
724.729	33760.34
725.071	33631.98
725.413	33624.07
725.755	33546.56
726.097	33428.82
726.439	33250.3
726.782	33254.14
727.124	33209.85
727.465	33048.95
727.807	32987.03
728.149	33001.04
728.491	32897.54
728.833	32932.57
729.175	32780.03
729.516	32741.16
729.858	32592.69
730.199	32644.89
730.541	32644.44
730.882	32514.05
731.224	32674.72
731.565	32264.34
731.906	32356.99
732.248	32471.11
732.589	32242.87
732.93	32150.67
733.271	32213.26
733.612	32152.47
733.953	32214.62
734.294	31908.19
734.635	31898.02
734.976	31982.99
735.317	31800.62
735.658	31928.98
735.999	31810.56
736.339	31736.21
736.68	31908.64
737.021	31691.69
737.361	31561.08
737.702	31708.87
738.042	31608.53
738.383	31539.38
738.723	31573.73
739.063	31360.4
739.404	31476.79
739.744	31393.17
740.084	31111.15
740.424	31309.56
740.764	31247.64
741.104	31291.71
741.444	30999.06
741.784	30891.26
742.124	30958.15
742.464	30861.21
742.804	30828.44
743.143	30684.49
743.483	30724.71
743.823	30474.78
744.162	30476.36
744.502	30610.14
744.841	30428.68
745.181	30513.87
745.52	30235.46
745.86	30233.65
746.199	30213.77
746.538	30181.23
746.877	30308.91
747.216	30078.86
747.556	29969.03
747.895	29972.42
748.234	29966.09
748.573	29800.9
748.911	29731.52
749.25	29723.16
749.589	29651.97
749.928	29746.44
750.267	29717.96
750.605	29393.22
750.944	29529.49
751.283	29346.67
751.621	29348.48
751.96	29218.77
752.298	29086.57
752.636	29056.28
752.975	28906.23
753.313	28829.62
