Data from aluminium_macbook_case_FLMS001491_081.txt Node
Date: Tue Feb 07 10:44:16 GMT 2017
User: dcchb
Spectrometer: FLMS00149
Trigger mode: 0
Integration Time (sec): 2.000000E-2
Scans to average: 10
Electric dark correction enabled: true
Nonlinearity correction enabled: false
Boxcar width: 0
XAxis mode: Wavelengths
Number of Pixels in Spectrum: 2048
>>>>>Begin Spectral Data<<<<<
341.393	-4.92
341.776	-4.92
342.16	-4.92
342.543	-44.69
342.927	-86.49
343.31	-70.9
343.693	-72.03
344.077	-74.97
344.46	-48.53
344.843	-56.67
345.226	-30
345.61	-38.81
345.993	-7.17
346.376	5.25
346.759	-8.3
347.142	28.76
347.525	23.78
347.908	63.78
348.291	65.59
348.674	92.26
349.057	127.96
349.44	113.95
349.823	149.88
350.206	178.58
350.588	252.71
350.971	267.85
351.354	273.04
351.737	281.86
352.119	301.07
352.502	314.62
352.884	325.92
353.267	326.6
353.65	359.82
354.032	355.3
354.414	386.04
354.797	380.39
355.179	377.9
355.562	385.58
355.944	415.19
356.326	411.35
356.709	404.57
357.091	402.31
357.473	412.93
357.855	417.9
358.238	407.73
358.62	425.58
359.002	419.25
359.384	409.31
359.766	426.94
360.148	424.9
360.53	415.41
360.912	428.75
361.294	407.73
361.676	415.41
362.057	437.79
362.439	443.66
362.821	432.14
363.203	415.41
363.584	412.48
363.966	416.99
364.348	422.42
364.729	420.61
365.111	441.4
365.493	415.41
365.874	438.01
366.256	411.8
366.637	430.55
367.019	448.63
367.4	429.65
367.781	425.36
368.163	430.55
368.544	450.67
368.925	434.4
369.306	459.93
369.688	471.23
370.069	450.89
370.45	437.33
370.831	447.95
371.212	460.38
371.593	472.36
371.974	455.41
372.355	477.78
372.736	470.1
373.117	468.97
373.498	464.45
373.879	471.46
374.26	468.74
374.641	469.65
375.021	477.33
375.402	479.14
375.783	500.38
376.163	513.49
376.544	531.34
376.925	547.39
377.305	521.4
377.686	530.44
378.066	541.96
378.447	527.05
378.827	553.94
379.208	527.5
379.588	537.22
379.968	559.14
380.349	573.15
380.729	576.76
381.109	569.76
381.489	618.57
381.87	590.78
382.25	557.56
382.63	602.53
383.01	598.01
383.39	597.33
383.77	620.83
384.15	612.7
384.53	622.64
384.91	626.48
385.29	634.39
385.67	637.33
386.049	668.29
386.429	653.82
386.809	671.23
387.189	674.62
387.568	686.37
387.948	675.74
388.328	703.31
388.707	705.8
389.087	708.29
389.466	735.4
389.846	711
390.225	735.18
390.605	762.75
390.984	771.56
391.363	783.99
391.743	794.84
392.122	801.84
392.501	783.76
392.881	812.46
393.26	838
393.639	816.08
394.018	851.11
394.397	822.63
394.776	848.62
395.155	873.93
395.534	874.84
395.913	884.78
396.292	868.06
396.671	908.96
397.05	912.35
397.429	935.85
397.808	944.44
398.186	944.21
398.565	969.97
398.944	961.84
399.323	985.57
399.701	968.39
400.08	1010.43
400.458	1025.34
400.837	1044.1
401.215	1053.81
401.594	1025.79
401.972	1087.03
402.351	1075.73
402.729	1066.92
403.107	1112.12
403.486	1096.07
403.864	1122.74
404.242	1121.16
404.62	1145.56
404.999	1152.57
405.377	1195.28
405.755	1175.39
406.133	1202.28
406.511	1224.88
406.889	1214.49
407.267	1265.56
407.645	1266.92
408.023	1297.2
408.401	1313.47
408.779	1315.05
409.156	1359.12
409.534	1371.09
409.912	1395.95
410.29	1421.26
410.667	1426.91
411.045	1463.29
411.422	1473.46
411.8	1486.35
412.178	1497.87
412.555	1555.04
412.933	1562.5
413.31	1601.6
413.687	1602.5
414.065	1613.8
414.442	1635.49
414.819	1657.87
415.197	1683.18
415.574	1747.13
415.951	1742.61
416.328	1748.49
416.705	1760.24
417.082	1761.82
417.46	1808.14
417.837	1815.6
418.214	1857.41
418.591	1884.75
418.967	1877.52
419.344	1907.12
419.721	1954.81
420.098	1940.8
420.475	1954.81
420.852	1976.5
421.228	1975.6
421.605	2038.42
421.982	2049.04
422.358	2081.81
422.735	2098.31
423.111	2126.1
423.488	2160.45
423.864	2171.52
424.241	2199.32
424.617	2230.51
424.994	2251.52
425.37	2269.38
425.746	2288.58
426.123	2334.01
426.499	2366.1
426.875	2362.93
427.251	2418.3
427.627	2466.21
428.003	2488.8
428.379	2528.58
428.756	2536.49
429.132	2607.22
429.507	2660.55
429.883	2676.82
430.259	2678.86
430.635	2741.45
431.011	2802.24
431.387	2855.57
431.763	2891.05
432.138	2903.26
432.514	2944.84
432.89	2962.92
433.265	3056.47
433.641	3107.55
434.016	3081.56
434.392	3170.14
434.767	3233.64
435.143	3223.93
435.518	3281.78
435.894	3284.94
436.269	3387.09
436.644	3413.53
437.02	3452.17
437.395	3436.58
437.77	3517.48
438.145	3566.06
438.52	3571.49
438.895	3666.63
439.271	3625.27
439.646	3769.22
440.021	3760.64
440.395	3797.47
440.77	3768.54
441.145	3819.84
441.52	3892.16
441.895	3916.56
442.27	3965.15
442.645	3929.44
443.019	4026.39
443.394	4012.83
443.769	4086.05
444.143	4080.85
444.518	4157.91
444.892	4187.97
445.267	4163.34
445.641	4219.15
446.016	4222.09
446.39	4295.76
446.764	4306.84
447.139	4361.75
447.513	4382.54
447.887	4409.43
448.262	4420.51
448.636	4453.05
449.01	4517
449.384	4550.22
449.758	4606.94
450.132	4662.53
450.506	4755.19
450.88	4773.26
451.254	4779.82
451.628	4813.94
452.002	4945.92
452.376	4942.3
452.75	4996.31
453.123	5038.57
453.497	5125.8
453.871	5137.1
454.244	5269.07
454.618	5309.52
454.992	5357.43
455.365	5380.48
455.739	5573.47
456.112	5618.21
456.486	5651.21
456.859	5692.79
457.232	5797.64
457.606	5845.1
457.979	5947.47
458.352	6034.47
458.725	6101.14
459.099	6161.02
459.472	6299.1
459.845	6390.17
460.218	6389.27
460.591	6496.16
460.964	6540.9
461.337	6645.08
461.71	6702.93
462.083	6905.19
462.456	6890.5
462.829	6877.62
463.201	6996.48
463.574	7105.86
463.947	7219.53
464.32	7390.82
464.692	7472.18
465.065	7549.46
465.438	7593.76
465.81	7746.97
466.183	7899.51
466.555	7967.98
466.928	8037.36
467.3	8103.8
467.672	8214.53
468.045	8395.32
468.417	8386.5
468.789	8482.77
469.161	8664.69
469.534	8799.15
469.906	9047.5
470.278	9135.41
470.65	9158.46
471.022	9391.9
471.394	9502.86
471.766	9620.14
472.138	9697.88
472.51	9923.41
472.882	10071.2
473.253	10150.07
473.625	10366.56
473.997	10596.61
474.369	10697.63
474.74	10776.5
475.112	11095.81
475.484	11188.24
475.855	11388.23
476.227	11517.72
476.598	11882.23
476.97	11935.56
477.341	12261.2
477.713	12438.83
478.084	12595.88
478.455	12876.1
478.827	13079.71
479.198	13373.49
479.569	13418.69
479.94	13905.68
480.311	13836.75
480.682	14300.25
481.053	14571.65
481.424	14860.68
481.795	14900
482.166	15199.2
482.537	15392.19
482.908	15711.06
483.279	15838.28
483.65	16108.56
484.021	16487.31
484.391	16686.62
484.762	16748.99
485.133	17000.51
485.503	17366.61
485.874	17693.6
486.244	17910.77
486.615	18188.96
486.985	18496.52
487.356	18702.84
487.726	18974.47
488.097	19361.81
488.467	19473.67
488.837	19932.19
489.207	20131.05
489.578	20390.03
489.948	20544.83
490.318	20788.21
490.688	21050.58
491.058	21288.08
491.428	21525.14
491.798	21687.4
492.168	22170.32
492.538	22221.62
492.908	22486.92
493.278	22844.2
493.648	22868.61
494.017	23200.12
494.387	23379.55
494.757	23622.49
495.126	23862.48
495.496	23917.17
495.866	24117.61
496.235	24419.75
496.605	24661.1
496.974	24862
497.344	25131.83
497.713	25242.33
498.082	25474.64
498.452	25749.21
498.821	25880.51
499.19	26105.13
499.559	26310.33
499.928	26457.44
500.298	26794.15
500.667	26955.51
501.036	26997.09
501.405	27241.6
501.774	27360.69
502.143	27530.41
502.512	27586.68
502.88	27946.67
503.249	27985.76
503.618	28135.36
503.987	28349.59
504.356	28489.93
504.724	28632.3
505.093	28879.98
505.462	28907.77
505.83	29191.38
506.199	29553.18
506.567	29814.19
506.936	29791.14
507.304	30224.57
507.672	30266.83
508.041	30565.58
508.409	30783.43
508.777	31121.95
509.145	31229.29
509.514	31374.37
509.882	31590.64
510.25	31821.82
510.618	32010.97
510.986	32171.87
511.354	32569.6
511.722	32865.86
512.09	33249.8
512.458	33193.31
512.826	33380.87
513.193	33558.04
513.561	33871.26
513.929	34152.15
514.297	34368.87
514.664	34611.12
515.032	34868.52
515.4	35020.15
515.767	35057.21
516.135	35351.44
516.502	35308.51
516.869	35920.24
517.237	36090.41
517.604	36058.77
517.972	36491.98
518.339	36749.15
518.706	36843.38
519.073	37070.49
519.44	37358.17
519.808	37735.56
520.175	37695.11
520.542	38295.77
520.909	38620.06
521.276	38803.33
521.643	39156.77
522.009	39386.14
522.376	39677.43
522.743	39902.06
523.11	40351.31
523.477	40696.16
523.843	40882.82
524.21	41536.59
524.577	41642.58
524.943	41891.38
525.31	42060.65
525.676	42457.47
526.043	42603.91
526.409	42802.55
526.776	43315.3
527.142	43319.82
527.508	43626.93
527.874	43924.1
528.241	44124.77
528.607	44278.21
528.973	44617.41
529.339	44661.26
529.705	45199.09
530.071	45394.8
530.437	45682.25
530.803	45918.17
531.169	46155.23
531.535	46063.7
531.901	46274.77
532.267	46492.85
532.632	46824.36
532.998	46914.08
533.364	47178.48
533.73	47292.6
534.095	47799.48
534.461	47774.62
534.826	48134.61
535.192	48170.77
535.557	48497.54
535.923	48561.27
536.288	48734.37
536.653	48945.44
537.019	48902.5
537.384	49107.69
537.749	49335.26
538.114	49303.39
538.479	49445.31
538.845	49704.29
539.21	49583.39
539.575	49827.67
539.94	49932.53
540.305	50157.61
540.67	50139.98
541.034	50170.94
541.399	50425.62
541.764	50535
542.129	50688.22
542.494	50770.02
542.858	50970.69
543.223	50807.76
543.587	51083.46
543.952	51108.09
544.316	51236
544.681	51271.7
545.045	51477.35
545.41	51621.98
545.774	51734.74
546.138	51816.77
546.503	51925.7
546.867	51966.6
547.231	52397.77
547.595	52458.11
547.959	52530.43
548.324	52552.8
548.688	52651.55
549.052	52798.67
549.416	52885.67
549.779	52890.19
550.143	53107.81
550.507	53253.57
550.871	53337.19
551.235	53410.63
551.599	53650.62
551.962	53698.76
552.326	53742.82
552.689	53927.68
553.053	53804.07
553.417	53970.84
553.78	54231.85
554.143	54231.17
554.507	54350.94
554.87	54472.52
555.234	54678.39
555.597	54595.01
555.96	54738.96
556.323	54821.89
556.686	54844.94
557.05	55064.82
557.413	55176.01
557.776	55202.9
558.139	55471.82
558.502	55469.56
558.865	55570.8
559.228	55794.07
559.59	55838.59
559.953	55874.52
560.316	56190.9
560.679	56218.01
561.041	56346.82
561.404	56538.68
561.767	56718.34
562.129	56622.07
562.492	56951.55
562.854	56957.65
563.217	56981.61
563.579	57084.88
563.941	57363.97
564.304	57449.85
564.666	57554.02
565.028	57573.01
565.39	57649.61
565.753	57811.19
566.115	57931.19
566.477	57992.66
566.839	58096.38
567.201	58215.7
567.563	58279.65
567.925	58468.35
568.287	58430.38
568.648	58491.17
569.01	58584.5
569.372	58770.04
569.734	58689.81
570.095	58914.89
570.457	58890.26
570.819	59020.88
571.18	59024.49
571.542	59175.68
571.903	59182
572.265	59290.93
572.626	59341.55
572.987	59362.56
573.349	59491.6
573.71	59568.43
574.071	59684.81
574.432	59705.38
574.794	59863.12
575.155	59880.06
575.516	59819.27
575.877	59949.44
576.238	59986.05
576.599	60105.82
576.96	60097.69
577.32	60116.89
577.681	60254.74
578.042	60296.55
578.403	60320.96
578.763	60331.58
579.124	60352.37
579.485	60497.45
579.845	60541.29
580.206	60525.02
580.566	60469.2
580.927	60521.4
581.287	60654.05
581.648	60518.92
582.008	60649.99
582.368	60566.37
582.728	60668.97
583.089	60561.85
583.449	60537.45
583.809	60606.6
584.169	60608.63
584.529	60591.23
584.889	60763.88
585.249	60542.65
585.609	60504.68
585.969	60714.17
586.329	60605.47
586.688	60623.32
587.048	60617.67
587.408	60601.4
587.768	60631.46
588.127	60637.33
588.487	60628.97
588.846	60765.24
589.206	60620.38
589.565	60602.53
589.925	60749.65
590.284	60791.45
590.643	60797.33
591.003	60786.93
591.362	60782.87
591.721	60716.88
592.08	60778.12
592.44	60851.11
592.799	60850.21
593.158	60788.74
593.517	60872.58
593.876	60930.66
594.235	60820.83
594.593	60890.21
594.952	60939.92
595.311	60857.44
595.67	60838.46
596.029	61066.47
596.387	60992.58
596.746	61065.34
597.104	60919.58
597.463	60906.93
597.822	60990.54
598.18	60870.77
598.538	60924.33
598.897	61013.59
599.255	60860.6
599.613	61152.12
599.972	60938.57
600.33	61021.05
600.688	60917.1
601.046	61044.33
601.404	61079.13
601.762	61066.25
602.12	61124.1
602.478	61179.69
602.836	61176.3
603.194	61040.94
603.552	61084.1
603.91	60961.84
604.268	61158
604.625	61100.14
604.983	61263.76
605.341	61160.03
605.698	61296.98
606.056	61346.01
606.413	61302.85
606.771	61393.02
607.128	61485.9
607.485	61365.9
607.843	61341.49
608.2	61574.26
608.557	61562.96
608.914	61523.64
609.272	61599.34
609.629	61620.36
609.986	61715.95
610.343	61636.85
610.7	61748.49
611.057	61707.59
611.414	61746.68
611.771	61752.11
612.127	61847.24
612.484	61771.54
612.841	61831.88
613.198	61751.2
613.554	61757.98
613.911	61856.28
614.267	61888.82
614.624	61931.54
614.98	61887.69
615.337	61960.91
615.693	61930.41
616.05	61828.04
616.406	62025.77
616.762	61930.86
617.118	61964.98
617.475	61959.33
617.831	61973.12
618.187	62027.13
618.543	62017.86
618.899	62103.28
619.255	62055.15
619.611	62005.88
619.967	62115.26
620.323	62159.55
620.678	62085.2
621.034	62004.75
621.39	62025.77
621.746	62015.38
622.101	62223.96
622.457	62120.68
622.812	62182.83
623.168	62234.35
623.523	62150.74
623.879	62190.29
624.234	62100.12
624.589	62181.25
624.945	62227.8
625.3	62289.72
625.655	62253.79
626.01	62268.25
626.365	62291.75
626.72	62257.63
627.075	62233.22
627.43	62234.8
627.785	62153.45
628.14	62218.76
628.495	62239.78
628.85	62195.03
629.205	62122.04
629.559	62199.55
629.914	62069.16
630.269	62137.41
630.623	62028.26
630.978	61967.47
631.332	62043.62
631.687	62107.35
632.041	61982.83
632.396	61995.71
632.75	61841.82
633.104	61854.25
633.459	61766.12
633.813	61723.18
634.167	61762.05
634.521	61673.46
634.875	61657.19
635.229	61691.77
635.583	61562.28
635.937	61528.16
636.291	61527.25
636.645	61524.99
636.999	61449.51
637.352	61461.27
637.706	61268.05
638.06	61423.75
638.413	61345.11
638.767	61332
639.121	61423.98
639.474	61180.14
639.828	61241.16
640.181	61248.84
640.534	61225.57
640.888	61163.65
641.241	61045.91
641.594	61109.86
641.947	61164.32
642.301	61084.78
642.654	61111.44
643.007	61075.51
643.36	61118.22
643.713	61049.3
644.066	61112.8
644.419	60887.95
644.771	60848.4
645.124	60630.1
645.477	60523.21
645.83	60414.06
646.182	60288.41
646.535	60263.33
646.888	60242.99
647.24	60148.31
647.593	60273.05
647.945	60174.29
648.298	60042.77
648.65	59980.85
649.002	59990.57
649.355	59977.01
649.707	59935.2
650.059	60025.37
650.411	60294.97
650.763	60341.07
651.115	60488.18
651.467	60365.02
651.819	60326.61
652.171	60327.51
652.523	60264.69
652.875	60235.08
653.227	60187.17
653.578	60315.98
653.93	60223.33
654.282	60048.87
654.633	60009.33
654.985	60099.04
655.337	60059.49
655.688	60005.03
656.039	60094.75
656.391	59837.58
656.742	59957.8
657.094	59928.42
657.445	59977.01
657.796	59876.67
658.147	59871.48
658.498	59884.36
658.849	59962.55
659.2	59890.23
659.551	59844.13
659.902	59921.19
660.253	59776.79
660.604	59933.4
660.955	59803.68
661.306	59833.06
661.656	59785.83
662.007	59760.52
662.358	59811.82
662.708	59775.43
663.059	59793.74
663.409	59659.96
663.76	59772.5
664.11	59759.16
664.461	59836.68
664.811	59793.96
665.161	59800.52
665.511	59692.05
665.862	59716.23
666.212	59762.33
666.562	59781.76
666.912	59696.57
667.262	59596.91
667.612	59632.39
667.962	59593.29
668.312	59562.33
668.662	59685.04
669.011	59611.6
669.361	59496.35
669.711	59500.86
670.06	59433.3
670.41	59370.02
670.76	59260.42
671.109	59378.61
671.459	59321.89
671.808	59207.99
672.157	59342.9
672.507	59166.41
672.856	59101.33
673.205	59199.63
673.554	59243.47
673.904	59142.46
674.253	59193.08
674.602	59140.2
674.951	58732.3
675.3	58596.93
675.649	58968.45
675.998	58964.83
676.346	58967.09
676.695	59031.72
677.044	58791.96
677.393	58914.67
677.741	58928.22
678.09	58803.93
678.438	58809.58
678.787	58810.94
679.135	58812.52
679.484	58660.43
679.832	58820.88
680.181	58740.88
680.529	58813.65
680.877	58670.83
681.225	58564.84
681.573	58770.26
681.922	58560.32
682.27	58534.56
682.618	58530.49
682.966	58481.91
683.314	58535.24
683.661	58481.68
684.009	58366.21
684.357	58305.19
684.705	58215.93
685.053	58269.48
685.4	58239.66
685.748	58102.48
686.095	58129.15
686.443	58036.5
686.79	57982.94
687.138	58031.3
687.485	58021.81
687.832	57879.66
688.18	57866.33
688.527	57692.32
688.874	57732.32
689.221	57632.21
689.568	57492.78
689.915	57441.94
690.262	57460.24
690.609	57314.71
690.956	57312.9
691.303	57272
691.65	57062.74
691.997	57103.87
692.344	56885.11
692.69	56895.06
693.037	56829.07
693.383	56641.05
693.73	56671.11
694.077	56458.68
694.423	56466.82
694.769	56369.2
695.116	56253.04
695.462	56252.14
695.808	56109.99
696.155	56193.61
696.501	55884.01
696.847	55938.7
697.193	55742.32
697.539	55848.98
697.885	55691.7
698.231	55557.24
698.577	55472.95
698.923	55578.26
699.269	55434.08
699.614	55208.1
699.96	55324.48
700.306	55193.41
700.651	55151.83
700.997	55007.65
701.342	54985.28
701.688	54917.48
702.033	54911.16
702.379	54875.22
702.724	54818.28
703.069	54884.72
703.415	54549.58
703.76	54617.38
704.105	54559.07
704.45	54437.72
704.795	54371.06
705.14	54284.73
705.485	54206.99
705.83	54136.49
706.175	54199.54
706.52	54091.97
706.865	53896.49
707.209	53847
707.554	53754.12
707.899	53909.15
708.243	53695.82
708.588	53678.42
708.932	53454.02
709.277	53500.57
709.621	53425.09
709.966	53211.76
710.31	53346
710.654	52983.07
710.998	53061.26
711.342	52993.01
711.687	52857.88
712.031	52779.69
712.375	52577.43
712.719	52652.91
713.063	52586.7
713.407	52629.41
713.75	52311.45
714.094	52388.28
714.438	52138.57
714.782	52117.78
715.125	51966.15
715.469	52044.56
715.812	51836.43
716.156	51681.86
716.499	51708.75
716.843	51692.48
717.186	51458.14
717.53	51591.69
717.873	51533.39
718.216	51433.51
718.559	51274.87
718.902	50947.64
719.246	51192.16
719.589	50928.66
719.932	50759.4
720.275	50876.01
720.617	50664.71
720.96	50705.84
721.303	50878.27
721.646	50635.34
721.989	50437.83
722.331	50575.9
722.674	50403.48
723.016	50434.66
723.359	50441.22
723.701	50384.95
724.044	50272.86
724.386	49959.87
724.729	50125.97
725.071	50185.18
725.413	50060.44
725.755	49985.63
726.097	49893.66
726.439	49702.93
726.782	49879.65
727.124	49882.81
727.465	49756.04
727.807	49828.8
728.149	49683.5
728.491	49525.99
728.833	49599.43
729.175	49518.98
729.516	49430.4
729.858	49358.08
730.199	49389.72
730.541	49233.79
730.882	49167.8
731.224	49323.28
731.565	48900.24
731.906	48927.36
732.248	49003.29
732.589	48813.91
732.93	48616.18
733.271	48765.33
733.612	48582.96
733.953	48680.13
734.294	48579.57
734.635	48403.53
734.976	48406.47
735.317	48145.23
735.658	48062.75
735.999	48034.73
736.339	47985.24
736.68	48019.36
737.021	47785.92
737.361	47733.26
737.702	47827.73
738.042	47691.68
738.383	47533.95
738.723	47586.83
739.063	47346.83
739.404	47256.44
739.744	47180.96
740.084	46998.37
740.424	47006.73
740.764	47054.19
741.104	47035.88
741.444	46749.11
741.784	46602.45
742.124	46705.95
742.464	46533.52
742.804	46540.08
743.143	46459.17
743.483	46318.84
743.823	46049.24
744.162	46068.68
744.502	46160.65
744.841	45825.29
745.181	46064.16
745.52	45837.5
745.86	45892.41
746.199	45764.05
746.538	45809.7
746.877	45768.57
747.216	45709.36
747.556	45611.74
747.895	45530.16
748.234	45385.98
748.573	45322.03
748.911	45363.61
749.25	45281.13
749.589	45064.41
749.928	45139.43
750.267	45192.77
750.605	45155.25
750.944	44850.63
751.283	44821.25
751.621	44785.09
751.96	44503.07
752.298	44593.23
