Data from aluminium_surface_pro_back_FLMS001491_00028.txt Node
Date: Wed Feb 08 15:33:50 GMT 2017
User: dcchb
Spectrometer: FLMS00149
Trigger mode: 0
Integration Time (sec): 2.000000E-2
Scans to average: 10
Electric dark correction enabled: true
Nonlinearity correction enabled: false
Boxcar width: 0
XAxis mode: Wavelengths
Number of Pixels in Spectrum: 2048
>>>>>Begin Spectral Data<<<<<
341.393	-31.36
341.776	-31.36
342.16	-31.36
342.543	-51.69
342.927	-77
343.31	-75.42
343.693	-61.64
344.077	-76.55
344.46	-58.47
344.843	-54.18
345.226	-35.2
345.61	-33.39
345.993	-25.71
346.376	6.16
346.759	10
347.142	21.75
347.525	40.96
347.908	81.64
348.291	53.61
348.674	100.84
349.057	105.59
349.44	122.09
349.823	132.71
350.206	172.71
350.588	236.43
350.971	252.25
351.354	246.6
351.737	253.16
352.119	282.53
352.502	278.02
352.884	303.1
353.267	308.97
353.65	346.49
354.032	334.28
354.414	344.91
354.797	342.87
355.179	341.74
355.562	348.97
355.944	353.95
356.326	349.2
356.709	365.02
357.091	364.57
357.473	369.31
357.855	375.41
358.238	365.02
358.62	370.44
359.002	379.26
359.384	378.13
359.766	370.89
360.148	386.49
360.53	393.27
360.912	393.04
361.294	365.02
361.676	366.83
362.057	370.89
362.439	352.59
362.821	360.5
363.203	386.94
363.584	360.5
363.966	366.15
364.348	368.18
364.729	358.24
365.111	363.66
365.493	356.88
365.874	380.84
366.256	369.76
366.637	372.02
367.019	377.67
367.4	384
367.781	363.89
368.163	351.69
368.544	360.27
368.925	356.88
369.306	357.11
369.688	382.19
370.069	366.37
370.45	374.28
370.831	370.89
371.212	384.68
371.593	381.74
371.974	386.71
372.355	396.2
372.736	396.2
373.117	402.31
373.498	379.03
373.879	381.97
374.26	401.85
374.641	376.32
375.021	395.3
375.402	383.32
375.783	413.38
376.163	440.27
376.544	416.99
376.925	419.71
377.305	419.71
377.686	407.73
378.066	418.35
378.447	440.72
378.827	438.92
379.208	438.01
379.588	426.94
379.968	443.66
380.349	445.24
380.729	455.41
381.109	426.71
381.489	439.59
381.87	450.67
382.25	460.38
382.63	439.82
383.01	457.9
383.39	485.24
383.77	470.1
384.15	459.71
384.53	477.56
384.91	485.24
385.29	485.92
385.67	489.76
386.049	516.43
386.429	491.79
386.809	512.81
387.189	511.68
387.568	529.08
387.948	519.59
388.328	518.69
388.707	505.35
389.087	549.19
389.466	533.6
389.846	556.2
390.225	527.73
390.605	548.97
390.984	561.62
391.363	591.68
391.743	586.71
392.122	591.68
392.501	582.64
392.881	595.3
393.26	599.59
393.639	621.96
394.018	622.86
394.397	629.19
394.776	639.14
395.155	636.42
395.534	621.28
395.913	646.59
396.292	659.02
396.671	663.77
397.05	662.86
397.429	679.13
397.808	674.39
398.186	672.81
398.565	706.7
398.944	694.73
399.323	711.45
399.701	699.93
400.08	705.8
400.458	743.31
400.837	752.13
401.215	756.65
401.594	759.58
401.972	747.61
402.351	766.59
402.729	779.47
403.107	791
403.486	809.98
403.864	841.84
404.242	824.22
404.62	836.19
404.999	846.59
405.377	837.55
405.755	846.81
406.133	863.54
406.511	867.83
406.889	907.6
407.267	883.2
407.645	913.25
408.023	918.45
408.401	936.76
408.779	970.65
409.156	953.48
409.534	980.14
409.912	999.35
410.29	1012.91
410.667	1004.32
411.045	1018.33
411.422	1052.68
411.8	1058.11
412.178	1079.35
412.555	1105.34
412.933	1101.5
413.31	1110.76
413.687	1142.85
414.065	1132
414.442	1155.05
414.819	1124.55
415.197	1169.52
415.574	1208.39
415.951	1207.48
416.328	1215.39
416.705	1234.6
417.082	1252
417.46	1266.24
417.837	1283.19
418.214	1289.74
418.591	1306.01
418.967	1325.9
419.344	1305.78
419.721	1323.86
420.098	1351.89
420.475	1368.16
420.852	1354.82
421.228	1393.92
421.605	1389.62
421.982	1413.35
422.358	1437.53
422.735	1459.45
423.111	1473.69
423.488	1471.66
423.864	1488.83
424.241	1483.18
424.617	1519.79
424.994	1522.28
425.37	1554.14
425.746	1566.34
426.123	1575.83
426.499	1605.66
426.875	1613.12
427.251	1636.4
427.627	1689.73
428.003	1684.31
428.379	1716.4
428.756	1722.05
429.132	1750.74
429.507	1760.01
429.883	1782.83
430.259	1828.48
430.635	1831.19
431.011	1872.32
431.387	1943.73
431.763	1951.87
432.138	1967.01
432.514	2003.62
432.89	2010.63
433.265	2073.67
433.641	2095.37
434.016	2072.32
434.392	2144.41
434.767	2138.76
435.143	2143.05
435.518	2190.28
435.894	2208.81
436.269	2240.22
436.644	2257.17
437.02	2277.74
437.395	2308.7
437.77	2322.48
438.145	2366.77
438.52	2370.16
438.895	2416.94
439.271	2411.74
439.646	2475.92
440.021	2476.83
440.395	2478.41
440.77	2488.35
441.145	2522.02
441.52	2593.89
441.895	2617.39
442.27	2606.32
442.645	2608.12
443.019	2635.47
443.394	2621.23
443.769	2672.3
444.143	2686.54
444.518	2735.8
444.892	2730.38
445.267	2775.35
445.641	2783.49
446.016	2766.31
446.39	2817.16
446.764	2838.85
447.139	2837.5
447.513	2874.33
447.887	2916.14
448.262	2864.39
448.636	2916.36
449.01	2941.67
449.384	2999.75
449.758	3004.05
450.132	3101.67
450.506	3116.58
450.88	3093.99
451.254	3079.75
451.628	3186.87
452.002	3180.99
452.376	3209.46
452.75	3232.74
453.123	3279.29
453.497	3366.97
453.871	3393.19
454.244	3462.79
454.618	3462.34
454.992	3513.41
455.365	3471.83
455.739	3602.9
456.112	3617.59
456.486	3668.89
456.859	3699.85
457.232	3760.64
457.606	3738.94
457.979	3784.36
458.352	3932.16
458.725	3948.2
459.099	4001.76
459.472	4079.27
459.845	4106.84
460.218	4126.28
460.591	4171.7
460.964	4202.66
461.337	4222.54
461.71	4345.93
462.083	4380.96
462.456	4412.6
462.829	4446.49
463.201	4553.16
463.574	4595.64
463.947	4648.52
464.32	4746.82
464.692	4768.29
465.065	4791.12
465.438	4921.28
465.81	4976.65
466.183	4974.84
466.555	5115.63
466.928	5144.78
467.3	5117.66
467.672	5231.78
468.045	5376.19
468.417	5373.7
468.789	5424.77
469.161	5496.41
469.534	5560.14
469.906	5673.35
470.278	5814.82
470.65	5833.35
471.022	5940.47
471.394	6047.81
471.766	6118.77
472.138	6126
472.51	6291.64
472.882	6421.13
473.253	6498.64
473.625	6506.1
473.997	6673.78
474.369	6747.68
474.74	6827.9
475.112	6961.23
475.484	7094.11
475.855	7155.12
476.227	7177.72
476.598	7479.41
476.97	7516.7
477.341	7697.93
477.713	7878.04
478.084	7894.09
478.455	8175.43
478.827	8099.96
479.198	8407.52
479.569	8406.84
479.94	8679.83
480.311	8735.87
480.682	8993.04
481.053	9151
481.424	9305.8
481.795	9427.38
482.166	9569.07
482.537	9656.75
482.908	9843.87
483.279	9966.8
483.65	10145.55
484.021	10337.86
484.391	10480.68
484.762	10617.4
485.133	10642.94
485.503	10870.73
485.874	11100.78
486.244	11144.17
486.615	11398.85
486.985	11553.2
487.356	11727.66
487.726	11851.5
488.097	12031.83
488.467	12097.59
488.837	12440.86
489.207	12598.82
489.578	12698.93
489.948	12910.9
490.318	13021.64
490.688	13147.96
491.058	13338.24
491.428	13484
491.798	13610.32
492.168	13890.76
492.538	13940.48
492.908	14161.94
493.278	14338.21
493.648	14439.45
494.017	14620.91
494.387	14747.24
494.757	14830.18
495.126	15044.18
495.496	15097.06
495.866	15201.69
496.235	15476.26
496.605	15578.18
496.974	15682.81
497.344	15846.65
497.713	15896.81
498.082	16014.1
498.452	16213.64
498.821	16278.27
499.19	16370.02
499.559	16577.25
499.928	16653.63
500.298	16738.37
500.667	16968.65
501.036	16968.42
501.405	17027.41
501.774	17104.69
502.143	17305.59
502.512	17480.27
502.88	17577.67
503.249	17601.18
503.618	17696.31
503.987	17859.93
504.356	17924.1
504.724	18045.91
505.093	18269.63
505.462	18292.23
505.83	18536.52
506.199	18570.87
506.567	18880.01
506.936	18967.24
507.304	19122.94
507.672	19155.49
508.041	19340.79
508.409	19395.7
508.777	19656.04
509.145	19832.08
509.514	19808.58
509.882	20033.43
510.25	20098.06
510.618	20300.99
510.986	20397.49
511.354	20611.04
511.722	20757.48
512.09	21043.34
512.458	20928.55
512.826	21120.18
513.193	21231.36
513.561	21383.22
513.929	21529.21
514.297	21733.04
514.664	21893.94
515.032	22108.4
515.4	22253.26
515.767	22328.28
516.135	22523.08
516.502	22429.52
516.869	22881.94
517.237	22955.39
517.604	22956.06
517.972	23215.27
518.339	23382.72
518.706	23461.81
519.073	23612.77
519.44	23810.5
519.808	24072.64
520.175	24149.93
520.542	24495.91
520.909	24602.12
521.276	24643.93
521.643	25061.09
522.009	25255.44
522.376	25291.14
522.743	25480.97
523.11	25788.08
523.477	26176.54
523.843	26179.26
524.21	26549.19
524.577	26747.83
524.943	26872.12
525.31	27006.13
525.676	27218.32
526.043	27483.85
526.409	27554.36
526.776	27827.57
527.142	27928.14
527.508	28252.19
527.874	28467.78
528.241	28506.65
528.607	28542.81
528.973	28890.37
529.339	28892.4
529.705	29182.34
530.071	29370.36
530.437	29611.93
530.803	29736.68
531.169	29883.34
531.535	29973.05
531.901	30143.9
532.267	30175.99
532.632	30460.72
532.998	30651.45
533.364	30937.55
533.73	30893.71
534.095	31277.2
534.461	31239.46
534.826	31405.78
535.192	31522.84
535.557	31819.33
535.923	31879.67
536.288	32046.67
536.653	32023.62
537.019	32103.17
537.384	32281.92
537.749	32355.82
538.114	32513.55
538.479	32504.96
538.845	32678.29
539.21	32652.31
539.575	32945.18
539.94	33082.12
540.305	33190.82
540.67	33219.97
541.034	33443.7
541.399	33586.52
541.764	33694.09
542.129	33654.54
542.494	33815.21
542.858	33936.34
543.223	34059.05
543.587	34168.2
543.952	34211.81
544.316	34369.77
544.681	34336.33
545.045	34616.77
545.41	34753.72
545.774	34945.13
546.138	34829.88
546.503	34964.33
546.867	35128.85
547.231	35485.68
547.595	35433.25
547.959	35597.99
548.324	35567.26
548.688	35705.78
549.052	35706.24
549.416	35885.89
549.779	36011.31
550.143	36043.63
550.507	36292.44
550.871	36439.78
551.235	36430.29
551.599	36680.22
551.962	36846.77
552.326	36981.01
552.689	37052.19
553.053	37049.93
553.417	37296.02
553.78	37715.67
554.143	37498.96
554.507	37696.69
554.87	37993.41
555.234	38235.44
555.597	38160.18
555.96	38327.18
556.323	38613.5
556.686	38597.01
557.05	38939.37
557.413	38979.37
557.776	39161.96
558.139	39450.54
558.502	39540.03
558.865	39577.77
559.228	39850.53
559.59	40070.87
559.953	40077.42
560.316	40563.74
560.679	40528.71
561.041	40761.24
561.404	41021.35
561.767	41194.91
562.129	41110.61
562.492	41497.95
562.854	41580.21
563.217	41542.24
563.579	41822.91
563.941	42007.31
564.304	42253.63
564.666	42612.95
565.028	42709.22
565.39	42934.29
565.753	43076.89
566.115	43328.63
566.477	43488.4
566.839	43614.28
567.201	43995.74
567.563	43918.68
567.925	44299.23
568.287	44165.22
568.648	44399.34
569.01	44517.76
569.372	44924.3
569.734	44926.33
570.095	45158.64
570.457	45296.72
570.819	45498.75
571.18	45503.94
571.542	45849.25
571.903	45833.43
572.265	45954.55
572.626	46078.84
572.987	46239.74
573.349	46503.24
573.71	46627.31
574.071	46586.18
574.432	46820.97
574.794	47092.15
575.155	47161.3
575.516	47141.42
575.877	47306.61
576.238	47241.3
576.599	47420.5
576.96	47519.48
577.32	47775.75
577.681	47805.81
578.042	47935.52
578.403	47826.6
578.763	48020.71
579.124	48196.76
579.485	48267.49
579.845	48406.69
580.206	48262.74
580.566	48431.78
580.927	48460.7
581.287	48611.66
581.648	48381.84
582.008	48598.33
582.368	48597.2
582.728	48659.34
583.089	48592.45
583.449	48607.59
583.809	48737.08
584.169	48814.59
584.529	48760.13
584.889	49083.51
585.249	48784.99
585.609	48785.89
585.969	49084.19
586.329	48906.12
586.688	48970.75
587.048	48930.75
587.408	48937.75
587.768	48920.35
588.127	48871.09
588.487	48870.41
588.846	49114.92
589.206	49034.7
589.565	48945.89
589.925	49044.42
590.284	48919.45
590.643	48988.6
591.003	49120.12
591.362	49234.92
591.721	49073.12
592.08	49051.2
592.44	49313.79
592.799	49380.68
593.158	49155.6
593.517	49308.59
593.876	49425.88
594.235	49269.72
594.593	49374.13
594.952	49535.25
595.311	49282.38
595.67	49375.71
596.029	49642.14
596.387	49644.4
596.746	49707.9
597.104	49511.97
597.463	49412.54
597.822	49626.77
598.18	49494.35
598.538	49560.56
598.897	49662.25
599.255	49472.2
599.613	50017.27
599.972	49610.28
600.33	49793.78
600.688	49714.68
601.046	49926.88
601.404	49998.52
601.762	50049.36
602.12	50044.16
602.478	50115.8
602.836	50120.77
603.194	49899.31
603.552	49954.22
603.91	49868.8
604.268	50066.54
604.625	49995.13
604.983	50171.39
605.341	49985.18
605.698	50117.83
606.056	50265.4
606.413	50249.36
606.771	50320.32
607.128	50302.01
607.485	50113.77
607.843	50198.51
608.2	50431.05
608.557	50665.16
608.914	50519.18
609.272	50739.97
609.629	50703.13
609.986	50797.14
610.343	50630.36
610.7	50972.73
611.057	50891.15
611.414	50815.22
611.771	50873.07
612.127	50959.62
612.484	50869
612.841	51156.9
613.198	50969.11
613.554	51022.22
613.911	51185.6
614.267	51187.19
614.624	51139.95
614.98	51137.69
615.337	51341.53
615.693	51331.36
616.05	51300.18
616.406	51495.2
616.762	51447.52
617.118	51274.41
617.475	51318.93
617.831	51417.91
618.187	51509.44
618.543	51406.39
618.899	51598.7
619.255	51567.97
619.611	51525.26
619.967	51659.94
620.323	51670.56
620.678	51468.53
621.034	51564.35
621.39	51490.23
621.746	51399.16
622.101	51825.81
622.457	51452.94
622.812	51451.36
623.168	51648.64
623.523	51567.29
623.879	51658.13
624.234	51411.13
624.589	51575.2
624.945	51680.05
625.3	51739.71
625.655	51654.07
626.01	51695.42
626.365	51657.68
626.72	51544.01
627.075	51640.05
627.43	51596.44
627.785	51487.29
628.14	51494.3
628.495	51633.73
628.85	51521.19
629.205	51371.36
629.559	51599.83
629.914	51485.48
630.269	51529.78
630.623	51365.71
630.978	51252.49
631.332	51366.84
631.687	51415.43
632.041	51327.75
632.396	51464.24
632.75	51242.32
633.104	51291.82
633.459	51188.54
633.813	51141.76
634.167	51228.31
634.521	51186.28
634.875	51272.61
635.229	51186.28
635.583	50977.02
635.937	51068.32
636.291	51006.85
636.645	50999.85
636.999	50777.03
637.352	50913.52
637.706	50768.89
638.06	50807.99
638.413	50734.54
638.767	50656.58
639.121	50713.07
639.474	50471.5
639.828	50488.45
640.181	50555.79
640.534	50529.35
640.888	50384.04
641.241	50139.3
641.594	50303.14
641.947	50467.2
642.301	50330.94
642.654	50296.36
643.007	50244.61
643.36	50125.74
643.713	50128
644.066	50142.47
644.419	49812.31
644.771	49705.64
645.124	49228.82
645.477	49189.27
645.83	48986.11
646.182	48821.37
646.535	48697.31
646.888	48870.18
647.24	48654.6
647.593	48847.13
647.945	48649.62
648.298	48511.32
648.65	48622.51
649.002	48380.93
649.355	48436.07
649.707	48400.14
650.059	48644.2
650.411	48979.56
650.763	49011.42
651.115	49343.39
651.467	49186.79
651.819	49217.75
652.171	48990.63
652.523	49099.56
652.875	49105.43
653.227	48879.45
653.578	49097.52
653.93	49006.9
654.282	48869.51
654.633	48637.2
654.985	48758.1
655.337	48709.51
655.688	48652.34
656.039	48860.24
656.391	48536.18
656.742	48536.86
657.094	48515.62
657.445	48772.11
657.796	48624.54
658.147	48537.31
658.498	48436.52
658.849	48590.87
659.2	48548.16
659.551	48351.1
659.902	48542.73
660.253	48357.66
660.604	48486.24
660.955	48274.49
661.306	48394.04
661.656	48312.91
662.007	48271.33
662.358	48254.38
662.708	48241.73
663.059	48110.43
663.409	48042.86
663.76	48307.94
664.11	48119.7
664.461	48220.03
664.811	48156.3
665.161	48173.25
665.511	47869.08
665.862	48081.05
666.212	48188.39
666.562	48126.93
666.912	47967.61
667.262	48026.36
667.612	48021.17
667.962	47977.78
668.312	47976.2
668.662	48077.21
669.011	47938.01
669.361	47942.07
669.711	47819.36
670.06	47705.92
670.41	47679.48
670.76	47640.39
671.109	47717.22
671.459	47613.04
671.808	47528.98
672.157	47695.98
672.507	47450.33
672.856	47469.77
673.205	47594.51
673.554	47625.24
673.904	47433.16
674.253	47609.43
674.602	47522.87
674.951	46938.71
675.3	46746.85
675.649	47159.72
675.998	47292.37
676.346	47322.65
676.695	47469.09
677.044	46919.27
677.393	47198.14
677.741	47091.93
678.09	46947.52
678.438	46933.06
678.787	47020.74
679.135	46969.67
679.484	46612.39
679.832	46868.43
680.181	46534.88
680.529	46708.43
680.877	46585.72
681.225	46456.24
681.573	46733.29
681.922	46373.98
682.27	46373.3
682.618	46251.5
682.966	46226.86
683.314	46139.18
683.661	46047.89
684.009	45775.58
684.357	45833.2
684.705	45708.01
685.053	45849.02
685.4	45661.45
685.748	45544.85
686.095	45542.59
686.443	45452.65
686.79	45321.35
687.138	45234.8
687.485	45254.91
687.832	45144.18
688.18	45267.34
688.527	44937.41
688.874	44810.63
689.221	44916.84
689.568	44773.79
689.915	44582.61
690.262	44556.17
690.609	44482.28
690.956	44370.87
691.303	44334.48
691.65	44247.71
691.997	44233.02
692.344	44001.16
692.69	43991.44
693.037	43908.96
693.383	43649.08
693.73	43814.05
694.077	43617.44
694.423	43529.08
694.769	43380.61
695.116	43328.86
695.462	43214.29
695.808	43081.86
696.155	43092.93
696.501	42863.56
696.847	42901.75
697.193	42531.82
697.539	42748.99
697.885	42394.87
698.231	42131.83
698.577	42123.92
698.923	42135.22
699.269	41990.82
699.614	41793.76
699.96	41807.54
700.306	41663.14
700.651	41462.02
700.997	41363.94
701.342	41421.57
701.688	41347.22
702.033	41100.67
702.379	41157.39
702.724	41055.47
703.069	41124.62
703.415	40660.68
703.76	40657.07
704.105	40729.83
704.45	40561.48
704.795	40284.42
705.14	40165.1
705.485	40269.51
705.83	39942.96
706.175	39956.07
706.52	39856.86
706.865	39683.53
707.209	39569.86
707.554	39382.98
707.899	39465.69
708.243	39257.33
708.588	39390.89
708.932	39129.2
709.277	38961.29
709.621	38977.79
709.966	38694.41
710.31	38917.68
710.654	38527.86
710.998	38736.21
711.342	38625.71
711.687	38513.62
712.031	38369.44
712.375	38271.37
712.719	38414.64
713.063	38413.96
713.407	38362.66
713.75	38100.07
714.094	38149.56
714.438	37930.81
714.782	37893.98
715.125	37772.85
715.469	37770.36
715.812	37599.75
716.156	37458.28
716.499	37500.31
716.843	37560.65
717.186	37211.73
717.53	37430.03
717.873	37351.16
718.216	37152.75
718.559	37107.1
718.902	36913.44
719.246	36901.46
719.589	36732.42
719.932	36645.87
720.275	36610.17
720.617	36580.11
720.96	36548.25
721.303	36529.72
721.646	36451.53
721.989	36270.52
722.331	36507.12
722.674	36328.82
723.016	36371.53
723.359	36206.11
723.701	36295.15
724.044	36082.05
724.386	35817.19
724.729	35931.99
725.071	35761.6
725.413	35715.05
725.755	35550.08
726.097	35573.13
726.439	35429.86
726.782	35333.82
727.124	35542.17
727.465	35274.61
727.807	35325.46
728.149	35261.95
728.491	35167.95
728.833	35372.23
729.175	35114.84
729.516	34916.43
729.858	34877.78
730.199	34982.87
730.541	34860.38
730.882	34875.52
731.224	34946.26
731.565	34667.39
731.906	34675.08
732.248	34662.87
732.589	34560.96
732.93	34482.31
733.271	34534.74
733.612	34340.85
733.953	34464.69
734.294	34243
734.635	34141.31
734.976	34111.93
735.317	33884.59
735.658	33970.24
735.999	33941.76
736.339	33914.87
736.68	33911.26
737.021	33817.25
737.361	33709
737.702	33781.77
738.042	33693.63
738.383	33533.64
738.723	33662.45
739.063	33523.69
739.404	33637.36
739.744	33477.14
740.084	33358.5
740.424	33421.32
740.764	33154.21
741.104	33444.15
741.444	33191.5
741.784	33008.23
742.124	33061.11
742.464	33010.49
742.804	33012.97
743.143	33041.22
743.483	33005.52
743.823	32581.8
744.162	32547.68
744.502	32726.2
744.841	32592.42
745.181	32645.75
745.52	32568.01
745.86	32640.1
746.199	32493.21
746.538	32420
746.877	32427
747.216	32410.96
747.556	32288.25
747.895	32325.08
748.234	32040.12
748.573	32019.78
748.911	31899.56
749.25	31911.53
749.589	31790.63
749.928	31777.53
750.267	31761.26
750.605	31661.14
750.944	31548.15
751.283	31337.09
751.621	31611.43
751.96	31247.14
752.298	31336.86
752.636	31363.75
752.975	31099.35
