Data from aluminium_surface_pro_back_FLMS001491_00062.txt Node
Date: Wed Feb 08 15:34:23 GMT 2017
User: dcchb
Spectrometer: FLMS00149
Trigger mode: 0
Integration Time (sec): 2.000000E-2
Scans to average: 10
Electric dark correction enabled: true
Nonlinearity correction enabled: false
Boxcar width: 0
XAxis mode: Wavelengths
Number of Pixels in Spectrum: 2048
>>>>>Begin Spectral Data<<<<<
341.393	-14.36
341.776	-14.36
342.16	-14.36
342.543	-82.16
342.927	-64.76
343.31	-79.22
343.693	-77.64
344.077	-41.03
344.46	-69.5
344.843	-76.51
345.226	-32.67
345.61	-27.02
345.993	-23.86
346.376	-22.73
346.759	4.84
347.142	36.48
347.525	66.09
347.908	53.43
348.291	73.77
348.674	101.11
349.057	114.45
349.44	131.62
349.823	139.76
350.206	180.66
350.588	217.95
350.971	230.6
351.354	259.98
351.737	273.54
352.119	283.48
352.502	294.1
352.884	288.23
353.267	304.5
353.65	318.51
354.032	334.1
354.414	344.72
354.797	353.54
355.179	360.09
355.562	365.06
355.944	366.87
356.326	366.42
356.709	384.04
357.091	367.32
357.473	386.98
357.855	411.39
358.238	393.08
358.62	371.39
359.002	362.58
359.384	392.4
359.766	376.36
360.148	386.53
360.53	377.04
360.912	349.24
361.294	388.11
361.676	378.62
362.057	374.78
362.439	370.03
362.821	378.85
363.203	365.96
363.584	378.17
363.966	346.3
364.348	365.06
364.729	399.18
365.111	371.16
365.493	377.04
365.874	355.57
366.256	354.67
366.637	358.51
367.019	383.59
367.4	363.03
367.781	358.73
368.163	382.91
368.544	369.81
368.925	355.8
369.306	378.85
369.688	375.46
370.069	382.24
370.45	371.39
370.831	393.76
371.212	376.81
371.593	376.81
371.974	382.91
372.355	376.59
372.736	390.15
373.117	390.82
373.498	374.33
373.879	381.33
374.26	418.39
374.641	397.15
375.021	380.2
375.402	378.39
375.783	404.83
376.163	430.6
376.544	405.29
376.925	426.3
377.305	420.65
377.686	415
378.066	425.62
378.447	425.17
378.827	436.92
379.208	436.02
379.588	438.51
379.968	438.05
380.349	445.74
380.729	448.22
381.109	442.8
381.489	454.1
381.87	460.65
382.25	445.51
382.63	450.26
383.01	468.56
383.39	470.37
383.77	481.22
384.15	476.92
384.53	487.09
384.91	473.98
385.29	490.26
385.67	487.77
386.049	509.24
386.429	510.14
386.809	494.1
387.189	521.44
387.568	507.66
387.948	516.92
388.328	536.36
388.707	552.17
389.087	537.26
389.466	557.15
389.846	548.11
390.225	577.94
390.605	549.24
390.984	570.71
391.363	572.97
391.743	587.65
392.122	601.44
392.501	578.84
392.881	591.27
393.26	597.6
393.639	632.62
394.018	621.78
394.397	629.69
394.776	643.25
395.155	647.31
395.534	626.52
395.913	662.91
396.292	647.54
396.671	659.06
397.05	666.07
397.429	669.91
397.808	682.57
398.186	685.28
398.565	696.13
398.944	695
399.323	717.37
399.701	702.91
400.08	731.38
400.458	731.38
400.837	721.44
401.215	776.58
401.594	746.97
401.972	771.15
402.351	779.06
402.729	792.85
403.107	810.7
403.486	799.4
403.864	836.24
404.242	808.44
404.62	833.75
404.999	838.49
405.377	850.7
405.755	876.23
406.133	884.6
406.511	890.7
406.889	864.71
407.267	913.75
407.645	904.03
408.023	929.79
408.401	923.69
408.779	959.62
409.156	989.9
409.534	977.25
409.912	986.06
410.29	1011.15
410.667	1024.48
411.045	1048.88
411.422	1065.61
411.8	1043.24
412.178	1072.16
412.555	1088.88
412.933	1116.91
413.31	1129.56
413.687	1142.89
414.065	1137.7
414.442	1167.53
414.819	1157.36
415.197	1200.29
415.574	1201.65
415.951	1219.28
416.328	1219.05
416.705	1251.59
417.082	1240.29
417.46	1265.6
417.837	1272.16
418.214	1295.21
418.591	1290.01
418.967	1302.44
419.344	1323
419.721	1341.76
420.098	1328.2
420.475	1389.21
420.852	1371.14
421.228	1413.85
421.605	1388.54
421.982	1453.39
422.358	1459.04
422.735	1475.31
423.111	1496.1
423.488	1492.71
423.864	1497.69
424.241	1517.8
424.617	1541.98
424.994	1536.56
425.37	1560.51
425.746	1611.81
426.123	1585.82
426.499	1617.01
426.875	1635.76
427.251	1677.79
427.627	1696.1
428.003	1724.57
428.379	1757.79
428.756	1760.73
429.132	1781.29
429.507	1782.42
429.883	1820.39
430.259	1886.15
430.635	1869.88
431.011	1899.71
431.387	1940.16
431.763	1964.57
432.138	1959.6
432.514	1992.36
432.89	2048.86
433.265	2080.5
433.641	2084.79
434.016	2099.7
434.392	2132.02
434.767	2178.12
435.143	2176.31
435.518	2218.12
435.894	2241.85
436.269	2248.4
436.644	2257.67
437.02	2307.38
437.395	2315.29
437.77	2364.1
438.145	2400.49
438.52	2405.46
438.895	2412.46
439.271	2453.59
439.646	2524.55
440.021	2506.47
440.395	2555.74
440.77	2508.28
441.145	2562.97
441.52	2579.24
441.895	2601.84
442.27	2670.99
442.645	2663.98
443.019	2674.6
443.394	2688.16
443.769	2727.94
444.143	2682.97
444.518	2774.94
444.892	2763.19
445.267	2800.93
445.641	2855.17
446.016	2826.01
446.39	2853.81
446.764	2872.11
447.139	2872.34
447.513	2920.47
447.887	2975.16
448.262	2925.67
448.636	2987.14
449.01	3007.48
449.384	3049.51
449.758	3037.76
450.132	3077.08
450.506	3102.84
450.88	3173.57
451.254	3165.21
451.628	3182.84
452.002	3231.43
452.376	3246.34
452.75	3314.36
453.123	3322.05
453.497	3345.1
453.871	3428.03
454.244	3470.29
454.618	3494.7
454.992	3584.41
455.365	3527.01
455.739	3670.74
456.112	3678.65
456.486	3738.76
456.859	3777.4
457.232	3908.47
457.606	3856.27
457.979	3870.28
458.352	3996.83
458.725	4016.26
459.099	4036.38
459.472	4131.52
459.845	4190.72
460.218	4177.62
460.591	4230.72
460.964	4236.82
461.337	4350.49
461.71	4463.94
462.083	4482.92
462.456	4502.13
462.829	4486.31
463.201	4611.96
463.574	4617.6
463.947	4698.96
464.32	4799.29
464.692	4856.69
465.065	4950.03
465.438	4937.14
465.81	4986.18
466.183	5038.84
466.555	5190.7
466.928	5206.74
467.3	5267.53
467.672	5310.69
468.045	5414.65
468.417	5461.42
468.789	5554.53
469.161	5575.09
469.534	5696.45
469.906	5790.23
470.278	5832.04
470.65	5912.03
471.022	6064.35
471.394	6137.56
471.766	6195.87
472.138	6246.49
472.51	6366.26
472.882	6498.46
473.253	6573.26
473.625	6693.71
473.997	6832.24
474.369	6791.56
474.74	6917.88
475.112	7096.41
475.484	7191.77
475.855	7302.73
476.227	7360.81
476.598	7625.21
476.97	7680.12
477.341	7921.25
477.713	7951.53
478.084	7984.3
478.455	8217.06
478.827	8325.3
479.198	8537.05
479.569	8598.74
479.94	8838.28
480.311	8934.1
480.682	9119.41
481.053	9298.61
481.424	9495.44
481.795	9535.44
482.166	9748.77
482.537	9854.76
482.908	9994.41
483.279	10190.34
483.65	10378.81
484.021	10522.08
484.391	10695.86
484.762	10734.28
485.133	10880.72
485.503	10967.49
485.874	11311.89
486.244	11352.12
486.615	11550.3
486.985	11767.02
487.356	11938.77
487.726	12178.54
488.097	12320.23
488.467	12443.39
488.837	12675.92
489.207	12858.74
489.578	12993.66
489.948	13133.99
490.318	13268
490.688	13493.53
491.058	13619.85
491.428	13781.88
491.798	13870.69
492.168	14235.88
492.538	14272.49
492.908	14515.2
493.278	14699.6
493.648	14728.3
494.017	14925.36
494.387	15074.05
494.757	15227.95
495.126	15419.81
495.496	15403.08
495.866	15506.13
496.235	15686.92
496.605	15875.61
496.974	15890.53
497.344	16037.87
497.713	16248.03
498.082	16330.29
498.452	16415.26
498.821	16571.87
499.19	16600.79
499.559	16803.72
499.928	17043.04
500.298	17075.81
500.667	17259.98
501.036	17256.59
501.405	17422.01
501.774	17542.91
502.143	17714.21
502.512	17849.8
502.88	17962.79
503.249	18029.46
503.618	18209.34
503.987	18213.63
504.356	18340.41
504.724	18549.44
505.093	18572.94
505.462	18666.95
505.83	18870.56
506.199	18975.87
506.567	19239.82
506.936	19198.92
507.304	19528.85
507.672	19556.42
508.041	19657.66
508.409	19849.07
508.777	20056.75
509.145	20303.52
509.514	20263.07
509.882	20392.78
510.25	20581.93
510.618	20848.14
510.986	20837.52
511.354	21088.58
511.722	21303.72
512.09	21413.77
512.458	21444.96
512.826	21588.01
513.193	21626.2
513.561	21860.54
513.929	22072.96
514.297	22244.71
514.664	22442.22
515.032	22500.07
515.4	22739.16
515.767	22868.88
516.135	23045.82
516.502	22946.16
516.869	23429.99
517.237	23491.01
517.604	23474.28
517.972	23826.14
518.339	23967.83
518.706	23996.53
519.073	24263.87
519.44	24328.95
519.808	24670.64
520.175	24668.38
520.542	25148.14
520.909	25210.74
521.276	25268.59
521.643	25584.28
522.009	25707.45
522.376	25899.76
522.743	26187.43
523.11	26335.68
523.477	26698.61
523.843	26819.73
524.21	27149.89
524.577	27247.74
524.943	27370.45
525.31	27615.19
525.676	27826.03
526.043	27970.21
526.409	28206.81
526.776	28516.64
527.142	28626.01
527.508	28849.96
527.874	29070.29
528.241	29200.69
528.607	29322.94
528.973	29608.36
529.339	29641.35
529.705	29964.96
530.071	30133.54
530.437	30439.75
530.803	30586.64
531.169	30819.18
531.535	30691.04
531.901	30918.61
532.267	31072.95
532.632	31295.1
532.998	31424.13
533.364	31651.02
533.73	31709.77
534.095	32001.97
534.461	32096.88
534.826	32421.85
535.192	32404.22
535.557	32645.57
535.923	32545.68
536.288	32770.99
536.653	33082.39
537.019	32856.41
537.384	33120.13
537.749	33308.83
538.114	33484.42
538.479	33454.81
538.845	33790.17
539.21	33704.52
539.575	33972.54
539.94	33892.32
540.305	34176.15
540.67	34159.43
541.034	34498.85
541.399	34542.92
541.764	34563.48
542.129	34762.35
542.494	34825.17
542.858	34981.1
543.223	35041.89
543.587	35267.42
543.952	35385.84
544.316	35245.05
544.681	35335.89
545.045	35654.53
545.41	35769.33
545.774	35906.95
546.138	35877.8
546.503	36101.52
546.867	36132.48
547.231	36381.06
547.595	36352.82
547.959	36569.08
548.324	36792.13
548.688	36764.56
549.052	36896.76
549.416	37076.41
549.779	37113.7
550.143	37115.96
550.507	37493.12
550.871	37575.16
551.235	37493.58
551.599	37826.67
551.962	37981.7
552.326	38057.18
552.689	38274.12
553.053	38187.34
553.417	38411.29
553.78	38821.45
554.143	38646.77
554.507	38959.53
554.87	39126.75
555.234	39479.51
555.597	39266.41
555.96	39642.9
556.323	39722.22
556.686	39851.25
557.05	40206.5
557.413	40259.38
557.776	40364.91
558.139	40644.45
558.502	40813.94
558.865	40766.03
559.228	41199.24
559.59	41286.7
559.953	41460.48
560.316	41832.67
560.679	41937.08
561.041	42206.9
561.404	42249.16
561.767	42719.88
562.129	42470.17
562.492	42896.15
562.854	43048.68
563.217	43063.15
563.579	43297.49
563.941	43581.78
564.304	43756.24
564.666	44016.12
565.028	44073.06
565.39	44301.08
565.753	44558.7
566.115	44646.16
566.477	44848.64
566.839	44856.09
567.201	45297.66
567.563	45356.65
567.925	45570.65
568.287	45650.65
568.648	45820.81
569.01	45992.34
569.372	46286.57
569.734	46275.94
570.095	46589.83
570.457	46810.39
570.819	46915.25
571.18	46973.33
571.542	47268.46
571.903	47449.92
572.265	47515.91
572.626	47776.02
572.987	47779.63
573.349	47951.61
573.71	47988.67
574.071	48274.99
574.432	48294.2
574.794	48494.19
575.155	48547.3
575.516	48514.53
575.877	48767.63
576.238	48771.7
576.599	48885.14
576.96	48990.9
577.32	49046.04
577.681	49188.41
578.042	49346.6
578.403	49350.67
578.763	49435.86
579.124	49558.34
579.485	49626.14
579.845	49846.92
580.206	49749.98
580.566	49822.97
580.927	49863.42
581.287	49955.85
581.648	49805.57
582.008	50169.18
582.368	49960.82
582.728	50165.79
583.089	50007.15
583.449	50024.32
583.809	50186.8
584.169	50262.96
584.529	50105.9
584.889	50501.37
585.249	50140.25
585.609	50155.62
585.969	50351.77
586.329	50236.52
586.688	50284.65
587.048	50192.9
587.408	50168.95
587.768	50200.13
588.127	50133.47
588.487	50268.38
588.846	50524.19
589.206	50191.55
589.565	50354.26
589.925	50390.41
590.284	50354.93
590.643	50455.72
591.003	50554.93
591.362	50629.5
591.721	50520.13
592.08	50468.83
592.44	50707.69
592.799	50664.98
593.158	50562.61
593.517	50530.75
593.876	50843.06
594.235	50641.93
594.593	50779.1
594.952	50705.43
595.311	50763.28
595.67	50888.7
596.029	50934.58
596.387	50951.08
596.746	50983.17
597.104	50924.64
597.463	50862.94
597.822	51051.41
598.18	50882.6
598.538	50871.3
598.897	51163.95
599.255	50733
599.613	51336.83
599.972	51120.79
600.33	51256.6
600.688	51120.34
601.046	51243.27
601.404	51259.09
601.762	51270.62
602.12	51454.34
602.478	51406.88
602.836	51424.51
603.194	51207.11
603.552	51418.63
603.91	51281.91
604.268	51399.2
604.625	51458.63
604.983	51521.91
605.341	51363.27
605.698	51640.32
606.056	51652.53
606.413	51594.9
606.771	51734.78
607.128	51738.4
607.485	51526.43
607.843	51674.9
608.2	51902.24
608.557	51949.47
608.914	51806.19
609.272	51915.8
609.629	52073.98
609.986	52100.42
610.343	51966.64
610.7	52148.11
611.057	52127.09
611.414	52113.98
611.771	52130.93
612.127	52189.01
612.484	52192.4
612.841	52375.67
613.198	52209.57
613.554	52257.26
613.911	52478.72
614.267	52513.29
614.624	52518.94
614.98	52448.44
615.337	52580.64
615.693	52576.57
616.05	52510.58
616.406	52698.83
616.762	52536.34
617.118	52610.69
617.475	52585.16
617.831	52589
618.187	52625.83
618.543	52732.27
618.899	52899.95
619.255	52816.34
619.611	52794.64
619.967	52874.64
620.323	52914.64
620.678	52772.27
621.034	52735.21
621.39	52717.13
621.746	52746.28
622.101	53048.2
622.457	52789.22
622.812	52846.17
623.168	52913.06
623.523	52845.94
623.879	52944.47
624.234	52744.7
624.589	52945.15
624.945	52896.56
625.3	52920.06
625.655	52798.94
626.01	52804.36
626.365	52832.83
626.72	52819.95
627.075	52753.74
627.43	52842.55
627.785	52701.54
628.14	52790.8
628.495	52865.83
628.85	52758.71
629.205	52636.45
629.559	52814.3
629.914	52693.63
630.269	52765.04
630.623	52721.42
630.978	52612.05
631.332	52808.43
631.687	52779.95
632.041	52636.68
632.396	52818.37
632.75	52657.25
633.104	52690.69
633.459	52581.99
633.813	52479.17
634.167	52533.86
634.521	52506.97
634.875	52443.01
635.229	52487.53
635.583	52307.88
635.937	52326.86
636.291	52313.07
636.645	52224.49
636.999	52137.26
637.352	52252.74
637.706	52085.96
638.06	52289.57
638.413	52085.28
638.767	52020.2
639.121	52139.74
639.474	51908.56
639.828	51883.25
640.181	51911.95
640.534	51956.47
640.888	51726.87
641.241	51614.11
641.594	51693.2
641.947	51742.92
642.301	51608.23
642.654	51671.96
643.007	51619.76
643.36	51582.25
643.713	51571.62
644.066	51617.72
644.419	51331.86
644.771	51231.97
645.124	50938.65
645.477	50965.31
645.83	50699.78
646.182	50475.38
646.535	50468.6
646.888	50495.27
647.24	50321.49
647.593	50516.74
647.945	50353.13
648.298	50261.83
648.65	50121.27
649.002	50089.63
649.355	50170.76
649.707	50074.94
650.059	50180.02
650.411	50615.72
650.763	50541.37
651.115	50980.68
651.467	50817.29
651.819	50715.38
652.171	50668.6
652.523	50615.49
652.875	50682.83
653.227	50471.54
653.578	50713.57
653.93	50440.35
654.282	50444.42
654.633	50354.26
654.985	50436.51
655.337	50407.14
655.688	50389.06
656.039	50349.96
656.391	50181.83
656.742	50166.01
657.094	50235.39
657.445	50356.06
657.796	50180.93
658.147	50132.79
658.498	50085.11
658.849	50180.7
659.2	50149.74
659.551	50028.61
659.902	50055.05
660.253	50055.51
660.604	50054.83
660.955	49956.75
661.306	50095.96
661.656	49916.3
662.007	49998.78
662.358	49912.01
662.708	50042.85
663.059	50032
663.409	49709.98
663.76	49994.04
664.11	49801.5
664.461	50005.34
664.811	50071.78
665.161	49806.47
665.511	49802.18
665.862	49878.56
666.212	49848.96
666.562	49877.43
666.912	49746.36
667.262	49625.46
667.612	49797.21
667.962	49764.44
668.312	49625.46
668.662	49911.33
669.011	49671.79
669.361	49587.72
669.711	49523.32
670.06	49476.31
670.41	49441.96
670.76	49418.23
671.109	49472.24
671.459	49414.84
671.808	49434.28
672.157	49514.96
672.507	49281.51
672.856	49246.71
673.205	49415.52
673.554	49357.67
673.904	49188.86
674.253	49416.43
674.602	49106.38
674.951	48586.17
675.3	48371.03
675.649	49097.11
675.998	49031.13
676.346	49043.1
676.695	49114.29
677.044	48659.84
677.393	48707.29
677.741	48881.75
678.09	48663.45
678.438	48639.95
678.787	48624.36
679.135	48698.48
679.484	48459.62
679.832	48471.37
680.181	48388.88
680.529	48488.32
680.877	48339.62
681.225	48249.9
681.573	48428.66
681.922	48196.35
682.27	48165.16
682.618	48093.52
682.966	47920.19
683.314	48154.54
683.661	47976.92
684.009	47811.72
684.357	47754.32
684.705	47604.5
685.053	47813.98
685.4	47730.14
685.748	47534.22
686.095	47510.71
686.443	47209.03
686.79	47412.86
687.138	47411.28
687.485	47439.98
687.832	47201.57
688.18	47230.27
688.527	47005.64
688.874	47046.77
689.221	46976.49
689.568	46732.88
689.915	46625.09
690.262	46700.57
690.609	46623.96
690.956	46456.5
691.303	46373.12
691.65	46174.25
691.997	46149.62
692.344	45961.38
692.69	46058.55
693.037	45968.83
693.383	45638.45
693.73	45725.45
694.077	45489.98
694.423	45501.05
694.769	45302.41
695.116	45292.47
695.462	45195.97
695.808	45137.22
696.155	45004.57
696.501	44785.59
696.847	44781.07
697.193	44604.35
697.539	44726.15
697.885	44348.09
698.231	44278.71
698.577	44210.01
698.923	44030.81
699.269	43934.76
699.614	43736.8
699.96	43720.98
700.306	43669.91
700.651	43545.62
700.997	43453.65
701.342	43280.32
701.688	43236.25
702.033	43095.01
702.379	43109.02
702.724	42961.23
703.069	42954.9
703.415	42644.63
703.76	42527.34
704.105	42468.13
704.45	42411.19
704.795	42122.16
705.14	42051.65
705.485	42084.87
705.83	41895.72
706.175	41986.34
706.52	41810.07
706.865	41691.66
707.209	41548.84
707.554	41337.99
707.899	41513.13
708.243	41360.37
708.588	41323.08
708.932	41034.95
709.277	41092.13
709.621	41032.47
709.966	40856.88
710.31	40842.64
710.654	40595.64
710.998	40714.28
711.342	40727.62
711.687	40463.67
712.031	40494.18
712.375	40223.9
712.719	40395.65
713.063	40322.65
713.407	40471.35
713.75	40066.62
714.094	40059.16
714.438	39979.39
714.782	39936.68
715.125	39682.45
715.469	39772.16
715.812	39461.66
716.156	39415.56
716.499	39370.36
716.843	39442
717.186	39179.63
717.53	39342.34
717.873	39278.16
718.216	39040.65
718.559	38922.69
718.902	38526.77
719.246	38762.47
719.589	38663.04
719.932	38390.28
720.275	38401.58
720.617	38416.94
720.96	38193.67
721.303	38321.8
721.646	38338.53
721.989	38031.87
722.331	38110.96
722.674	37877.3
723.016	37961.81
723.359	37755.04
723.701	37729.5
724.044	37602.27
724.386	37461.49
724.729	37462.62
725.071	37322.51
725.413	37281.15
725.755	37194.38
726.097	37216.97
726.439	37116.19
726.782	37077.32
727.124	37261.27
727.465	37088.39
727.807	37075.06
728.149	36970.65
728.491	36833.03
728.833	36832.35
729.175	36853.14
729.516	36663.09
729.858	36584.67
730.199	36604.11
730.541	36537.44
730.882	36444.56
731.224	36455.64
731.565	36233.5
731.906	36255.64
732.248	36202.76
732.589	36050.22
732.93	36002.32
733.271	36018.36
733.612	35833.96
733.953	35884.81
734.294	35804.36
734.635	35619.5
734.976	35749.44
735.317	35464.93
735.658	35487.08
735.999	35491.14
736.339	35438.72
736.68	35499.28
737.021	35465.38
737.361	35123.7
737.702	35327.53
738.042	35238.04
738.383	35104.71
738.723	35163.24
739.063	34853.65
739.404	34999.4
739.744	34809.81
740.084	34831.5
740.424	34869.01
740.764	34718.73
741.104	34794.89
741.444	34513.54
741.784	34342.92
742.124	34486.65
742.464	34350.16
742.804	34200.78
743.143	34093.67
743.483	34217.28
743.823	34083.27
744.162	33967.57
744.502	34101.8
744.841	33933.22
745.181	33925.08
745.52	33814.35
745.86	33839.21
746.199	33794.24
746.538	33696.61
746.877	33823.39
747.216	33775.03
747.556	33729.83
747.895	33595.83
748.234	33433.12
748.573	33473.57
748.911	33410.52
749.25	33299.34
749.589	33261.6
749.928	33066.12
750.267	33249.62
750.605	33073.35
750.944	33126.01
751.283	32889.18
751.621	32849.4
751.96	32839.69
752.298	32659.13
752.636	32862.96
