Data from aluminium_surface_pro_back_FLMS001491_00024.txt Node
Date: Wed Feb 08 15:33:49 GMT 2017
User: dcchb
Spectrometer: FLMS00149
Trigger mode: 0
Integration Time (sec): 2.000000E-2
Scans to average: 10
Electric dark correction enabled: true
Nonlinearity correction enabled: false
Boxcar width: 0
XAxis mode: Wavelengths
Number of Pixels in Spectrum: 2048
>>>>>Begin Spectral Data<<<<<
341.393	-6.61
341.776	-6.61
342.16	-6.61
342.543	-61.98
342.927	-64.46
343.31	-102.88
343.693	-61.3
344.077	-64.69
344.46	-60.85
344.843	-53.16
345.226	-37.8
345.61	-34.86
345.993	-20.39
346.376	-15.42
346.759	21.41
347.142	33.39
347.525	55.54
347.908	45.37
348.291	80.17
348.674	96.66
349.057	118.81
349.44	146.61
349.823	152.26
350.206	176.21
350.588	217.79
350.971	238.13
351.354	259.6
351.737	254.4
352.119	288.75
352.502	285.59
352.884	292.14
353.267	303.44
353.65	325.81
354.032	341.63
354.414	328.97
354.797	331.69
355.179	359.26
355.562	361.74
355.944	362.19
356.326	345.02
356.709	363.78
357.091	379.82
357.473	383.21
357.855	378.92
358.238	379.82
358.62	363.55
359.002	401.29
359.384	365.36
359.766	383.66
360.148	368.52
360.53	393.38
360.912	375.98
361.294	387.28
361.676	373.27
362.057	382.53
362.439	344.79
362.821	372.82
363.203	379.82
363.584	371.69
363.966	380.05
364.348	351.12
364.729	359.71
365.111	384.11
365.493	375.75
365.874	369.2
366.256	369.2
366.637	389.76
367.019	385.02
367.4	375.98
367.781	378.01
368.163	366.94
368.544	367.84
368.925	359.03
369.306	394.28
369.688	394.96
370.069	374.62
370.45	385.92
370.831	377.11
371.212	385.24
371.593	370.33
371.974	381.85
372.355	383.89
372.736	391.35
373.117	403.55
373.498	402.87
373.879	410.33
374.26	396.09
374.641	408.75
375.021	396.09
375.402	392.02
375.783	427.28
376.163	436.32
376.544	445.81
376.925	401.97
377.305	420.95
377.686	414.85
378.066	404.68
378.447	424.34
378.827	414.85
379.208	434.73
379.588	438.35
379.968	426.6
380.349	451.01
380.729	452.14
381.109	432.02
381.489	453.49
381.87	459.37
382.25	457.11
382.63	475.41
383.01	480.16
383.39	465.02
383.77	480.61
384.15	495.07
384.53	491.46
384.91	486.03
385.29	525.81
385.67	502.3
386.049	521.06
386.429	506.37
386.809	510.21
387.189	517.22
387.568	527.84
387.948	508.63
388.328	547.05
388.707	555.64
389.087	538.23
389.466	547.5
389.846	552.7
390.225	550.21
390.605	595.18
390.984	575.75
391.363	573.71
391.743	562.64
392.122	582.08
392.501	597.22
392.881	610.55
393.26	616.2
393.639	606.26
394.018	615.75
394.397	626.37
394.776	635.18
395.155	634.05
395.534	632.24
395.913	651.68
396.292	667.95
396.671	661.4
397.05	650.77
397.429	691.9
397.808	698
398.186	693.71
398.565	707.27
398.944	701.85
399.323	702.07
399.701	696.2
400.08	722.41
400.458	735.52
400.837	721.05
401.215	763.09
401.594	767.38
401.972	777.55
402.351	767.38
402.729	784.1
403.107	798.34
403.486	789.08
403.864	779.81
404.242	808.06
404.62	804.67
404.999	826.14
405.377	824.1
405.755	853.93
406.133	862.07
406.511	864.33
406.889	890.54
407.267	935.51
407.645	916.53
408.023	952.69
408.401	967.6
408.779	948.39
409.156	980.93
409.534	974.16
409.912	1010.54
410.29	1015.74
410.667	1008.28
411.045	1035.17
411.422	1038.79
411.8	1067.26
412.178	1055.28
412.555	1093.25
412.933	1085.56
413.31	1125.34
413.687	1124.43
414.065	1154.94
414.442	1153.81
414.819	1142.74
415.197	1190.19
415.574	1183.64
415.951	1239.68
416.328	1207.14
416.705	1241.27
417.082	1245.11
417.46	1246.92
417.837	1271.77
418.214	1277.2
418.591	1304.09
418.967	1309.74
419.344	1305.22
419.721	1339.8
420.098	1345.9
420.475	1368.04
420.852	1360.36
421.228	1380.25
421.605	1403.52
421.982	1419.79
422.358	1450.3
422.735	1462.73
423.111	1448.04
423.488	1491.66
423.864	1483.52
424.241	1507.25
424.617	1535.27
424.994	1555.16
425.37	1544.08
425.746	1564.42
426.123	1594.48
426.499	1628.15
426.875	1616.62
427.251	1641.71
427.627	1698.66
428.003	1692.78
428.379	1743.85
428.756	1729.39
429.132	1784.76
429.507	1786.34
429.883	1795.15
430.259	1841.7
430.635	1855.04
431.011	1898.88
431.387	1890.06
431.763	1951.98
432.138	1987.91
432.514	1999.66
432.89	1971.42
433.265	2047.8
433.641	2064.07
434.016	2110.62
434.392	2107.23
434.767	2165.54
435.143	2163.95
435.518	2202.37
435.894	2238.75
436.269	2239.88
436.644	2277.62
437.02	2319.2
437.395	2329.37
437.77	2323.72
438.145	2390.39
438.52	2403.27
438.895	2418.64
439.271	2379.09
439.646	2506.32
440.021	2483.49
440.395	2515.81
440.77	2492.53
441.145	2537.5
441.52	2586.09
441.895	2593.32
442.27	2628.8
442.645	2610.5
443.019	2680.1
443.394	2643.72
443.769	2701.79
444.143	2683.49
444.518	2730.95
444.892	2714.9
445.267	2777.95
445.641	2783.37
446.016	2791.06
446.39	2806.2
446.764	2854.56
447.139	2847.1
447.513	2878.74
447.887	2869.7
448.262	2900.21
448.636	2922.35
449.01	3008.23
449.384	3003.71
449.758	3006.87
450.132	3090.26
450.506	3115.57
450.88	3083.93
451.254	3077.6
451.628	3163.48
452.002	3177.94
452.376	3249.58
452.75	3285.05
453.123	3263.81
453.497	3397.59
453.871	3383.13
454.244	3423.13
454.618	3448.44
454.992	3505.39
455.365	3497.93
455.739	3626.06
456.112	3638.27
456.486	3703.8
456.859	3739.96
457.232	3781.99
457.606	3731.6
457.979	3823.35
458.352	3907.64
458.725	3960.52
459.099	4011.59
459.472	4071.47
459.845	4066.5
460.218	4157.35
460.591	4151.25
460.964	4257.23
461.337	4306.5
461.71	4339.26
462.083	4470.11
462.456	4420.62
462.829	4442.31
463.201	4491.12
463.574	4578.35
463.947	4626.04
464.32	4750.78
464.692	4769.08
465.065	4803.66
465.438	4899.48
465.81	4943.54
466.183	5039.81
466.555	5135.85
466.928	5182.18
467.3	5126.59
467.672	5231.44
468.045	5415.39
468.417	5380.59
468.789	5464.21
469.161	5476.18
469.534	5578.78
469.906	5703.07
470.278	5762.73
470.65	5787.81
471.022	5935.83
471.394	6022.84
471.766	6117.07
472.138	6181.48
472.51	6298.53
472.882	6376.5
473.253	6484.52
473.625	6543.27
473.997	6713.67
474.369	6745.98
474.74	6841.57
475.112	6929.25
475.484	7073.43
475.855	7213.31
476.227	7260.54
476.598	7428.22
476.97	7517.71
477.341	7691.94
477.713	7826.63
478.084	7890.81
478.455	8070.47
478.827	8139.39
479.198	8425.26
479.569	8419.16
479.94	8680.85
480.311	8723.78
480.682	8944.57
481.053	9108.63
481.424	9223.2
481.795	9380.94
482.166	9535.29
482.537	9644.89
482.908	9828.61
483.279	10025.22
483.65	10162.39
484.021	10367.58
484.391	10507.92
484.762	10571.19
485.133	10712.88
485.503	10824.07
485.874	11073.1
486.244	11229.93
486.615	11409.36
486.985	11561.45
487.356	11793.53
487.726	11855.9
488.097	12114.65
488.467	12143.8
488.837	12466.51
489.207	12612.49
489.578	12764.13
489.948	12815.43
490.318	13138.81
490.688	13112.59
491.058	13328.86
491.428	13494.05
491.798	13634.61
492.168	13896.98
492.538	13982.17
492.908	14145.56
493.278	14324.31
493.648	14357.53
494.017	14545.55
494.387	14813.34
494.757	14839.55
495.126	15047.68
495.496	15118.87
495.866	15245.42
496.235	15429.37
496.605	15578.52
496.974	15653.09
497.344	15800.66
497.713	15921.78
498.082	16028.67
498.452	16211.49
498.821	16269.57
499.19	16329.68
499.559	16468.89
499.928	16666.85
500.298	16707.07
500.667	17001.76
501.036	16875.43
501.405	17118.59
501.774	17227.51
502.143	17329.88
502.512	17448.3
502.88	17658.24
503.249	17612.81
503.618	17763.77
503.987	17882.19
504.356	17983.2
504.724	18141.61
505.093	18199.01
505.462	18298.22
505.83	18515.16
506.199	18598.55
506.567	18829.5
506.936	18800.81
507.304	19116.05
507.672	19279.44
508.041	19280.57
508.409	19502.03
508.777	19606.43
509.145	19898.63
509.514	19862.02
509.882	19897.73
510.25	20152.63
510.618	20257.49
510.986	20412.29
511.354	20593.98
511.722	20763.47
512.09	20871.71
512.458	20923.24
512.826	21069.9
513.193	21248.42
513.561	21275.99
513.929	21512.15
514.297	21708.53
514.664	21808.18
515.032	21980.16
515.4	22167.27
515.767	22346.47
516.135	22491.1
516.502	22432.57
516.869	22861.72
517.237	23038.43
517.604	22930.41
517.972	23260.8
518.339	23378.54
518.706	23382.61
519.073	23579.89
519.44	23852.88
519.808	24013.78
520.175	24086.54
520.542	24435.01
520.909	24574.89
521.276	24649.69
521.643	24938.04
522.009	25113.41
522.376	25395.66
522.743	25545.03
523.11	25953.61
523.477	26109.31
523.843	26165.36
524.21	26513.6
524.577	26703.2
524.943	26849.18
525.31	26996.97
525.676	27267.48
526.043	27457.07
526.409	27547.69
526.776	27834.69
527.142	28028.81
527.508	28132.54
527.874	28288.47
528.241	28458.18
528.607	28690.04
528.973	28998.05
529.339	28919.18
529.705	29264.48
530.071	29345.16
530.437	29550.35
530.803	29741.76
531.169	29879.16
531.535	29928.87
531.901	30162.77
532.267	30374.06
532.632	30605.92
532.998	30693.15
533.364	30735.41
533.73	30918.45
534.095	31248.61
534.461	31310.76
534.826	31462.85
535.192	31530.64
535.557	31741.71
535.923	31705.55
536.288	31926.56
536.653	32171.75
537.019	32060.34
537.384	32181.47
537.749	32263.28
538.114	32369.04
538.479	32513.89
538.845	32820.55
539.21	32713.21
539.575	32995.23
539.94	32916.59
540.305	33191.16
540.67	33123.82
541.034	33362.68
541.399	33450.36
541.764	33685.84
542.129	33697.81
542.494	33792.28
542.858	33865.72
543.223	34079.27
543.587	34220.96
543.952	34255.54
544.316	34281.75
544.681	34269.78
545.045	34648.75
545.41	34804.68
545.774	34832.47
546.138	34796.54
546.503	35058.91
546.867	35054.16
547.231	35415.06
547.595	35408.5
547.959	35572.79
548.324	35684.88
548.688	35734.6
549.052	35857.31
549.416	35948.38
549.779	36003.06
550.143	36052.33
550.507	36370.51
550.871	36422.71
551.235	36460.23
551.599	36723.95
551.962	36732.09
552.326	36915.81
552.689	37168.46
553.053	37051.85
553.417	37112.87
553.78	37720.31
554.143	37441.9
554.507	37720.53
554.87	37896.8
555.234	38297.69
555.597	38136.34
555.96	38372.72
556.323	38478.71
556.686	38663.79
557.05	38936.32
557.413	39067.16
557.776	39133.15
558.139	39420.38
558.502	39567.49
558.865	39581.28
559.228	39838.9
559.59	39999.57
559.953	40213.58
560.316	40543.74
560.679	40533.12
561.041	40714.81
561.404	40929.26
561.767	41266.88
562.129	41179.65
562.492	41555.46
562.854	41525.63
563.217	41537.83
563.579	41830.93
563.941	42068.22
564.304	42165.16
564.666	42600.18
565.028	42605.6
565.39	42819.38
565.753	43095.31
566.115	43335.53
566.477	43519.03
566.839	43635.41
567.201	43916.3
567.563	44073.13
567.925	44314.03
568.287	44209.4
568.648	44439.45
569.01	44509.28
569.372	45027.69
569.734	44845.32
570.095	45290.96
570.457	45319.88
570.819	45517.84
571.18	45569.82
571.542	45812.07
571.903	45915.12
572.265	45934.78
572.626	46160.31
572.987	46309.46
573.349	46369.35
573.71	46545.16
574.071	46755.55
574.432	46830.58
574.794	47055.2
575.155	47121.64
575.516	47009.55
575.877	47209.1
576.238	47314.86
576.599	47478.47
576.96	47599.37
577.32	47603.21
577.681	47786.48
578.042	47991.45
578.403	47919.14
578.763	47996.2
579.124	48113.71
579.485	48215.85
579.845	48385.34
580.206	48282.06
580.566	48285.23
580.927	48463.75
581.287	48669.4
581.648	48458.78
582.008	48620.36
582.368	48477.76
582.728	48560.02
583.089	48543.07
583.449	48606.35
583.809	48697.87
584.169	48583.98
584.529	48752.56
584.889	49064.42
585.249	48906
585.609	48875.04
585.969	49148.48
586.329	49036.62
586.688	49009.95
587.048	48964.08
587.408	48876.85
587.768	48977.86
588.127	48869.62
588.487	48779.23
588.846	49093.79
589.206	48846.34
589.565	48837.3
589.925	49091.53
590.284	48979.67
590.643	49021.25
591.003	49141.02
591.362	49277.74
591.721	49227.8
592.08	49255.6
592.44	49266.9
592.799	49231.42
593.158	49240.68
593.517	49332.21
593.876	49339.44
594.235	49274.35
594.593	49388.93
594.952	49323.62
595.311	49303.96
595.67	49409.94
596.029	49720.44
596.387	49614.23
596.746	49590.96
597.104	49536.27
597.463	49505.99
597.822	49690.61
598.18	49483.16
598.538	49490.39
598.897	49735.58
599.255	49531.3
599.613	50027.78
599.972	49755.92
600.33	49848.8
600.688	49689.71
601.046	49754.79
601.404	50023.94
601.762	49921.12
602.12	50114.78
602.478	50023.03
602.836	50131.28
603.194	49949.36
603.552	50000.44
603.91	49945.07
604.268	50028.46
604.625	49932.64
604.983	50149.59
605.341	49981.45
605.698	50221
606.056	50195.69
606.413	50178.51
606.771	50314.1
607.128	50287.89
607.485	50137.61
607.843	50242.01
608.2	50466.41
608.557	50626.63
608.914	50511.61
609.272	50750.25
609.629	50804.26
609.986	50818.95
610.343	50738.72
610.7	50994.53
611.057	50871.6
611.414	50897.36
611.771	50784.82
612.127	50911.37
612.484	50984.14
612.841	51132.61
613.198	50990.92
613.554	50990.02
613.911	51133.74
614.267	51187.07
614.624	51117.92
614.98	51201.99
615.337	51434.07
615.693	51288.54
616.05	51246.28
616.406	51522.88
616.762	51296.22
617.118	51331.25
617.475	51336.22
617.831	51452.83
618.187	51451.25
618.543	51535.99
618.899	51521.3
619.255	51540.96
619.611	51498.48
619.967	51686.95
620.323	51701.41
620.678	51488.76
621.034	51405.82
621.39	51519.72
621.746	51537.57
622.101	51860.95
622.457	51490.34
622.812	51643.56
623.168	51611.69
623.523	51635.65
623.879	51693.73
624.234	51406.95
624.589	51564.46
624.945	51683.33
625.3	51734.4
625.655	51714.29
626.01	51716.1
626.365	51682.43
626.72	51621.64
627.075	51688.53
627.43	51597.46
627.785	51480.17
628.14	51578.02
628.495	51619.83
628.85	51539.15
629.205	51452.83
629.559	51651.24
629.914	51430.68
630.269	51457.8
630.623	51312.49
630.978	51358.59
631.332	51314.75
631.687	51418.93
632.041	51394.98
632.396	51335.99
632.75	51239.05
633.104	51375.77
633.459	51207.18
633.813	51217.58
634.167	51186.17
634.521	51209.22
634.875	51238.6
635.229	51114.31
635.583	51030.69
635.937	51025.04
636.291	50981.2
636.645	50911.15
636.999	50830.02
637.352	50879.96
637.706	50727.42
638.06	50784.37
638.413	50707.76
638.767	50535.56
639.121	50748.44
639.474	50471.38
639.828	50422.57
640.181	50469.35
640.534	50531.72
640.888	50458.73
641.241	50232.07
641.594	50339.86
641.947	50414.44
642.301	50129.7
642.654	50204.73
643.007	50292.63
643.36	50140.77
643.713	50101.23
644.066	50060.1
644.419	49857.62
644.771	49568.36
645.124	49338.99
645.477	49161.14
645.83	48935.38
646.182	48895.16
646.535	48737.65
646.888	48826.68
647.24	48713.46
647.593	48772.67
647.945	48711.88
648.298	48597.08
648.65	48452.23
649.002	48334.72
649.355	48466.47
649.707	48532.23
650.059	48564.54
650.411	48991.88
650.763	48941.48
651.115	49280.91
651.467	49191.19
651.819	49165.2
652.171	48967.7
652.523	48945.78
652.875	49013.8
653.227	48876.62
653.578	49106.9
653.93	48950.29
654.282	48833.69
654.633	48707.82
654.985	48722.05
655.337	48796.4
655.688	48665.1
656.039	48900.8
656.391	48568.38
656.742	48628.27
657.094	48706.23
657.445	48761.37
657.796	48649.96
658.147	48498.1
658.498	48537.42
658.849	48488.84
659.2	48479.35
659.551	48376.3
659.902	48547.59
660.253	48474.38
660.604	48448.16
660.955	48188.51
661.306	48235.06
661.656	48290.65
662.007	48223.53
662.358	48211.33
662.708	48238.9
663.059	48133.37
663.409	47923.2
663.76	48333.59
664.11	48066.93
664.461	48263.08
664.811	48164.55
665.161	48129.98
665.511	47965.01
665.862	48005.91
666.212	48148.73
666.562	47996.87
666.912	47917.78
667.262	47980.6
667.612	47936.99
667.962	48068.96
668.312	47988.96
668.662	48143.76
669.011	47944.9
669.361	47797.56
669.711	47892.47
670.06	47754.17
670.41	47676.88
670.76	47606.38
671.109	47819.25
671.459	47748.74
671.808	47642.31
672.157	47585.36
672.507	47366.61
672.856	47549.88
673.205	47470.33
673.554	47644.57
673.904	47532.25
674.253	47661.97
674.602	47557.34
674.951	46924.59
675.3	46837.13
675.649	47328.42
675.998	47318.47
676.346	47189.21
676.695	47323.44
677.044	46977.69
677.393	47047.07
677.741	47032.15
678.09	46946.73
678.438	46744.25
678.787	46888.88
679.135	46967.97
679.484	46698.38
679.832	46891.82
680.181	46617.93
680.529	46684.37
680.877	46565.95
681.225	46515.1
681.573	46758.26
681.922	46367.31
682.27	46171.16
682.618	46218.84
682.966	46231.72
683.314	46199.41
683.661	45983.82
684.009	45795.12
684.357	45761.23
684.705	45722.81
685.053	45896.14
685.4	45820.66
685.748	45506.09
686.095	45526.2
686.443	45379.77
686.79	45222.03
687.138	45452.76
687.485	45393.55
687.832	45155.37
688.18	45122.15
688.527	44954.92
688.874	44898.65
689.221	44772.55
689.568	44893.23
689.915	44685.1
690.262	44624.31
690.609	44539.56
690.956	44430.87
691.303	44527.36
691.65	44172.57
691.997	44328.27
692.344	43972.12
692.69	44119.01
693.037	44080.14
693.383	43688.29
693.73	43816.64
694.077	43533.71
694.423	43592.92
694.769	43471.79
695.116	43229.09
695.462	43318.58
695.808	43118.36
696.155	43131.46
696.501	42921.53
696.847	42749.1
697.193	42530.35
697.539	42663.68
697.885	42265.72
698.231	42212.17
698.577	42233.41
698.923	42184.15
699.269	41907.32
699.614	41816.47
699.96	41693.76
700.306	41559.08
700.651	41546.2
700.997	41433.66
701.342	41370.38
701.688	41263.27
702.033	41103.72
702.379	41072.99
702.724	40930.17
703.069	41082.93
703.415	40654.02
703.76	40593.9
704.105	40642.04
704.45	40476.39
704.795	40350.75
705.14	40134.48
705.485	40247.92
705.83	39994.6
706.175	40040.7
706.52	39940.14
706.865	39587.15
707.209	39711.44
707.554	39407.04
707.899	39475.06
708.243	39300.38
708.588	39174.51
708.932	39176.31
709.277	39087.05
709.621	39010.22
709.966	38755.31
710.31	38875.08
710.654	38637.35
710.998	38687.97
711.342	38508.08
711.687	38544.47
712.031	38337.69
712.375	38254.53
712.719	38334.98
713.063	38273.29
713.407	38396.45
713.75	38127.75
714.094	38000.53
714.438	37940.64
714.782	37921.21
715.125	37784.71
715.469	37852.73
715.812	37544.27
716.156	37402.35
716.499	37488.9
716.843	37505.62
717.186	37187.67
717.53	37382.46
717.873	37254.78
718.216	37280.09
718.559	37073.09
718.902	36807.34
719.246	36894.34
719.589	36778.41
719.932	36637.85
720.275	36677.85
720.617	36626.78
720.96	36609.83
721.303	36625.42
721.646	36538.19
721.989	36139.11
722.331	36497.29
722.674	36389.5
723.016	36273.34
723.359	36206.22
723.701	36054.36
724.044	35928.26
724.386	35754.94
724.729	35897.53
725.071	35784.31
725.413	35780.02
725.755	35669.51
726.097	35612.11
726.439	35382.74
726.782	35433.14
727.124	35553.13
727.465	35430.65
727.807	35133.71
728.149	35105.46
728.491	35153.6
728.833	35207.83
729.175	35051
729.516	35035.41
729.858	34916.09
730.199	34947.05
730.541	35062.75
730.882	34863.43
731.224	34850.55
731.565	34641.74
731.906	34644
732.248	34759.93
732.589	34580.73
732.93	34479.94
733.271	34395.88
733.612	34387.06
733.953	34484.69
734.294	34179.61
734.635	34091.7
734.976	34240.17
735.317	33985.49
735.658	33964.25
735.999	33854.19
736.339	33752.95
736.68	33960.63
737.021	33792.05
737.361	33557.93
737.702	33726.29
738.042	33664.6
738.383	33500.98
738.723	33575.56
739.063	33438.61
739.404	33598.16
739.744	33521.77
740.084	33288.79
740.424	33286.53
740.764	33279.07
741.104	33369.46
741.444	33236.58
741.784	32980.32
742.124	33082.92
742.464	33006.31
742.804	32845.18
743.143	32923.6
743.483	32882.02
743.823	32728.57
744.162	32647.45
744.502	32765.18
744.841	32592.08
745.181	32579.43
745.52	32557.51
745.86	32600.44
746.199	32530.61
746.538	32356.38
746.877	32463.95
747.216	32477.51
747.556	32240.45
747.895	32136.5
748.234	32062.6
748.573	31985.54
748.911	31934.47
749.25	31897.18
749.589	31740.8
749.928	31774.48
750.267	31640.47
750.605	31661.03
750.944	31725.89
751.283	31359.8
751.621	31536.97
751.96	31266.01
752.298	31284.77
752.636	31316.18
