Data from aluminium_surface_pro_back_FLMS001491_00018.txt Node
Date: Wed Feb 08 15:33:42 GMT 2017
User: dcchb
Spectrometer: FLMS00149
Trigger mode: 0
Integration Time (sec): 2.000000E-2
Scans to average: 10
Electric dark correction enabled: true
Nonlinearity correction enabled: false
Boxcar width: 0
XAxis mode: Wavelengths
Number of Pixels in Spectrum: 2048
>>>>>Begin Spectral Data<<<<<
341.393	-18.09
341.776	-18.09
342.16	-18.09
342.543	-51.09
342.927	-81.82
343.31	-80.69
343.693	-64.65
344.077	-56.06
344.46	-60.13
344.843	-59.45
345.226	-28.49
345.61	-35.95
345.993	-28.26
346.376	-20.8
346.759	22.13
347.142	26.43
347.525	36.82
347.908	49.93
348.291	88.8
348.674	95.35
349.057	115.01
349.44	138.06
349.823	152.98
350.206	172.86
350.588	221.22
350.971	221.22
351.354	248.57
351.737	257.15
352.119	268.68
352.502	268.68
352.884	293.76
353.267	303.25
353.65	311.16
354.032	301.45
354.414	332.86
354.797	323.82
355.179	360.2
355.562	353.65
355.944	332.63
356.326	356.13
356.709	346.42
357.091	354.33
357.473	378.96
357.855	355.91
358.238	373.76
358.62	370.82
359.002	378.51
359.384	381.22
359.766	367.43
360.148	370.6
360.53	375.8
360.912	378.28
361.294	360.43
361.676	355.68
362.057	365.4
362.439	365.4
362.821	360.2
363.203	355.46
363.584	376.7
363.966	377.15
364.348	375.57
364.729	356.81
365.111	345.06
365.493	385.74
365.874	368.79
366.256	360.43
366.637	365.4
367.019	375.34
367.4	362.69
367.781	370.15
368.163	373.31
368.544	348.45
368.925	379.86
369.306	374.89
369.688	357.94
370.069	369.24
370.45	374.67
370.831	361.33
371.212	387.55
371.593	369.02
371.974	388.45
372.355	366.98
372.736	391.39
373.117	375.34
373.498	379.41
373.879	395.46
374.26	393.2
374.641	383.48
375.021	378.06
375.402	402.24
375.783	401.11
376.163	400.43
376.544	434.32
376.925	400.43
377.305	409.92
377.686	406.3
378.066	396.13
378.447	420.77
378.827	427.09
379.208	402.69
379.588	426.64
379.968	435.68
380.349	426.42
380.729	423.93
381.109	446.98
381.489	446.3
381.87	456.47
382.25	450.37
382.63	430.26
383.01	460.31
383.39	466.41
383.77	457.15
384.15	455.79
384.53	478.17
384.91	486.98
385.29	484.04
385.67	477.49
386.049	510.48
386.429	498.05
386.809	491.05
387.189	510.03
387.568	508
387.948	527.2
388.328	519.07
388.707	542.34
389.087	537.6
389.466	553.87
389.846	543.47
390.225	537.6
390.605	550.03
390.984	582.57
391.363	564.04
391.743	567.65
392.122	569.91
392.501	586.86
392.881	591.83
393.26	592.74
393.639	594.77
394.018	598.39
394.397	604.94
394.776	616.24
395.155	620.31
395.534	632.51
395.913	624.83
396.292	645.17
396.671	665.05
397.05	659.63
397.429	674.09
397.808	690.82
398.186	655.34
398.565	711.15
398.944	691.95
399.323	703.7
399.701	721.32
400.08	708.44
400.458	718.39
400.837	738.5
401.215	744.83
401.594	738.05
401.972	766.52
402.351	781.43
402.729	769.01
403.107	774.2
403.486	786.86
403.864	803.35
404.242	791.6
404.62	830.02
404.999	804.71
405.377	807.87
405.755	835.9
406.133	855.78
406.511	852.84
406.889	864.37
407.267	879.51
407.645	912.73
408.023	896.69
408.401	932.39
408.779	889
409.156	960.19
409.534	950.92
409.912	961.77
410.29	996.8
410.667	1009.45
411.045	1006.97
411.422	1028.43
411.8	1047.42
412.178	1051.94
412.555	1083.8
412.933	1062.1
413.31	1084.48
413.687	1126.51
414.065	1130.13
414.442	1153.18
414.819	1129
415.197	1130.58
415.574	1147.98
415.951	1192.27
416.328	1210.35
416.705	1179.84
417.082	1230.24
417.46	1212.61
417.837	1245.83
418.214	1268.88
418.591	1258.94
418.967	1282.66
419.344	1302.32
419.721	1308.65
420.098	1306.39
420.475	1318.82
420.852	1361.31
421.228	1358.59
421.605	1406.73
421.982	1414.64
422.358	1414.19
422.735	1422.1
423.111	1451.7
423.488	1427.07
423.864	1431.81
424.241	1466.39
424.617	1496.44
424.994	1500.06
425.37	1516.1
425.746	1533.28
426.123	1555.43
426.499	1577.35
426.875	1619.83
427.251	1603.11
427.627	1617.34
428.003	1667.96
428.379	1707.96
428.756	1674.52
429.132	1706.61
429.507	1751.8
429.883	1758.13
430.259	1810.79
430.635	1797.68
431.011	1822.54
431.387	1865.93
431.763	1872.48
432.138	1931.69
432.514	1933.04
432.89	1964.68
433.265	1989.31
433.641	2024.11
434.016	2064.56
434.392	2073.15
434.767	2075.86
435.143	2121.96
435.518	2140.49
435.894	2138.23
436.269	2201.96
436.644	2193.15
437.02	2255.29
437.395	2267.95
437.77	2281.73
438.145	2328.74
438.52	2351.11
438.895	2364.22
439.271	2381.84
439.646	2432.69
440.021	2461.84
440.395	2457.77
440.77	2443.76
441.145	2465.68
441.52	2533.25
441.895	2476.3
442.27	2516.76
442.645	2533.25
443.019	2591.1
443.394	2613.93
443.769	2638.33
444.143	2629.75
444.518	2664.55
444.892	2641.27
445.267	2689.86
445.641	2717.88
446.016	2715.17
446.39	2738.44
446.764	2775.73
447.139	2760.59
447.513	2818.44
447.887	2863.19
448.262	2827.26
448.636	2893.24
449.01	2915.62
449.384	2950.87
449.758	2942.96
450.132	2961.49
450.506	3023.41
450.88	3065.89
451.254	3029.74
451.628	3102.96
452.002	3119.45
452.376	3190.41
452.75	3164.87
453.123	3203.07
453.497	3301.37
453.871	3298.66
454.244	3364.42
454.618	3371.65
454.992	3389.05
455.365	3444.87
455.739	3508.37
456.112	3558.76
456.486	3604.86
456.859	3610.29
457.232	3691.41
457.606	3643.73
457.979	3751.07
458.352	3850.28
458.725	3852.54
459.099	3909.71
459.472	3941.8
459.845	4075.13
460.218	4098.86
460.591	4116.49
460.964	4098.18
461.337	4245.98
461.71	4254.79
462.083	4362.58
462.456	4335.47
462.829	4314.9
463.201	4450.72
463.574	4468.34
463.947	4512.86
464.32	4650.71
464.692	4656.36
465.065	4711.27
465.438	4786.3
465.81	4845.73
466.183	4896.58
466.555	4978.39
466.928	5003.02
467.3	5017.03
467.672	5121.66
468.045	5263.58
468.417	5282.11
468.789	5344.48
469.161	5383.12
469.534	5466.96
469.906	5631.7
470.278	5679.61
470.65	5709.44
471.022	5823.79
471.394	5985.14
471.766	5986.04
472.138	6057.45
472.51	6184.68
472.882	6287.96
473.253	6319.59
473.625	6449.31
473.997	6583.54
474.369	6603.88
474.74	6743.09
475.112	6836.19
475.484	6936.3
475.855	7067.6
476.227	7131.1
476.598	7324.54
476.97	7356.85
477.341	7589.39
477.713	7686.34
478.084	7731.31
478.455	8030.74
478.827	8040.45
479.198	8294.23
479.569	8299.65
479.94	8517.5
480.311	8612.87
480.682	8827.32
481.053	9007.88
481.424	9078.39
481.795	9232.29
482.166	9357.25
482.537	9456.23
482.908	9637.02
483.279	9776.68
483.65	9991.59
484.021	10215.54
484.391	10282.2
484.762	10366.94
485.133	10536.88
485.503	10588.86
485.874	10872.02
486.244	10969.19
486.615	11198.34
486.985	11312.68
487.356	11529.63
487.726	11663.18
488.097	11893.01
488.467	11961.48
488.837	12214.35
489.207	12330.74
489.578	12604.17
489.948	12619.09
490.318	12828.35
490.688	12925.07
491.058	13069.92
491.428	13306.08
491.798	13416.58
492.168	13667.2
492.538	13780.87
492.908	13895.21
493.278	14150.35
493.648	14107.64
494.017	14396.44
494.387	14455.65
494.757	14600.73
495.126	14705.81
495.496	14900.16
495.866	14923.89
496.235	15206.14
496.605	15188.74
496.974	15306.7
497.344	15489.3
497.713	15692.91
498.082	15755.96
498.452	15944.2
498.821	16065.33
499.19	16109.39
499.559	16302.16
499.928	16410.4
500.298	16527.46
500.667	16661.69
501.036	16667.34
501.405	16879.32
501.774	16894.68
502.143	17210.61
502.512	17151.63
502.88	17376.48
503.249	17416.93
503.618	17492.41
503.987	17589.35
504.356	17710.48
504.724	17861.21
505.093	17879.97
505.462	18073.18
505.83	18215.1
506.199	18458.94
506.567	18640.4
506.936	18679.04
507.304	18824.12
507.672	18884.24
508.041	18968.53
508.409	19127.39
508.777	19364
509.145	19500.49
509.514	19505.46
509.882	19637.44
510.25	19785
510.618	19947.48
510.986	19923.76
511.354	20242.17
511.722	20500.46
512.09	20577.3
512.458	20635.38
512.826	20775.71
513.193	20883.73
513.561	21014.12
513.929	21182.93
514.297	21407.11
514.664	21555.35
515.032	21680.32
515.4	21888
515.767	22048.67
516.135	22185.17
516.502	22101.33
516.869	22570.24
517.237	22704.25
517.604	22639.84
517.972	22909.89
518.339	23133.39
518.706	23209.09
519.073	23270.33
519.44	23434.85
519.808	23711.9
520.175	23756.88
520.542	24115.28
520.909	24327.26
521.276	24328.61
521.643	24694.7
522.009	24775.15
522.376	25020.57
522.743	25282.03
523.11	25324.52
523.477	25642.93
523.843	25783.26
524.21	26072.75
524.577	26358.39
524.943	26472.74
525.31	26607.2
525.676	26943.01
526.043	27133.28
526.409	27207.86
526.776	27516.1
527.142	27684.68
527.508	27919.48
527.874	28099.59
528.241	28233.37
528.607	28392.01
528.973	28660.48
529.339	28643.53
529.705	29104.98
530.071	29231.99
530.437	29370.29
530.803	29654.8
531.169	29746.55
531.535	29657.29
531.901	29911.74
532.267	30048.91
532.632	30271.05
532.998	30354.44
533.364	30642.8
533.73	30587.66
534.095	30800.53
534.461	31075.55
534.826	31185.83
535.192	31346.73
535.557	31607.74
535.923	31577.23
536.288	31753.05
536.653	31852.26
537.019	31832.6
537.384	32151
537.749	32144.23
538.114	32316.88
538.479	32318.01
538.845	32462.41
539.21	32491.79
539.575	32707.6
539.94	32753.93
540.305	32965.67
540.67	32954.83
541.034	33158.44
541.399	33155.05
541.764	33349.62
542.129	33503.06
542.494	33612.21
542.858	33753.22
543.223	33680.46
543.587	34136.04
543.952	34082.03
544.316	34036.38
544.681	34095.59
545.045	34375.81
545.41	34565.4
545.774	34589.58
546.138	34687.89
546.503	34718.17
546.867	34792.52
547.231	35140.53
547.595	35211.04
547.959	35315.44
548.324	35351.37
548.688	35451.94
549.052	35579.39
549.416	35711.82
549.779	35670.46
550.143	35958.81
550.507	36205.59
550.871	36343.66
551.235	36364.23
551.599	36576.88
551.962	36697.33
552.326	36912.46
552.689	37023.19
553.053	36871.56
553.417	36964.44
553.78	37461.37
554.143	37410.08
554.507	37705.89
554.87	37670.18
555.234	38064.97
555.597	37992.66
555.96	38180.45
556.323	38351.97
556.686	38356.27
557.05	38651.4
557.413	38706.31
557.776	38872.18
558.139	39143.36
558.502	39121.67
558.865	39330.93
559.228	39640.75
559.59	39637.36
559.953	39789.22
560.316	40265.37
560.679	40290.45
561.041	40485.7
561.404	40878.23
561.767	41063.31
562.129	40969.76
562.492	41360.25
562.854	41316.64
563.217	41402.51
563.579	41538.33
563.941	41824.2
564.304	42049.73
564.666	42224.86
565.028	42267.58
565.39	42558.19
565.753	42669.15
566.115	42763.16
566.477	42906.2
566.839	43117.27
567.201	43297.83
567.563	43392.07
567.925	43874.31
568.287	43830.47
568.648	43881.54
569.01	44321.31
569.372	44488.99
569.734	44327.63
570.095	44798.58
570.457	44980.95
570.819	45101.62
571.18	45200.61
571.542	45417.77
571.903	45468.85
572.265	45599.01
572.626	45693.93
572.987	46011.21
573.349	45902.28
573.71	46117.42
574.071	46293.01
574.432	46479.89
574.794	46759.89
575.155	46621.81
575.516	46642.15
575.877	46827
576.238	46931.18
576.599	47076.04
576.96	47203.94
577.32	47175.47
577.681	47442.13
578.042	47557.83
578.403	47579.75
578.763	47613.2
579.124	47724.83
579.485	47938.61
579.845	47887.54
580.206	47942.23
580.566	48030.14
580.927	48054.99
581.287	48268.77
581.648	48145.84
582.008	48358.49
582.368	48286.4
582.728	48280.75
583.089	48340.86
583.449	48398.04
583.809	48416.34
584.169	48405.49
584.529	48390.35
584.889	48741.53
585.249	48433.06
585.609	48430.58
585.969	48745.14
586.329	48634.64
586.688	48600.29
587.048	48542.44
587.408	48439.62
587.768	48517.81
588.127	48489.78
588.487	48418.6
588.846	48804.13
589.206	48480.52
589.565	48493.4
589.925	48614.3
590.284	48552.61
590.643	48738.14
591.003	48740.17
591.362	48826.5
591.721	48766.39
592.08	48702.21
592.44	48849.55
592.799	48732.26
593.158	48660.18
593.517	48804.35
593.876	48790.79
594.235	48704.02
594.593	48720.51
594.952	48936.1
595.311	48721.87
595.67	48975.42
596.029	49139.48
596.387	49132.25
596.746	49169.31
597.104	48971.35
597.463	49011.13
597.822	49142.87
598.18	48995.31
598.538	48954.63
598.897	49207.28
599.255	48986.49
599.613	49385.35
599.972	49198.47
600.33	49301.97
600.688	49258.35
601.046	49381.96
601.404	49552.81
601.762	49496.54
602.12	49591.68
602.478	49613.14
602.836	49548.06
603.194	49420.16
603.552	49626.48
603.91	49470.55
604.268	49769.75
604.625	49689.75
604.983	49816.76
605.341	49686.14
605.698	49815.17
606.056	49980.37
606.413	49913.93
606.771	50021.72
607.128	49987.82
607.485	49845.68
607.843	49934.49
608.2	50206.8
608.557	50285.44
608.914	50331.54
609.272	50326.57
609.629	50438.66
609.986	50416.97
610.343	50243.64
610.7	50638.88
611.057	50501.26
611.414	50414.93
611.771	50350.3
612.127	50560.92
612.484	50622.16
612.841	50571.09
613.198	50559.79
613.554	50606.11
613.911	50771.76
614.267	50706.68
614.624	50720.23
614.98	50785.09
615.337	50972.43
615.693	50829.61
616.05	50925.2
616.406	51070.51
616.762	50917.97
617.118	50933.11
617.475	50844.98
617.831	50941.25
618.187	51016.5
618.543	51008.14
618.899	51227.11
619.255	51186.66
619.611	51252.88
619.967	51242.25
620.323	51415.58
620.678	51259.2
621.034	51192.31
621.39	51288.13
621.746	51196.61
622.101	51565.41
622.457	51214.46
622.812	51288.13
623.168	51462.36
623.523	51331.74
623.879	51468.69
624.234	51191.18
624.589	51410.16
624.945	51383.04
625.3	51402.7
625.655	51383.95
626.01	51401.57
626.365	51521.57
626.72	51415.58
627.075	51377.62
627.43	51418.29
627.785	51285.42
628.14	51308.02
628.495	51442.93
628.85	51310.28
629.205	51150.96
629.559	51324.29
629.914	51207.23
630.269	51362.93
630.623	51136.27
630.978	51054.69
631.332	51260.56
631.687	51220.33
632.041	51138.75
632.396	51251.97
632.75	51040.45
633.104	51217.4
633.459	50968.82
633.813	50886.11
634.167	50915.48
634.521	51049.72
634.875	51005.88
635.229	50890.85
635.583	50642.5
635.937	50757.75
636.291	50760.69
636.645	50717.07
636.999	50664.42
637.352	50727.24
637.706	50581.48
638.06	50648.82
638.413	50419.68
638.767	50473.69
639.121	50481.37
639.474	50288.61
639.828	50214.94
640.181	50260.59
640.534	50310.3
640.888	50194.15
641.241	50017.2
641.594	50003.19
641.947	50218.55
642.301	49989.86
642.654	50099.23
643.007	49977.88
643.36	49987.15
643.713	49982.17
644.066	50005.22
644.419	49800.48
644.771	49520.49
645.124	49125.25
645.477	49186.26
645.83	48840.28
646.182	48753.96
646.535	48619.27
646.888	48712.83
647.24	48411.59
647.593	48767.07
647.945	48535.66
648.298	48348.32
648.65	48355.1
649.002	48228.77
649.355	48400.07
649.707	48182
650.059	48356.23
650.411	48816.78
650.763	48896.78
651.115	49164.57
651.467	49023.1
651.819	49089.32
652.171	48874.86
652.523	48967.29
652.875	48886.16
653.227	48713.96
653.578	48911.47
653.93	48863.79
654.282	48642.32
654.633	48592.38
654.985	48651.81
655.337	48638.03
655.688	48521.42
656.039	48615.88
656.391	48311.48
656.742	48467.64
657.094	48397.81
657.445	48556.68
657.796	48371.82
658.147	48414.76
658.498	48320.52
658.849	48351.26
659.2	48389.22
659.551	48229.9
659.902	48340.18
660.253	48211.6
660.604	48211.6
660.955	48132.28
661.306	48206.18
661.656	48094.54
662.007	48164.14
662.358	47949.23
662.708	48054.99
663.059	48047.99
663.409	47768.45
663.76	48143.8
664.11	48029.91
664.461	48120.08
664.811	48103.58
665.161	47983.81
665.511	47802.34
665.862	47931.83
666.212	48000.53
666.562	47965.73
666.912	47883.02
667.262	47704.95
667.612	47811.61
667.962	47722.35
668.312	47625.85
668.662	47795.11
669.011	47637.38
669.361	47485.97
669.711	47525.06
670.06	47442.35
670.41	47384.05
670.76	47356.71
671.109	47525.74
671.459	47440.09
671.808	47354.45
672.157	47300.21
672.507	47101.35
672.856	47187.67
673.205	47223.38
673.554	47268.12
673.904	47182.7
674.253	47410.72
674.602	47169.59
674.951	46560.8
675.3	46357.86
675.649	47125.98
675.998	47077.84
676.346	47077.62
676.695	47191.29
677.044	46784.74
677.393	46904.97
677.741	46961.01
678.09	46819.55
678.438	46874.23
678.787	46883.27
679.135	46861.35
679.484	46697.29
679.832	46765.54
680.181	46480.12
680.529	46751.52
680.877	46535.03
681.225	46483.06
681.573	46758.76
681.922	46367.13
682.27	46163.07
682.618	46257.98
682.966	46068.83
683.314	46150.18
683.661	46052.79
684.009	45775.96
684.357	45683.3
684.705	45758.33
685.053	45635.17
685.4	45629.52
685.748	45477.43
686.095	45472.46
686.443	45378
686.79	45319.47
687.138	45413.03
687.485	45338.91
687.832	45133.26
688.18	45178.68
688.527	44951.8
688.874	44786.15
689.221	44825.7
689.568	44641.52
689.915	44522.43
690.262	44550.9
690.609	44336.67
690.956	44272.72
691.303	44079.05
691.65	44079.05
691.997	44027.53
692.344	43793.18
692.69	43722.68
693.037	43842.22
693.383	43353.42
693.73	43466.64
694.077	43224.16
694.423	43218.74
694.769	43159.53
695.116	42950.72
695.462	42896.26
695.808	42738.3
696.155	42886.99
696.501	42609.26
696.847	42545.99
697.193	42279.1
697.539	42403.84
697.885	42070.07
698.231	42105.09
698.577	41937.87
698.923	41946.23
699.269	41649.29
699.614	41633.24
699.96	41482.74
700.306	41433.92
700.651	41285.45
700.997	41125.91
701.342	41135.63
701.688	41148.28
702.033	40885.01
702.379	40872.58
702.724	40692.93
703.069	40861.28
703.415	40447.51
703.76	40450.22
704.105	40548.75
704.45	40222.21
704.795	40068.76
705.14	40094.75
705.485	40120.74
705.83	39866.73
706.175	39875.32
706.52	39737.47
706.865	39599.85
707.209	39642.11
707.554	39401.44
707.899	39415.9
708.243	39343.58
708.588	39243.25
708.932	38948.79
709.277	38919.19
709.621	38913.09
709.966	38700.21
710.31	38798.51
710.654	38360.11
710.998	38499.76
711.342	38480.56
711.687	38396.26
712.031	38087.12
712.375	38121.24
712.719	38325.31
713.063	38157.17
713.407	38198.08
713.75	37979.55
714.094	37901.14
714.438	37778.43
714.782	37813.91
715.125	37562.39
715.469	37657.07
715.812	37479.68
716.156	37378.66
716.499	37234.71
716.843	37361.04
717.186	37196.75
717.53	37306.8
717.873	37111.55
718.216	37039.01
718.559	36926.47
718.902	36576.2
719.246	36689.42
719.589	36669.98
719.932	36509.08
720.275	36572.81
720.617	36341.86
720.96	36341.86
721.303	36265.92
721.646	36229.54
721.989	36090.34
722.331	36131.92
722.674	36022.09
723.016	36061.86
723.359	35884.24
723.701	35835.88
724.044	35676.79
724.386	35446.29
724.729	35661.42
725.071	35436.34
725.413	35414.87
725.755	35411.26
726.097	35267.31
726.439	35102.79
726.782	35216.24
727.124	35192.28
727.465	34953.19
727.807	35000.42
728.149	34893.31
728.491	34658.28
728.833	34873.87
729.175	34623.71
729.516	34529.25
729.858	34551.85
730.199	34609.02
730.541	34413.32
730.882	34366.31
731.224	34453.09
731.565	34257.39
731.906	34082.48
732.248	34261.01
732.589	33936.04
732.93	34000.45
733.271	33966.1
733.612	33885.87
733.953	33878.42
734.294	33832.77
734.635	33852.43
734.976	33649.95
735.317	33550.29
735.658	33440.01
735.999	33494.25
736.339	33527.01
736.68	33713.45
737.021	33461.7
737.361	33426.9
737.702	33458.99
738.042	33369.5
738.383	33205.89
738.723	33258.55
739.063	33113.47
739.404	33103.97
739.744	33210.64
740.084	33064.65
740.424	33009.29
740.764	32710.54
741.104	32809.29
741.444	32613.14
741.784	32578.34
742.124	32673.25
742.464	32515.29
742.804	32383.54
743.143	32474.61
743.483	32432.13
743.823	32335.41
744.162	32225.81
744.502	32325.69
744.841	32066.04
745.181	32236.2
745.52	32050.44
745.86	32049.54
746.199	31958.02
746.538	31904.68
746.877	31859.04
747.216	31875.08
747.556	31731.81
747.895	31761.86
748.234	31617.69
748.573	31481.87
748.911	31595.54
749.25	31518.71
749.589	31521.64
749.928	31443.68
750.267	31443.9
750.605	31294.08
750.944	31290.69
751.283	31094.76
751.621	31195.1
751.96	31029.23
752.298	30980.64
752.636	31115.33
752.975	30770.48
