Data from aluminium_surface_pro_back_FLMS001491_00058.txt Node
Date: Wed Feb 08 15:34:16 GMT 2017
User: dcchb
Spectrometer: FLMS00149
Trigger mode: 0
Integration Time (sec): 2.000000E-2
Scans to average: 10
Electric dark correction enabled: true
Nonlinearity correction enabled: false
Boxcar width: 0
XAxis mode: Wavelengths
Number of Pixels in Spectrum: 2048
>>>>>Begin Spectral Data<<<<<
341.393	0.23
341.776	0.23
342.16	0.23
342.543	-35.25
342.927	-38.19
343.31	-64.18
343.693	-62.82
344.077	-76.83
344.46	-89.04
344.843	-42.94
345.226	-32.54
345.61	-20.34
345.993	-24.86
346.376	-2.94
346.759	5.42
347.142	28.25
347.525	36.38
347.908	39.77
348.291	81.81
348.674	97.62
349.057	127.23
349.44	130.84
349.823	136.04
350.206	171.29
350.588	221.24
350.971	252.42
351.354	255.13
351.737	271.18
352.119	272.54
352.502	292.2
352.884	331.29
353.267	316.83
353.65	327.68
354.032	331.74
354.414	340.78
354.797	344.17
355.179	363.83
355.562	342.36
355.944	348.01
356.326	363.83
356.709	360.44
357.091	397.05
357.473	361.8
357.855	394.34
358.238	376.49
358.62	373.1
359.002	371.06
359.384	406.54
359.766	385.3
360.148	383.94
360.53	370.84
360.912	390.95
361.294	370.61
361.676	371.52
362.057	352.31
362.439	368.35
362.821	377.39
363.203	355.02
363.584	372.42
363.966	359.99
364.348	366.32
364.729	365.19
365.111	357.96
365.493	379.88
365.874	355.92
366.256	381.46
366.637	376.26
367.019	392.76
367.4	375.81
367.781	385.3
368.163	357.5
368.544	374.45
368.925	383.27
369.306	375.36
369.688	352.76
370.069	385.75
370.45	371.29
370.831	404.06
371.212	397.73
371.593	371.52
371.974	399.54
372.355	401.57
372.736	390.5
373.117	380.1
373.498	372.19
373.879	383.27
374.26	391.63
374.641	381.01
375.021	404.06
375.402	388.46
375.783	422.81
376.163	397.73
376.544	417.16
376.925	426.2
377.305	421.46
377.686	395.24
378.066	401.8
378.447	442.25
378.827	413.1
379.208	406.54
379.588	435.02
379.968	429.59
380.349	442.93
380.729	443.6
381.109	442.93
381.489	442.47
381.87	468.69
382.25	437.05
382.63	448.12
383.01	435.92
383.39	469.14
383.77	455.13
384.15	461.23
384.53	474.56
384.91	495.13
385.29	480.21
385.67	507.78
386.049	510.04
386.429	504.85
386.809	487.22
387.189	507.33
387.568	538.52
387.948	506.2
388.328	523.6
388.707	519.99
389.087	507.11
389.466	539.42
389.846	552.75
390.225	562.92
390.605	558.63
390.984	565.63
391.363	572.41
391.743	561.79
392.122	601.34
392.501	568.12
392.881	610.15
393.26	615.8
393.639	594.33
394.018	611.74
394.397	605.63
394.776	629.36
395.155	636.14
395.534	654.9
395.913	656.93
396.292	660.77
396.671	654.45
397.05	664.39
397.429	661.23
397.808	691.06
398.186	687.21
398.565	669.13
398.944	686.76
399.323	718.4
399.701	702.35
400.08	710.94
400.458	724.5
400.837	763.14
401.215	750.71
401.594	735.35
401.972	768.34
402.351	783.93
402.729	780.32
403.107	782.58
403.486	795.46
403.864	813.99
404.242	822.13
404.62	826.42
404.999	844.27
405.377	833.2
405.755	845.18
406.133	863.71
406.511	874.78
406.889	899.19
407.267	900.99
407.645	878.17
408.023	909.58
408.401	916.81
408.779	946.19
409.156	973.31
409.534	964.95
409.912	986.19
410.29	998.17
410.667	1014.89
411.045	1032.52
411.422	1037.03
411.8	1029.8
412.178	1071.38
412.555	1096.69
412.933	1108.45
413.31	1120.87
413.687	1136.92
414.065	1130.14
414.442	1124.94
414.819	1166.97
415.197	1129.69
415.574	1188.44
415.951	1204.71
416.328	1199.06
416.705	1234.77
417.082	1242.23
417.46	1223.47
417.837	1284.26
418.214	1251.27
418.591	1289.91
418.967	1296.46
419.344	1310.93
419.721	1318.84
420.098	1345.95
420.475	1350.02
420.852	1382.56
421.228	1390.25
421.605	1404.03
421.982	1416.91
422.358	1429.57
422.735	1449.45
423.111	1443.35
423.488	1497.81
423.864	1493.97
424.241	1517.93
424.617	1524.71
424.994	1513.41
425.37	1563.35
425.746	1567.42
426.123	1581.2
426.499	1585.04
426.875	1594.99
427.251	1613.97
427.627	1679.05
428.003	1688.54
428.379	1668.43
428.756	1727.64
429.132	1703.91
429.507	1783.91
429.883	1760.63
430.259	1823.23
430.635	1824.13
431.011	1887.18
431.387	1898.93
431.763	1959.27
432.138	1936.9
432.514	1962.89
432.89	2003.79
433.265	2017.57
433.641	2076.1
434.016	2056.22
434.392	2118.81
434.767	2145.03
435.143	2136.44
435.518	2178.25
435.894	2201.07
436.269	2215.99
436.644	2267.29
437.02	2250.56
437.395	2270.22
437.77	2307.96
438.145	2338.92
438.52	2344.8
438.895	2372.82
439.271	2427.05
439.646	2441.74
440.021	2478.13
440.395	2492.14
440.77	2453.49
441.145	2505.92
441.52	2554.74
441.895	2538.92
442.27	2592.47
442.645	2591.57
443.019	2657.78
443.394	2628.86
443.769	2660.95
444.143	2674.28
444.518	2702.3
444.892	2699.14
445.267	2741.4
445.641	2785.46
446.016	2773.26
446.39	2765.35
446.764	2846.03
447.139	2820.04
447.513	2850.55
447.887	2851.22
448.262	2906.59
448.636	2913.82
449.01	2918.79
449.384	2991.79
449.758	3008.06
450.132	3031.78
450.506	3058.22
450.88	3115.62
451.254	3103.2
451.628	3135.06
452.002	3169.86
452.376	3214.15
452.75	3216.41
453.123	3235.4
453.497	3333.02
453.871	3341.38
454.244	3394.71
454.618	3424.54
454.992	3501.83
455.365	3480.81
455.739	3538.66
456.112	3612.79
456.486	3658.43
456.859	3688.49
457.232	3720.81
457.606	3727.13
457.979	3827.47
458.352	3900.46
458.725	3918.09
459.099	3953.34
459.472	4039.22
459.845	4054.13
460.218	4084.86
460.591	4157.4
460.964	4196.5
461.337	4263.39
461.71	4339.77
462.083	4395.14
462.456	4387.91
462.829	4427.68
463.201	4548.13
463.574	4536.6
463.947	4617.96
464.32	4733.66
464.692	4743.38
465.065	4774.34
465.438	4834.68
465.81	4972.52
466.183	4927.55
466.555	5078.51
466.928	5150.83
467.3	5139.07
467.672	5175.01
468.045	5336.36
468.417	5377.03
468.789	5400.31
469.161	5456.58
469.534	5562.79
469.906	5688.66
470.278	5718.49
470.65	5793.52
471.022	5902.9
471.394	5964.36
471.766	6040.07
472.138	6133.17
472.51	6277.58
472.882	6361.19
473.253	6463.56
473.625	6560.96
473.997	6663.78
474.369	6678.24
474.74	6734.51
475.112	6929.31
475.484	7084.56
475.855	7203.65
476.227	7192.81
476.598	7447.71
476.97	7517.77
477.341	7601.61
477.713	7821.26
478.084	7834.82
478.455	8042.05
478.827	8125.66
479.198	8423.73
479.569	8411.08
479.94	8677.51
480.311	8732.65
480.682	8867.11
481.053	9152.98
481.424	9261.68
481.795	9356.14
482.166	9524.04
482.537	9649.01
482.908	9818.05
483.279	9907.31
483.65	10152.5
484.021	10312.95
484.391	10424.13
484.762	10496.67
485.133	10627.97
485.503	10718.14
485.874	11004.23
486.244	11094.62
486.615	11361.74
486.985	11476.53
487.356	11665.23
487.726	11686.25
488.097	12041.27
488.467	12052.79
488.837	12326.91
489.207	12406.45
489.578	12688.25
489.948	12741.36
490.318	13008.02
490.688	13060
491.058	13290.5
491.428	13355.58
491.798	13645.74
492.168	13823.37
492.538	13895.91
492.908	14078.05
493.278	14316.46
493.648	14357.36
494.017	14546.96
494.387	14639.39
494.757	14810.91
495.126	15007.06
495.496	15003.22
495.866	15200.96
496.235	15397.34
496.605	15524.79
496.974	15602.53
497.344	15785.8
497.713	15885.68
498.082	15959.35
498.452	16152.34
498.821	16256.07
499.19	16350.76
499.559	16483.18
499.928	16607.47
500.298	16682.95
500.667	16919.1
501.036	16935.37
501.405	17205.42
501.774	17149.83
502.143	17320.45
502.512	17486.32
502.88	17612.87
503.249	17623.04
503.618	17819.64
503.987	17889.25
504.356	17908.91
504.724	18062.35
505.093	18077.49
505.462	18319.29
505.83	18466.63
506.199	18607.19
506.567	18848.32
506.936	18740.07
507.304	19058.03
507.672	19154.3
508.041	19279.27
508.409	19316.55
508.777	19593.84
509.145	19766.03
509.514	19698.92
509.882	19932.36
510.25	20017.55
510.618	20231.56
510.986	20321.05
511.354	20548.84
511.722	20720.13
512.09	20955.61
512.458	20923.97
512.826	21203.96
513.193	21326.67
513.561	21361.7
513.929	21589.26
514.297	21814.12
514.664	21959.87
515.032	22144.05
515.4	22128.46
515.767	22391.73
516.135	22438.73
516.502	22414.78
516.869	22880.08
517.237	22919.62
517.604	22982.45
517.972	23283
518.339	23423.79
518.706	23598.7
519.073	23616.1
519.44	23869.43
519.808	24050.89
520.175	24125.47
520.542	24407.95
520.909	24656.3
521.276	24769.07
521.643	24920.25
522.009	25001.15
522.376	25258.32
522.743	25468.03
523.11	25713.9
523.477	26021.24
523.843	26123.38
524.21	26472.07
524.577	26594.33
524.943	26817.6
525.31	27025.28
525.676	27254.88
526.043	27429.56
526.409	27611.25
526.776	27826.84
527.142	27969.89
527.508	28222.53
527.874	28414.39
528.241	28538.46
528.607	28657.55
528.973	29017.77
529.339	28984.1
529.705	29200.36
530.071	29494.82
530.437	29636.96
530.803	29931.87
531.169	29891.64
531.535	29987.01
531.901	30241.01
532.267	30356.94
532.632	30478.29
532.998	30665.41
533.364	30865.18
533.73	30953.99
534.095	31051.39
534.461	31358.05
534.826	31381.55
535.192	31460.64
535.557	31830.8
535.923	31781.76
536.288	32018.14
536.653	32085.26
537.019	32093.62
537.384	32293.84
537.749	32461.07
538.114	32513.27
538.479	32619.03
538.845	32769.08
539.21	32859.25
539.575	33115.74
539.94	33012.01
540.305	33334.04
540.67	33222.18
541.034	33460.82
541.399	33578.1
541.764	33657.19
542.129	33889.28
542.494	33818.55
542.858	34155.49
543.223	34121.36
543.587	34351.19
543.952	34294.92
544.316	34475.7
544.681	34498.08
545.045	34679.77
545.41	34834.79
545.774	35104.84
546.138	34985.07
546.503	35162.24
546.867	35067.78
547.231	35465.51
547.595	35595.9
547.959	35624.15
548.324	35733.98
548.688	35799.06
549.052	35940.75
549.416	36037.47
549.779	36039.05
550.143	36179.84
550.507	36458.7
550.871	36571.02
551.235	36677.23
551.599	36726.94
551.962	36900.95
552.326	37057.1
552.689	37173.71
553.053	37277.44
553.417	37338.91
553.78	37812.57
554.143	37720.82
554.507	37942.28
554.87	38019.34
555.234	38182.5
555.597	38271.76
555.96	38527.8
556.323	38696.84
556.686	38589.04
557.05	38920.33
557.413	39041.46
557.776	39276.26
558.139	39539.3
558.502	39522.12
558.865	39731.84
559.228	39944.03
559.59	40113.97
559.953	40214.99
560.316	40519.39
560.679	40559.61
561.041	40873.95
561.404	41162.99
561.767	41326.6
562.129	41277.56
562.492	41649.07
562.854	41640.71
563.217	41689.98
563.579	41974.04
563.941	42250.19
564.304	42315.72
564.666	42580.12
565.028	42657.64
565.39	42943.73
565.753	43251.07
566.115	43354.57
566.477	43552.53
566.839	43679.76
567.201	44022.12
567.563	44011.72
567.925	44385.27
568.287	44331.49
568.648	44474.76
569.01	44769.44
569.372	45098.02
569.734	44915.88
570.095	45196.1
570.457	45335.08
570.819	45648.52
571.18	45668.63
571.542	45914.27
571.903	46018.9
572.265	46234.49
572.626	46138.9
572.987	46447.37
573.349	46645.78
573.71	46650.3
574.071	46887.81
574.432	47004.87
574.794	47292.99
575.155	47158.99
575.516	47085.32
575.877	47317.17
576.238	47410.96
576.599	47655.02
576.96	47704.96
577.32	47673.32
577.681	47866.76
578.042	47992.86
578.403	48020.66
578.763	48137.04
579.124	48208.22
579.485	48429.24
579.845	48628.55
580.206	48462.45
580.566	48531.61
580.927	48709.23
581.287	48793.75
581.648	48634.88
582.008	48789.9
582.368	48689.12
582.728	48806.4
583.089	48797.81
583.449	48923.46
583.809	48853.63
584.169	49009.56
584.529	48899.28
584.889	49186.05
585.249	48986.96
585.609	48879.39
585.969	49237.12
586.329	49043.91
586.688	49157.58
587.048	49146.05
587.408	49018.37
587.768	49074.19
588.127	49182.66
588.487	49033.96
588.846	49335.43
589.206	49021.08
589.565	49219.72
589.925	49298.82
590.284	49217.46
590.643	49265.82
591.003	49354.86
591.362	49494.07
591.721	49356.67
592.08	49446.61
592.44	49450.23
592.799	49417.23
593.158	49396.67
593.517	49479.38
593.876	49592.37
594.235	49384.01
594.593	49529.32
594.952	49619.26
595.311	49559.6
595.67	49557.34
596.029	49791.69
596.387	49802.76
596.746	49875.75
597.104	49636.89
597.463	49636.21
597.822	49670.11
598.18	49565.93
598.538	49653.38
598.897	49863.55
599.255	49526.83
599.613	50066.93
599.972	49823.77
600.33	49840.95
600.688	49876.65
601.046	49917.11
601.404	50078.91
601.762	50001.17
602.12	50211.11
602.478	50109.19
602.836	50140.83
603.194	50029.19
603.552	49931.79
603.91	50096.08
604.268	50121.17
604.625	50069.42
604.983	50297.66
605.341	50108.29
605.698	50304.21
606.056	50417.66
606.413	50302.41
606.771	50501.72
607.128	50507.82
607.485	50309.64
607.843	50436.19
608.2	50574.94
608.557	50706.46
608.914	50611.32
609.272	50629.86
609.629	50722.06
609.986	50839.12
610.343	50707.82
610.7	50888.61
611.057	50763.64
611.414	50792.11
611.771	50693.81
612.127	50870.3
612.484	50979.68
612.841	51015.16
613.198	50913.69
613.554	51056.51
613.911	51182.16
614.267	51209.73
614.624	51181.03
614.98	51276.17
615.337	51342.38
615.693	51355.94
616.05	51390.51
616.406	51535.37
616.762	51386.9
617.118	51390.51
617.475	51533.33
617.831	51414.69
618.187	51497.18
618.543	51509.38
618.899	51640.68
619.255	51556.38
619.611	51626.21
619.967	51617.63
620.323	51816.49
620.678	51698.53
621.034	51570.17
621.39	51522.71
621.746	51500.34
622.101	51963.83
622.457	51571.75
622.812	51696.27
623.168	51864.17
623.523	51826.43
623.879	51850.84
624.234	51647
624.589	51743.95
624.945	51779.88
625.3	51855.59
625.655	51795.02
626.01	51938.07
626.365	51855.36
626.72	51789.37
627.075	51822.37
627.43	51789.6
627.785	51692.2
628.14	51807.68
628.495	51755.93
628.85	51749.6
629.205	51577.85
629.559	51863.72
629.914	51663.73
630.269	51589.83
630.623	51522.49
630.978	51484.07
631.332	51587.12
631.687	51600
632.041	51443.39
632.396	51364.75
632.75	51341.93
633.104	51394.13
633.459	51216.28
633.813	51158.43
634.167	51167.69
634.521	51065.1
634.875	51147.58
635.229	51128.37
635.583	50902.62
635.937	51037.53
636.291	50885.67
636.645	50974.48
636.999	50864.43
637.352	50820.58
637.706	50767.48
638.06	50779
638.413	50729.97
638.767	50551.67
639.121	50681.61
639.474	50536.75
639.828	50423.08
640.181	50522.06
640.534	50544.66
640.888	50389.18
641.241	50244.78
641.594	50362.97
641.947	50337.66
642.301	50411.1
642.654	50298.79
643.007	50375.17
643.36	50230.32
643.713	50117.78
644.066	50268.96
644.419	49919.14
644.771	49711.69
645.124	49388.08
645.477	49412.94
645.83	49181.98
646.182	48952.16
646.535	48867.19
646.888	48916.91
647.24	48764.59
647.593	48996
647.945	48967.75
648.298	48563.47
648.65	48649.57
649.002	48521.44
649.355	48515.79
649.707	48534.77
650.059	48706.06
650.411	49127.75
650.763	49255.65
651.115	49491.58
651.467	49298.82
651.819	49280.51
652.171	49140.18
652.523	49123.91
652.875	49053.63
653.227	49044.13
653.578	49156.22
653.93	48968.88
654.282	48811.6
654.633	48747.87
654.985	48752.16
655.337	48755.33
655.688	48651.6
656.039	48863.8
656.391	48419.29
656.742	48541.32
657.094	48637.14
657.445	48702.45
657.796	48567.08
658.147	48410.93
658.498	48485.5
658.849	48444.38
659.2	48413.87
659.551	48438.95
659.902	48483.02
660.253	48419.97
660.604	48420.87
660.955	48217.26
661.306	48365.06
661.656	48258.39
662.007	48326.64
662.358	48279.18
662.708	48330.25
663.059	48313.08
663.409	48090.49
663.76	48224.72
664.11	48203.7
664.461	48346.75
664.811	48284.61
665.161	48120.09
665.511	47972.98
665.862	48098.85
666.212	48164.61
666.562	48120.99
666.912	48116.93
667.262	47949.93
667.612	47992.64
667.962	48073.99
668.312	48026.31
668.662	48221.1
669.011	48022.47
669.361	48101.11
669.711	47993.77
670.06	47934.11
670.41	47854.56
670.76	47888.01
671.109	48039.19
671.459	47902.7
671.808	47850.49
672.157	47915.12
672.507	47694.79
672.856	47633.55
673.205	47765.52
673.554	47836.93
673.904	47715.13
674.253	47999.42
674.602	47686.43
674.951	47063.17
675.3	46960.12
675.649	47559.88
675.998	47511.97
676.346	47474.68
676.695	47563.5
677.044	47263.16
677.393	47299.55
677.741	47361.69
678.09	47219.78
678.438	47083.96
678.787	47281.69
679.135	47204.86
679.484	46919.9
679.832	47186.33
680.181	46806.45
680.529	46982.72
680.877	46868.37
681.225	46732.56
681.573	47155.14
681.922	46627.25
682.27	46649.62
682.618	46629.51
682.966	46423.86
683.314	46544.76
683.661	46391.1
684.009	46214.15
684.357	46136.64
684.705	46098
685.053	46136.87
685.4	46098.45
685.748	45826.14
686.095	45845.12
686.443	45591.57
686.79	45583.43
687.138	45728.52
687.485	45599.7
687.832	45535.3
688.18	45454.17
688.527	45088.76
688.874	45289.88
689.221	45181.41
689.568	44966.73
689.915	44930.57
690.262	44857.58
690.609	44774.42
690.956	44766.28
691.303	44714.98
691.65	44422.33
691.997	44454.88
692.344	44107.54
692.69	44204.94
693.037	44190.25
693.383	43744.61
693.73	44000.42
694.077	43724.27
694.423	43667.1
694.769	43515.69
695.116	43570.38
695.462	43455.81
695.808	43334
696.155	43228.47
696.501	42890.62
696.847	42966.33
697.193	42690.4
697.539	42885.2
697.885	42578.09
698.231	42517.98
698.577	42439.79
698.923	42355.72
699.269	42182.39
699.614	41914.83
699.96	41882.74
700.306	41832.12
700.651	41561.62
700.997	41478.68
701.342	41631.67
701.688	41592.13
702.033	41402.53
702.379	41296.32
702.724	41184.68
703.069	41172.93
703.415	40754.18
703.76	40847.97
704.105	40804.58
704.45	40656.33
704.795	40423.12
705.14	40316.68
705.485	40190.13
705.83	40087.31
706.175	40172.28
706.52	39848.44
706.865	39675.57
707.209	39633.08
707.554	39525.97
707.899	39704.72
708.243	39420.66
708.588	39333.66
708.932	39042.36
709.277	39117.39
709.621	39005.3
709.966	38740.68
710.31	38913.1
710.654	38561.7
710.998	38760.34
711.342	38464.07
711.687	38487.58
712.031	38310.63
712.375	38262.95
712.719	38266.34
713.063	38281.71
713.407	38243.06
713.75	38015.95
714.094	38021.6
714.438	37891.89
714.782	37935.73
715.125	37661.16
715.469	37791.77
715.812	37528.5
716.156	37281.05
716.499	37443.31
716.843	37433.14
717.186	37096.2
717.53	37299.58
717.873	37385.23
718.216	37188.85
718.559	37034.73
718.902	36812.37
719.246	36796.32
719.589	36736.66
719.932	36625.48
720.275	36535.31
720.617	36401.3
720.96	36361.98
721.303	36370.57
721.646	36246.96
721.989	36151.37
722.331	36229.33
722.674	36072.05
723.016	36133.06
723.359	35869.79
723.701	35975.1
724.044	35632.06
724.386	35575.56
724.729	35745.5
725.071	35542.12
725.413	35474.32
725.755	35519.97
726.097	35261.45
726.439	35125.18
726.782	35177.15
727.124	35268.45
727.465	35057.38
727.807	34935.35
728.149	34932.41
728.491	34890.83
728.833	35083.6
729.175	34847.22
729.516	34752.08
729.858	34654.23
730.199	34680.22
730.541	34606.77
730.882	34711.18
731.224	34605.42
731.565	34430.96
731.906	34441.58
732.248	34345.76
732.589	34231.87
732.93	34160.91
733.271	34228.7
733.612	34114.81
733.953	34234.81
734.294	33976.73
734.635	33903.06
734.976	33936.73
735.317	33744.2
735.658	33673.46
735.999	33640.47
736.339	33610.87
736.68	33754.37
737.021	33554.82
737.361	33529.06
737.702	33485
738.042	33379.69
738.383	33271.44
738.723	33333.59
739.063	33167.04
739.404	33203.42
739.744	33169.98
740.084	33069.64
740.424	33140.82
740.764	32884.11
741.104	33114.16
741.444	32848.18
741.784	32754.62
742.124	32876.2
742.464	32798.46
742.804	32516.43
743.143	32621.06
743.483	32597.79
743.823	32330.45
744.162	32284.8
744.502	32281.86
744.841	32114.86
745.181	32232.82
745.52	32123.22
745.86	32056.56
746.199	31945.83
746.538	31908.09
746.877	32000.29
747.216	31930.46
747.556	31922.1
747.895	31831.25
748.234	31750.35
748.573	31632.84
748.911	31636.46
749.25	31567.31
749.589	31534.76
749.928	31525.5
750.267	31446.86
750.605	31301.1
750.944	31242.12
751.283	31118.96
751.621	31177.49
751.96	31103.36
752.298	30965.97
752.636	30984.04
752.975	30853.88
