Data from aluminium_macbook_case_FLMS001491_013.txt Node
Date: Tue Feb 07 10:43:16 GMT 2017
User: dcchb
Spectrometer: FLMS00149
Trigger mode: 0
Integration Time (sec): 2.000000E-2
Scans to average: 10
Electric dark correction enabled: true
Nonlinearity correction enabled: false
Boxcar width: 0
XAxis mode: Wavelengths
Number of Pixels in Spectrum: 2048
>>>>>Begin Spectral Data<<<<<
341.393	-5.89
341.776	-5.89
342.16	-5.89
342.543	-77.75
342.927	-75.94
343.31	-77.07
343.693	-73.68
344.077	-64.65
344.46	-48.37
344.843	-57.19
345.226	-52.22
345.61	-33.91
345.993	-26.91
346.376	-0.24
346.759	7.44
347.142	37.05
347.525	48.35
347.908	50.15
348.291	74.56
348.674	96.03
349.057	120.66
349.44	132.86
349.823	124.28
350.206	190.94
350.588	262.13
350.971	272.52
351.354	263.26
351.737	301.22
352.119	308.68
352.502	296.02
352.884	312.07
353.267	350.94
353.65	346.42
354.032	362.01
354.414	342.12
354.797	382.35
355.179	373.99
355.562	395.23
355.944	417.83
356.326	420.99
356.709	380.09
357.091	402.91
357.473	399.52
357.855	412.63
358.238	417.83
358.62	415.57
359.002	425.29
359.384	395.91
359.766	431.16
360.148	422.8
360.53	408.56
360.912	400.65
361.294	405.4
361.676	414.66
362.057	423.7
362.439	446.75
362.821	422.35
363.203	420.54
363.584	410.6
363.966	429.13
364.348	402.91
364.729	430.26
365.111	427.32
365.493	425.74
365.874	410.6
366.256	414.89
366.637	418.96
367.019	432.74
367.4	404.5
367.781	408.34
368.163	424.16
368.544	440.88
368.925	441.56
369.306	455.34
369.688	446.3
370.069	431.39
370.45	450.6
370.831	441.33
371.212	447.43
371.593	442.46
371.974	439.75
372.355	446.53
372.736	466.87
373.117	458.96
373.498	477.71
373.879	463.48
374.26	463.93
374.641	463.02
375.021	460.09
375.402	489.01
375.783	503.02
376.163	512.29
376.544	528.79
376.925	515
377.305	521.33
377.686	541.44
378.066	502.12
378.447	493.31
378.827	510.03
379.208	519.29
379.588	533.08
379.968	540.99
380.349	562
380.729	559.52
381.109	566.3
381.489	572.85
381.87	579.86
382.25	594.09
382.63	562.23
383.01	588.22
383.39	584.15
383.77	597.26
384.15	594.09
384.53	622.12
384.91	646.3
385.29	618.95
385.67	651.27
386.049	630.03
386.429	638.39
386.809	667.09
387.189	665.51
387.568	654.88
387.948	690.59
388.328	674.09
388.707	682.23
389.087	721.1
389.466	687.43
389.846	716.8
390.225	727.2
390.605	740.53
390.984	739.63
391.363	756.35
391.743	764.71
392.122	761.32
392.501	764.71
392.881	802.22
393.26	805.61
393.639	796.8
394.018	834.09
394.397	819.85
394.776	848.33
395.155	820.76
395.534	853.52
395.913	843.58
396.292	867.76
396.671	899.4
397.05	889.23
397.429	898.72
397.808	899.62
398.186	923.13
398.565	914.99
398.944	937.59
399.323	932.62
399.701	944.37
400.08	978.27
400.458	966.74
400.837	989.11
401.215	1006.06
401.594	1028.66
401.972	1030.92
402.351	1039.28
402.729	1052.39
403.107	1064.82
403.486	1076.79
403.864	1079.05
404.242	1068.21
404.62	1082.44
404.999	1131.93
405.377	1112.27
405.755	1141.42
406.133	1167.19
406.511	1175.1
406.889	1183.23
407.267	1211.71
407.645	1200.86
408.023	1265.04
408.401	1256
408.779	1301.42
409.156	1312.49
409.534	1305.49
409.912	1321.08
410.29	1324.92
410.667	1375.54
411.045	1413.06
411.422	1406.5
411.8	1424.58
412.178	1464.35
412.555	1508.87
412.933	1512.94
413.31	1515.43
413.687	1539.61
414.065	1545.48
414.442	1605.37
414.819	1599.94
415.197	1595.2
415.574	1625.48
415.951	1657.8
416.328	1670.45
416.705	1697.12
417.082	1683.33
417.46	1742.31
417.837	1745.25
418.214	1764.23
418.591	1818.47
418.967	1817.79
419.344	1847.85
419.721	1871.8
420.098	1874.06
420.475	1903.89
420.852	1908.86
421.228	1907.05
421.605	1944.34
421.982	1967.84
422.358	1969.65
422.735	2011.68
423.111	2029.99
423.488	2048.75
423.864	2085.58
424.241	2131.46
424.617	2119.03
424.994	2147.05
425.37	2171
425.746	2193.37
426.123	2222.53
426.499	2231.34
426.875	2339.59
427.251	2337.33
427.627	2343.43
428.003	2385.01
428.379	2418.68
428.756	2473.59
429.132	2517.89
429.507	2538.68
429.883	2559.69
430.259	2597.21
430.635	2660.93
431.011	2639.46
431.387	2738.67
431.763	2772.79
432.138	2835.39
432.514	2820.48
432.89	2841.27
433.265	2949.51
433.641	2996.29
434.016	3010.3
434.392	3074.26
434.767	3128.27
435.143	3131.43
435.518	3184.99
435.894	3158.77
436.269	3235.83
436.644	3301.59
437.02	3355.83
437.395	3316.51
437.77	3392.67
438.145	3437.41
438.52	3498.88
438.895	3527.35
439.271	3531.87
439.646	3603.51
440.021	3627.24
440.395	3643.51
440.77	3647.8
441.145	3659.78
441.52	3762.37
441.895	3735.93
442.27	3788.36
442.645	3795.14
443.019	3850.73
443.394	3862.94
443.769	3976.83
444.143	3918.3
444.518	3980.9
444.892	3976.83
445.267	4033.78
445.641	4131.18
446.016	4158.29
446.39	4157.39
446.764	4187.67
447.139	4217.73
447.513	4262.02
447.887	4234.22
448.262	4248.46
448.636	4342.92
449.01	4394.9
449.384	4422.92
449.758	4476.25
450.132	4498.85
450.506	4549.7
450.88	4551.96
451.254	4626.3
451.628	4712.18
452.002	4752.4
452.376	4797.37
452.75	4859.97
453.123	4891.16
453.497	4965.96
453.871	4975
454.244	5079.85
454.618	5131.83
454.992	5179.96
455.365	5260.64
455.739	5385.38
456.112	5432.61
456.486	5443.91
456.859	5525.72
457.232	5668.76
457.606	5600.29
457.979	5667.63
458.352	5849.78
458.725	5894.75
459.099	5934.97
459.472	6103.33
459.845	6148.75
460.218	6189.88
460.591	6229.65
460.964	6288.63
461.337	6414.28
461.71	6529.53
462.083	6604.78
462.456	6644.56
462.829	6692.24
463.201	6775.17
463.574	6874.38
463.947	6924.55
464.32	7131.55
464.692	7159.8
465.065	7216.29
465.438	7399.79
465.81	7479.56
466.183	7485.44
466.555	7731.99
466.928	7745.54
467.3	7712.55
467.672	7902.15
468.045	8045.88
468.417	8171.52
468.789	8231.41
469.161	8334.91
469.534	8502.14
469.906	8638.63
470.278	8729.47
470.65	8831.62
471.022	9018.96
471.394	9185.73
471.766	9308.44
472.138	9456.46
472.51	9574.2
472.882	9748.66
473.253	9888.31
473.625	10010.34
473.997	10227.29
474.369	10270.22
474.74	10450.33
475.112	10576.66
475.484	10792.24
475.855	11022.29
476.227	11041.73
476.598	11398.78
476.97	11494.6
477.341	11738.21
477.713	11946.56
478.084	12110.85
478.455	12393.78
478.827	12491.86
479.198	12892.08
479.569	12855.92
479.94	13273.76
480.311	13500.65
480.682	13728.21
481.053	14039.84
481.424	14219.05
481.795	14390.57
482.166	14753.5
482.537	14807.73
482.908	15231
483.279	15251.11
483.65	15623.53
484.021	15854.26
484.391	16145.1
484.762	16280.69
485.133	16456.05
485.503	16672.54
485.874	17084.73
486.244	17192.08
486.615	17449.7
486.985	17692.4
487.356	18119.96
487.726	18153.41
488.097	18611.93
488.467	18706.16
488.837	19055.3
489.207	19400.15
489.578	19563.54
489.948	19804.89
490.318	20174.37
490.688	20235.16
491.058	20596.73
491.428	20845.09
491.798	21080.56
492.168	21570.04
492.538	21485.52
492.908	21762.58
493.278	22152.4
493.648	22089.8
494.017	22505.61
494.387	22666.73
494.757	22839.84
495.126	23093.84
495.496	23129.32
495.866	23337.23
496.235	23581.06
496.605	23752.13
496.974	23948.51
497.344	24161.61
497.713	24423.75
498.082	24508.04
498.452	24811.99
498.821	24880.24
499.19	25122.04
499.559	25426.66
499.928	25617.62
500.298	25680.89
500.667	26011.96
501.036	26062.58
501.405	26313.19
501.774	26479.74
502.143	26710.24
502.512	26851.26
502.88	27121.76
503.249	27262.32
503.618	27371.24
503.987	27478.36
504.356	27656.66
504.724	27968.06
505.093	28021.62
505.462	28103.88
505.83	28399.69
506.199	28630.65
506.567	29008.94
506.936	28958.32
507.304	29244.64
507.672	29473.56
508.041	29527.12
508.409	29906.32
508.777	30036.26
509.145	30197.84
509.514	30204.39
509.882	30552.4
510.25	30782.45
510.618	30934.09
510.986	31115.33
511.354	31542.89
511.722	31844.8
512.09	32244.56
512.458	32010.67
512.826	32356.88
513.193	32698.79
513.561	32774.94
513.929	33064.88
514.297	33419.45
514.664	33696.05
515.032	33869.38
515.4	34034.57
515.767	34201.12
516.135	34456.71
516.502	34346.2
516.869	34808.11
517.237	35110.48
517.604	34968.78
517.972	35449
518.339	35684.7
518.706	35677.92
519.073	35968.08
519.44	36236.1
519.808	36557.22
520.175	36671.34
520.542	37129.41
520.909	37568.26
521.276	37502.28
521.643	37950.17
522.009	38216.61
522.376	38492.76
522.743	38795.35
523.11	39241.89
523.477	39687.08
523.843	39776.79
524.21	40126.16
524.577	40444.35
524.943	40651.57
525.31	40907.61
525.676	41345.11
526.043	41624.65
526.409	41716.63
526.776	42205.88
527.142	42313.22
527.508	42675.47
527.874	42738.52
528.241	43071.4
528.607	43327.43
528.973	43635.9
529.339	43527.65
529.705	44023.69
530.071	44285.15
530.437	44423
530.803	44642.88
531.169	44813.95
531.535	44951.35
531.901	44931.01
532.267	45415.51
532.632	45696.19
532.998	45801.95
533.364	46004.65
533.73	46163.29
534.095	46460.23
534.461	46682.6
534.826	46930.96
535.192	47134.79
535.557	47459.3
535.923	47453.88
536.288	47706.08
536.653	47951.04
537.019	47851.61
537.384	48094.77
537.749	48236.68
538.114	48372.27
538.479	48486.39
538.845	48693.39
539.21	48660.4
539.575	48819.95
539.94	49038.02
540.305	49375.41
540.67	49086.15
541.034	49262.42
541.399	49480.94
541.764	49555.07
542.129	49660.83
542.494	49656.99
542.858	49925.68
543.223	49942.85
543.587	50190.53
543.952	50113.92
544.316	50336.29
544.681	50393.69
545.045	50547.81
545.41	50679.78
545.774	50844.3
546.138	50871.87
546.503	51005.42
546.867	50988.25
547.231	51446.54
547.595	51482.02
547.959	51572.19
548.324	51689.47
548.688	51821.45
549.052	52005.62
549.416	52064.83
549.779	52142.57
550.143	52241.55
550.507	52523.12
550.871	52568.1
551.235	52551.82
551.599	52903.23
551.962	52960.18
552.326	52966.5
552.689	53178.02
553.053	53118.14
553.417	53156.55
553.78	53621.63
554.143	53465.7
554.507	53584.79
554.87	53740.27
555.234	53925.57
555.597	53778.23
555.96	53880.6
556.323	54099.58
556.686	54130.99
557.05	54323.98
557.413	54440.81
557.776	54465.67
558.139	54663.41
558.502	54652.56
558.865	54805.55
559.228	54981.37
559.59	55068.82
559.953	55145.43
560.316	55430.62
560.679	55575.02
561.041	55664.74
561.404	55814.79
561.767	55949.48
562.129	55940.21
562.492	56264.95
562.854	56208.45
563.217	56339.07
563.579	56462.23
563.941	56707.42
564.304	56919.62
564.666	57004.36
565.028	56952.61
565.39	57131.14
565.753	57215.43
566.115	57353.96
566.477	57398.48
566.839	57507.63
567.201	57655.65
567.563	57661.29
567.925	57763.89
568.287	57807.28
568.648	57865.58
569.01	58026.48
569.372	58068.97
569.734	58098.12
570.095	58294.72
570.457	58288.62
570.819	58386.25
571.18	58390.09
571.542	58560.93
571.903	58569.29
572.265	58597.99
572.626	58659.01
572.987	58736.29
573.349	58841.38
573.71	58935.84
574.071	58977.42
574.432	59026.46
574.794	59219.9
575.155	59206.34
575.516	59162.05
575.877	59286.56
576.238	59337.86
576.599	59477.29
576.96	59480
577.32	59479.55
577.681	59643.39
578.042	59711.18
578.403	59729.49
578.763	59742.37
579.124	59752.54
579.485	59931.29
579.845	59989.82
580.206	59937.84
580.566	59963.61
580.927	59972.42
581.287	60088.12
581.648	59999.54
582.008	60072.3
582.368	60032.53
582.728	60086.32
583.089	60034.34
583.449	60030.05
583.809	60023.04
584.169	60096.94
584.529	59988.24
584.889	60148.91
585.249	59992.31
585.609	59918.18
585.969	60090.38
586.329	60030.05
586.688	60042.25
587.048	60004.96
587.408	59924.51
587.768	59948.47
588.127	59955.92
588.487	59969.26
588.846	60106.65
589.206	59937.17
589.565	59991.85
589.925	60053.55
590.284	60032.76
590.643	60071.17
591.003	60081.57
591.362	60197.95
591.721	60106.43
592.08	60135.58
592.44	60249.02
592.799	60265.29
593.158	60276.14
593.517	60301.23
593.876	60322.69
594.235	60267.55
594.593	60302.81
594.952	60361.79
595.311	60317.27
595.67	60324.95
596.029	60493.54
596.387	60459.41
596.746	60556.13
597.104	60371.51
597.463	60373.54
597.822	60476.36
598.18	60410.83
598.538	60353.88
598.897	60457.61
599.255	60327.21
599.613	60585.06
599.972	60442.01
600.33	60567.88
600.688	60409.02
601.046	60478.85
601.404	60530.15
601.762	60509.13
602.12	60667.32
602.478	60592.52
602.836	60621.44
603.194	60513.65
603.552	60542.12
603.91	60467.32
604.268	60645.85
604.625	60536.02
604.983	60600.88
605.341	60492.86
605.698	60681.1
606.056	60645.62
606.413	60675.68
606.771	60714.55
607.128	60801.1
607.485	60696.92
607.843	60725.85
608.2	60922.9
608.557	60987.08
608.914	60768.33
609.272	60988.89
609.629	61027.76
609.986	61141.88
610.343	61098.49
610.7	61273.63
611.057	61182.11
611.414	61137.59
611.771	61207.87
612.127	61264.59
612.484	61227.08
612.841	61355.43
613.198	61233.4
613.554	61280.63
613.911	61343.91
614.267	61408.31
614.624	61327.64
614.98	61418.94
615.337	61510.23
615.693	61438.82
616.05	61384.81
616.406	61485.37
616.762	61387.75
617.118	61403.57
617.475	61364.7
617.831	61454.87
618.187	61496
618.543	61520.63
618.899	61599.72
619.255	61597.24
619.611	61504.13
619.967	61597.69
620.323	61671.13
620.678	61519.5
621.034	61481.31
621.39	61503.68
621.746	61435.43
622.101	61620.06
622.457	61460.52
622.812	61552.72
623.168	61481.08
623.523	61549.55
623.879	61656.9
624.234	61507.07
624.589	61563.56
624.945	61585.49
625.3	61603.34
625.655	61543
626.01	61517.24
626.365	61658.48
626.72	61586.84
627.075	61572.6
627.43	61570.12
627.785	61575.99
628.14	61580.51
628.495	61599.72
628.85	61609.44
629.205	61505.49
629.559	61611.02
629.914	61557.24
630.269	61584.58
630.623	61459.84
630.978	61462.55
631.332	61537.35
631.687	61588.65
632.041	61492.38
632.396	61476.34
632.75	61366.51
633.104	61374.19
633.459	61277.24
633.813	61230.92
634.167	61294.19
634.521	61210.58
634.875	61243.8
635.229	61162.9
635.583	61046.06
635.937	61037.7
636.291	61016.91
636.645	61018.04
636.999	60905.5
637.352	60952.96
637.706	60866.86
638.06	60962.9
638.413	60887.2
638.767	60773.76
639.121	60827.99
639.474	60635.68
639.828	60747.32
640.181	60682.23
640.534	60637.71
640.888	60524.27
641.241	60494.44
641.594	60480.2
641.947	60590.94
642.301	60483.59
642.654	60483.14
643.007	60387.78
643.36	60402.47
643.713	60288.57
644.066	60408.79
644.419	60256.03
644.771	60101.23
645.124	59962.93
645.477	59840.45
645.83	59684.74
646.182	59724.29
646.535	59628.7
646.888	59736.04
647.24	59593.22
647.593	59696.27
647.945	59620.79
648.298	59420.57
648.65	59422.83
649.002	59375.37
649.355	59485.2
649.707	59388.03
650.059	59531.08
650.411	59778.98
650.763	59804.74
651.115	60008.58
651.467	59877.51
651.819	59915.47
652.171	59799.54
652.523	59845.87
652.875	59791.63
653.227	59600.45
653.578	59830.96
653.93	59706.89
654.282	59631.19
654.633	59605.88
654.985	59659.89
655.337	59590.96
655.688	59603.84
656.039	59627.8
656.391	59415.37
656.742	59400.46
657.094	59499.44
657.445	59477.74
657.796	59397.07
658.147	59360.23
658.498	59305.55
658.849	59355.94
659.2	59255.38
659.551	59185.32
659.902	59285.88
660.253	59215.6
660.604	59248.15
660.955	59082.5
661.306	59207.02
661.656	59091.54
662.007	59103.06
662.358	59068.26
662.708	59036.17
663.059	59020.35
663.409	58877.76
663.76	59015.84
664.11	59027.81
664.461	59042.05
664.811	59058.77
665.161	59029.39
665.511	58989.85
665.862	59008.15
666.212	59067.36
666.562	59086.34
666.912	59095.38
667.262	59088.15
667.612	59014.48
667.962	59096.74
668.312	59046.12
668.662	59079.11
669.011	59065.55
669.361	59035.04
669.711	58932.9
670.06	58913.24
670.41	58887.25
670.76	58897.42
671.109	59002.95
671.459	58936.29
671.808	58802.73
672.157	58852.45
672.507	58789.4
672.856	58748.05
673.205	58701.04
673.554	58760.93
673.904	58717.09
674.253	58803.64
674.602	58699.01
674.951	58277.78
675.3	58151.68
675.649	58626.24
675.998	58526.81
676.346	58577.43
676.695	58609.07
677.044	58342.18
677.393	58423.08
677.741	58458.11
678.09	58346.02
678.438	58247.27
678.787	58384.67
679.135	58289.3
679.484	58109.42
679.832	58235.29
680.181	58093.83
680.529	58144.45
680.877	58008.4
681.225	57987.16
681.573	58129.76
681.922	57906.71
682.27	57786.94
682.618	57778.81
682.966	57747.39
683.314	57717.79
683.661	57609.77
684.009	57488.19
684.357	57436.67
684.705	57399.38
685.053	57427.4
685.4	57419.49
685.748	57321.19
686.095	57340.85
686.443	57274.64
686.79	57152.16
687.138	57236.45
687.485	57258.82
687.832	57142.66
688.18	57177.01
688.527	57064.7
688.874	57131.59
689.221	56998.04
689.568	57014.08
689.915	56849.11
690.262	56845.27
690.609	56838.94
690.956	56822.9
691.303	56739.74
691.65	56604.37
691.997	56523.7
692.344	56394.21
692.69	56387.43
693.037	56395.79
693.383	56170.26
693.73	56291.16
694.077	56066.99
694.423	56043.26
694.769	55943.83
695.116	55829.48
695.462	55782.02
695.808	55700.89
696.155	55638.97
696.501	55549.49
696.847	55500.9
697.193	55343.62
697.539	55453.9
697.885	55220.68
698.231	55072.66
698.577	55040.35
698.923	54942.04
699.269	54909.73
699.614	54698.21
699.96	54599.91
700.306	54658.44
700.651	54397.65
700.997	54278.11
701.342	54257.54
701.688	54305.68
702.033	54057.77
702.379	54118.11
702.724	54048.51
703.069	53980.04
703.415	53753.37
703.76	53666.15
704.105	53679.25
704.45	53446.49
704.795	53340.28
705.14	53213.28
705.485	53273.16
705.83	53093.05
706.175	53248.76
706.52	53029.78
706.865	52933.96
707.209	52791.82
707.554	52689.67
707.899	52825.72
708.243	52549.56
708.588	52615.55
708.932	52460.98
709.277	52474.31
709.621	52467.98
709.966	52300.76
710.31	52354.77
710.654	52024.38
710.998	52165.85
711.342	52186.18
711.687	52187.31
712.031	52015.34
712.375	51860.77
712.719	51960.2
713.063	51971.73
713.407	51953.87
713.75	51698.29
714.094	51587.56
714.438	51528.57
714.782	51701.23
715.125	51466.88
715.469	51493.1
715.812	51258.75
716.156	51224.85
716.499	51138.53
716.843	51186.66
717.186	50986.89
717.53	51058.76
717.873	51002.26
718.216	50937.63
718.559	50703.06
718.902	50546
719.246	50574.7
719.589	50423.07
719.932	50256.74
720.275	50300.36
720.617	50208.16
720.96	50147.82
721.303	50135.39
721.646	50044.77
721.989	49710.77
722.331	50002.51
722.674	49709.87
723.016	49837.55
723.359	49686.36
723.701	49621.51
724.044	49266.26
724.386	49121.63
724.729	49322.3
725.071	49196.21
725.413	49111.46
725.755	48988.08
726.097	48803.22
726.439	48562.1
726.782	48678.93
727.124	48830.57
727.465	48519.84
727.807	48371.6
728.149	48363.69
728.491	48116.23
728.833	48334.99
729.175	48186.97
729.516	48120.3
729.858	48075.56
730.199	48045.73
730.541	47877.37
730.882	47796.47
731.224	47914.88
731.565	47598.73
731.906	47751.72
732.248	47784.04
732.589	47615.01
732.93	47493.2
733.271	47572.29
733.612	47655.91
733.953	47596.7
734.294	47391.73
734.635	47315.13
734.976	47358.06
735.317	47182.93
735.658	47185.64
735.999	47267.44
736.339	47161.68
736.68	47119.65
737.021	47012.54
737.361	46812.77
737.702	47288.01
738.042	46922.37
738.383	47009.6
738.723	46878.53
739.063	46824.29
739.404	46791.98
739.744	46604.18
740.084	46432.21
740.424	46569.16
740.764	46390.4
741.104	46493.45
741.444	46302.95
741.784	46162.16
742.124	46123.52
742.464	46056.18
742.804	46028.15
743.143	45838.1
743.483	45864.77
743.823	45689.18
744.162	45619.58
744.502	45573.02
744.841	45483.54
745.181	45589.97
745.52	45287.16
745.86	45238.34
746.199	45019.82
746.538	44989.54
746.877	45005.58
747.216	44878.35
747.556	44807.62
747.895	44775.76
748.234	44515.43
748.573	44466.39
748.911	44479.27
749.25	44424.13
749.589	44057.81
749.928	44207.19
750.267	44100.75
750.605	43954.31
750.944	43864.82
751.283	43524.27
751.621	43602.23
751.96	43304.84
