Data from aluminium_surface_pro_back_FLMS001491_00003.txt Node
Date: Wed Feb 08 15:33:29 GMT 2017
User: dcchb
Spectrometer: FLMS00149
Trigger mode: 0
Integration Time (sec): 2.000000E-2
Scans to average: 10
Electric dark correction enabled: true
Nonlinearity correction enabled: false
Boxcar width: 0
XAxis mode: Wavelengths
Number of Pixels in Spectrum: 2048
>>>>>Begin Spectral Data<<<<<
341.393	-10.8
341.776	-10.8
342.16	-10.8
342.543	-55.78
342.927	-76.34
343.31	-75.44
343.693	-54.87
344.077	-60.52
344.46	-47.87
344.843	-65.27
345.226	-48.77
345.61	-24.59
345.993	-4.7
346.376	-5.61
346.759	6.14
347.142	22.19
347.525	32.13
347.908	63.32
348.291	73.71
348.674	78.01
349.057	112.13
349.44	134.05
349.823	153.71
350.206	183.99
350.588	205.01
350.971	237.1
351.354	252.01
351.737	270.77
352.119	285.68
352.502	293.37
352.884	305.57
353.267	323.2
353.65	325.01
354.032	354.16
354.414	344.44
354.797	361.39
355.179	359.81
355.562	369.98
355.944	363.2
356.326	391.22
356.709	391.44
357.091	355.06
357.473	344.89
357.855	354.16
358.238	365.46
358.62	380.6
359.002	368.39
359.384	369.98
359.766	368.17
360.148	374.95
360.53	379.02
360.912	359.58
361.294	367.49
361.676	371.11
362.057	382.41
362.439	379.47
362.821	362.97
363.203	389.41
363.584	386.25
363.966	369.98
364.348	370.2
364.729	380.82
365.111	366.81
365.493	373.82
365.874	386.7
366.256	367.72
366.637	371.11
367.019	377.43
367.4	384.44
367.781	374.27
368.163	381.73
368.544	381.28
368.925	389.64
369.306	398.22
369.688	403.87
370.069	368.17
370.45	382.18
370.831	381.28
371.212	390.99
371.593	391.67
371.974	369.3
372.355	381.73
372.736	401.61
373.117	380.15
373.498	371.11
373.879	389.64
374.26	385.57
374.641	396.87
375.021	390.99
375.402	388.51
375.783	429.41
376.163	419.47
376.544	431.44
376.925	413.59
377.305	408.62
377.686	416.08
378.066	432.12
378.447	428.73
378.827	430.99
379.208	433.03
379.588	468.5
379.968	440.26
380.349	437.32
380.729	447.26
381.109	461.05
381.489	433.03
381.87	440.93
382.25	455.85
382.63	455.62
383.01	469.63
383.39	480.93
383.77	495.62
384.15	465.11
384.53	482.74
384.91	492.23
385.29	479.13
385.67	471.89
386.049	474.15
386.429	526.13
386.809	498.79
387.189	520.71
387.568	504.44
387.948	521.61
388.328	535.85
388.707	550.31
389.087	568.61
389.466	572.23
389.846	526.81
390.225	569.07
390.605	599.57
390.984	557.77
391.363	553.02
391.743	584.66
392.122	591.89
392.501	597.99
392.881	601.16
393.26	605
393.639	628.27
394.018	616.52
394.397	629.63
394.776	635.96
395.155	619.91
395.534	647.71
395.913	652.23
396.292	652.91
396.671	633.47
397.05	666.47
397.429	663.08
397.808	676.86
398.186	697.43
398.565	733.58
398.944	689.97
399.323	705.33
399.701	724.77
400.08	726.35
400.458	722.51
400.837	737.42
401.215	745.11
401.594	778.33
401.972	764.77
402.351	780.13
402.729	780.36
403.107	783.3
403.486	802.51
403.864	825.78
404.242	838.44
404.62	810.87
404.999	829.63
405.377	847.25
405.755	850.87
406.133	880.02
406.511	859
406.889	886.35
407.267	891.32
407.645	922.73
408.023	945.33
408.401	962.95
408.779	937.87
409.156	984.42
409.534	1000.92
409.912	990.07
410.29	997.76
410.667	987.36
411.045	1018.09
411.422	1011.54
411.8	1036.17
412.178	1083.18
412.555	1095.15
412.933	1108.94
413.31	1107.13
413.687	1126.57
414.065	1146.45
414.442	1146
414.819	1160.24
415.197	1195.72
415.574	1209.05
415.951	1213.12
416.328	1212.89
416.705	1230.52
417.082	1240.91
417.46	1238.65
417.837	1282.27
418.214	1272.55
418.591	1306.9
418.967	1305.77
419.344	1306.67
419.721	1323.17
420.098	1336.5
420.475	1372.66
420.852	1360.01
421.228	1397.07
421.605	1411.53
421.982	1418.54
422.358	1448.59
422.735	1452.66
423.111	1460.57
423.488	1484.75
423.864	1509.38
424.241	1515.48
424.617	1541.24
424.994	1520.23
425.37	1555.48
425.746	1577.85
426.123	1557.29
426.499	1602.26
426.875	1631.64
427.251	1657.4
427.627	1695.59
428.003	1706.21
428.379	1729.71
428.756	1735.59
429.132	1759.32
429.507	1812.88
429.883	1808.36
430.259	1878.19
430.635	1867.11
431.011	1887.9
431.387	1888.81
431.763	1957.96
432.138	1950.05
432.514	1999.76
432.89	2010.38
433.265	2027.56
433.641	2088.35
434.016	2076.82
434.392	2136.94
434.767	2138.97
435.143	2126.99
435.518	2171.06
435.894	2233.88
436.269	2282.02
436.644	2253.99
437.02	2300.77
437.395	2294.9
437.77	2328.57
438.145	2364.73
438.52	2393.65
438.895	2402.69
439.271	2428.45
439.646	2491.05
440.021	2487.21
440.395	2514.55
440.77	2521.78
441.145	2517.04
441.52	2614.89
441.895	2578.05
442.27	2611.95
442.645	2564.95
443.019	2686.53
443.394	2661.67
443.769	2739.18
444.143	2683.36
444.518	2744.38
444.892	2727.88
445.267	2772.85
445.641	2762.23
446.016	2824.37
446.39	2830.93
446.764	2849.91
447.139	2837.48
447.513	2903.02
447.887	2916.8
448.262	2911.6
448.636	2966.07
449.01	2984.37
449.384	3011.04
449.758	3021.88
450.132	3088.1
450.506	3098.72
450.88	3102.11
451.254	3126.29
451.628	3165.16
452.002	3211.94
452.376	3291.26
452.75	3281.76
453.123	3269.11
453.497	3352.72
453.871	3382.33
454.244	3457.35
454.618	3452.38
454.992	3500.97
455.365	3486.05
455.739	3632.26
456.112	3659.61
456.486	3715.65
456.859	3732.6
457.232	3821.18
457.606	3814.18
457.979	3881.75
458.352	3918.36
458.725	4008.52
459.099	4023.21
459.472	4074.74
459.845	4099.82
460.218	4173.49
460.591	4218.24
460.964	4264.34
461.337	4330.55
461.71	4404.9
462.083	4453.94
462.456	4461.17
462.829	4486.48
463.201	4627.94
463.574	4609.41
463.947	4660.71
464.32	4765.11
464.692	4784.55
465.065	4892.12
465.438	4938.44
465.81	4980.25
466.183	5102.28
466.555	5167.36
466.928	5169.17
467.3	5170.08
467.672	5277.19
468.045	5400.58
468.417	5414.82
468.789	5460.46
469.161	5557.41
469.534	5644.41
469.906	5780.23
470.278	5796.27
470.65	5878.76
471.022	5994.24
471.394	6054.12
471.766	6170.28
472.138	6243.27
472.51	6331.4
472.882	6444.39
473.253	6552.19
473.625	6657.72
473.997	6760.09
474.369	6825.63
474.74	6841.67
475.112	7007.77
475.484	7175.45
475.855	7311.94
476.227	7334.54
476.598	7560.3
476.97	7619.5
477.341	7829.44
477.713	7919.83
478.084	7976.56
478.455	8198.47
478.827	8344
479.198	8510.78
479.569	8543.32
479.94	8839.58
480.311	8923.2
480.682	9103.31
481.053	9285
481.424	9428.72
481.795	9544.2
482.166	9568.83
482.537	9767.02
482.908	10027.35
483.279	10119.55
483.65	10275.93
484.021	10481.35
484.391	10543.95
484.762	10734
485.133	10765.64
485.503	10936.7
485.874	11199.07
486.244	11329.91
486.615	11609
486.985	11724.71
487.356	11907.07
487.726	11927.86
488.097	12192.49
488.467	12281.53
488.837	12572.82
489.207	12740.72
489.578	12853.72
489.948	12931.91
490.318	13180.26
490.688	13250.99
491.058	13460.48
491.428	13644.66
491.798	13786.8
492.168	13995.83
492.538	14125.77
492.908	14365.99
493.278	14497.74
493.648	14537.97
494.017	14772.99
494.387	14860.89
494.757	14953.55
495.126	15163.49
495.496	15213.65
495.866	15426.3
496.235	15517.83
496.605	15684.83
496.974	15783.13
497.344	15959.4
497.713	16075.55
498.082	16187.41
498.452	16406.16
498.821	16498.14
499.19	16552.6
499.559	16718.92
499.928	16859.94
500.298	17018.58
500.667	17182.64
501.036	17128.86
501.405	17347.61
501.774	17389.42
502.143	17499.92
502.512	17653.14
502.88	17797.77
503.249	17792.57
503.618	17943.75
503.987	18040.25
504.356	18140.58
504.724	18274.59
505.093	18335.15
505.462	18579.89
505.83	18582.38
506.199	18870.73
506.567	19159.09
506.936	19068.47
507.304	19401.11
507.672	19267.33
508.041	19576.7
508.409	19691.73
508.777	19872.97
509.145	20135.56
509.514	20080.42
509.882	20312.5
510.25	20275.22
510.618	20516.11
510.986	20631.14
511.354	20863.45
511.722	21054.86
512.09	21178.47
512.458	21131.24
512.826	21449.87
513.193	21642.64
513.561	21745.91
513.929	21802.41
514.297	22068.16
514.664	22240.59
515.032	22353.58
515.4	22578.21
515.767	22670.41
516.135	22760.8
516.502	22718.09
516.869	23227.45
517.237	23265.65
517.604	23215.25
517.972	23517.39
518.339	23745.86
518.706	23766.65
519.073	23935.68
519.44	24086.87
519.808	24401.21
520.175	24418.84
520.542	24734.53
520.909	24872.61
521.276	24902.44
521.643	25310.56
522.009	25496.32
522.376	25594.62
522.743	25692.25
523.11	25957.1
523.477	26271.67
523.843	26465.79
524.21	26702.17
524.577	27000.24
524.943	27207.69
525.31	27218.31
525.676	27537.85
526.043	27711.63
526.409	27854
526.776	28214.89
527.142	28281.11
527.508	28452.4
527.874	28714.77
528.241	28903.69
528.607	28993.18
528.973	29347.52
529.339	29355.65
529.705	29690.79
530.071	29909.31
530.437	29894.17
530.803	30191.11
531.169	30368.74
531.535	30447.6
531.901	30665.22
532.267	30600.59
532.632	30963.75
532.998	31016.85
533.364	31104.76
533.73	31377.52
534.095	31482.6
534.461	31621.13
534.826	31866.32
535.192	31961.69
535.557	32326.42
535.923	32171.85
536.288	32431.51
536.653	32553.08
537.019	32583.59
537.384	32817.26
537.749	32902.91
538.114	33048.21
538.479	33141.09
538.845	33267.87
539.21	33280.3
539.575	33510.8
539.94	33638.03
540.305	33770.91
540.67	33867.17
541.034	33926.83
541.399	34127.73
541.764	34168.41
542.129	34444.11
542.494	34382.19
542.858	34610.88
543.223	34627.83
543.587	34842.74
543.952	34932.46
544.316	34953.47
544.681	35019.46
545.045	35214.48
545.41	35461.93
545.774	35483.86
546.138	35526.79
546.503	35700.57
546.867	35734.02
547.231	36058.08
547.595	36048.81
547.959	36305.53
548.324	36289.94
548.688	36231.18
549.052	36588.01
549.416	36595.46
549.779	36546.2
550.143	36771.28
550.507	37059.41
550.871	37133.98
551.235	37075.45
551.599	37507.3
551.962	37498.49
552.326	37573.52
552.689	37675.44
553.053	37734.64
553.417	37902.32
553.78	38363.55
554.143	38214.63
554.507	38453.27
554.87	38408.75
555.234	38759.48
555.597	38649.65
555.96	39016.64
556.323	39123.08
556.686	39238.11
557.05	39494.6
557.413	39551.09
557.776	39620.24
558.139	39960.35
558.502	40014.58
558.865	40103.17
559.228	40376.83
559.59	40657.5
559.953	40876.03
560.316	41117.61
560.679	41238.73
561.041	41417.48
561.404	41793.07
561.767	41891.6
562.129	41758.94
562.492	42149.44
562.854	42254.75
563.217	42301.53
563.579	42476.89
563.941	42827.39
564.304	43112.81
564.666	43322.75
565.028	43411.1
565.39	43464.66
565.753	43801.15
566.115	44043.4
566.477	44287.47
566.839	44385.09
567.201	44647.68
567.563	44559.55
567.925	44780.33
568.287	44869.82
568.648	44985.07
569.01	45330.83
569.372	45565.62
569.734	45361.34
570.095	45802.91
570.457	45904.15
570.819	46037.48
571.18	46021.66
571.542	46290.12
571.903	46436.34
572.265	46594.52
572.626	46684.69
572.987	46827.06
573.349	47011.46
573.71	47244.22
574.071	47406.25
574.432	47473.37
574.794	47804.44
575.155	47700.94
575.516	47495.74
575.877	47823.19
576.238	47882.85
576.599	48126.01
576.96	48147.48
577.32	48234.03
577.681	48363.29
578.042	48404.87
578.403	48483.29
578.763	48566.45
579.124	48699.78
579.485	48867.46
579.845	49010.51
580.206	48846.89
580.566	48865.65
580.927	49106.77
581.287	49179.99
581.648	49034.23
582.008	49228.35
582.368	49207.79
582.728	49309.71
583.089	49250.27
583.449	49419.99
583.809	49269.48
584.169	49445.75
584.529	49368.46
584.889	49698.4
585.249	49413.43
585.609	49323.94
585.969	49593.99
586.329	49443.94
586.688	49506.31
587.048	49410.49
587.408	49316.26
587.768	49419.08
588.127	49412.3
588.487	49425.64
588.846	49659.3
589.206	49424.28
589.565	49568
589.925	49747.89
590.284	49706.98
590.643	49754.44
591.003	49748.56
591.362	49866.98
591.721	49782.69
592.08	49773.42
592.44	49888.9
592.799	49869.92
593.158	49866.08
593.517	49782.46
593.876	49862.23
594.235	49805.96
594.593	49858.39
594.952	50055.22
595.311	49868.79
595.67	49931.38
596.029	50129.35
596.387	50119.4
596.746	50214.09
597.104	49963.25
597.463	50028.56
597.822	50156.92
598.18	50095.22
598.538	50150.36
598.897	50308.1
599.255	49925.51
599.613	50502.44
599.972	50279.4
600.33	50387.64
600.688	50243.69
601.046	50383.8
601.404	50558.49
601.762	50483.69
602.12	50675.32
602.478	50603.46
602.836	50679.39
603.194	50457.02
603.552	50591.03
603.91	50457.92
604.268	50706.73
604.625	50523.69
604.983	50803
605.341	50556.45
605.698	50848.2
606.056	50764.81
606.413	50765.49
606.771	50904.24
607.128	50837.35
607.485	50809.55
607.843	50748.31
608.2	51041.64
608.557	51014.97
608.914	51031.47
609.272	51040.51
609.629	51078.47
609.986	51327.51
610.343	51018.14
610.7	51429.2
611.057	51271.01
611.414	51303.33
611.771	51248.86
612.127	51305.13
612.484	51198.7
612.841	51377.45
613.198	51255.87
613.554	51500.16
613.911	51630.1
614.267	51512.59
614.624	51516.43
614.98	51547.39
615.337	51708.29
615.693	51723.43
616.05	51695.41
616.406	51877.32
616.762	51780.6
617.118	51727.72
617.475	51741.28
617.831	51892.92
618.187	51841.62
618.543	51877.55
618.899	52036.19
619.255	52062.85
619.611	51999.58
619.967	52032.35
620.323	52186.47
620.678	52030.09
621.034	51916.87
621.39	51958.9
621.746	51908.28
622.101	52301.49
622.457	51977.43
622.812	52025.34
623.168	52022.63
623.523	52076.41
623.879	52148.05
624.234	51864.44
624.589	52039.58
624.945	52126.36
625.3	52087.71
625.655	52092.46
626.01	52028.5
626.365	51970.43
626.72	52007.71
627.075	51983.99
627.43	51968.39
627.785	51905.34
628.14	51930.2
628.495	51927.49
628.85	51951.44
629.205	51821.28
629.559	52031.44
629.914	51925.91
630.269	52052.46
630.623	51933.59
630.978	51902.86
631.332	52064.21
631.687	51981.73
632.041	51866.7
632.396	51841.62
632.75	51769.98
633.104	51752.81
633.459	51649.31
633.813	51662.19
634.167	51567.73
634.521	51561.4
634.875	51628.74
635.229	51546.94
635.583	51396.88
635.937	51245.7
636.291	51277.56
636.645	51441.4
636.999	51223.55
637.352	51345.13
637.706	51164.57
638.06	51300.16
638.413	51111.69
638.767	51076.21
639.121	51192.82
639.474	50843.68
639.828	51010.68
640.181	51092.71
640.534	50965.71
640.888	50828.99
641.241	50661.54
641.594	50761.87
641.947	50739.27
642.301	50647.98
642.654	50768.88
643.007	50659.95
643.36	50576.79
643.713	50589.22
644.066	50738.14
644.419	50498.83
644.771	50213.86
645.124	49860.65
645.477	49934.32
645.83	49647.32
646.182	49524.39
646.535	49432.19
646.888	49461.57
647.24	49244.4
647.593	49455.47
647.945	49324.62
648.298	49198.3
648.65	49031.07
649.002	48983.61
649.355	49176.6
649.707	49011.41
650.059	49309.93
650.411	49648.68
650.763	49739.98
651.115	50164.83
651.467	49866.08
651.819	49864.04
652.171	49861.1
652.523	49787.43
652.875	49739.53
653.227	49667.89
653.578	49791.95
653.93	49616.82
654.282	49439.19
654.633	49354.22
654.985	49454.79
655.337	49418.63
655.688	49366.43
656.039	49489.81
656.391	49175.7
656.742	49335.92
657.094	49204.62
657.445	49334.56
657.796	49266.54
658.147	49122.59
658.498	49147.22
658.849	49231.06
659.2	48988.13
659.551	48987.91
659.902	49151.29
660.253	49033.78
660.604	49082.37
660.955	48825.2
661.306	49109.26
661.656	48995.59
662.007	48939.32
662.358	48892.99
662.708	48867.23
663.059	48811.19
663.409	48566.45
663.76	48846.44
664.11	48873.56
664.461	48721.7
664.811	48753.11
665.161	48721.7
665.511	48544.98
665.862	48604.19
666.212	48808.02
666.562	48723.51
666.912	48535.94
667.262	48478.54
667.612	48385.44
667.962	48449.39
668.312	48340.01
668.662	48510.18
669.011	48445.32
669.361	48382.5
669.711	48336.17
670.06	48246.68
670.41	48231.09
670.76	48177.08
671.109	48226.34
671.459	48212.11
671.808	48132.56
672.157	48289.62
672.507	48083.52
672.856	48075.16
673.205	48050.3
673.554	48267.47
673.904	48059.8
674.253	48268.15
674.602	48141.6
674.951	47471.79
675.3	47373.71
675.649	48074.03
675.998	47908.61
676.346	47955.84
676.695	48005.11
677.044	47744.32
677.393	47754.72
677.741	47835.85
678.09	47656.19
678.438	47502.07
678.787	47583.88
679.135	47606.93
679.484	47244.22
679.832	47421.62
680.181	47264.56
680.529	47426.59
680.877	47203.55
681.225	47114.28
681.573	47447.83
681.922	47032.93
682.27	47049.43
682.618	47159.93
682.966	46966.04
683.314	47106.37
683.661	46905.25
684.009	46641.08
684.357	46654.41
684.705	46615.99
685.053	46667.74
685.4	46388.2
685.748	46451.7
686.095	46242.89
686.443	46163.57
686.79	46134.87
687.138	46107.53
687.485	46205.83
687.832	45956.57
688.18	45920.87
688.527	45784.38
688.874	45775.34
689.221	45594.32
689.568	45570.14
689.915	45444.05
690.262	45482.24
690.609	45271.17
690.956	45156.37
691.303	45266.87
691.65	44879.77
691.997	44985.07
692.344	44581.47
692.69	44697.62
693.037	44609.94
693.383	44329.5
693.73	44435.48
694.077	44295.83
694.423	44289.05
694.769	44153.68
695.116	44099.9
695.462	43963.41
695.808	43790.98
696.155	43744.65
696.501	43579.01
696.847	43551.67
697.193	43205.69
697.539	43377.88
697.885	42953.04
698.231	42929.76
698.577	42915.75
698.923	42842.08
699.269	42715.3
699.614	42412.49
699.96	42276.22
700.306	42427.4
700.651	42052.72
700.997	42017.69
701.342	42116.45
701.688	42003.46
702.033	41897.02
702.379	41641.21
702.724	41580.19
703.069	41683.69
703.415	41332.97
703.76	41325.51
704.105	41198.28
704.45	41163.48
704.795	40860.21
705.14	40741.12
705.485	40623.83
705.83	40598.97
706.175	40516.27
706.52	40571.4
706.865	40360.79
707.209	40203.51
707.554	40022.04
707.899	40242.6
708.243	39918.99
708.588	39836.74
708.932	39636.06
709.277	39689.85
709.621	39630.64
709.966	39272.91
710.31	39452.79
710.654	39179.58
710.998	39109.97
711.342	39081.27
711.687	38981.62
712.031	38875.86
712.375	38653.26
712.719	38721.06
713.063	38623.21
713.407	38606.94
713.75	38477.45
714.094	38472.25
714.438	38387.73
714.782	38233.16
715.125	38074.75
715.469	38168.3
715.812	37941.42
716.156	37733.29
716.499	37846.28
716.843	37929.89
717.186	37662.78
717.53	37850.12
717.873	37872.72
718.216	37557.47
718.559	37451.04
718.902	37277.71
719.246	37380.3
719.589	37139.4
719.932	37034.1
720.275	37030.71
720.617	36903.48
720.96	36910.48
721.303	36790.04
721.646	36912.07
721.989	36603.83
722.331	36649.25
722.674	36523.6
723.016	36585.97
723.359	36409.71
723.701	36588.68
724.044	36309.82
724.386	36173.33
724.729	36268.02
725.071	36242.48
725.413	36197.28
725.755	36000.9
726.097	35936.27
726.439	35762.94
726.782	35840.91
727.124	35913.9
727.465	35637.07
727.807	35552.33
728.149	35597.3
728.491	35428.04
728.833	35489.05
729.175	35410.18
729.516	35334.48
729.858	35160.02
730.199	35298.78
730.541	35182.17
730.882	35272.79
731.224	35169.29
731.565	34940.59
731.906	34942.85
732.248	34805.68
732.589	34742.18
732.93	34568.17
733.271	34466.03
733.612	34652.46
733.953	34594.84
734.294	34338.12
734.635	34315.3
734.976	34491.11
735.317	34145.36
735.658	34152.14
735.999	34171.57
736.339	34150.56
736.68	34147.39
737.021	33860.39
737.361	33970.22
737.702	34035.98
738.042	33803.45
738.383	33737.23
738.723	33801.41
739.063	33686.16
739.404	33803
739.744	33715.09
740.084	33457.69
740.424	33542.21
740.764	33432.16
741.104	33547.86
741.444	33213.63
741.784	33235.33
742.124	33252.5
742.464	33238.72
742.804	33126.63
743.143	33007.99
743.483	33112.84
743.823	32804.38
744.162	32855.9
744.502	32803.02
744.841	32681.22
745.181	32905.17
745.52	32711.05
745.86	32794.89
746.199	32600.32
746.538	32453.2
746.877	32464.5
747.216	32509.92
747.556	32315.8
747.895	32294.33
748.234	32163.72
748.573	32030.16
748.911	32013.66
749.25	31950.61
749.589	31768.02
749.928	31889.6
750.267	31922.14
750.605	31670.62
750.944	31614.8
751.283	31461.81
751.621	31657.29
751.96	31396.05
752.298	31396.05
752.636	31245.32
752.975	31223.85
