Data from aluminium_surface_pro_back_FLMS001491_00047.txt Node
Date: Wed Feb 08 15:34:07 GMT 2017
User: dcchb
Spectrometer: FLMS00149
Trigger mode: 0
Integration Time (sec): 2.000000E-2
Scans to average: 10
Electric dark correction enabled: true
Nonlinearity correction enabled: false
Boxcar width: 0
XAxis mode: Wavelengths
Number of Pixels in Spectrum: 2048
>>>>>Begin Spectral Data<<<<<
341.393	-19.32
341.776	-19.32
342.16	-19.32
342.543	-76.95
342.927	-58.19
343.31	-64.29
343.693	-82.37
344.077	-73.11
344.46	-59.32
344.843	-41.69
345.226	-55.03
345.61	-12.09
345.993	-16.16
346.376	-28.81
346.759	12.32
347.142	16.61
347.525	36.27
347.908	63.84
348.291	92.77
348.674	101.35
349.057	109.71
349.44	128.47
349.823	130.05
350.206	158.98
350.588	220.9
350.971	252.31
351.354	239.88
351.737	272.65
352.119	281.01
352.502	279.65
352.884	272.87
353.267	315.36
353.65	314
354.032	334.12
354.414	328.24
354.797	320.78
355.179	328.92
355.562	341.35
355.944	350.61
356.326	354.23
356.709	355.81
357.091	361.01
357.473	372.08
357.855	374.11
358.238	368.92
358.62	364.62
359.002	351.74
359.384	372.98
359.766	373.66
360.148	385.64
360.53	355.36
360.912	364.17
361.294	358.52
361.676	356.04
362.057	374.57
362.439	355.36
362.821	359.88
363.203	342.02
363.584	351.74
363.966	363.27
364.348	354.23
364.729	370.5
365.111	364.62
365.493	369.14
365.874	370.27
366.256	361.23
366.637	353.55
367.019	355.36
367.4	358.52
367.781	377.28
368.163	357.39
368.544	371.4
368.925	355.58
369.306	359.65
369.688	391.74
370.069	354.91
370.45	382.25
370.831	357.39
371.212	382.02
371.593	392.65
371.974	397.62
372.355	370.27
372.736	381.35
373.117	361.69
373.498	386.32
373.879	365.98
374.26	360.33
374.641	377.96
375.021	368.46
375.402	388.13
375.783	397.16
376.163	438.52
376.544	398.75
376.925	391.52
377.305	408.01
377.686	408.92
378.066	402.59
378.447	421.34
378.827	432.42
379.208	412.98
379.588	412.98
379.968	394.45
380.349	413.89
380.729	421.57
381.109	430.61
381.489	416.37
381.87	449.82
382.25	448.24
382.63	436.49
383.01	458.86
383.39	448.01
383.77	430.84
384.15	475.13
384.53	450.95
384.91	485.98
385.29	463.38
385.67	480.55
386.049	471.06
386.429	503.6
386.809	509.03
387.189	495.24
387.568	509.7
387.948	506.31
388.328	488.91
388.707	520.1
389.087	530.95
389.466	538.63
389.846	547.9
390.225	544.73
390.605	525.07
390.984	537.5
391.363	560.32
391.743	576.82
392.122	565.52
392.501	573.88
392.881	579.53
393.26	554.9
393.639	616.82
394.018	587.22
394.397	601.45
394.776	589.25
395.155	596.03
395.534	631.51
395.913	617.5
396.292	659.3
396.671	635.8
397.05	643.49
397.429	644.62
397.808	659.3
398.186	668.12
398.565	674.9
398.944	673.77
399.323	686.42
399.701	713.31
400.08	683.94
400.458	718.96
400.837	716.7
401.215	732.52
401.594	716.93
401.972	705.86
402.351	719.87
402.729	749.25
403.107	769.13
403.486	739.98
403.864	777.49
404.242	765.29
404.62	777.72
404.999	804.16
405.377	820.43
405.755	816.36
406.133	799.87
406.511	813.2
406.889	849.13
407.267	869.92
407.645	886.42
408.023	882.58
408.401	905.4
408.779	913.31
409.156	928
409.534	909.47
409.912	956.02
410.29	956.7
410.667	964.38
411.045	1000.76
411.422	989.24
411.8	992.18
412.178	1002.57
412.555	1045.51
412.933	1041.44
413.31	1038.5
413.687	1062.46
414.065	1050.48
414.442	1075.34
414.819	1093.64
415.197	1112.85
415.574	1130.7
415.951	1168.22
416.328	1155.56
416.705	1182.91
417.082	1169.8
417.46	1226.3
417.837	1215.67
418.214	1208.67
418.591	1216.8
418.967	1247.54
419.344	1244.6
419.721	1285.28
420.098	1271.04
420.475	1311.49
420.852	1298.61
421.228	1315.11
421.605	1324.82
421.982	1318.04
422.358	1363.47
422.735	1375.9
423.111	1395.56
423.488	1403.24
423.864	1411.6
424.241	1438.04
424.617	1417.93
424.994	1439.62
425.37	1445.05
425.746	1464.48
426.123	1488.89
426.499	1527.53
426.875	1558.26
427.251	1586.51
427.627	1578.38
428.003	1611.82
428.379	1615.66
428.756	1639.17
429.132	1668.32
429.507	1704.02
429.883	1702.22
430.259	1717.36
430.635	1720.97
431.011	1735.89
431.387	1769.11
431.763	1838.93
432.138	1829.44
432.514	1878.26
432.89	1849.56
433.265	1933.85
433.641	1947.63
434.016	1964.58
434.392	1985.37
434.767	2005.48
435.143	2053.39
435.518	2076.22
435.894	2080.96
436.269	2095.88
436.644	2170.45
437.02	2165.03
437.395	2184.24
437.77	2185.37
438.145	2236.89
438.52	2240.05
438.895	2252.71
439.271	2301.07
439.646	2355.76
440.021	2325.7
440.395	2385.81
440.77	2344.46
441.145	2396.89
441.52	2425.13
441.895	2425.36
442.27	2450.22
442.645	2459.48
443.019	2520.5
443.394	2500.39
443.769	2530.89
444.143	2539.48
444.518	2570.67
444.892	2572.25
445.267	2580.61
445.641	2623.77
446.016	2634.39
446.39	2673.72
446.764	2684.79
447.139	2681.85
447.513	2708.97
447.887	2708.52
448.262	2745.35
448.636	2773.37
449.01	2805.24
449.384	2812.69
449.758	2872.58
450.132	2862.64
450.506	2899.25
450.88	2915.97
451.254	2909.42
451.628	2997.32
452.002	3022.18
452.376	3025.8
452.75	3074.38
453.123	3124.55
453.497	3143.76
453.871	3198.22
454.244	3231.21
454.618	3216.53
454.992	3292.46
455.365	3325
455.739	3397.31
456.112	3411.55
456.486	3406.58
456.859	3497.87
457.232	3551.88
457.606	3577.65
457.979	3590.53
458.352	3663.07
458.725	3744.65
459.099	3749.39
459.472	3805.66
459.845	3870.07
460.218	3867.81
460.591	3934.92
460.964	3962.49
461.337	4069.16
461.71	4138.99
462.083	4215.37
462.456	4195.03
462.829	4213.56
463.201	4301.47
463.574	4287.46
463.947	4350.51
464.32	4449.26
464.692	4473.67
465.065	4497.62
465.438	4594.34
465.81	4688.35
466.183	4705.3
466.555	4810.61
466.928	4810.83
467.3	4818.07
467.672	4962.69
468.045	5066.19
468.417	5077.27
468.789	5078.17
469.161	5148.9
469.534	5293.08
469.906	5374.89
470.278	5432.29
470.65	5476.13
471.022	5574.43
471.394	5663.69
471.766	5740.53
472.138	5775.1
472.51	5917.92
472.882	6055.32
473.253	6074.53
473.625	6171.02
473.997	6328.31
474.369	6369.21
474.74	6493.5
475.112	6556.55
475.484	6664.34
475.855	6827.05
476.227	6854.4
476.598	7039.93
476.97	7088.74
477.341	7234.05
477.713	7371.67
478.084	7443.99
478.455	7620.03
478.827	7705
479.198	8021.6
479.569	7949.96
479.94	8224.76
480.311	8226.56
480.682	8399.89
481.053	8592.43
481.424	8732.99
481.795	8835.36
482.166	8978.18
482.537	9075.35
482.908	9331.39
483.279	9401.22
483.65	9571.16
484.021	9666.53
484.391	9855.9
484.762	9939.06
485.133	10090.47
485.503	10205.72
485.874	10507.63
486.244	10579.04
486.615	10764.8
486.985	10870.79
487.356	11102.87
487.726	11157.11
488.097	11440.04
488.467	11441.62
488.837	11716.42
489.207	11758.9
489.578	12010.19
489.948	12092
490.318	12354.14
490.688	12349.17
491.058	12638.42
491.428	12772.43
491.798	12903.5
492.168	13213.78
492.538	13257.84
492.908	13402.02
493.278	13482.02
493.648	13595.91
494.017	13795.23
494.387	13906.87
494.757	13950.71
495.126	14245.16
495.496	14229.57
495.866	14343.46
496.235	14500.07
496.605	14672.72
496.974	14744.13
497.344	14891.92
497.713	14978.48
498.082	15076.1
498.452	15280.84
498.821	15354.51
499.19	15321.52
499.559	15594.73
499.928	15662.98
500.298	15807.83
500.667	15905.46
501.036	15929.86
501.405	16135.28
501.774	16124.66
502.143	16302.28
502.512	16460.92
502.88	16642.16
503.249	16623.86
503.618	16739.33
503.987	16845.55
504.356	16911.53
504.724	17065.43
505.093	17151.75
505.462	17269.94
505.83	17384.51
506.199	17562.59
506.567	17781.34
506.936	17790.15
507.304	18049.13
507.672	18068.79
508.041	18176.81
508.409	18334.77
508.777	18557.37
509.145	18589
509.514	18716.46
509.882	18849.11
510.25	18868.09
510.618	19076.67
510.986	19103.11
511.354	19341.53
511.722	19525.7
512.09	19743.1
512.458	19750.55
512.826	20000.94
513.193	20011.34
513.561	20107.38
513.929	20337.43
514.297	20483.42
514.664	20702.39
515.032	20728.16
515.4	21000.24
515.767	21066
516.135	21277.75
516.502	21102.61
516.869	21610.17
517.237	21723.16
517.604	21626.21
517.972	21999.08
518.339	22147.78
518.706	22163.82
519.073	22357.27
519.44	22493.98
519.808	22733.98
520.175	22797.48
520.542	23147.75
520.909	23223.01
521.276	23184.14
521.643	23544.35
522.009	23787.06
522.376	23947.05
522.743	24153.15
523.11	24298.68
523.477	24538.22
523.843	24755.62
524.21	25017.99
524.577	25254.14
524.943	25426.11
525.31	25592.21
525.676	25802.82
526.043	25900
526.409	26047.79
526.776	26428.34
527.142	26457.72
527.508	26565.52
527.874	26876.69
528.241	26992.62
528.607	27130.7
528.973	27244.37
529.339	27401.88
529.705	27696.11
530.071	27978.81
530.437	27962.09
530.803	28164.57
531.169	28369.76
531.535	28390.55
531.901	28621.51
532.267	28787.6
532.632	28918.45
532.998	29079.12
533.364	29326.35
533.73	29264.2
534.095	29597.07
534.461	29687.69
534.826	29819.67
535.192	30009.95
535.557	30314.8
535.923	30254.91
536.288	30343.72
536.653	30499.2
537.019	30505.53
537.384	30665.07
537.749	30860.09
538.114	30834.78
538.479	30966.53
538.845	31165.85
539.21	31144.83
539.575	31444.48
539.94	31393.41
540.305	31643.57
540.67	31667.3
541.034	31826.62
541.399	31908.2
541.764	31939.84
542.129	32143.22
542.494	32045.82
542.858	32192.03
543.223	32280.85
543.587	32479.26
543.952	32437.9
544.316	32655.98
544.681	32615.53
545.045	32788.86
545.41	33055.74
545.774	33013.93
546.138	33003.09
546.503	33241.05
546.867	33187.94
547.231	33572.79
547.595	33618.66
547.959	33781.37
548.324	33797.19
548.688	33954.25
549.052	34103.17
549.416	34042.16
549.779	34280.12
550.143	34359.44
550.507	34635.13
550.871	34820.21
551.235	34802.36
551.599	35054.33
551.962	35178.17
552.326	35357.15
552.689	35420.65
553.053	35415.68
553.417	35497.03
553.78	35995.55
554.143	35692.06
554.507	36124.13
554.87	36100.18
555.234	36480.51
555.597	36348.08
555.96	36476.67
556.323	36630.11
556.686	36772.03
557.05	36976.09
557.413	37134.73
557.776	37278
558.139	37526.58
558.502	37621.5
558.865	37687.03
559.228	37922.96
559.59	38161.37
559.953	38339.67
560.316	38658.98
560.679	38616.5
561.041	38906.21
561.404	39026.43
561.767	39219.19
562.129	39189.14
562.492	39507.32
562.854	39520.43
563.217	39628.45
563.579	39744.6
563.941	39923.36
564.304	40172.84
564.666	40515.43
565.028	40615.77
565.39	40794.52
565.753	40991.58
566.115	41164.91
566.477	41314.51
566.839	41418.46
567.201	41724.44
567.563	41790.2
567.925	42222.51
568.287	42220.92
568.648	42312.9
569.01	42385.89
569.372	42747.24
569.734	42796.73
570.095	43073.1
570.457	43309.48
570.819	43328.69
571.18	43442.36
571.542	43705.4
571.903	43849.36
572.265	43963.7
572.626	43997.15
572.987	44177.71
573.349	44276.46
573.71	44469.9
574.071	44646.85
574.432	44714.42
574.794	44960.29
575.155	44935.2
575.516	44897.46
575.877	45106.95
576.238	45228.3
576.599	45321.41
576.96	45638.69
577.32	45504.45
577.681	45855.18
578.042	45747.61
578.403	45837.33
578.763	46005.01
579.124	46084.55
579.485	46298.78
579.845	46423.53
580.206	46378.1
580.566	46351.44
580.927	46395.28
581.287	46739.45
581.648	46594.37
582.008	46860.12
582.368	46656.29
582.728	46811.31
583.089	46583.07
583.449	46803.18
583.809	46835.49
584.169	46938.54
584.529	46838.43
584.889	47138.76
585.249	46901.25
585.609	46909.84
585.969	47164.3
586.329	47023.51
586.688	47110.29
587.048	47016.28
587.408	47040.01
587.768	47077.52
588.127	46968.37
588.487	47112.09
588.846	47320
589.206	47107.57
589.565	47044.75
589.925	47442.03
590.284	47272.77
590.643	47326.55
591.003	47240.23
591.362	47374.46
591.721	47286.1
592.08	47337.17
592.44	47391.64
592.799	47377.62
593.158	47459.66
593.517	47383.5
593.876	47473.67
594.235	47349.38
594.593	47442.93
594.952	47588.92
595.311	47442.93
595.67	47522.03
596.029	47646.09
596.387	47776.03
596.746	47828.01
597.104	47556.6
597.463	47628.47
597.822	47928.12
598.18	47712.76
598.538	47692.87
598.897	47994.78
599.255	47717.05
599.613	48203.59
599.972	47988.91
600.33	48164.95
600.688	47897.16
601.046	47953.43
601.404	48090.37
601.762	48059.41
602.12	48291.5
602.478	48210.37
602.836	48376.02
603.194	48030.71
603.552	48193.42
603.91	48188.68
604.268	48228.68
604.625	48176.7
604.983	48307.32
605.341	48253.76
605.698	48467.99
606.056	48541.66
606.413	48446.75
606.771	48594.99
607.128	48629.34
607.485	48460.08
607.843	48493.53
608.2	48657.14
608.557	48759.28
608.914	48610.36
609.272	48812.61
609.629	48874.08
609.986	49020.52
610.343	48812.39
610.7	49150.46
611.057	48912.5
611.414	48923.57
611.771	49014.42
612.127	49145.26
612.484	49094.19
612.841	49264.35
613.198	49080.4
613.554	49263
613.911	49447.4
614.267	49348.19
614.624	49313.84
614.98	49335.54
615.337	49559.94
615.693	49502.09
616.05	49469.55
616.406	49681.29
616.762	49522.43
617.118	49539.83
617.475	49588.64
617.831	49815.75
618.187	49702.31
618.543	49709.09
618.899	49855.3
619.255	49767.17
619.611	49776.21
619.967	49867.05
620.323	50001.96
620.678	49854.4
621.034	49872.25
621.39	49875.86
621.746	49801.52
622.101	50196.31
622.457	49924.68
622.812	49932.36
623.168	50025.46
623.523	50026.37
623.879	50217.1
624.234	49973.49
624.589	50044.67
624.945	49987.95
625.3	50135.07
625.655	50042.86
626.01	50133.48
626.365	50029.08
626.72	50050.77
627.075	49977.1
627.43	50035.41
627.785	49962.87
628.14	49865.47
628.495	50000.83
628.85	49979.36
629.205	49852.14
629.559	49999.93
629.914	49786.6
630.269	49781.63
630.623	49806.26
630.978	49678.58
631.332	49858.92
631.687	49916.77
632.041	49668.64
632.396	49682.42
632.75	49692.14
633.104	49726.26
633.459	49515.42
633.813	49490.11
634.167	49513.39
634.521	49396.33
634.875	49557.45
635.229	49434.97
635.583	49305.48
635.937	49387.06
636.291	49282.43
636.645	49232.72
636.999	49070.91
637.352	49318.82
637.706	49056.45
638.06	49123.57
638.413	48956.11
638.767	48975.32
639.121	48968.54
639.474	48777.14
639.828	48658.04
640.181	48906.4
640.534	48794.99
640.888	48720.64
641.241	48482.45
641.594	48710.92
641.947	48747.08
642.301	48523.58
642.654	48702.34
643.007	48599.51
643.36	48528.78
643.713	48374.66
644.066	48583.69
644.419	48325.4
644.771	48045.86
645.124	47780.1
645.477	47742.36
645.83	47327.23
646.182	47123.85
646.535	47113
646.888	47044.53
647.24	46918.43
647.593	47226.22
647.945	47067.35
648.298	46933.12
648.65	46731.09
649.002	46630.07
649.355	46795.04
649.707	46692.67
650.059	46866.45
650.411	47322.03
650.763	47223.28
651.115	47638.18
651.467	47435.02
651.819	47480.22
652.171	47412.88
652.523	47390.05
652.875	47237.06
653.227	47169.27
653.578	47316.16
653.93	47230.74
654.282	46967.92
654.633	46928.14
654.985	46935.38
655.337	46874.81
655.688	46854.93
656.039	47117.07
656.391	46699.45
656.742	46792.1
657.094	46619.45
657.445	46898.54
657.796	46807.7
658.147	46691.54
658.498	46642.73
658.849	46726.57
659.2	46561.83
659.551	46494.71
659.902	46634.82
660.253	46537.19
660.604	46684.76
660.955	46441.15
661.306	46528.16
661.656	46370.65
662.007	46397.09
662.358	46447.25
662.708	46418.78
663.059	46381.04
663.409	46149.18
663.76	46315.51
664.11	46372.9
664.461	46321.38
664.811	46308.73
665.161	46229.41
665.511	46143.98
665.862	46121.84
666.212	46270.31
666.562	46117.32
666.912	46088.62
667.262	46032.8
667.612	46161.39
667.962	46098.34
668.312	45870.55
668.662	46249.29
669.011	45957.55
669.361	45919.13
669.711	45898.57
670.06	45789.87
670.41	45876.42
670.76	45764.33
671.109	45861.51
671.459	45776.99
671.808	45636.65
672.157	45787.61
672.507	45520.05
672.856	45581.74
673.205	45593.49
673.554	45691.11
673.904	45530.67
674.253	45837.33
674.602	45558.24
674.951	44925.49
675.3	44858.59
675.649	45405.47
675.998	45191.02
676.346	45316.89
676.695	45563.66
677.044	45113.5
677.393	45337.45
677.741	45272.37
678.09	45190.79
678.438	45125.93
678.787	45262.2
679.135	45343.78
679.484	44939.04
679.832	45067.85
680.181	44975.65
680.529	44972.04
680.877	44814.3
681.225	44819.73
681.573	45026.05
681.922	44694.53
682.27	44448.89
682.618	44588.55
682.966	44449.57
683.314	44539.28
683.661	44415.22
684.009	44163.25
684.357	44082.34
684.705	44119.63
685.053	44152.17
685.4	44083.02
685.748	43847.77
686.095	43930.48
686.443	43690.26
686.79	43668.12
687.138	43555.13
687.485	43663.37
687.832	43502.25
688.18	43447.78
688.527	43267
688.874	43270.16
689.221	43186.32
689.568	43121.47
689.915	42943.62
690.262	42824.98
690.609	42767.58
690.956	42601.25
691.303	42657.07
691.65	42526.9
691.997	42468.37
692.344	42218.89
692.69	42074.94
693.037	42091.66
693.383	41759.47
693.73	42051.44
694.077	41545.46
694.423	41651.45
694.769	41460.72
695.116	41368.97
695.462	41406.71
695.808	41211.68
696.155	41351.12
696.501	40945.93
696.847	40970.34
697.193	40681.3
697.539	40930.11
697.885	40713.62
698.231	40463.91
698.577	40431.14
698.923	40427.07
699.269	40199.73
699.614	40058.49
699.96	40005.84
700.306	39990.25
700.651	39593.65
700.997	39491.96
701.342	39563.14
701.688	39395.69
702.033	39354.78
702.379	39238.18
702.724	39194.56
703.069	39292.64
703.415	38795.25
703.76	38967.22
704.105	38874.57
704.45	38710.28
704.795	38534.47
705.14	38397.97
705.485	38375.38
705.83	38155.72
706.175	38320.24
706.52	38195.49
706.865	37962.05
707.209	37979.23
707.554	37727.71
707.899	37885.67
708.243	37667.37
708.588	37553.7
708.932	37389.64
709.277	37396.42
709.621	37267.38
709.966	37000.04
710.31	37141.06
710.654	36695.19
710.998	36764.12
711.342	36806.15
711.687	36881.18
712.031	36573.84
712.375	36450.23
712.719	36614.74
713.063	36376.78
713.407	36556.67
713.75	36319.38
714.094	36182.44
714.438	36184.47
714.782	36302.89
715.125	36007.98
715.469	35940.64
715.812	35665.39
716.156	35504.94
716.499	35660.19
716.843	35667.42
717.186	35430.14
717.53	35516.24
717.873	35412.74
718.216	35359.41
718.559	35232.86
718.902	35052.52
719.246	35104.27
719.589	35013.2
719.932	34895.92
720.275	34874.68
720.617	34680.11
720.96	34873.32
721.303	34770.27
721.646	34601.46
721.989	34344.52
722.331	34571.86
722.674	34277.4
723.016	34376.61
723.359	34221.59
723.701	34326.67
724.044	34081.48
724.386	33924.19
724.729	33955.38
725.071	33831.09
725.413	33902.5
725.755	33855.95
726.097	33730.53
726.439	33570.53
726.782	33729.4
727.124	33762.62
727.465	33556.29
727.807	33504.54
728.149	33460.25
728.491	33385.68
728.833	33405.11
729.175	33271.78
729.516	33277.2
729.858	33212.12
730.199	33154.72
730.541	33062.97
730.882	32947.72
731.224	33022.75
731.565	32801.28
731.906	32911.56
732.248	32764.45
732.589	32719.03
732.93	32449.2
733.271	32437.45
733.612	32620.27
733.953	32561.97
734.294	32418.92
734.635	32307.29
734.976	32362.2
735.317	32155.65
735.658	32225.48
735.999	32030.91
736.339	32097.12
736.68	31994.53
737.021	32044.24
737.361	31874.3
737.702	31863
738.042	31720.18
738.383	31701.65
738.723	31826.39
739.063	31553.41
739.404	31668.21
739.744	31576.23
740.084	31374.43
740.424	31506.86
740.764	31339.4
741.104	31338.95
741.444	31192.06
741.784	31139.86
742.124	31221.44
742.464	31258.27
742.804	31020.31
743.143	31084.72
743.483	30973.08
743.823	30873.43
744.162	30834.78
744.502	30853.09
744.841	30617.39
745.181	30733.99
745.52	30515.24
745.86	30517.5
746.199	30593.43
746.538	30428.01
746.877	30590.72
747.216	30484.28
747.556	30194.35
747.895	30395.92
748.234	30103.95
748.573	30127.23
748.911	30081.58
749.25	30031.41
749.589	29932.21
749.928	30091.98
750.267	30040.45
750.605	29870.51
750.944	29831.87
751.283	29826.45
751.621	29726.11
751.96	29570.86
752.298	29614.25
752.636	29572.89
752.975	29441.15
