Data from aluminium_macbook_case_FLMS001491_042.txt Node
Date: Tue Feb 07 10:43:39 GMT 2017
User: dcchb
Spectrometer: FLMS00149
Trigger mode: 0
Integration Time (sec): 2.000000E-2
Scans to average: 10
Electric dark correction enabled: true
Nonlinearity correction enabled: false
Boxcar width: 0
XAxis mode: Wavelengths
Number of Pixels in Spectrum: 2048
>>>>>Begin Spectral Data<<<<<
341.393	-14.73
341.776	-14.73
342.16	-14.73
342.543	-53.83
342.927	-65.8
343.31	-80.72
343.693	-74.84
344.077	-78.68
344.46	-33.71
344.843	-46.82
345.226	-48.63
345.61	-50.89
345.993	-13.15
346.376	-2.75
346.759	18.04
347.142	14.42
347.525	48.54
347.908	63.01
348.291	77.02
348.674	88.54
349.057	120.63
349.44	128.77
349.823	117.47
350.206	169.67
350.588	241.76
350.971	279.72
351.354	280.4
351.737	300.06
352.119	296
352.502	322.21
352.884	330.12
353.267	323.79
353.65	341.19
354.032	361.76
354.414	356.56
354.797	366.5
355.179	379.16
355.562	375.77
355.944	405.82
356.326	388.2
356.709	417.57
357.091	411.25
357.473	383.22
357.855	388.2
358.238	397.01
358.62	413.96
359.002	407.86
359.384	400.63
359.766	425.03
360.148	418.7
360.53	421.87
360.912	405.37
361.294	405.82
361.676	407.18
362.057	391.13
362.439	407.86
362.821	404.01
363.203	401.08
363.584	412.15
363.966	390
364.348	419.61
364.729	423.68
365.111	417.12
365.493	417.35
365.874	426.84
366.256	433.62
366.637	432.49
367.019	427.74
367.4	420.74
367.781	445.37
368.163	414.86
368.544	434.97
368.925	435.43
369.306	426.16
369.688	442.43
370.069	437.91
370.45	426.16
370.831	429.32
371.212	423.68
371.593	436.33
371.974	460.96
372.355	463.9
372.736	466.61
373.117	453.28
373.498	458.02
373.879	445.82
374.26	468.42
374.641	468.65
375.021	448.76
375.402	453.96
375.783	501.19
376.163	533.28
376.544	493.5
376.925	508.87
377.305	498.25
377.686	514.52
378.066	513.39
378.447	525.59
378.827	520.85
379.208	521.3
379.588	498.48
379.968	526.05
380.349	529.44
380.729	528.98
381.109	539.38
381.489	560.62
381.87	555.65
382.25	574.63
382.63	576.67
383.01	564.46
383.39	576.21
383.77	571.47
384.15	552.94
384.53	586.83
384.91	597.46
385.29	629.32
385.67	626.83
386.049	631.81
386.429	656.89
386.809	634.52
387.189	658.25
387.568	650.34
387.948	661.86
388.328	655.31
388.707	690.79
389.087	669.32
389.466	693.72
389.846	707.96
390.225	688.53
390.605	727.4
390.984	709.54
391.363	753.84
391.743	723.55
392.122	750.22
392.501	758.36
392.881	789.09
393.26	775.98
393.639	777.11
394.018	814.85
394.397	801.52
394.776	820.5
395.155	830.44
395.534	837.45
395.913	834.29
396.292	854.62
396.671	879.03
397.05	854.62
397.429	879.03
397.808	867.96
398.186	898.69
398.565	904.79
398.944	930.1
399.323	939.14
399.701	938.69
400.08	928.29
400.458	972.36
400.837	966.94
401.215	984.11
401.594	983.66
401.972	1006.48
402.351	1029.76
402.729	1014.62
403.107	1006.71
403.486	1067.95
403.864	1041.74
404.242	1071.12
404.62	1113.15
404.999	1104.34
405.377	1142.75
405.755	1128.29
406.133	1155.63
406.511	1137.1
406.889	1145.92
407.267	1203.54
407.645	1216.2
408.023	1239.02
408.401	1236.31
408.779	1254.61
409.156	1281.73
409.534	1305.23
409.912	1327.15
410.29	1349.07
410.667	1358.34
411.045	1378.45
411.422	1403.76
411.8	1416.87
412.178	1408.51
412.555	1458
412.933	1465.91
413.31	1510.43
413.687	1536.64
414.065	1540.71
414.442	1535.74
414.819	1589.52
415.197	1596.53
415.574	1604.21
415.951	1646.69
416.328	1662.51
416.705	1675.39
417.082	1688.27
417.46	1684.43
417.837	1707.03
418.214	1729.63
418.591	1775.05
418.967	1757.65
419.344	1799.23
419.721	1792.68
420.098	1800.14
420.475	1867.03
420.852	1880.36
421.228	1880.59
421.605	1902.73
421.982	1946.8
422.358	1968.27
422.735	1997.87
423.111	1987.02
423.488	2045.55
423.864	2049.62
424.241	2059.11
424.617	2095.04
424.994	2125.55
425.37	2151.99
425.746	2157.19
426.123	2194.93
426.499	2202.84
426.875	2231.76
427.251	2287.58
427.627	2338.65
428.003	2381.14
428.379	2408.71
428.756	2399.67
429.132	2471.08
429.507	2484.19
429.883	2521.7
430.259	2587.23
430.635	2593.56
431.011	2641.24
431.387	2684.86
431.763	2741.81
432.138	2713.56
432.514	2788.58
432.89	2789.49
433.265	2882.37
433.641	2946.77
434.016	2936.38
434.392	2958.07
434.767	3038.97
435.143	3057.73
435.518	3097.96
435.894	3166.43
436.269	3200.33
436.644	3236.71
437.02	3243.04
437.395	3251.17
437.77	3321.68
438.145	3413.43
438.52	3416.14
438.895	3444.16
439.271	3457.95
439.646	3532.75
440.021	3572.97
440.395	3614.1
440.77	3614.78
441.145	3648.68
441.52	3691.61
441.895	3664.72
442.27	3762.8
442.645	3749.46
443.019	3835.56
443.394	3773.42
443.769	3856.58
444.143	3895.22
444.518	3929.35
444.892	3909.23
445.267	3960.98
445.641	4027.42
446.016	4063.35
446.39	4058.38
446.764	4075.1
447.139	4114.43
447.513	4191.49
447.887	4204.37
448.262	4228.77
448.636	4280.98
449.01	4328.88
449.384	4406.17
449.758	4414.3
450.132	4439.16
450.506	4471.7
450.88	4508.09
451.254	4535.66
451.628	4597.8
452.002	4688.87
452.376	4683.45
452.75	4748.08
453.123	4754.63
453.497	4831.02
453.871	4879.6
454.244	4996.66
454.618	5057.45
454.992	5136.55
455.365	5111.46
455.739	5217.45
456.112	5292.25
456.486	5354.62
456.859	5402.53
457.232	5515.74
457.606	5513.48
457.979	5649.75
458.352	5746.93
458.725	5777.66
459.099	5843.42
459.472	6000.7
459.845	6050.65
460.218	6091.32
460.591	6191.21
460.964	6153.47
461.337	6361.37
461.71	6425.1
462.083	6467.81
462.456	6540.35
462.829	6533.8
463.201	6648.82
463.574	6695.6
463.947	6824.86
464.32	7012.65
464.692	7022.82
465.065	7127
465.438	7147.79
465.81	7330.39
466.183	7442.25
466.555	7578.97
466.928	7681.11
467.3	7673.43
467.672	7772.41
468.045	7990.48
468.417	8011.95
468.789	8065.73
469.161	8123.13
469.534	8289.01
469.906	8521.77
470.278	8600.41
470.65	8688.32
471.022	8830.46
471.394	9003.11
471.766	9040.17
472.138	9208.98
472.51	9337.34
472.882	9543.44
473.253	9633.15
473.625	9785.24
473.997	10084.21
474.369	10066.59
474.74	10249.41
475.112	10377.76
475.484	10606.23
475.855	10726.23
476.227	10878.32
476.598	11217.52
476.97	11277.18
477.341	11596.94
477.713	11755.81
478.084	11871.96
478.455	12208.68
478.827	12278.96
479.198	12649.79
479.569	12655.67
479.94	13062.67
480.311	13121.87
480.682	13478.02
481.053	13733.38
481.424	13930.89
481.795	14063.09
482.166	14367.94
482.537	14564.77
482.908	14875.27
483.279	15010.64
483.65	15260.8
484.021	15596.61
484.391	15801.58
484.762	15924.06
485.133	16071.63
485.503	16384.39
485.874	16703.93
486.244	16993.18
486.615	17240.18
486.985	17429.56
487.356	17846.49
487.726	17804.91
488.097	18236.54
488.467	18327.61
488.837	18784.55
489.207	19041.49
489.578	19291.43
489.948	19455.72
490.318	19711.76
490.688	19827.68
491.058	20082.82
491.428	20456.59
491.798	20542.47
492.168	21010.25
492.538	21022.46
492.908	21358.04
493.278	21644.81
493.648	21579.96
494.017	21930.68
494.387	22066.04
494.757	22346.49
495.126	22620.38
495.496	22734.05
495.866	22825.57
496.235	23173.13
496.605	23255.39
496.974	23409.96
497.344	23714.36
497.713	23939.67
498.082	24128.81
498.452	24368.81
498.821	24499.2
499.19	24587.33
499.559	24945.06
499.928	25035.23
500.298	25197.26
500.667	25533.52
501.036	25503.02
501.405	25871.14
501.774	25727.19
502.143	26145.48
502.512	26220.51
502.88	26521.97
503.249	26542.31
503.618	26641.29
503.987	26862.3
504.356	27043.54
504.724	27196.08
505.093	27315.17
505.462	27466.81
505.83	27723.3
506.199	27888.94
506.567	28287.35
506.936	28405.31
507.304	28599.43
507.672	28822.48
508.041	28910.16
508.409	29186.53
508.777	29438.05
509.145	29738.16
509.514	29769.34
509.882	29994.65
510.25	30219.73
510.618	30404.81
510.986	30505.82
511.354	30984.68
511.722	31072.81
512.09	31414.5
512.458	31419.47
512.826	31736.07
513.193	31843.87
513.561	31986.01
513.929	32236.4
514.297	32625.54
514.664	32775.59
515.032	32909.15
515.4	33159.99
515.767	33374.22
516.135	33590.71
516.502	33479.08
516.869	33993.41
517.237	34235.22
517.604	34132.39
517.972	34558.6
518.339	34875.88
518.706	34936.67
519.073	35304.57
519.44	35489.19
519.808	35862.29
520.175	35879.24
520.542	36455.72
520.909	36585.66
521.276	36721.48
521.643	37175.48
522.009	37353.78
522.376	37569.59
522.743	37899.75
523.11	38415.22
523.477	38602.33
523.843	38693.63
524.21	39273.73
524.577	39614.96
524.943	39576.09
525.31	39828.74
525.676	40184.66
526.043	40498.78
526.409	40710.75
526.776	41061.02
527.142	41094.02
527.508	41421.47
527.874	41800.21
528.241	41902.58
528.607	42003.37
528.973	42418.28
529.339	42539.4
529.705	43005.38
530.071	43218.71
530.437	43485.37
530.803	43699.6
531.169	43962.64
531.535	44018.46
531.901	44197.67
532.267	44399.24
532.632	44757.65
532.998	44894.6
533.364	45142.95
533.73	45172.56
534.095	45601.02
534.461	45603.28
534.826	46084.4
535.192	46204.62
535.557	46563.71
535.923	46497.27
536.288	46659.3
536.653	46835.79
537.019	46800.08
537.384	47039.4
537.749	47297.02
538.114	47276.68
538.479	47282.56
538.845	47584.47
539.21	47571.81
539.575	47693.17
539.94	47801.86
540.305	48049.54
540.67	48094.51
541.034	48298.57
541.399	48400.94
541.764	48579.25
542.129	48695.4
542.494	48766.13
542.858	48902.63
543.223	49132.23
543.587	49224.65
543.952	49288.15
544.316	49398.21
544.681	49425.78
545.045	49601.59
545.41	49870.51
545.774	49915.93
546.138	49998.19
546.503	50210.84
546.867	50277.73
547.231	50515.92
547.595	50591.62
547.959	50779.41
548.324	50866.19
548.688	50946.64
549.052	51018.05
549.416	51070.25
549.779	51246.52
550.143	51370.13
550.507	51627.3
550.871	51656.45
551.235	51723.34
551.599	51916.78
551.962	51941.87
552.326	51947.52
552.689	52285.36
553.053	52114.29
553.417	52155.2
553.78	52634.05
554.143	52512.02
554.507	52745.46
554.87	52843.31
555.234	53081.95
555.597	52903.88
555.96	53080.37
556.323	53202.85
556.686	53236.98
557.05	53510.19
557.413	53654.14
557.776	53655.95
558.139	53877.19
558.502	53918.54
558.865	54092.32
559.228	54210.51
559.59	54357.4
559.953	54461.35
560.316	54839.87
560.679	54712.64
561.041	54964.84
561.404	55034.44
561.767	55304.27
562.129	55226.3
562.492	55544.94
562.854	55472.62
563.217	55513.75
563.579	55710.13
563.941	55833.07
564.304	55862.44
564.666	56124.36
565.028	56142.89
565.39	56229.44
565.753	56426.72
566.115	56494.52
566.477	56584.91
566.839	56588.3
567.201	56857.22
567.563	56835.75
567.925	57056.08
568.287	56980.15
568.648	56991.68
569.01	57140.83
569.372	57320.48
569.734	57255.18
570.095	57503.98
570.457	57568.61
570.819	57565.45
571.18	57604.09
571.542	57703.75
571.903	57804.54
572.265	57943.74
572.626	57981.26
572.987	58113.68
573.349	58131.99
573.71	58235.94
574.071	58282.94
574.432	58454.01
574.794	58573.78
575.155	58489.72
575.516	58517.97
575.877	58621.47
576.238	58616.5
576.599	58795.47
576.96	58837.28
577.32	58837.51
577.681	58830.28
578.042	58990.5
578.403	58971.29
578.763	58956.15
579.124	59059.2
579.485	59119.99
579.845	59188.68
580.206	59101.23
580.566	59135.8
580.927	59154.33
581.287	59195.24
581.648	59142.36
582.008	59286.53
582.368	59171.74
582.728	59275.24
583.089	59195.69
583.449	59216.48
583.809	59197.05
584.169	59230.04
584.529	59213.09
584.889	59442.01
585.249	59200.43
585.609	59240.21
585.969	59290.38
586.329	59246.99
586.688	59283.82
587.048	59263.71
587.408	59228.91
587.768	59285.63
588.127	59296.25
588.487	59256.93
588.846	59426.87
589.206	59191.4
589.565	59276.14
589.925	59391.39
590.284	59309.36
590.643	59385.74
591.003	59446.76
591.362	59487.43
591.721	59471.61
592.08	59429.13
592.44	59578.5
592.799	59562.91
593.158	59492.63
593.517	59491.5
593.876	59598.84
594.235	59470.26
594.593	59548.22
594.952	59545.74
595.311	59436.81
595.67	59491.5
596.029	59709.35
596.387	59660.54
596.746	59690.59
597.104	59535.34
597.463	59543.7
597.822	59664.38
598.18	59530.82
598.538	59517.49
598.897	59708.22
599.255	59511.39
599.613	59802.9
599.972	59680.42
600.33	59737.14
600.688	59565.17
601.046	59711.38
601.404	59836.58
601.762	59692.85
602.12	59794.54
602.478	59758.84
602.836	59798.16
603.194	59648.33
603.552	59783.7
603.91	59743.25
604.268	59896.91
604.625	59837.93
604.983	59929.91
605.341	59849.68
605.698	60018.04
606.056	60019.85
606.413	59990.02
606.771	60052.39
607.128	60080.86
607.485	59973.97
607.843	60073.86
608.2	60165.61
608.557	60213.74
608.914	60242.44
609.272	60352.5
609.629	60362.66
609.986	60447.41
610.343	60322.67
610.7	60439.27
611.057	60384.36
611.414	60391.82
611.771	60366.28
612.127	60451.48
612.484	60421.65
612.841	60514.3
613.198	60414.64
613.554	60458.48
613.911	60578.93
614.267	60547.97
614.624	60539.61
614.98	60536.44
615.337	60628.87
615.693	60623
616.05	60641.98
616.406	60655.99
616.762	60610.57
617.118	60599.49
617.475	60583.22
617.831	60681.3
618.187	60650.34
618.543	60651.92
618.899	60765.82
619.255	60746.61
619.611	60675.42
619.967	60830.9
620.323	60828.87
620.678	60830.9
621.034	60772.15
621.39	60707.97
621.746	60759.26
622.101	60924.23
622.457	60869.77
622.812	60809.43
623.168	60967.62
623.523	60914.51
623.879	61010.33
624.234	60805.36
624.589	60928.07
624.945	60926.49
625.3	60922.88
625.655	60880.16
626.01	60964.68
626.365	60928.75
626.72	60935.08
627.075	60858.7
627.43	60808.98
627.785	60826.15
628.14	60873.61
628.495	60915.64
628.85	60804.46
629.205	60731.47
629.559	60901.86
629.914	60726.5
630.269	60777.79
630.623	60705.48
630.978	60632.71
631.332	60685.14
631.687	60747.29
632.041	60607.4
632.396	60602.43
632.75	60484.69
633.104	60529.67
633.459	60451.02
633.813	60418.71
634.167	60406.28
634.521	60422.78
634.875	60467.52
635.229	60380.97
635.583	60203.8
635.937	60276.11
636.291	60254.87
636.645	60186.62
636.999	60085.16
637.352	60197.7
637.706	60011.94
638.06	60100.52
638.413	60035.89
638.767	60001.54
639.121	59906.86
639.474	59842.9
639.828	59887.42
640.181	59918.61
640.534	59900.08
640.888	59858.95
641.241	59695.34
641.594	59751.83
641.947	59790.25
642.301	59747.99
642.654	59765.39
643.007	59827.76
643.36	59691.04
643.713	59697.37
644.066	59803.81
644.419	59569.69
644.771	59428.45
645.124	59246.76
645.477	59124.28
645.83	58983.04
646.182	58862.36
646.535	58794.57
646.888	58839.54
647.24	58737.17
647.593	58817.39
647.945	58714.12
648.298	58616.72
648.65	58559.1
649.002	58424.86
649.355	58622.82
649.707	58495.82
650.059	58669.15
650.411	58958.18
650.763	58885.41
651.115	59112.3
651.467	58988.24
651.819	58941.46
652.171	58909.14
652.523	58837.96
652.875	58823.72
653.227	58670.05
653.578	58948.01
653.93	58855.36
654.282	58711.18
654.633	58588.7
654.985	58677.51
655.337	58624.86
655.688	58614.91
656.039	58700.79
656.391	58535.82
656.742	58596.61
657.094	58533.11
657.445	58622.37
657.796	58530.85
658.147	58511.19
658.498	58498.08
658.849	58512.77
659.2	58447.23
659.551	58381.02
659.902	58482.49
660.253	58441.81
660.604	58463.05
660.955	58339.89
661.306	58434.13
661.656	58309.61
662.007	58380.57
662.358	58353.9
662.708	58316.16
663.059	58341.7
663.409	58161.37
663.76	58316.16
664.11	58268.93
664.461	58242.95
664.811	58212.89
665.161	58292.66
665.511	58150.29
665.862	58235.71
666.212	58277.07
666.562	58249.5
666.912	58170.18
667.262	58225.09
667.612	58169.5
667.962	58180.35
668.312	58056.28
668.662	58138.99
669.011	58092.67
669.361	58010.64
669.711	57930.41
670.06	57934.71
670.41	57869.17
670.76	57938.1
671.109	57943.52
671.459	57928.6
671.808	57844.54
672.157	57811.77
672.507	57690.19
672.856	57698.78
673.205	57742.39
673.554	57749.85
673.904	57634.15
674.253	57804.54
674.602	57721.6
674.951	57307.15
675.3	57191
675.649	57605.22
675.998	57588.5
676.346	57532
676.695	57579.23
677.044	57475.28
677.393	57479.12
677.741	57508.05
678.09	57457.2
678.438	57344.66
678.787	57426.24
679.135	57419.46
679.484	57207.27
679.832	57264.89
680.181	57180.83
680.529	57188.96
680.877	57184.44
681.225	57111.9
681.573	57276.42
681.922	57054.28
682.27	57015.86
682.618	57003.66
682.966	56936.31
683.314	56944.9
683.661	56892.92
684.009	56687.28
684.357	56647.06
684.705	56577
685.053	56682.54
685.4	56595.08
685.748	56433.5
686.095	56517.34
686.443	56415.42
686.79	56276.9
687.138	56379.72
687.485	56328.65
687.832	56177.24
688.18	56264.69
688.527	56054.3
688.874	55958.71
689.221	55997.13
689.568	55840.07
689.915	55829.45
690.262	55759.4
690.609	55677.36
690.956	55647.99
691.303	55621.77
691.65	55459.97
691.997	55498.84
692.344	55234.89
692.69	55258.17
693.037	55211.39
693.383	55022.24
693.73	55127.55
694.077	54897.95
694.423	54873.54
694.769	54750.61
695.116	54722.36
695.462	54671.51
695.808	54528.24
696.155	54597.62
696.501	54427
696.847	54512.65
697.193	54227.01
697.539	54362.6
697.885	54054.81
698.231	53897.98
698.577	54033.79
698.923	53914.92
699.269	53752.89
699.614	53646.68
699.96	53530.08
700.306	53558.32
700.651	53395.39
700.997	53209.41
701.342	53220.93
701.688	53181.84
702.033	53081.73
702.379	53054.16
702.724	52962.18
703.069	53039.24
703.415	52702.98
703.76	52639.25
704.105	52611.68
704.45	52463.66
704.795	52382.99
705.14	52267.06
705.485	52222.54
705.83	52134.41
706.175	52119.72
706.52	51931.25
706.865	51967.63
707.209	51862.55
707.554	51830.46
707.899	51766.28
708.243	51649.9
708.588	51643.8
708.932	51321.55
709.277	51329.23
709.621	51324.71
709.966	50952.52
710.31	51134.21
710.654	50789.36
710.998	50968.33
711.342	50893.53
711.687	50853.54
712.031	50613.32
712.375	50548.46
712.719	50593.43
713.063	50498.06
713.407	50591.85
713.75	50310.73
714.094	50348.01
714.438	50114.57
714.782	50042.26
715.125	49836.16
715.469	49997.74
715.812	49912.32
716.156	49633.23
716.499	49552.33
716.843	49613.12
717.186	49301.94
717.53	49672.32
717.873	49630.74
718.216	49414.7
718.559	49225.56
718.902	49086.12
719.246	49189.85
719.589	49135.39
719.932	48744.44
720.275	48811.33
720.617	48706.25
720.96	48636.19
721.303	48710.54
721.646	48657.44
721.989	48478.91
722.331	48535.4
722.674	48365.69
723.016	48534.73
723.359	48284.34
723.701	48237.56
724.044	47985.59
724.386	47809.1
724.729	48060.84
725.071	47889.77
725.413	47817.68
725.755	47649.33
726.097	47454.53
726.439	47388.32
726.782	47289.11
727.124	47484.36
727.465	47240.52
727.807	47238.49
728.149	47152.16
728.491	47013.41
728.833	47008.21
729.175	46840.99
729.516	46834.66
729.858	46703.36
730.199	46707.88
730.541	46684.38
730.882	46591.73
731.224	46565.96
731.565	46288.23
731.906	46224.28
732.248	46272.87
732.589	46041.46
732.93	45927.56
733.271	46022.7
733.612	45956.49
733.953	45885.08
734.294	45667.68
734.635	45745.42
734.976	45676.72
735.317	45635.59
735.658	45504.98
735.999	45523.28
736.339	45389.95
736.68	45568.03
737.021	45357.41
737.361	45069.51
737.702	45243.51
738.042	45205.1
738.383	45029.06
738.723	45143.4
739.063	45068.6
739.404	45066.12
739.744	44731.44
740.084	44743.87
740.424	44714.71
740.764	44883.3
741.104	44931.88
741.444	44596.07
741.784	44356.76
742.124	44526.47
742.464	44394.04
742.804	44197.44
743.143	44296.42
743.483	44134.84
743.823	43953.6
744.162	43840.16
744.502	43979.14
744.841	43792.03
745.181	43844
745.52	43567.85
745.86	43692.82
746.199	43557.23
746.538	43504.58
746.877	43509.55
747.216	43529.66
747.556	43245.37
747.895	43177.13
748.234	43169.22
748.573	43047.19
748.911	42933.07
749.25	42968.09
749.589	42696.46
749.928	42700.53
750.267	42718.83
750.605	42498.05
750.944	42443.14
751.283	42162.01
751.621	42249.69
751.96	41882.25
