Data from aluminium_surface_pro_back_FLMS001491_00091.txt Node
Date: Wed Feb 08 15:34:46 GMT 2017
User: dcchb
Spectrometer: FLMS00149
Trigger mode: 0
Integration Time (sec): 2.000000E-2
Scans to average: 10
Electric dark correction enabled: true
Nonlinearity correction enabled: false
Boxcar width: 0
XAxis mode: Wavelengths
Number of Pixels in Spectrum: 2048
>>>>>Begin Spectral Data<<<<<
341.393	-10.52
341.776	-10.52
342.16	-10.52
342.543	-63.85
342.927	-63.63
343.31	-53.69
343.693	-55.72
344.077	-69.96
344.46	-71.31
344.843	-60.24
345.226	-48.26
345.61	-29.96
345.993	-0.81
346.376	-21.6
346.759	23.38
347.142	10.49
347.525	48.01
347.908	48.69
348.291	82.81
348.674	90.04
349.057	108.12
349.44	132.75
349.823	158.51
350.206	183.6
350.588	227.66
350.971	233.77
351.354	227.66
351.737	248.91
352.119	264.95
352.502	283.93
352.884	301.56
353.267	300.2
353.65	314.67
354.032	344.27
354.414	340.65
354.797	354.89
355.179	352.63
355.562	338.17
355.944	337.27
356.326	355.34
356.709	377.94
357.091	364.84
357.473	378.17
357.855	377.26
358.238	363.71
358.62	373.42
359.002	401.9
359.384	379.52
359.766	378.62
360.148	375.23
360.53	390.15
360.912	366.87
361.294	371.39
361.676	361.22
362.057	362.12
362.439	363.71
362.821	383.14
363.203	365.74
363.584	365.96
363.966	379.52
364.348	390.15
364.729	370.26
365.111	374.78
365.493	358.06
365.874	362.8
366.256	367.32
366.637	375
367.019	358.73
367.4	383.14
367.781	377.49
368.163	370.03
368.544	377.04
368.925	384.5
369.306	390.6
369.688	372.74
370.069	376.59
370.45	384.04
370.831	373.42
371.212	375.91
371.593	376.59
371.974	391.95
372.355	396.02
372.736	396.02
373.117	387.66
373.498	378.62
373.879	388.34
374.26	392.18
374.641	354.21
375.021	379.07
375.402	396.02
375.783	391.05
376.163	415.68
376.544	423.14
376.925	390.37
377.305	414.33
377.686	389.92
378.066	417.94
378.447	429.24
378.827	428.34
379.208	429.24
379.588	415.68
379.968	433.31
380.349	448
380.729	429.69
381.109	425.4
381.489	442.35
381.87	422.01
382.25	453.87
382.63	451.61
383.01	452.52
383.39	469.01
383.77	455.45
384.15	454.55
384.53	479.18
384.91	485.96
385.29	458.62
385.67	500.88
386.049	482.12
386.429	507.66
386.809	504.49
387.189	508.11
387.568	518.5
387.948	509.01
388.328	530.25
388.707	525.51
389.087	528.45
389.466	539.07
389.846	557.15
390.225	535.68
390.605	539.29
390.984	561.21
391.363	576.13
391.743	573.42
392.122	571.16
392.501	570.71
392.881	590.59
393.26	596.92
393.639	607.99
394.018	608.9
394.397	586.52
394.776	621.33
395.155	625.17
395.534	603.7
395.913	621.55
396.292	660.42
396.671	646.41
397.05	671.95
397.429	692.96
397.808	652.96
398.186	655.45
398.565	682.11
398.944	687.76
399.323	713.75
399.701	713.98
400.08	690.48
400.458	712.85
400.837	728.22
401.215	737.71
401.594	741.77
401.972	752.4
402.351	748.33
402.729	766.18
403.107	757.82
403.486	758.95
403.864	768.44
404.242	795.78
404.62	805.5
404.999	809.8
405.377	814.31
405.755	816.35
406.133	830.13
406.511	855.9
406.889	860.64
407.267	876.91
407.645	880.98
408.023	894.31
408.401	916.68
408.779	914.88
409.156	938.61
409.534	926.4
409.912	950.58
410.29	995.55
410.667	996.91
411.045	987.64
411.422	1006.17
411.8	1012.28
412.178	1039.62
412.555	1033.74
412.933	1070.81
413.31	1086.85
413.687	1103.8
414.065	1122.33
414.442	1107.87
414.819	1094.31
415.197	1122.78
415.574	1153.74
415.951	1153.74
416.328	1176.34
416.705	1169.79
417.082	1188.77
417.46	1215.43
417.837	1231.48
418.214	1243.91
418.591	1238.48
418.967	1247.07
419.344	1268.31
419.721	1263.12
420.098	1299.05
420.475	1299.5
420.852	1310.35
421.228	1315.09
421.605	1340.4
421.982	1361.87
422.358	1385.83
422.735	1367.52
423.111	1368.65
423.488	1419.27
423.864	1412.72
424.241	1414.98
424.617	1471.02
424.994	1461.53
425.37	1486.84
425.746	1494.97
426.123	1504.47
426.499	1518.25
426.875	1522.32
427.251	1577.68
427.627	1623.11
428.003	1605.71
428.379	1638.47
428.756	1648.42
429.132	1677.12
429.507	1717.34
429.883	1727.29
430.259	1749.21
430.635	1762.99
431.011	1772.26
431.387	1821.97
431.763	1860.84
432.138	1855.42
432.514	1890.9
432.89	1904.91
433.265	1951.23
433.641	1972.02
434.016	2007.73
434.392	1997.33
434.767	2049.54
435.143	2029.2
435.518	2065.58
435.894	2100.83
436.269	2131.79
436.644	2136.77
437.02	2190.32
437.395	2167.73
437.77	2265.58
438.145	2257.44
438.52	2285.46
438.895	2280.26
439.271	2313.48
439.646	2343.09
440.021	2348.74
440.395	2396.87
440.77	2376.31
441.145	2389.41
441.52	2402.3
441.895	2481.16
442.27	2435.06
442.645	2474.16
443.019	2518.68
443.394	2508.73
443.769	2521.61
444.143	2554.38
444.518	2605.23
444.892	2575.17
445.267	2631.44
445.641	2640.26
446.016	2639.13
446.39	2680.48
446.764	2677.32
447.139	2691.78
447.513	2758.44
447.887	2739.24
448.262	2746.92
448.636	2782.17
449.01	2841.83
449.384	2859.23
449.758	2844.77
450.132	2891.32
450.506	2892.23
450.88	2927.03
451.254	2926.58
451.628	2993.01
452.002	3029.62
452.376	3059.91
452.75	3075.5
453.123	3094.48
453.497	3160.02
453.871	3171.77
454.244	3223.74
454.618	3256.28
454.992	3309.84
455.365	3325.89
455.739	3357.98
456.112	3407.01
456.486	3438.65
456.859	3482.27
457.232	3544.86
457.606	3548.25
457.979	3575.82
458.352	3668.48
458.725	3754.12
459.099	3748.7
459.472	3796.61
459.845	3825.99
460.218	3897.4
460.591	3922.26
460.964	3948.7
461.337	4050.84
461.71	4091.06
462.083	4169.48
462.456	4162.7
462.829	4191.18
463.201	4254.68
463.574	4283.83
463.947	4339.87
464.32	4447.44
464.692	4456.25
465.065	4503.48
465.438	4545.52
465.81	4669.58
466.183	4723.59
466.555	4779.41
466.928	4819.63
467.3	4838.16
467.672	4896.47
468.045	5056.24
468.417	5127.2
468.789	5146.18
469.161	5168.1
469.534	5223.24
469.906	5352.05
470.278	5400.86
470.65	5451.03
471.022	5552.27
471.394	5700.06
471.766	5721.98
472.138	5775.77
472.51	5895.31
472.882	6045.36
473.253	6054.18
473.625	6125.14
473.997	6287.84
474.369	6375.07
474.74	6396.54
475.112	6537.33
475.484	6684.44
475.855	6742.52
476.227	6772.58
476.598	6971.44
476.97	7081.27
477.341	7208.27
477.713	7285.56
478.084	7420.24
478.455	7587.24
478.827	7615.72
479.198	7900
479.569	7897.74
479.94	8082.82
480.311	8198.98
480.682	8377.73
481.053	8590.38
481.424	8747.89
481.795	8824.95
482.166	8947.89
482.537	9052.52
482.908	9279.63
483.279	9287.99
483.65	9484.37
484.021	9740.63
484.391	9826.51
484.762	9856.11
485.133	9997.8
485.503	10165.71
485.874	10394.4
486.244	10421.97
486.615	10649.99
486.985	10758.46
487.356	10982.63
487.726	11058.79
488.097	11323.42
488.467	11349.63
488.837	11608.38
489.207	11776.06
489.578	11911.88
489.948	12020.35
490.318	12281.36
490.688	12257.4
491.058	12437.29
491.428	12677.96
491.798	12813.1
492.168	13054.22
492.538	13105.97
492.908	13233.88
493.278	13435.23
493.648	13408.79
494.017	13696.01
494.387	13787.08
494.757	13881.09
495.126	14138.26
495.496	14162.21
495.866	14275.66
496.235	14427.29
496.605	14546.16
496.974	14618.92
497.344	14758.81
497.713	14923.1
498.082	15035.86
498.452	15218.68
498.821	15251.9
499.19	15314.27
499.559	15549.29
499.928	15666.81
500.298	15768.27
500.667	15879
501.036	15902.96
501.405	16099.11
501.774	16080.58
502.143	16395.37
502.512	16392.21
502.88	16497.74
503.249	16612.32
503.618	16664.52
503.987	16762.6
504.356	16966.21
504.724	16999.65
505.093	17146.09
505.462	17250.49
505.83	17357.38
506.199	17587.21
506.567	17749.91
506.936	17692.97
507.304	17977.93
507.672	18043.24
508.041	18161.88
508.409	18311.26
508.777	18501.53
509.145	18562.1
509.514	18556
509.882	18794.63
510.25	18819.72
510.618	19026.72
510.986	19155.75
511.354	19238.46
511.722	19477.33
512.09	19663.31
512.458	19635.29
512.826	19768.84
513.193	20012
513.561	19967.03
513.929	20200.47
514.297	20411.31
514.664	20570.86
515.032	20622.16
515.4	20924.52
515.767	20993.9
516.135	21115.7
516.502	21061.47
516.869	21468.91
517.237	21521.11
517.604	21486.77
517.972	21918.39
518.339	22060.54
518.706	22160.65
519.073	22196.58
519.44	22354.54
519.808	22634.53
520.175	22677.47
520.542	23069.77
520.909	23161.07
521.276	23166.27
521.643	23389.77
522.009	23692.58
522.376	23888.51
522.743	23958.34
523.11	24275.17
523.477	24523.07
523.843	24691.88
524.21	24873.57
524.577	25024.07
524.943	25172.32
525.31	25389.71
525.676	25621.57
526.043	25878.97
526.409	25930.04
526.776	26304.04
527.142	26298.39
527.508	26578.16
527.874	26722.33
528.241	26935.44
528.607	26979.05
528.973	27217.01
529.339	27294.97
529.705	27646.83
530.071	27891.34
530.437	27852.47
530.803	28160.26
531.169	28410.2
531.535	28173.37
531.901	28277.77
532.267	28462.63
532.632	28750.3
532.998	28850.41
533.364	28974.7
533.73	29197.52
534.095	29261.48
534.461	29388.48
534.826	29546.44
535.192	29805.42
535.557	29895.81
535.923	29889.26
536.288	30047.44
536.653	30061.23
537.019	30165.86
537.384	30360.2
537.749	30550.48
538.114	30613.08
538.479	30773.75
538.845	30957.03
539.21	30924.03
539.575	31122.9
539.94	31141.43
540.305	31394.98
540.67	31267.3
541.034	31527.86
541.399	31564.92
541.764	31749.09
542.129	31899.15
542.494	31883.33
542.858	32028.18
543.223	32140.5
543.587	32374.16
543.952	32371
544.316	32443.77
544.681	32454.39
545.045	32636.98
545.41	32857.99
545.774	32999.68
546.138	32888.05
546.503	33176.18
546.867	33048.04
547.231	33519.67
547.595	33468.82
547.959	33654.36
548.324	33602.38
548.688	33789.72
549.052	33984.29
549.416	33925.53
549.779	34012.76
550.143	34098.86
550.507	34336.6
550.871	34595.57
551.235	34482.36
551.599	34848.45
551.962	34816.58
552.326	35010.7
552.689	35116.69
553.053	34984.26
553.417	35078.27
553.78	35659.05
554.143	35383.35
554.507	35704.47
554.87	35786.28
555.234	36128.19
555.597	35888.19
555.96	36233.95
556.323	36380.16
556.686	36513.49
557.05	36878.68
557.413	37007.94
557.776	36928.62
558.139	37194.38
558.502	37313.69
558.865	37499
559.228	37827.13
559.59	37841.59
559.953	38018.08
560.316	38445.64
560.679	38369.49
561.041	38609.71
561.404	38848.57
561.767	39023.71
562.129	38932.86
562.492	39346.18
562.854	39351.15
563.217	39399.29
563.579	39578.95
563.941	39902.55
564.304	40181.42
564.666	40202.66
565.028	40363.11
565.39	40541.41
565.753	40738.69
566.115	40869.76
566.477	41093.93
566.839	41365.79
567.201	41534.83
567.563	41689.4
567.925	41935.95
568.287	41965.32
568.648	42050.07
569.01	42275.6
569.372	42753.1
569.734	42563.73
570.095	42829.71
570.457	42987.9
570.819	43020.21
571.18	43097.72
571.542	43461.1
571.903	43528.45
572.265	43605.96
572.626	43678.05
572.987	43894.09
573.349	44119.39
573.71	44262.89
574.071	44463.56
574.432	44465.6
574.794	44883.21
575.155	44791.01
575.516	44902.65
575.877	44978.13
576.238	45235.29
576.599	45299.25
576.96	45263.32
577.32	45324.1
577.681	45514.61
578.042	45750.31
578.403	45721.61
578.763	45796.41
579.124	45815.39
579.485	45985.78
579.845	46084.08
580.206	46033.01
580.566	46007.48
580.927	46007.93
581.287	46311.2
581.648	46327.02
582.008	46415.15
582.368	46348.26
582.728	46442.95
583.089	46395.49
583.449	46498.31
583.809	46602.26
584.169	46595.48
584.529	46556.84
584.889	46926.32
585.249	46714.12
585.609	46515.26
585.969	46828.92
586.329	46741.24
586.688	46783.28
587.048	46626.22
587.408	46683.39
587.768	46687.01
588.127	46679.78
588.487	46698.53
588.846	47016.94
589.206	46539.67
589.565	46750.96
589.925	46821.92
590.284	46684.97
590.643	46861.47
591.003	46913.44
591.362	47002.7
591.721	46936.94
592.08	46929.26
592.44	46842.03
592.799	47068.69
593.158	46877.28
593.517	46989.6
593.876	46917.51
594.235	46922.71
594.593	47001.35
594.952	47069.82
595.311	47009.94
595.67	47149.14
596.029	47402.02
596.387	47288.57
596.746	47359.31
597.104	47234.56
597.463	47160.89
597.822	47360.44
598.18	47084.74
598.538	47175.58
598.897	47500.09
599.255	47165.41
599.613	47615.57
599.972	47479.98
600.33	47426.87
600.688	47382.13
601.046	47646.76
601.404	47644.27
601.762	47568.34
602.12	47811.05
602.478	47755.23
602.836	47930.59
603.194	47691.95
603.552	47893.53
603.91	47607.89
604.268	47957.48
604.625	47845.17
604.983	48037.48
605.341	47961.1
605.698	48121.55
606.056	48246.74
606.413	48103.01
606.771	48303.01
607.128	48286.51
607.485	48161.32
607.843	48179.4
608.2	48412.16
608.557	48390.46
608.914	48388.88
609.272	48592.72
609.629	48593.62
609.986	48716.33
610.343	48534.19
610.7	48804.92
611.057	48777.8
611.414	48688.08
611.771	48778.93
612.127	48829.32
612.484	48867.97
612.841	48930.56
613.198	48824.58
613.554	48909.77
613.911	49026.15
614.267	49010.79
614.624	49072.03
614.98	49088.98
615.337	49256.2
615.693	49178.69
616.05	49242.19
616.406	49427.05
616.762	49284.45
617.118	49358.12
617.475	49283.55
617.831	49370.78
618.187	49457.56
618.543	49536.65
618.899	49743.88
619.255	49672.69
619.611	49593.15
619.967	49652.13
620.323	49785.91
620.678	49634.27
621.034	49565.12
621.39	49702.52
621.746	49589.98
622.101	50023.19
622.457	49662.97
622.812	49856.87
623.168	49803.99
623.523	49781.84
623.879	49875.85
624.234	49706.81
624.589	49770.54
624.945	49748.62
625.3	49866.13
625.655	49875.4
626.01	49867.71
626.365	49892.12
626.72	49763.99
627.075	49867.26
627.43	49824.33
627.785	49671.56
628.14	49810.99
628.495	49786.36
628.85	49775.74
629.205	49674.5
629.559	49912.01
629.914	49684.89
630.269	49752.69
630.623	49597.21
630.978	49611
631.332	49763.31
631.687	49841.5
632.041	49615.52
632.396	49668.85
632.75	49492.81
633.104	49541.17
633.459	49383.21
633.813	49396.54
634.167	49333.72
634.521	49372.13
634.875	49339.37
635.229	49319.48
635.583	49085.14
635.937	48939.15
636.291	48929.89
636.645	48900.28
636.999	48844.01
637.352	49065.93
637.706	48653.73
638.06	48856.22
638.413	48754.3
638.767	48591.59
639.121	48620.52
639.474	48367.41
639.828	48440.86
640.181	48457.13
640.534	48488.54
640.888	48250.36
641.241	48077.93
641.594	48161.09
641.947	48303.91
642.301	48099.4
642.654	48234.08
643.007	48121.09
643.36	48114.09
643.713	47985.5
644.066	48194.09
644.419	47861.89
644.771	47524.95
645.124	47291.51
645.477	47292.19
645.83	46885.19
646.182	46703.73
646.535	46687.01
646.888	46805.42
647.24	46649.72
647.593	46799.09
647.945	46602.49
648.298	46499.22
648.65	46448.37
649.002	46348.26
649.355	46436.62
649.707	46367.02
650.059	46516.62
650.411	46779.66
650.763	46956.83
651.115	47301.23
651.467	47093.1
651.819	47034.57
652.171	46895.14
652.523	46894.23
652.875	46913.67
653.227	46649.49
653.578	46936.04
653.93	46829.83
654.282	46551.64
654.633	46583.51
654.985	46641.36
655.337	46659.21
655.688	46600.91
656.039	46672.77
656.391	46308.03
656.742	46474.58
657.094	46588.48
657.445	46630.29
657.796	46507.12
658.147	46503.73
658.498	46505.09
658.849	46537.63
659.2	46381.48
659.551	46331.08
659.902	46452.44
660.253	46298.54
660.604	46451.98
660.955	46113.46
661.306	46380.12
661.656	46230.97
662.007	46362.5
662.358	46215.38
662.708	46260.58
663.059	46223.97
663.409	45887.48
663.76	46229.17
664.11	46088.83
664.461	46193.91
664.811	46055.61
665.161	46165.21
665.511	45944.2
665.862	45993.69
666.212	46118.21
666.562	46067.36
666.912	46007.7
667.262	45842.06
667.612	45814.71
667.962	45799.8
668.312	45650.65
668.662	45904.88
669.011	45648.39
669.361	45565.91
669.711	45494.95
670.06	45438.68
670.41	45381.28
670.76	45325.69
671.109	45552.57
671.459	45382.18
671.808	45329.08
672.157	45332.69
672.507	45209.76
672.856	45040.27
673.205	45098.35
673.554	45112.59
673.904	45028.07
674.253	45300.83
674.602	45048.41
674.951	44470.79
675.3	44307.63
675.649	44853.16
675.998	44794.63
676.346	44781.07
676.695	44968.86
677.044	44636.89
677.393	44681.41
677.741	44758.7
678.09	44752.14
678.438	44612.49
678.787	44779.49
679.135	44744.69
679.484	44514.41
679.832	44571.81
680.181	44249.56
680.529	44493.84
680.877	44414.98
681.225	44264.7
681.573	44545.82
681.922	44398.93
682.27	43977.7
682.618	44177.47
682.966	44014.08
683.314	44047.3
683.661	44060.64
684.009	43802.56
684.357	43644.15
684.705	43577.26
685.053	43679.63
685.4	43665.84
685.748	43344.04
686.095	43519.63
686.443	43300.2
686.79	43139.08
687.138	43142.92
687.485	43178.4
687.832	42994.45
688.18	43040.1
688.527	42822.02
688.874	42710.61
689.221	42745.19
689.568	42644.63
689.915	42405.76
690.262	42394.46
690.609	42375.26
690.956	42003.51
691.303	42044.42
691.65	41849.39
691.997	41933.01
692.344	41734.37
692.69	41758.55
693.037	41749.96
693.383	41519.01
693.73	41570.08
694.077	41190.43
694.423	41240.37
694.769	41085.8
695.116	41059.58
695.462	40841.96
695.808	40707.5
696.155	40796.99
696.501	40650.33
696.847	40588.18
697.193	40255.54
697.539	40354.52
697.885	40178.03
698.231	39999.95
698.577	39980.52
698.923	39994.3
699.269	39644.93
699.614	39610.36
699.96	39478.83
700.306	39396.58
700.651	39278.16
700.997	39104.83
701.342	39104.16
701.688	39038.17
702.033	38833.2
702.379	38827.78
702.724	38675.92
703.069	38729.7
703.415	38367
703.76	38303.72
704.105	38365.64
704.45	38354.8
704.795	38070.51
705.14	37959.1
705.485	37866
705.83	37815.38
706.175	37784.19
706.52	37741.71
706.865	37650.41
707.209	37494.25
707.554	37437.98
707.899	37522.05
708.243	37086.58
708.588	37173.58
708.932	36972.23
709.277	36841.62
709.621	36948.28
709.966	36660.15
710.31	36789.87
710.654	36365.24
710.998	36548.97
711.342	36430.1
711.687	36377.67
712.031	36253.16
712.375	36195.76
712.719	36162.99
713.063	35994.86
713.407	36086.61
713.75	35867.63
714.094	35952.15
714.438	35716.67
714.782	35740.4
715.125	35607.75
715.469	35704.47
715.812	35391.71
716.156	35288.66
716.499	35238.72
716.843	35207.31
717.186	34983.81
717.53	35308.32
717.873	35269
718.216	35145.39
718.559	34989.01
718.902	34708.79
719.246	34893.87
719.589	34618.17
719.932	34606.87
720.275	34484.16
720.617	34328.01
720.96	34428.35
721.303	34361.46
721.646	34344.73
721.989	34231.74
722.331	34253.44
722.674	34055.25
723.016	34098.19
723.359	33903.61
723.701	34017.28
724.044	33740.91
724.386	33599.22
724.729	33740.45
725.071	33628.14
725.413	33518.54
725.755	33446.68
726.097	33351.76
726.439	33241.94
726.782	33264.53
727.124	33207.59
727.465	33049.85
727.807	33060.25
728.149	32909.97
728.491	33011.66
728.833	32950.42
729.175	32752.23
729.516	32705.68
729.858	32682.63
730.199	32728.05
730.541	32558.56
730.882	32481.05
731.224	32529.41
731.565	32445.57
731.906	32403.09
732.248	32451.9
732.589	32378.68
732.93	32220.49
733.271	32208.07
733.612	32096.2
733.953	32191.79
734.294	32016.43
734.635	31940.5
734.976	32058.46
735.317	31710.9
735.658	31883.33
735.999	31707.51
736.339	31656.67
736.68	31897.57
737.021	31782.77
737.361	31629.32
737.702	31627.52
738.042	31593.62
738.383	31508.87
738.723	31677.68
739.063	31380.97
739.404	31503.68
739.744	31472.94
740.084	31133.29
740.424	31247.64
740.764	31208.09
741.104	31372.38
741.444	31051.71
741.784	30962
742.124	31062.11
742.464	30966.06
742.804	30794.32
743.143	30761.55
743.483	30768.78
743.823	30553.87
744.162	30519.3
744.502	30692.85
744.841	30399.07
745.181	30468.22
745.52	30335.35
745.86	30307.78
746.199	30326.08
746.538	30183.49
746.877	30278.85
747.216	30039.54
747.556	30011.51
747.895	29964.73
748.234	29884.06
748.573	29911.63
748.911	29774.91
749.25	29617.17
749.589	29590.96
749.928	29681.35
750.267	29611.07
750.605	29659.43
750.944	29432.77
751.283	29356.62
751.621	29347.58
751.96	29166.34
752.298	29155.26
752.636	29202.49
752.975	28960.69
