Data from aluminium_surface_pro_back_FLMS001491_00098.txt Node
Date: Wed Feb 08 15:34:48 GMT 2017
User: dcchb
Spectrometer: FLMS00149
Trigger mode: 0
Integration Time (sec): 2.000000E-2
Scans to average: 10
Electric dark correction enabled: true
Nonlinearity correction enabled: false
Boxcar width: 0
XAxis mode: Wavelengths
Number of Pixels in Spectrum: 2048
>>>>>Begin Spectral Data<<<<<
341.393	-1.54
341.776	-1.54
342.16	-1.54
342.543	-65.49
342.927	-68.66
343.31	-70.01
343.693	-66.85
344.077	-58.94
344.46	-44.25
344.843	-61.42
345.226	-33.18
345.61	-12.61
345.993	-28.88
346.376	-3.12
346.759	16.77
347.142	26.93
347.525	37.1
347.908	69.87
348.291	57.22
348.674	72.13
349.057	99.25
349.44	109.19
349.823	153.71
350.206	169.53
350.588	202.3
350.971	240.49
351.354	238.68
351.737	256.53
352.119	263.31
352.502	284.78
352.884	294.95
353.267	320.71
353.65	310.32
354.032	308.96
354.414	324.33
354.797	361.61
355.179	347.38
355.562	334.04
355.944	351.9
356.326	342.63
356.709	362.29
357.091	358.9
357.473	376.3
357.855	372.24
358.238	352.58
358.62	378.34
359.002	377.21
359.384	379.02
359.766	393.48
360.148	390.31
360.53	380.15
360.912	360.03
361.294	376.3
361.676	378.11
362.057	369.3
362.439	382.18
362.821	365.91
363.203	354.84
363.584	391.67
363.966	379.24
364.348	353.93
364.729	360.26
365.111	345.34
365.493	362.97
365.874	358.9
366.256	362.29
366.637	351.9
367.019	352.58
367.4	349.19
367.781	376.53
368.163	362.97
368.544	377.66
368.925	362.07
369.306	367.72
369.688	355.51
370.069	346.25
370.45	380.15
370.831	370.88
371.212	367.26
371.593	372.24
371.974	377.66
372.355	372.01
372.736	393.03
373.117	379.24
373.498	383.54
373.879	402.07
374.26	384.89
374.641	343.54
375.021	383.31
375.402	384.89
375.783	380.37
376.163	439.35
376.544	416.53
376.925	412.46
377.305	416.98
377.686	423.53
378.066	406.59
378.447	421.05
378.827	431.22
379.208	419.24
379.588	430.31
379.968	428.96
380.349	406.59
380.729	429.41
381.109	432.8
381.489	442.06
381.87	448.39
382.25	434.16
382.63	449.3
383.01	446.13
383.39	443.42
383.77	485.23
384.15	466.47
384.53	474.83
384.91	475.28
385.29	492.46
385.67	482.29
386.049	486.81
386.429	479.8
386.809	493.81
387.189	504.21
387.568	522.29
387.948	503.08
388.328	523.19
388.707	526.36
389.087	494.27
389.466	534.72
389.846	537.88
390.225	537.2
390.605	544.89
390.984	538.11
391.363	574.26
391.743	547.37
392.122	579.46
392.501	569.29
392.881	596.64
393.26	598.22
393.639	591.21
394.018	593.93
394.397	621.95
394.776	606.35
395.155	603.87
395.534	629.63
395.913	641.16
396.292	635.96
396.671	632.57
397.05	632.57
397.429	667.14
397.808	684.32
398.186	652.68
398.565	676.86
398.944	670.76
399.323	684.77
399.701	701.27
400.08	713.7
400.458	702.4
400.837	709.4
401.215	724.32
401.594	730.87
401.972	748.05
402.351	717.54
402.729	767.03
403.107	739.91
403.486	765.45
403.864	788.5
404.242	826.46
404.62	794.82
404.999	795.05
405.377	818.33
405.755	830.98
406.133	860.13
406.511	851.55
406.889	864.2
407.267	868.04
407.645	880.7
408.023	886.12
408.401	906.01
408.779	920.92
409.156	934.03
409.534	949.62
409.912	965.21
410.29	1003.86
410.667	994.59
411.045	969.73
411.422	1003.18
411.8	1005.44
412.178	1031.88
412.555	1041.37
412.933	1063.29
413.31	1086.12
413.687	1092.22
414.065	1084.99
414.442	1120.24
414.819	1123.18
415.197	1125.44
415.574	1139.9
415.951	1162.05
416.328	1159.33
416.705	1183.06
417.082	1174.47
417.46	1197.07
417.837	1217.19
418.214	1231.87
418.591	1251.08
418.967	1257.86
419.344	1294.25
419.721	1296.28
420.098	1295.6
420.475	1311.19
420.852	1305.32
421.228	1338.99
421.605	1370.18
421.982	1358.2
422.358	1374.7
422.735	1390.74
423.111	1387.12
423.488	1409.72
423.864	1396.62
424.241	1424.86
424.617	1451.53
424.994	1496.5
425.37	1492.88
425.746	1495.6
426.123	1524.07
426.499	1520.68
426.875	1556.61
427.251	1548.7
427.627	1582.6
428.003	1620.56
428.379	1657.4
428.756	1646.55
429.132	1668.47
429.507	1719.09
429.883	1728.36
430.259	1776.04
430.635	1767.45
431.011	1767.68
431.387	1836.6
431.763	1850.84
432.138	1862.37
432.514	1853.1
432.89	1902.37
433.265	1926.09
433.641	1943.95
434.016	1940.78
434.392	2024.17
434.767	2081.8
435.143	2057.16
435.518	2080.89
435.894	2085.19
436.269	2116.14
436.644	2140.1
437.02	2180.78
437.395	2182.36
437.77	2178.52
438.145	2265.97
438.52	2231.17
438.895	2294.45
439.271	2284.95
439.646	2361.79
440.021	2345.74
440.395	2392.75
440.77	2380.09
441.145	2398.4
441.52	2460.77
441.895	2400.21
442.27	2479.3
442.645	2461.22
443.019	2509.13
443.394	2498.96
443.769	2570.37
444.143	2536.02
444.518	2598.39
444.892	2566.53
445.267	2623.7
445.641	2628.67
446.016	2637.49
446.39	2646.3
446.764	2703.02
447.139	2660.76
447.513	2708.9
447.887	2738.73
448.262	2783.25
448.636	2784.15
449.01	2817.6
449.384	2855.56
449.758	2812.17
450.132	2904.37
450.506	2968.33
450.88	2938.95
451.254	2958.38
451.628	2966.29
452.002	3027.76
452.376	3049.91
452.75	3069.11
453.123	3104.59
453.497	3126.97
453.871	3159.06
454.244	3228.21
454.618	3217.81
454.992	3326.51
455.365	3282.67
455.739	3400.18
456.112	3404.02
456.486	3434.3
456.859	3494.19
457.232	3512.27
457.606	3590.68
457.979	3629.55
458.352	3672.94
458.725	3689.89
459.099	3713.84
459.472	3839.49
459.845	3859.38
460.218	3880.17
460.591	3939.83
460.964	3936.21
461.337	4045.81
461.71	4079.94
462.083	4161.97
462.456	4175.75
462.829	4191.8
463.201	4306.37
463.574	4262.08
463.947	4374.62
464.32	4406.25
464.692	4452.81
465.065	4481.05
465.438	4588.85
465.81	4637.89
466.183	4726.25
466.555	4808.05
466.928	4807.15
467.3	4841.5
467.672	4871.78
468.045	5074.49
468.417	5068.61
468.789	5090.76
469.161	5194.71
469.534	5256.4
469.906	5393.57
470.278	5403.29
470.65	5490.97
471.022	5592.21
471.394	5648.26
471.766	5714.02
472.138	5778.42
472.51	5932.32
472.882	5990.62
473.253	6099.77
473.625	6158.3
473.997	6288.69
474.369	6316.26
474.74	6485.52
475.112	6489.36
475.484	6594.45
475.855	6725.97
476.227	6823.82
476.598	7007.77
476.97	7015.45
477.341	7233.98
477.713	7364.37
478.084	7316.23
478.455	7564.59
478.827	7671.48
479.198	7884.13
479.569	7846.39
479.94	8135.87
480.311	8200.28
480.682	8397.56
481.053	8549.2
481.424	8659.02
481.795	8739.47
482.166	8939.92
482.537	9037.77
482.908	9208.16
483.279	9298.55
483.65	9510.3
484.021	9665.55
484.391	9776.28
484.762	9926.11
485.133	10052.21
485.503	10156.61
485.874	10355.7
486.244	10488.35
486.615	10690.38
486.985	10711.63
487.356	10951.62
487.726	11058.73
488.097	11302.8
488.467	11351.16
488.837	11570.36
489.207	11764.7
489.578	11900.97
489.948	12045.83
490.318	12206.28
490.688	12315.42
491.058	12516.55
491.428	12686.26
491.798	12811.46
492.168	13103.2
492.538	13117.21
492.908	13279.02
493.278	13516.98
493.648	13450.08
494.017	13661.6
494.387	13824.09
494.757	13912.22
495.126	14098.65
495.496	14095.72
495.866	14237.63
496.235	14461.36
496.605	14498.87
496.974	14714.46
497.344	14801.24
497.713	14895.92
498.082	15080.1
498.452	15191.73
498.821	15240.09
499.19	15351.96
499.559	15576.36
499.928	15680.53
500.298	15709.23
500.667	15922.79
501.036	15954.43
501.405	16088.66
501.774	16197.58
502.143	16339.95
502.512	16411.81
502.88	16584.47
503.249	16612.71
503.618	16613.16
503.987	16919.15
504.356	16964.57
504.724	17081.85
505.093	17183.55
505.462	17192.13
505.83	17413.37
506.199	17527.49
506.567	17721.84
506.936	17779.01
507.304	17950.3
507.672	18052.22
508.041	18116.63
508.409	18318.2
508.777	18455.15
509.145	18637.97
509.514	18697.86
509.882	18793.9
510.25	18840.45
510.618	19085.87
510.986	19111.63
511.354	19329.7
511.722	19501.45
512.09	19571.05
512.458	19642.46
512.826	19793.19
513.193	19937.37
513.561	20036.58
513.929	20123.81
514.297	20353.63
514.664	20563.34
515.032	20640.18
515.4	20804.92
515.767	21011.69
516.135	21119.71
516.502	21111.13
516.869	21471.12
517.237	21567.84
517.604	21558.57
517.972	21878.34
518.339	22087.37
518.706	22112.46
519.073	22152.91
519.44	22402.17
519.808	22733.91
520.175	22668.37
520.542	22943.39
520.909	23224.29
521.276	23214.8
521.643	23443.72
522.009	23641.45
522.376	23833.77
522.743	24088.45
523.11	24243.92
523.477	24492.51
523.843	24565.95
524.21	24872.38
524.577	25068.76
524.943	25162.32
525.31	25375.65
525.676	25553.49
526.043	25784.45
526.409	25866.48
526.776	26204.55
527.142	26330.65
527.508	26494.26
527.874	26585.33
528.241	27042.04
528.607	27050.18
528.973	27304.86
529.339	27273.68
529.705	27566.1
530.071	27822.36
530.437	27861
530.803	28174.67
531.169	28357.49
531.535	28234.33
531.901	28415.57
532.267	28571.95
532.632	28764.26
532.998	28908.21
533.364	28928.1
533.73	29010.8
534.095	29329.44
534.461	29477.46
534.826	29553.16
535.192	29690.11
535.557	29971.46
535.923	29861.4
536.288	30068.18
536.653	30212.81
537.019	30120.15
537.384	30322.41
537.749	30531.22
538.114	30572.57
538.479	30652.34
538.845	30838.55
539.21	30931.43
539.575	30992.45
539.94	31160.58
540.305	31445.54
540.67	31254.81
541.034	31444.87
541.399	31554.69
541.764	31790.39
542.129	31934.34
542.494	32106.77
542.858	32075.81
543.223	32181.57
543.587	32384.05
543.952	32365.97
544.316	32463.82
544.681	32361.9
545.045	32620.65
545.41	32876.01
545.774	33016.58
546.138	32914.21
546.503	33135.67
546.867	33227.87
547.231	33568.2
547.595	33560.74
547.959	33664.24
548.324	33725.71
548.688	33718.48
549.052	33951.01
549.416	34090.9
549.779	34078.92
550.143	34167.51
550.507	34449.31
550.871	34646.36
551.235	34528.63
551.599	34722.75
551.962	34853.14
552.326	34916.64
552.689	35108.95
553.053	35173.35
553.417	35235.5
553.78	35661.93
554.143	35464.42
554.507	35619.44
554.87	35716.17
555.234	36113.22
555.597	36013.11
555.96	36290.16
556.323	36488.57
556.686	36472.53
557.05	36859.19
557.413	36877.49
557.776	36922.91
558.139	37367.42
558.502	37368.33
558.865	37428.21
559.228	37656.23
559.59	37858.71
559.953	38026.16
560.316	38385.47
560.679	38328.98
561.041	38548.63
561.404	38893.93
561.767	38956.76
562.129	39018.45
562.492	39443.53
562.854	39464.09
563.217	39464.77
563.579	39669.73
563.941	39949.05
564.304	40136.84
564.666	40342.48
565.028	40359.89
565.39	40591.52
565.753	40761.46
566.115	41015.46
566.477	41167.1
566.839	41391.27
567.201	41612.73
567.563	41580.19
567.925	41910.58
568.287	41984.93
568.648	42036
569.01	42358.02
569.372	42647.28
569.734	42518.47
570.095	42637.11
570.457	42911.68
570.819	43087.27
571.18	43249.07
571.542	43506.7
571.903	43682.74
572.265	43732
572.626	43793.24
572.987	44032.1
573.349	44019.9
573.71	44204.3
574.071	44297.63
574.432	44626.21
574.794	44908.69
575.155	44862.14
575.516	44804.51
575.877	45134.9
576.238	45152.3
576.599	45236.37
576.96	45244.28
577.32	45359.3
577.681	45459.19
578.042	45709.12
578.403	45785.73
578.763	45821.66
579.124	45864.37
579.485	45963.13
579.845	46130.81
580.206	45987.53
580.566	46126.97
580.927	46185.27
581.287	46382.33
581.648	46209
582.008	46476.56
582.368	46257.81
582.728	46533.96
583.089	46364.25
583.449	46399.73
583.809	46531.25
584.169	46813.05
584.529	46671.36
584.889	46951.35
585.249	46740.28
585.609	46663
585.969	46878.81
586.329	46772.6
586.688	46958.13
587.048	46773.05
587.408	46651.47
587.768	46684.24
588.127	46707.51
588.487	46611.7
588.846	46966.94
589.206	46622.55
589.565	46701.64
589.925	46908.19
590.284	46883.78
590.643	46835.65
591.003	46839.49
591.362	47110.89
591.721	46976.66
592.08	46934.18
592.44	47143.44
592.799	47018.47
593.158	46942.31
593.517	47003.1
593.876	47112.02
594.235	46978.24
594.593	47001.07
594.952	47091.46
595.311	46996.55
595.67	47097.34
596.029	47353.6
596.387	47355.41
596.746	47391.79
597.104	47114.06
597.463	47213.04
597.822	47346.82
598.18	47332.36
598.538	47258.91
598.897	47581.84
599.255	47154.96
599.613	47688.96
599.972	47356.09
600.33	47570.54
600.688	47514.73
601.046	47521.28
601.404	47668.85
601.762	47648.28
602.12	47707.26
602.478	47845.11
602.836	47924.66
603.194	47688.73
603.552	47877.88
603.91	47642.86
604.268	47948.84
604.625	47882.17
604.983	47984.09
605.341	47880.59
605.698	48153.8
606.056	48211.88
606.413	48088.27
606.771	48285.55
607.128	48401.48
607.485	48057.54
607.843	48167.82
608.2	48442.61
608.557	48621.14
608.914	48333.23
609.272	48505.43
609.629	48637.41
609.986	48740
610.343	48629.5
610.7	48764.41
611.057	48662.49
611.414	48605.32
611.771	48810.06
612.127	48947
612.484	48936.61
612.841	48991.97
613.198	48795.82
613.554	48899.77
613.911	49099.09
614.267	49048.7
614.624	48975.03
614.98	49130.5
615.337	49310.16
615.693	49288.24
616.05	49236.04
616.406	49392.87
616.762	49263.61
617.118	49247.79
617.475	49367.11
617.831	49524.39
618.187	49477.16
618.543	49482.81
618.899	49735.68
619.255	49597.83
619.611	49578.63
619.967	49739.3
620.323	49826.3
620.678	49735.68
621.034	49583.37
621.39	49642.13
621.746	49569.59
622.101	49941.78
622.457	49666.99
622.812	49765.97
623.168	49849.13
623.523	49830.37
623.879	49926.41
624.234	49665.4
624.589	49939.52
624.945	49806.42
625.3	49924.83
625.655	49829.47
626.01	49897.04
626.365	49959.18
626.72	49863.59
627.075	49928
627.43	49873.76
627.785	49807.32
628.14	49696.81
628.495	49874.89
628.85	49760.77
629.205	49699.98
629.559	50011.83
629.914	49731.39
630.269	49672.63
630.623	49749.24
630.978	49605.74
631.332	49736.14
631.687	49837.15
632.041	49545.41
632.396	49548.57
632.75	49521.9
633.104	49693.43
633.459	49316.26
633.813	49375.92
634.167	49378.41
634.521	49386.77
634.875	49453.21
635.229	49225.64
635.583	49190.61
635.937	49101.58
636.291	49021.58
636.645	49036.72
636.999	48846.89
637.352	48996.04
637.706	48663.85
638.06	48739.1
638.413	48579.33
638.767	48605.09
639.121	48670.85
639.474	48471.54
639.828	48457.98
640.181	48457.75
640.534	48368.49
640.888	48206.68
641.241	48061.38
641.594	48200.58
641.947	48329.39
642.301	48134.6
642.654	48270.19
643.007	48152.22
643.36	48192.45
643.713	47997.2
644.066	48176.85
644.419	47867.71
644.771	47613.25
645.124	47266.6
645.477	47287.61
645.83	46952.03
646.182	46916.55
646.535	46663.9
646.888	46735.76
647.24	46519.5
647.593	46812.37
647.945	46702.09
648.298	46540.06
648.65	46470.46
649.002	46324.47
649.355	46549.33
649.707	46261.88
650.059	46464.58
650.411	46958.58
650.763	46940.96
651.115	47279.48
651.467	47170.55
651.819	47004.91
652.171	47029.77
652.523	47032.48
652.875	46964.91
653.227	46741.86
653.578	47025.92
653.93	46782.99
654.282	46634.97
654.633	46604.92
654.985	46593.62
655.337	46696.22
655.688	46683.11
656.039	46699.83
656.391	46332.84
656.742	46506.84
657.094	46589.55
657.445	46679.49
657.796	46527.41
658.147	46494.19
658.498	46289.9
658.849	46583
659.2	46447.41
659.551	46402.44
659.902	46493.74
660.253	46400.18
660.604	46512.72
660.955	46267.98
661.306	46378.48
661.656	46293.97
662.007	46209
662.358	46286.73
662.708	46369.22
663.059	46241.09
663.409	45950.25
663.76	46270.24
664.11	46173.97
664.461	46135.1
664.811	46112.05
665.161	46120.64
665.511	45944.6
665.862	45929.46
666.212	46083.58
666.562	46221.88
666.912	46015.56
667.262	45820.08
667.612	45825.73
667.962	45877.25
668.312	45745.96
668.662	45970.36
669.011	45759.97
669.361	45591.39
669.711	45579.41
670.06	45566.08
670.41	45326.31
670.76	45276.37
671.109	45503.93
671.459	45316.59
671.808	45169.02
672.157	45386.65
672.507	44995.24
672.856	45046.32
673.205	45187.55
673.554	45256.48
673.904	45043.15
674.253	45224.16
674.602	45008.58
674.951	44439.78
675.3	44178.32
675.649	44767.9
675.998	44756.61
676.346	44802.25
676.695	44881.12
677.044	44637.29
677.393	44827.56
677.741	44781.46
678.09	44734.23
678.438	44747.34
678.787	44712.09
679.135	44742.37
679.484	44521.36
679.832	44648.36
680.181	44325.88
680.529	44486.56
680.877	44498.31
681.225	44373.34
681.573	44581.24
681.922	44303.28
682.27	44246.56
682.618	44148.71
682.966	44121.59
683.314	44292.21
683.661	44029.85
684.009	43775.61
684.357	43793.24
684.705	43662.85
685.053	43786.24
685.4	43671.21
685.748	43433.02
686.095	43339.47
686.443	43333.14
686.79	43052.7
687.138	43197.78
687.485	42979.93
687.832	42975.64
688.18	43054.05
688.527	42739.48
688.874	42744
689.221	42729.31
689.568	42545.36
689.915	42405.71
690.262	42480.06
690.609	42297.46
690.956	42226.5
691.303	42158.71
691.65	41906.29
691.997	42058.82
692.344	41705.84
692.69	41675.33
693.037	41750.13
693.383	41367.09
693.73	41562.79
694.077	41334.77
694.423	41312.85
694.769	41118.51
695.116	41017.27
695.462	40821.12
695.808	40896.82
696.155	40969.59
696.501	40701.35
696.847	40638.07
697.193	40362.82
697.539	40535.02
697.885	40186.56
698.231	40097.97
698.577	39985.88
698.923	39829.28
699.269	39895.04
699.614	39544.54
699.96	39458.21
700.306	39430.64
700.651	39207.83
700.997	39165.57
701.342	39069.98
701.688	38990.88
702.033	38746.37
702.379	38927.15
702.724	38749.31
703.069	38843.09
703.415	38348.41
703.76	38337.57
704.105	38498.24
704.45	38375.08
704.795	38012.6
705.14	37940.06
705.485	37997.46
705.83	37880.85
706.175	37872.27
706.52	37719.73
706.865	37505.27
707.209	37514.99
707.554	37399.51
707.899	37403.8
708.243	37234.09
708.588	37100.99
708.932	36839.98
709.277	36843.14
709.621	36952.29
709.966	36750.04
710.31	36731.73
710.654	36388.92
710.998	36445.64
711.342	36553.88
711.687	36425.07
712.031	36308.01
712.375	36032.77
712.719	36132.65
713.063	36011.75
713.407	36197.06
713.75	35890.4
714.094	35926.33
714.438	35643.17
714.782	35844.52
715.125	35576.06
715.469	35660.12
715.812	35430.52
716.156	35367.25
716.499	35287.7
716.843	35347.59
717.186	35024.43
717.53	35220.59
717.873	35238.89
718.216	35054.04
718.559	34933.81
718.902	34850.2
719.246	34830.99
719.589	34715.06
719.932	34511
720.275	34528.63
720.617	34481.4
720.96	34426.26
721.303	34256.54
721.646	34309.87
721.989	34150.56
722.331	34206.15
722.674	34133.16
723.016	33920.51
723.359	33970.9
723.701	33819.04
724.044	33800.51
724.386	33509.67
724.729	33730.68
725.071	33605.49
725.413	33545.38
725.755	33633.51
726.097	33360.97
726.439	33055.67
726.782	33224.48
727.124	33317.36
727.465	33120.53
727.807	33080.08
728.149	32935.9
728.491	32856.58
728.833	33022.22
729.175	32761.21
729.516	32751.5
729.858	32645.96
730.199	32755.57
730.541	32532.75
730.882	32585.4
731.224	32538.62
731.565	32397.38
731.906	32326.42
732.248	32463.37
732.589	32344.5
732.93	32167.11
733.271	32138.18
733.612	32199.65
733.953	32054.79
734.294	31906.32
734.635	31898.86
734.976	32130.27
735.317	31813.44
735.658	31849.83
735.999	31914.46
736.339	31665.88
736.68	31864.97
737.021	31784.52
737.361	31672.88
737.702	31751.07
738.042	31681.24
738.383	31471.98
738.723	31574.58
739.063	31398.99
739.404	31485.99
739.744	31374.58
740.084	31207.58
740.424	31286.9
740.764	31260.24
741.104	31306.34
741.444	31189.73
741.784	31010.07
742.124	31016.63
742.464	30837.42
742.804	30889.17
743.143	30724.66
743.483	30641.5
743.823	30582.29
744.162	30556.08
744.502	30602.63
744.841	30458.9
745.181	30512.01
745.52	30410.09
745.86	30396.53
746.199	30180.49
746.538	30147.5
746.877	30239.02
747.216	30096.88
747.556	30062.08
747.895	29942.76
748.234	29897.34
748.573	29808.98
748.911	29828.64
749.25	29770.11
749.589	29597.23
749.928	29654.4
750.267	29635.87
750.605	29541.19
750.944	29433.84
751.283	29345.03
751.621	29415.99
751.96	29150.69
752.298	29098.71
752.636	29099.39
752.975	28912.05
753.313	28866.4
