Data from aluminium_surface_pro_back_FLMS001491_00008.txt Node
Date: Wed Feb 08 15:33:30 GMT 2017
User: dcchb
Spectrometer: FLMS00149
Trigger mode: 0
Integration Time (sec): 2.000000E-2
Scans to average: 10
Electric dark correction enabled: true
Nonlinearity correction enabled: false
Boxcar width: 0
XAxis mode: Wavelengths
Number of Pixels in Spectrum: 2048
>>>>>Begin Spectral Data<<<<<
341.393	-14.72
341.776	-14.72
342.16	-14.72
342.543	-61.5
342.927	-72.12
343.31	-61.27
343.693	-64.21
344.077	-75.28
344.46	-63.76
344.843	-63.53
345.226	-47.26
345.61	-30.31
345.993	-13.59
346.376	-6.81
346.759	15.79
347.142	36.58
347.525	43.36
347.908	64.38
348.291	80.42
348.674	96.01
349.057	89.46
349.44	158.84
349.823	149.12
350.206	170.81
350.588	206.52
350.971	234.32
351.354	259.85
351.737	253.75
352.119	297.82
352.502	272.96
352.884	311.15
353.267	299.85
353.65	320.42
354.032	316.35
354.414	340.08
354.797	340.08
355.179	354.31
355.562	357.48
355.944	367.42
356.326	357.7
356.709	377.36
357.091	360.87
357.473	383.92
357.855	381.66
358.238	383.46
358.62	375.56
359.002	375.78
359.384	387.08
359.766	399.51
360.148	389.79
360.53	375.33
360.912	380.53
361.294	363.35
361.676	367.19
362.057	381.43
362.439	382.56
362.821	359.28
363.203	373.52
363.584	387.76
363.966	353.18
364.348	365.84
364.729	349.12
365.111	365.61
365.493	375.33
365.874	363.8
366.256	355.44
366.637	377.81
367.019	354.09
367.4	359.74
367.781	365.61
368.163	370.13
368.544	362.45
368.925	387.31
369.306	380.07
369.688	359.51
370.069	368.32
370.45	365.16
370.831	383.46
371.212	384.82
371.593	405.61
371.974	383.92
372.355	399.74
372.736	394.54
373.117	370.36
373.498	402
373.879	389.11
374.26	386.63
374.641	392.96
375.021	367.19
375.402	394.76
375.783	398.38
376.163	427.98
376.544	416.91
376.925	419.4
377.305	438.83
377.686	427.98
378.066	439.51
378.447	423.92
378.827	436.12
379.208	437.02
379.588	449
379.968	438.15
380.349	441.99
380.729	445.61
381.109	440.41
381.489	454.2
381.87	460.98
382.25	451.49
382.63	464.59
383.01	455.55
383.39	463.46
383.77	470.02
384.15	487.19
384.53	488.77
384.91	495.33
385.29	493.29
385.67	520.18
386.049	524.03
386.429	491.48
386.809	495.78
387.189	511.6
387.568	516.79
387.948	543.01
388.328	523.12
388.707	549.56
389.087	544.36
389.466	525.61
389.846	542.33
390.225	550.92
390.605	583.23
390.984	560.41
391.363	571.71
391.743	585.49
392.122	586.62
392.501	596.57
392.881	603.8
393.26	603.8
393.639	607.64
394.018	646.96
394.397	609.9
394.776	636.79
395.155	619.16
395.534	611.71
395.913	634.53
396.292	646.96
396.671	679.95
397.05	658.71
397.429	654.42
397.808	668.2
398.186	688.77
398.565	675.43
398.944	698.48
399.323	704.59
399.701	714.08
400.08	734.87
400.458	741.65
400.837	761.99
401.215	755.43
401.594	738.48
401.972	773.06
402.351	773.96
402.729	788.88
403.107	792.95
403.486	790.23
403.864	804.92
404.242	805.37
404.62	827.75
404.999	823
405.377	847.63
405.755	867.52
406.133	847.41
406.511	877.01
406.889	918.14
407.267	895.77
407.645	897.12
408.023	952.94
408.401	932.6
408.779	944.58
409.156	963.11
409.534	999.49
409.912	977.12
410.29	1015.76
410.667	1032.26
411.045	1046.95
411.422	1081.53
411.8	1048.08
412.178	1042.43
412.555	1093.5
412.933	1098.7
413.31	1117.23
413.687	1150.45
414.065	1151.13
414.442	1139.38
414.819	1152.03
415.197	1180.96
415.574	1190.45
415.951	1183.9
416.328	1214.4
416.705	1222.76
417.082	1218.47
417.46	1254.4
417.837	1245.14
418.214	1257.34
418.591	1316.32
418.967	1307.73
419.344	1314.06
419.721	1362.42
420.098	1331.91
420.475	1364.91
420.852	1375.53
421.228	1382.99
421.605	1348.86
421.982	1406.04
422.358	1439.03
422.735	1455.3
423.111	1411.69
423.488	1462.08
423.864	1489.65
424.241	1487.16
424.617	1548.86
424.994	1550.44
425.37	1541.85
425.746	1549.08
426.123	1583.88
426.499	1601.29
426.875	1629.31
427.251	1650.78
427.627	1684.67
428.003	1702.53
428.379	1717.67
428.756	1728.06
429.132	1769.87
429.507	1790.66
429.883	1823.88
430.259	1853.26
430.635	1844.44
431.011	1847.38
431.387	1930.09
431.763	1958.34
432.138	1977.77
432.514	1985.46
432.89	1983.2
433.265	2073.36
433.641	2099.35
434.016	2095.96
434.392	2121.5
434.767	2171.89
435.143	2147.94
435.518	2202.4
435.894	2208.05
436.269	2238.1
436.644	2281.95
437.02	2307.26
437.395	2329.85
437.77	2330.08
438.145	2403.98
438.52	2383.41
438.895	2402.17
439.271	2420.25
439.646	2537.31
440.021	2494.37
440.395	2521.26
440.77	2521.26
441.145	2580.24
441.52	2599.9
441.895	2587.93
442.27	2635.61
442.645	2618.43
443.019	2673.57
443.394	2673.8
443.769	2685.55
444.143	2701.82
444.518	2752.67
444.892	2754.7
445.267	2774.36
445.641	2788.15
446.016	2838.99
446.39	2862.72
446.764	2859.78
447.139	2851.2
447.513	2889.84
447.887	2908.6
448.262	2934.58
448.636	2954.24
449.01	3008.48
449.384	3019.1
449.758	3037.18
450.132	3078.99
450.506	3078.53
450.88	3121.7
451.254	3094.81
451.628	3192.43
452.002	3232.2
452.376	3254.35
452.75	3266.1
453.123	3324.63
453.497	3360.56
453.871	3441.46
454.244	3464.97
454.618	3447.79
454.992	3523.72
455.365	3514.91
455.739	3630.16
456.112	3691.17
456.486	3696.37
456.859	3708.12
457.232	3807.78
457.606	3778.86
457.979	3872.64
458.352	3936.59
458.725	3977.04
459.099	4034.22
459.472	4117.83
459.845	4148.56
460.218	4138.39
460.591	4226.3
460.964	4231.72
461.337	4316.92
461.71	4416.13
462.083	4492.06
462.456	4445.28
462.829	4549.46
463.201	4611.38
463.574	4571.83
463.947	4697.02
464.32	4762.56
464.692	4824.03
465.065	4846.17
465.438	4979.28
465.81	5030.12
466.183	5055.21
466.555	5151.47
466.928	5168.88
467.3	5210
467.672	5274.41
468.045	5406.61
468.417	5410.22
468.789	5470.56
469.161	5567.73
469.534	5642.31
469.906	5796.88
470.278	5837.56
470.65	5937.89
471.022	5986.71
471.394	6058.57
471.766	6172.46
472.138	6259.47
472.51	6334.95
472.882	6414.27
473.253	6509.18
473.625	6646.35
473.997	6773.58
474.369	6811.77
474.74	6892.9
475.112	7051.54
475.484	7171.99
475.855	7286.56
476.227	7375.6
476.598	7545.54
476.97	7656.72
477.341	7816.04
477.713	7997.28
478.084	7967.67
478.455	8224.84
478.827	8252.41
479.198	8508.67
479.569	8567.88
479.94	8799.29
480.311	8831.15
480.682	9061.2
481.053	9291.03
481.424	9458.93
481.795	9521.53
482.166	9646.27
482.537	9799.26
482.908	10081.29
483.279	10098.69
483.65	10279.93
484.021	10400.6
484.391	10660.48
484.762	10725.79
485.133	10849.86
485.503	10951.32
485.874	11243.29
486.244	11339.79
486.615	11600.34
486.985	11716.5
487.356	11938.19
487.726	11972.99
488.097	12286.65
488.467	12332.98
488.837	12612.75
489.207	12701.11
489.578	12925.73
489.948	13032.17
490.318	13218.16
490.688	13285.95
491.058	13477.81
491.428	13650.23
491.798	13843
492.168	14087.06
492.538	14140.16
492.908	14349.65
493.278	14540.61
493.648	14567.95
494.017	14752.13
494.387	14846.59
494.757	15006.58
495.126	15180.59
495.496	15269.63
495.866	15303.3
496.235	15555.04
496.605	15738.09
496.974	15842.95
497.344	16016.73
497.713	16046.33
498.082	16210.62
498.452	16484.96
498.821	16477.28
499.19	16574
499.559	16719.08
499.928	16810.6
500.298	17083.36
500.667	17195.9
501.036	17128.56
501.405	17349.35
501.774	17399.97
502.143	17569.91
502.512	17594.09
502.88	17785.94
503.249	17783.91
503.618	17958.82
503.987	18096.45
504.356	18231.13
504.724	18392.48
505.093	18340.28
505.462	18519.48
505.83	18618.69
506.199	18863.43
506.567	19063.43
506.936	19090.32
507.304	19331.44
507.672	19464.77
508.041	19545.45
508.409	19706.12
508.777	19900.47
509.145	20038.99
509.514	20125.32
509.882	20286.67
510.25	20388.81
510.618	20589.49
510.986	20648.47
511.354	20848.46
511.722	21087.33
512.09	21193.54
512.458	21279.64
512.826	21403.48
513.193	21622.68
513.561	21728.21
513.929	21850.92
514.297	22073.29
514.664	22195.77
515.032	22381.53
515.4	22560.06
515.767	22754.18
516.135	22832.37
516.502	22716.66
516.869	23183.99
517.237	23245.91
517.604	23327.95
517.972	23554.83
518.339	23657.65
518.706	23721.38
519.073	23873.92
519.44	24133.12
519.808	24327.24
520.175	24440.01
520.542	24829.6
520.909	24937.85
521.276	24933.78
521.643	25351.85
522.009	25482.69
522.376	25546.42
522.743	25772.63
523.11	26059.85
523.477	26344.59
523.843	26448.32
524.21	26796.78
524.577	27066.15
524.943	27174.85
525.31	27300.5
525.676	27521.73
526.043	27797.88
526.409	27895.74
526.776	28257.99
527.142	28269.51
527.508	28541.59
527.874	28760.12
528.241	28924.63
528.607	29043.28
528.973	29321.69
529.339	29414.11
529.705	29852.07
530.071	29898.62
530.437	30026.98
530.803	30269.01
531.169	30440.3
531.535	30528.43
531.901	30570.47
532.267	30762.33
532.632	31028.08
532.998	31068.31
533.364	31335.42
533.73	31452.7
534.095	31506.26
534.461	31672.81
534.826	31916.87
535.192	32041.39
535.557	32219.69
535.923	32286.58
536.288	32465.78
536.653	32596.63
537.019	32565.67
537.384	32669.85
537.749	32931.31
538.114	33072.77
538.479	33191.42
538.845	33305.08
539.21	33337.17
539.575	33516.15
539.94	33670.95
540.305	33782.36
540.67	33693.78
541.034	34003.82
541.399	34235.46
541.764	34192.75
542.129	34288.79
542.494	34465.73
542.858	34547.31
543.223	34630.47
543.587	34889
543.952	34903.46
544.316	35001.99
544.681	35082.44
545.045	35282.89
545.41	35382.32
545.774	35530.56
546.138	35604.01
546.503	35627.06
546.867	35807.39
547.231	36070.89
547.595	36109.53
547.959	36109.98
548.324	36335.29
548.688	36489.86
549.052	36652.79
549.416	36645.11
549.779	36752.9
550.143	36954.25
550.507	37151.76
550.871	37108.83
551.235	37081.03
551.599	37499.32
551.962	37437.63
552.326	37648.7
552.689	37981.35
553.053	37736.15
553.417	37960.33
553.78	38345.86
554.143	37998.75
554.507	38360.77
554.87	38534.33
555.234	38922.34
555.597	38690.71
555.96	39077.59
556.323	39104.03
556.686	39201.43
557.05	39504.47
557.413	39587.86
557.776	39793.73
558.139	40064.91
558.502	40081.18
558.865	40339.93
559.228	40557.78
559.59	40661.5
559.953	40681.61
560.316	41216.06
560.679	41358.66
561.041	41487.47
561.404	41747.35
561.767	42039.77
562.129	41741.25
562.492	42316.6
562.854	42326.99
563.217	42484.05
563.579	42612.64
563.941	42893.31
564.304	43037.03
564.666	43368.77
565.028	43420.52
565.39	43646.96
565.753	43724.7
566.115	43871.81
566.477	44092.15
566.839	44293.72
567.201	44528.29
567.563	44694.84
567.925	44873.82
568.287	45023.65
568.648	45163.3
569.01	45237.65
569.372	45474.71
569.734	45419.79
570.095	45687.13
570.457	45884.19
570.819	46123.28
571.18	46019.78
571.542	46374.8
571.903	46408.24
572.265	46648.91
572.626	46686.65
572.987	46931.85
573.349	47142.01
573.71	47276.24
574.071	47406.41
574.432	47431.49
574.794	47832.84
575.155	47758.04
575.516	47693.41
575.877	47846.17
576.238	48044.36
576.599	48136.79
576.96	48196.67
577.32	48216.56
577.681	48377.23
578.042	48542.65
578.403	48591.69
578.763	48550.33
579.124	48622.87
579.485	48839.14
579.845	49015.41
580.206	49015.63
580.566	48948.74
580.927	49007.27
581.287	49195.51
581.648	49070.09
582.008	49289.07
582.368	49157.32
582.728	49301.5
583.089	49151.67
583.449	49332.23
583.809	49426.24
584.169	49476.86
584.529	49367.26
584.889	49514.38
585.249	49478.9
585.609	49304.44
585.969	49497.2
586.329	49593.24
586.688	49513.7
587.048	49460.59
587.408	49492.23
587.768	49445.9
588.127	49408.39
588.487	49439.8
588.846	49716.18
589.206	49562.96
589.565	49601.61
589.925	49766.12
590.284	49642.73
590.643	49696.74
591.003	49911.88
591.362	49946.23
591.721	49853.12
592.08	49900.35
592.44	49932.44
592.799	49998.21
593.158	49861.49
593.517	49810.64
593.876	49956.62
594.235	49750.08
594.593	49908.72
594.952	49997.75
595.311	49884.08
595.67	49944.87
596.029	50085.21
596.387	50207.92
596.746	50151.42
597.104	50119.33
597.463	50061.93
597.822	50218.09
598.18	49986.68
598.538	50094.25
598.897	50401.13
599.255	50056.73
599.613	50514.8
599.972	50382.6
600.33	50429.15
600.688	50313.68
601.046	50396.39
601.404	50559.77
601.762	50610.17
602.12	50646.1
602.478	50659.43
602.836	50623.27
603.194	50431.87
603.552	50613.33
603.91	50518.64
604.268	50735.59
604.625	50635.93
604.983	50728.36
605.341	50640.9
605.698	50737.85
606.056	50861.69
606.413	50723.38
606.771	50933.32
607.128	50983.49
607.485	50836.38
607.843	50780.56
608.2	51136.71
608.557	51227.55
608.914	51068.23
609.272	51116.37
609.629	51243.82
609.986	51343.48
610.343	51204.73
610.7	51475.68
611.057	51141.68
611.414	51262.8
611.771	51337.15
612.127	51445.4
612.484	51353.2
612.841	51515.91
613.198	51372.41
613.554	51394.55
613.911	51663.7
614.267	51640.42
614.624	51617.37
614.98	51736.69
615.337	51763.58
615.693	51774.88
616.05	51805.62
616.406	51938.72
616.762	51840.19
617.118	51772.17
617.475	51813.75
617.831	51949.34
618.187	51900.3
618.543	51920.41
618.899	52084.25
619.255	52062.56
619.611	52075.21
619.967	52156.79
620.323	52267.98
620.678	52050.35
621.034	52027.3
621.39	52035.44
621.746	52004.48
622.101	52269.33
622.457	51878.83
622.812	52046.29
623.168	52157.02
623.523	52185.49
623.879	52107.3
624.234	52010.58
624.589	52136.23
624.945	52101.65
625.3	52120.41
625.655	52053.07
626.01	52187.3
626.365	52072.27
626.72	52001.99
627.075	52040.64
627.43	51989.79
627.785	51977.59
628.14	52032.28
628.495	52044.7
628.85	51945.95
629.205	51897.59
629.559	52029.56
629.914	51980.75
630.269	52015.55
630.623	52074.31
630.978	51811.26
631.332	51997.47
631.687	52009.9
632.041	51907.76
632.396	51953.86
632.75	51775.11
633.104	51839.06
633.459	51619.41
633.813	51698.73
634.167	51544.15
634.521	51634.77
634.875	51651.72
635.229	51537.83
635.583	51339.64
635.937	51388.68
636.291	51295.57
636.645	51361.79
636.999	51385.74
637.352	51386.87
637.706	51226.65
638.06	51372.63
638.413	51158.85
638.767	51145.75
639.121	51160.21
639.474	51113.43
639.828	51028.01
640.181	50943.94
640.534	50966.99
640.888	50830.27
641.241	50647.23
641.594	50748.92
641.947	50822.36
642.301	50743.5
642.654	50765.19
643.007	50718.64
643.36	50598.42
643.713	50553.67
644.066	50748.02
644.419	50440.23
644.771	50145.77
645.124	49887.47
645.477	49941.71
645.83	49741.49
646.182	49495.39
646.535	49411.1
646.888	49574.26
647.24	49174.95
647.593	49369.75
647.945	49339.92
648.298	49050.43
648.65	49101.28
649.002	48964.33
649.355	49114.84
649.707	49123.88
650.059	49277.32
650.411	49726.57
650.763	49734.48
651.115	50100.8
651.467	49972.9
651.819	49861.26
652.171	49906.91
652.523	49827.59
652.875	49765.89
653.227	49641.6
653.578	49886.8
653.93	49657.2
654.282	49513.25
654.633	49394.83
654.985	49506.47
655.337	49449.74
655.688	49475.96
656.039	49529.29
656.391	49205.46
656.742	49254.72
657.094	49256.3
657.445	49322.06
657.796	49223.76
658.147	49139.24
658.498	49084.33
658.849	49160.71
659.2	49069.87
659.551	49044.33
659.902	49109.19
660.253	49095.86
660.604	49111.9
660.955	48930.21
661.306	49102.41
661.656	49014.5
662.007	48942.41
662.358	48985.12
662.708	48956.2
663.059	48875.3
663.409	48575.19
663.76	48957.55
664.11	48884.34
664.461	48904.67
664.811	48793.27
665.161	48739.03
665.511	48695.41
665.862	48504.46
666.212	48715.53
666.562	48649.31
666.912	48553.05
667.262	48419.72
667.612	48433.5
667.962	48500.17
668.312	48463.56
668.662	48647.28
669.011	48425.14
669.361	48488.41
669.711	48293.84
670.06	48304.92
670.41	48241.87
670.76	48255.65
671.109	48408.64
671.459	48304.69
671.808	48220.17
672.157	48328.19
672.507	48085.26
672.856	48201.42
673.205	48202.55
673.554	48359.83
673.904	48169.1
674.253	48273.5
674.602	48144.02
674.951	47652.73
675.3	47463.36
675.649	48192.15
675.998	47920.07
676.346	47972.5
676.695	48148.76
677.044	47647.98
677.393	47789.9
677.741	47784.93
678.09	47651.83
678.438	47632.84
678.787	47664.93
679.135	47582.45
679.484	47340.87
679.832	47433.3
680.181	47193.53
680.529	47504.03
680.877	47327.99
681.225	47325.96
681.573	47349.01
681.922	47092.52
682.27	47118.96
682.618	47133.42
682.966	47107.66
683.314	47100.43
683.661	46920.55
684.009	46827.89
684.357	46617.96
684.705	46442.14
685.053	46613.89
685.4	46626.99
685.748	46341.13
686.095	46374.57
686.443	46294.57
686.79	46050.06
687.138	46278.53
687.485	46216.84
687.832	45962.83
688.18	45981.59
688.527	45753.34
688.874	45675.15
689.221	45730.29
689.568	45505.22
689.915	45498.44
690.262	45459.12
690.609	45460.25
690.956	45362.39
691.303	45241.27
691.65	44886.48
691.997	45034.95
692.344	44662.98
692.69	44721.73
693.037	44589.08
693.383	44434.74
693.73	44543.21
694.077	44189.77
694.423	44245.14
694.769	44103.44
695.116	44001.98
695.462	44086.5
695.808	43757.92
696.155	43952.94
696.501	43510.92
696.847	43540.07
697.193	43181.66
697.539	43363.35
697.885	43169.46
698.231	43124.49
698.577	43036.13
698.923	42825.06
699.269	42730.83
699.614	42477.72
699.96	42344.4
700.306	42414.45
700.651	42307.33
700.997	41997.96
701.342	42110.05
701.688	42051.97
702.033	41853.11
702.379	41799.1
702.724	41633.45
703.069	41607.92
703.415	41327.92
703.76	41316.63
704.105	41376.74
704.45	41217.87
704.795	40875.06
705.14	40809.52
705.485	40730.65
705.83	40655.4
706.175	40727.04
706.52	40499.7
706.865	40525.91
707.209	40337.67
707.554	40125.24
707.899	40135.87
708.243	39934.29
708.588	39969.32
708.932	39646.16
709.277	39573.62
709.621	39638.03
709.966	39323.68
710.31	39446.17
710.654	39136.8
710.998	39227.19
711.342	39227.41
711.687	39034.2
712.031	38819.06
712.375	38712.17
712.719	38806.63
713.063	38726.19
713.407	38815.67
713.75	38510.82
714.094	38497.49
714.438	38372.07
714.782	38433.99
715.125	38203.04
715.469	38237.16
715.812	38125.75
716.156	37849.82
716.499	37769.6
716.843	37953.32
717.186	37678.98
717.53	37892.53
717.873	37894.12
718.216	37664.07
718.559	37430.17
718.902	37424.52
719.246	37314.24
719.589	37157.86
719.932	37126.23
720.275	37046
720.617	36973.24
720.96	36925.55
721.303	36923.07
721.646	36876.74
721.989	36698.89
722.331	36722.62
722.674	36564.21
723.016	36569.18
723.359	36372.35
723.701	36570.08
724.044	36382.07
724.386	36016.88
724.729	36418.9
725.071	36107.04
725.413	36160.83
725.755	36086.71
726.097	35838.13
726.439	35804.68
726.782	35791.12
727.124	35968.97
727.465	35640.62
727.807	35592.93
728.149	35575.76
728.491	35624.8
728.833	35560.62
729.175	35389.55
729.516	35272.04
729.858	35316.33
730.199	35290.12
730.541	35190.01
730.882	35190.01
731.224	35159.27
731.565	34972.61
731.906	34941.65
732.248	34980.07
732.589	34754.09
732.93	34616.24
733.271	34657.14
733.612	34707.31
733.953	34592.96
734.294	34358.39
734.635	34365.4
734.976	34454.66
735.317	34356.36
735.658	34216.47
735.999	34221.44
736.339	34106.42
736.68	34122.01
737.021	34086.08
737.361	33760.21
737.702	34080.43
738.042	33941
738.383	33835.24
738.723	33848.35
739.063	33878.4
739.404	33818.07
739.744	33775.13
740.084	33499.43
740.424	33507.34
740.764	33458.75
741.104	33495.36
741.444	33381.01
741.784	33289.94
742.124	33300.11
742.464	33200
742.804	33180.34
743.143	33122.94
743.483	33095.6
743.823	32932.89
744.162	32913.91
744.502	32900.58
744.841	32648.6
745.181	32867.36
745.52	32682.95
745.86	32771.09
746.199	32649.73
746.538	32543.52
746.877	32587.59
747.216	32594.37
747.556	32366.35
747.895	32333.81
748.234	32161.84
748.573	32207.94
748.911	32054.04
749.25	32129.52
749.589	31843.65
749.928	31963.2
750.267	31935.18
750.605	31783.99
750.944	31597.78
751.283	31611.57
751.621	31648.63
751.96	31423.55
752.298	31341.52
752.636	31325.7
752.975	31222.43
