Data from aluminium_macbook_case_FLMS001491_003.txt Node
Date: Tue Feb 07 10:43:06 GMT 2017
User: dcchb
Spectrometer: FLMS00149
Trigger mode: 0
Integration Time (sec): 2.000000E-2
Scans to average: 10
Electric dark correction enabled: true
Nonlinearity correction enabled: false
Boxcar width: 0
XAxis mode: Wavelengths
Number of Pixels in Spectrum: 2048
>>>>>Begin Spectral Data<<<<<
341.393	3.38
341.776	3.38
342.16	3.38
342.543	-50.63
342.927	-75.27
343.31	-62.84
343.693	-72.1
344.077	-74.36
344.46	-53.8
344.843	-48.83
345.226	-44.53
345.61	-31.43
345.993	-30.75
346.376	5.41
346.759	16.26
347.142	22.13
347.525	30.04
347.908	84.28
348.291	77.27
348.674	85.18
349.057	98.06
349.44	129.47
349.823	153.43
350.206	176.48
350.588	254.44
350.971	260.09
351.354	261.45
351.737	280.88
352.119	312.07
352.502	314.55
352.884	323.59
353.267	329.24
353.65	341.67
354.032	356.81
354.414	357.49
354.797	347.77
355.179	367.21
355.562	385.96
355.944	374.44
356.326	395.68
356.709	404.95
357.091	392.74
357.473	427.77
357.855	401.56
358.238	401.33
358.62	435.45
359.002	412.4
359.384	438.39
359.766	404.95
360.148	416.02
360.53	407.21
360.912	430.03
361.294	436.36
361.676	413.99
362.057	407.66
362.439	407.43
362.821	420.99
363.203	420.54
363.584	440.65
363.966	406.75
364.348	416.7
364.729	413.53
365.111	416.7
365.493	425.51
365.874	432.97
366.256	438.62
366.637	432.06
367.019	437.04
367.4	425.29
367.781	427.55
368.163	457.6
368.544	426.19
368.925	439.3
369.306	439.52
369.688	442.91
370.069	442.46
370.45	439.07
370.831	451.05
371.212	438.17
371.593	456.7
371.974	469.35
372.355	465.74
372.736	464.83
373.117	505.74
373.498	458.73
373.879	474.32
374.26	443.82
374.641	456.7
375.021	458.5
375.402	470.93
375.783	488.33
376.163	560.42
376.544	540.76
376.925	522.46
377.305	496.7
377.686	529.24
378.066	542.8
378.447	548.22
378.827	526.07
379.208	552.29
379.588	531.72
379.968	573.53
380.349	556.58
380.729	554.55
381.109	564.04
381.489	565.17
381.87	584.15
382.25	575.79
382.63	575.79
383.01	591.38
383.39	609.69
383.77	607.43
384.15	609.69
384.53	618.5
384.91	623.47
385.29	642
385.67	640.42
386.049	676.8
386.429	660.76
386.809	663.47
387.189	679.74
387.568	698.27
387.948	686.3
388.328	705.5
388.707	708.89
389.087	697.14
389.466	722.68
389.846	732.17
390.225	757.71
390.605	733.98
390.984	770.36
391.363	757.03
391.743	790.02
392.122	800.42
392.501	797.03
392.881	812.85
393.26	806.07
393.639	836.35
394.018	842.22
394.397	873.18
394.776	855.78
395.155	859.17
395.534	867.53
395.913	876.8
396.292	885.61
396.671	905.72
397.05	897.82
397.429	922
397.808	922
398.186	931.71
398.565	972.16
398.944	954.54
399.323	994.54
399.701	970.13
400.08	984.37
400.458	1019.39
400.837	1002.22
401.215	1015.78
401.594	1047.87
401.972	1055.78
402.351	1069.79
402.729	1071.37
403.107	1076.12
403.486	1106.62
403.864	1094.87
404.242	1124.7
404.62	1145.94
404.999	1184.36
405.377	1183.91
405.755	1190.24
406.133	1220.74
406.511	1209.9
406.889	1234.76
407.267	1268.2
407.645	1269.11
408.023	1286.51
408.401	1299.84
408.779	1327.41
409.156	1345.94
409.534	1335.32
409.912	1378.48
410.29	1413.06
410.667	1431.59
411.045	1420.97
411.422	1479.72
411.8	1492.6
412.178	1538.02
412.555	1543.22
412.933	1545.71
413.31	1584.58
413.687	1578.25
414.065	1633.39
414.442	1625.48
414.819	1679.72
415.197	1684.69
415.574	1679.04
415.951	1708.42
416.328	1725.36
416.705	1758.13
417.082	1758.58
417.46	1813.5
417.837	1829.32
418.214	1852.59
418.591	1825.25
418.967	1911.8
419.344	1883.33
419.721	1934.17
420.098	1940.27
420.475	1967.39
420.852	1959.03
421.228	2034.51
421.605	2019.82
421.982	2034.96
422.358	2063.21
422.735	2094.17
423.111	2120.38
423.488	2162.41
423.864	2167.84
424.241	2213.94
424.617	2224.11
424.994	2261.17
425.37	2256.2
425.746	2276.99
426.123	2354.5
426.499	2361.96
426.875	2374.61
427.251	2386.59
427.627	2479.47
428.003	2525.57
428.379	2474.95
428.756	2553.14
429.132	2590.2
429.507	2653.25
429.883	2679.24
430.259	2729.41
430.635	2788.39
431.011	2763.53
431.387	2859.57
431.763	2906.35
432.138	2947.25
432.514	2960.81
432.89	3023.86
433.265	3086.68
433.641	3106.12
434.016	3105.89
434.392	3168.49
434.767	3267.7
435.143	3240.58
435.518	3286.23
435.894	3364.87
436.269	3352.67
436.644	3417.98
437.02	3450.29
437.395	3480.12
437.77	3554.47
438.145	3580.46
438.52	3643.73
438.895	3677.18
439.271	3705.43
439.646	3768.47
440.021	3840.34
440.395	3829.72
440.77	3788.36
441.145	3890.51
441.52	3945.87
441.895	3948.13
442.27	3984.29
442.645	4021.12
443.019	4084.17
443.394	4075.36
443.769	4137.5
444.143	4104.74
444.518	4153.1
444.892	4185.86
445.267	4210.5
445.641	4245.3
446.016	4298.18
446.39	4319.42
446.764	4410.72
447.139	4370.72
447.513	4445.29
447.887	4487.55
448.262	4474.44
448.636	4535.91
449.01	4582.46
449.384	4652.07
449.758	4705.85
450.132	4767.54
450.506	4769.8
450.88	4820.42
451.254	4840.08
451.628	4916.24
452.002	4979.52
452.376	5054.09
452.75	5055.22
453.123	5099.96
453.497	5198.49
453.871	5234.2
454.244	5313.52
454.618	5389.67
454.992	5486.85
455.365	5478.94
455.739	5604.58
456.112	5662.66
456.486	5708.08
456.859	5788.99
457.232	5916.67
457.606	5922.54
457.979	6048.19
458.352	6147.85
458.725	6229.65
459.099	6296.54
459.472	6414.96
459.845	6477.1
460.218	6506.03
460.591	6582.19
460.964	6639.13
461.337	6755.29
461.71	6901.27
462.083	6990.99
462.456	7004.32
462.829	7031.67
463.201	7198.44
463.574	7176.29
463.947	7336.52
464.32	7444.76
464.692	7548.26
465.065	7644.98
465.438	7734.92
465.81	7894.69
466.183	7943.05
466.555	8116.61
466.928	8157.29
467.3	8234.57
467.672	8426.88
468.045	8625.07
468.417	8646.76
468.789	8710.72
469.161	8781.45
469.534	8922.92
469.906	9227.31
470.278	9278.61
470.65	9409.91
471.022	9476.12
471.394	9734.87
471.766	9778.03
472.138	9869.78
472.51	10163.79
472.882	10277.68
473.253	10377.34
473.625	10568.3
473.997	10756.99
474.369	10840.6
474.74	10967.61
475.112	11234.94
475.484	11375.05
475.855	11611.21
476.227	11728.94
476.598	12081.93
476.97	12173.68
477.341	12511.3
477.713	12673.1
478.084	12759.88
478.455	13176.59
478.827	13265.85
479.198	13786.52
479.569	13627.42
479.94	14109.67
480.311	14233.74
480.682	14532.49
481.053	14839.14
481.424	15115.97
481.795	15297.21
482.166	15484.55
482.537	15693.58
482.908	16010.64
483.279	16261.48
483.65	16488.37
484.021	16724.97
484.391	16980.33
484.762	17139.42
485.133	17248.12
485.503	17629.35
485.874	17965.16
486.244	18232.73
486.615	18533.28
486.985	18809.66
487.356	19163.55
487.726	19311.79
488.097	19829.97
488.467	19820.71
488.837	20289.85
489.207	20576.62
489.578	20858.19
489.948	21027.23
490.318	21334.11
490.688	21459.76
491.058	21789.02
491.428	22163.47
491.798	22444.37
492.168	22768.88
492.538	22888.2
492.908	23096.55
493.278	23407.96
493.648	23410.44
494.017	23797.33
494.387	23913.26
494.757	24096.08
495.126	24514.37
495.496	24426.69
495.866	24659.45
496.235	24932.44
496.605	25249.49
496.974	25353.44
497.344	25677.05
497.713	25794.79
498.082	25993.2
498.452	26358.61
498.821	26574.65
499.19	26558.61
499.559	26903.23
499.928	27161.98
500.298	27313.17
500.667	27662.31
501.036	27704.57
501.405	27968.52
501.774	27989.08
502.143	28319.47
502.512	28404.66
502.88	28707.03
503.249	28746.57
503.618	28828.15
503.987	29031.76
504.356	29337.97
504.724	29340.01
505.093	29473.79
505.462	29598.53
505.83	29938.41
506.199	30079.42
506.567	30498.17
506.936	30536.36
507.304	30940.19
507.672	31089.79
508.041	31142.44
508.409	31492.27
508.777	31779.26
509.145	32036.43
509.514	32174.06
509.882	32336.31
510.25	32628.96
510.618	32842.96
510.986	33022.17
511.354	33357.3
511.722	33636.62
512.09	33941.01
512.458	34021.92
512.826	34388.01
513.193	34512.52
513.561	34699.86
513.929	35049.91
514.297	35363.58
514.664	35460.97
515.032	35639.27
515.4	35940.06
515.767	36131.92
516.135	36415.75
516.502	36134.4
516.869	36830.88
517.237	36933.7
517.604	36934.38
517.972	37332.11
518.339	37676.28
518.706	37608.49
519.073	37871.76
519.44	38250.96
519.808	38572.53
520.175	38564.85
520.542	39160.31
520.909	39467.2
521.276	39627.19
521.643	39971.36
522.009	40317.8
522.376	40643.89
522.743	40896.54
523.11	41467.37
523.477	41895.16
523.843	42000.01
524.21	42376.27
524.577	42810.61
524.943	43001.12
525.31	43335.34
525.676	43508.45
526.043	43842
526.409	43977.59
526.776	44514.3
527.142	44580.51
527.508	44792.25
527.874	45119.7
528.241	45398.34
528.607	45349.3
528.973	45801.95
529.339	45822.74
529.705	46191.09
530.071	46379.78
530.437	46659.32
530.803	46898.19
531.169	46947.23
531.535	46904.74
531.901	47278.06
532.267	47334.33
532.632	47696.58
532.998	47828.78
533.364	48138.83
533.73	48221.54
534.095	48581.53
534.461	48738.59
534.826	49058.36
535.192	49187.85
535.557	49557.33
535.923	49518.01
536.288	49636.87
536.653	49993.02
537.019	49950.99
537.384	50232.79
537.749	50386.23
538.114	50430.52
538.479	50452.44
538.845	50714.36
539.21	50747.8
539.575	50847.46
539.94	51004.52
540.305	51195.7
540.67	51066.21
541.034	51282.93
541.399	51364.06
541.764	51461.46
542.129	51484.96
542.494	51555.69
542.858	51678.85
543.223	51710.04
543.587	52021.44
543.952	51877.49
544.316	51974.44
544.681	51982.35
545.045	52167.65
545.41	52366.29
545.774	52410.81
546.138	52592.05
546.503	52664.36
546.867	52807.18
547.231	53054.86
547.595	53058.48
547.959	53262.77
548.324	53368.98
548.688	53448.07
549.052	53632.47
549.416	53784.11
549.779	53897.1
550.143	53893.71
550.507	54134.16
550.871	54247.6
551.235	54220.03
551.599	54521.26
551.962	54608.49
552.326	54644.42
552.689	54815.04
553.053	54713.58
553.417	54812.56
553.78	55124.86
554.143	55001.48
554.507	55129.16
554.87	55216.61
555.234	55420
555.597	55293
555.96	55448.47
556.323	55513.1
556.686	55552.88
557.05	55680.78
557.413	55799.87
557.776	55859.53
558.139	56061.79
558.502	56034.9
558.865	56102.24
559.228	56374.1
559.59	56448.9
559.953	56539.29
560.316	56803.46
560.679	56806.63
561.041	57017.92
561.404	57132.49
561.767	57279.16
562.129	57238.25
562.492	57556.21
562.854	57576.33
563.217	57602.99
563.579	57745.59
563.941	57948.29
564.304	58041.85
564.666	58229.42
565.028	58313.48
565.39	58372.46
565.753	58565.9
566.115	58614.04
566.477	58703.53
566.839	58780.36
567.201	58929.96
567.563	58957.53
567.925	59134.7
568.287	59099
568.648	59129.05
569.01	59254.93
569.372	59392.32
569.734	59353.23
570.095	59508.7
570.457	59561.13
570.819	59635.71
571.18	59561.81
571.542	59809.49
571.903	59726.33
572.265	59776.04
572.626	59841.35
572.987	59870.95
573.349	59938.52
573.71	60054.68
574.071	60177.84
574.432	60201.11
574.794	60338.06
575.155	60301.23
575.516	60295.35
575.877	60388.91
576.238	60443.59
576.599	60595.23
576.96	60620.31
577.32	60703.93
577.681	60824.15
578.042	60897.14
578.403	60847.88
578.763	60885.16
579.124	60959.96
579.485	61058.95
579.845	61179.62
580.206	61169.45
580.566	61131.71
580.927	61152.73
581.287	61247.87
581.648	61151.82
582.008	61294.19
582.368	61232.73
582.728	61320.86
583.089	61251.26
583.449	61273.18
583.809	61222.1
584.169	61270.24
584.529	61209
584.889	61345.27
585.249	61194.76
585.609	61124.93
585.969	61281.76
586.329	61136.23
586.688	61176.23
587.048	61140.53
587.408	61065.5
587.768	61063.92
588.127	61063.47
588.487	61077.7
588.846	61228.88
589.206	61061.66
589.565	61009.23
589.925	61170.81
590.284	61126.29
590.643	61140.07
591.003	61228.66
591.362	61368.09
591.721	61320.63
592.08	61305.49
592.44	61399.95
592.799	61379.39
593.158	61294.65
593.517	61373.29
593.876	61390.24
594.235	61362.67
594.593	61405.6
594.952	61536.67
595.311	61448.54
595.67	61540.74
596.029	61647.4
596.387	61630.46
596.746	61710.91
597.104	61575.77
597.463	61546.62
597.822	61703.9
598.18	61592.49
598.538	61594.98
598.897	61726.27
599.255	61561.76
599.613	61864.8
599.972	61647.63
600.33	61660.51
600.688	61567.63
601.046	61645.37
601.404	61707.29
601.762	61671.58
602.12	61681.75
602.478	61731.02
602.836	61696.89
603.194	61551.81
603.552	61637.69
603.91	61472.27
604.268	61616.22
604.625	61580.51
604.983	61611.7
605.341	61570.12
605.698	61721.53
606.056	61730.79
606.413	61704.58
606.771	61760.85
607.128	61800.85
607.485	61720.85
607.843	61778.25
608.2	61890.56
608.557	62022.08
608.914	61958.58
609.272	62080.39
609.629	62165.13
609.986	62202.42
610.343	62121.52
610.7	62378.91
611.057	62335.75
611.414	62261.63
611.771	62282.64
612.127	62413.49
612.484	62399.93
612.841	62522.86
613.198	62411
613.554	62433.15
613.911	62634.95
614.267	62507.95
614.624	62526.7
614.98	62511.34
615.337	62640.15
615.693	62614.16
616.05	62544.56
616.406	62667.04
616.762	62566.02
617.118	62515.86
617.475	62558.11
617.831	62596.08
618.187	62617.55
618.543	62557.89
618.899	62674.5
619.255	62589.07
619.611	62517.66
619.967	62719.69
620.323	62639.69
620.678	62578.91
621.034	62516.53
621.39	62488.06
621.746	62456.2
622.101	62693.7
622.457	62482.41
622.812	62569.87
623.168	62615.06
623.523	62634.5
623.879	62712.24
624.234	62507.04
624.589	62605.57
624.945	62633.14
625.3	62746.36
625.655	62685.57
626.01	62649.19
626.365	62775.51
626.72	62749.3
627.075	62737.32
627.43	62736.42
627.785	62624.33
628.14	62693.48
628.495	62790.88
628.85	62763.31
629.205	62662.52
629.559	62859.12
629.914	62726.02
630.269	62702.29
630.623	62651.67
630.978	62622.97
631.332	62711.78
631.687	62718.34
632.041	62635.18
632.396	62721.5
632.75	62519.47
633.104	62569.87
633.459	62466.14
633.813	62453.26
634.167	62427.04
634.521	62373.94
634.875	62413.71
635.229	62343.43
635.583	62226.37
635.937	62206.71
636.291	62193.83
636.645	62111.12
636.999	62054.17
637.352	62082.87
637.706	61858.92
638.06	62010.56
638.413	61886.27
638.767	61864.12
639.121	61864.57
639.474	61718.36
639.828	61728.53
640.181	61741.87
640.534	61665.26
640.888	61637.91
641.241	61488.09
641.594	61485.6
641.947	61559.95
642.301	61544.58
642.654	61614.86
643.007	61545.94
643.36	61538.93
643.713	61529.22
644.066	61581.64
644.419	61403.12
644.771	61401.08
645.124	61084.71
645.477	61130.58
645.83	60917.93
646.182	60843.58
646.535	60734.89
646.888	60758.61
647.24	60686.07
647.593	60860.31
647.945	60817.6
648.298	60685.17
648.65	60649.01
649.002	60611.5
649.355	60670.71
649.707	60712.29
650.059	60718.84
650.411	60966.52
650.763	60993.18
651.115	61220.75
651.467	61173.74
651.819	61058.72
652.171	61029.12
652.523	60975.78
652.875	60926.07
653.227	60821.44
653.578	61014.43
653.93	60890.36
654.282	60745.73
654.633	60678.84
654.985	60737.15
655.337	60723.13
655.688	60639.52
656.039	60699.41
656.391	60455.57
656.742	60483.82
657.094	60507.32
657.445	60517.26
657.796	60502.58
658.147	60374.22
658.498	60395.01
658.849	60366.99
659.2	60309.59
659.551	60271.85
659.902	60298.51
660.253	60306.65
660.604	60335.35
660.955	60152.75
661.306	60246.31
661.656	60214
662.007	60256.25
662.358	60223.26
662.708	60176.48
663.059	60212.64
663.409	60134.45
663.76	60292.86
664.11	60292.64
664.461	60240.89
664.811	60301.68
665.161	60294.22
665.511	60243.6
665.862	60270.72
666.212	60285.63
666.562	60329.7
666.912	60274.56
667.262	60254.9
667.612	60251.28
667.962	60279.3
668.312	60221.45
668.662	60362.01
669.011	60248.12
669.361	60234.11
669.711	60187.33
670.06	60125.41
670.41	60173.77
670.76	60061.91
671.109	60198.85
671.459	60134.22
671.808	60011.06
672.157	60079.54
672.507	59843.16
672.856	59905.53
673.205	59864.17
673.554	59995.47
673.904	59845.19
674.253	59985.08
674.602	59891.52
674.951	59508.48
675.3	59298.09
675.649	59651.52
675.998	59662.6
676.346	59677.06
676.695	59720
677.044	59451.98
677.393	59511.87
677.741	59585.99
678.09	59443.62
678.438	59367.69
678.787	59430.51
679.135	59335.6
679.484	59145.32
679.832	59321.36
680.181	59095.38
680.529	59171.99
680.877	59062.16
681.225	59047.92
681.573	59198.2
681.922	59062.16
682.27	58973.35
682.618	58955.27
682.966	58884.77
683.314	58963.41
683.661	58884.77
684.009	58814.03
684.357	58753.92
684.705	58788.04
685.053	58765.67
685.4	58790.98
685.748	58630.08
686.095	58705.79
686.443	58552.57
686.79	58468.05
687.138	58642.51
687.485	58565.45
687.832	58427.6
688.18	58475.28
688.527	58362.97
688.874	58436.42
689.221	58333.82
689.568	58211.34
689.915	58142.64
690.262	58224.67
690.609	58126.14
690.956	58053.15
691.303	58019.7
691.65	57885.7
691.997	57870.33
692.344	57717.34
692.69	57701.52
693.037	57648.64
693.383	57417.91
693.73	57412.49
694.077	57341.98
694.423	57430.57
694.769	57292.94
695.116	57171.59
695.462	57121.42
695.808	57008.2
696.155	57072.84
696.501	56795.55
696.847	56763.69
697.193	56540.19
697.539	56652.06
697.885	56400.08
698.231	56250.94
698.577	56312.18
698.923	56200.77
699.269	56046.42
699.614	55967.55
699.96	55954.67
700.306	55908.35
700.651	55740.22
700.997	55583.84
701.342	55616.83
701.688	55506.1
702.033	55366.21
702.379	55421.13
702.724	55324.63
703.069	55334.12
703.415	55079.22
703.76	55093.45
704.105	54945.89
704.45	54940.46
704.795	54758.55
705.14	54677.64
705.485	54712.9
705.83	54590.19
706.175	54573.92
706.52	54461.83
706.865	54461.15
707.209	54436.29
707.554	54306.13
707.899	54464.32
708.243	54211.89
708.588	54225.68
708.932	54114.72
709.277	53989.53
709.621	54089.64
709.966	53940.71
710.31	53959.47
710.654	53653.72
710.998	53743.43
711.342	53773.71
711.687	53657.78
712.031	53614.85
712.375	53464.34
712.719	53548.18
713.063	53559.03
713.407	53502.08
713.75	53370.11
714.094	53360.16
714.438	53200.17
714.782	53276.1
715.125	52952.49
715.469	53052.6
715.812	52867.07
716.156	52714.08
716.499	52841.31
716.843	52775.1
717.186	52517.02
717.53	52652.16
717.873	52532.16
718.216	52431.83
718.559	52388.44
718.902	52058.73
719.246	52113.42
719.589	51919.3
719.932	51889.02
720.275	51806.76
720.617	51760.66
720.96	51616.48
721.303	51622.13
721.646	51595.92
721.989	51416.04
722.331	51328.35
722.674	51307.56
723.016	51182.59
723.359	51152.54
723.701	51126.1
724.044	50847.24
724.386	50628.03
724.729	50828.03
725.071	50651.54
725.413	50597.3
725.755	50654.25
726.097	50528.6
726.439	50317.98
726.782	50251.55
727.124	50443.86
727.465	50187.37
727.807	50129.52
728.149	50064.66
728.491	50053.36
728.833	50059.91
729.175	49903.53
729.516	49932.46
729.858	49827.83
730.199	49810.65
730.541	49783.31
730.882	49671.9
731.224	49880.93
731.565	49487.05
731.906	49590.32
732.248	49645.01
732.589	49397.11
732.93	49347.84
733.271	49455.63
733.612	49373.6
733.953	49515.52
734.294	49267.84
734.635	49141.52
734.976	49304.9
735.317	49228.07
735.658	49242.53
735.999	49189.43
736.339	49139.94
736.68	49265.81
737.021	49166.38
737.361	48862.2
737.702	49108.98
738.042	48941.07
738.383	48869.66
738.723	48870.79
739.063	48696.33
739.404	48730.23
739.744	48671.25
740.084	48371.6
740.424	48259.28
740.764	48258.6
741.104	48266.29
741.444	48003.24
741.784	48112.39
742.124	48003.02
742.464	47889.35
742.804	47753.76
743.143	47617.04
743.483	47566.42
743.823	47280.1
744.162	47376.59
744.502	47360.55
744.841	47109.48
745.181	47321.23
745.52	47049.82
745.86	46893.89
746.199	46858.41
746.538	46652.09
746.877	46943.16
747.216	46553.11
747.556	46375.04
747.895	46370.29
748.234	46157.87
748.573	46154.7
748.911	46184.31
749.25	46124.65
749.589	45863.41
749.928	45838.33
750.267	45810.98
750.605	45668.39
750.944	45636.07
751.283	45477.21
751.621	45455.51
751.96	45171.91
752.298	45171.91
