Data from aluminium_surface_pro_back_FLMS001491_00086.txt Node
Date: Wed Feb 08 15:34:39 GMT 2017
User: dcchb
Spectrometer: FLMS00149
Trigger mode: 0
Integration Time (sec): 2.000000E-2
Scans to average: 10
Electric dark correction enabled: true
Nonlinearity correction enabled: false
Boxcar width: 0
XAxis mode: Wavelengths
Number of Pixels in Spectrum: 2048
>>>>>Begin Spectral Data<<<<<
341.393	-10.25
341.776	-10.25
342.16	-10.25
342.543	-56.81
342.927	-52.96
343.31	-58.16
343.693	-76.01
344.077	-59.74
344.46	-69.24
344.843	-56.81
345.226	-35.79
345.61	-36.92
345.993	-24.94
346.376	-5.06
346.759	10.99
347.142	20.71
347.525	33.81
347.908	71.1
348.291	86.01
348.674	98.22
349.057	101.83
349.44	121.72
349.823	113.81
350.206	186.35
350.588	211.89
350.971	236.29
351.354	246.69
351.737	258.21
352.119	293.92
352.502	293.24
352.884	308.83
353.267	288.95
353.65	334.37
354.032	326.91
354.414	348.15
354.797	361.94
355.179	340.7
355.562	351.09
355.944	368.72
356.326	353.8
356.709	373.92
357.091	355.39
357.473	386.8
357.855	376.4
358.238	384.76
358.62	348.83
359.002	391.54
359.384	370.98
359.766	389.28
360.148	363.97
360.53	378.44
360.912	374.59
361.294	381.83
361.676	367.82
362.057	381.83
362.439	371.43
362.821	384.54
363.203	370.53
363.584	384.31
363.966	368.95
364.348	368.72
364.729	357.87
365.111	359.91
365.493	380.7
365.874	380.92
366.256	348.61
366.637	366.01
367.019	382.28
367.4	384.31
367.781	377.53
368.163	355.84
368.544	351.09
368.925	370.75
369.306	376.18
369.688	372.56
370.069	377.98
370.45	390.87
370.831	380.92
371.212	374.59
371.593	403.07
371.974	363.52
372.355	396.51
372.736	393.58
373.117	406.46
373.498	370.08
373.879	402.84
374.26	392.22
374.641	392.22
375.021	391.54
375.402	401.26
375.783	405.33
376.163	420.02
376.544	424.08
376.925	413.69
377.305	414.37
377.686	415.72
378.066	428.6
378.447	420.24
378.827	443.52
379.208	444.42
379.588	429.96
379.968	449.62
380.349	435.84
380.729	462.5
381.109	455.95
381.489	469.51
381.87	453.46
382.25	447.59
382.63	433.58
383.01	453.24
383.39	469.51
383.77	470.86
384.15	485.78
384.53	468.15
384.91	496.85
385.29	497.3
385.67	504.08
386.049	499.11
386.429	512.9
386.809	504.31
387.189	511.31
387.568	509.28
387.948	522.61
388.328	534.36
388.707	541.37
389.087	535.04
389.466	554.93
389.846	562.84
390.225	573.46
390.605	573.69
390.984	571.43
391.363	603.97
391.743	590.41
392.122	588.15
392.501	608.71
392.881	623.63
393.26	627.02
393.639	620.24
394.018	634.25
394.397	629.5
394.776	631.99
395.155	657.3
395.534	653.91
395.913	655.27
396.292	643.29
396.671	692.33
397.05	686.9
397.429	680.35
397.808	706.11
398.186	710.18
398.565	727.13
398.944	715.15
399.323	744.75
399.701	746.34
400.08	766
400.458	761.03
400.837	763.51
401.215	769.84
401.594	774.13
401.972	791.53
402.351	796.5
402.729	786.11
403.107	822.04
403.486	840.12
403.864	810.74
404.242	840.35
404.62	835.15
404.999	846.9
405.377	878.99
405.755	882.6
406.133	904.52
406.511	888.71
406.889	908.59
407.267	915.15
407.645	915.82
408.023	933.9
408.401	956.05
408.779	969.38
409.156	999.66
409.534	993.56
409.912	980.23
410.29	1036.27
410.667	1020
411.045	1065.42
411.422	1064.97
411.8	1080.79
412.178	1098.42
412.555	1108.36
412.933	1118.53
413.31	1146.1
413.687	1170.28
414.065	1168.7
414.442	1193.33
414.819	1189.26
415.197	1193.78
415.574	1228.13
415.951	1239.66
416.328	1255.48
416.705	1271.97
417.082	1267
417.46	1297.73
417.837	1320.56
418.214	1322.82
418.591	1312.42
418.967	1327.56
419.344	1350.16
419.721	1371.4
420.098	1371.86
420.475	1419.09
420.852	1410.95
421.228	1445.98
421.605	1441.91
421.982	1468.35
422.358	1476.94
422.735	1476.71
423.111	1502.25
423.488	1512.42
423.864	1513.1
424.241	1578.86
424.617	1581.57
424.994	1556.03
425.37	1597.84
425.746	1618.18
426.123	1651.17
426.499	1671.06
426.875	1695.92
427.251	1643.04
427.627	1735.24
428.003	1764.61
428.379	1789.7
428.756	1790.83
429.132	1826.53
429.507	1859.75
429.883	1894.33
430.259	1887.78
430.635	1902.46
431.011	1955.57
431.387	1991.28
431.763	1999.18
432.138	2029.47
432.514	2045.29
432.89	2046.42
433.265	2120.99
433.641	2129.12
434.016	2152.18
434.392	2165.96
434.767	2251.61
435.143	2222.68
435.518	2227.2
435.894	2297.71
436.269	2327.09
436.644	2359.4
437.02	2358.27
437.395	2364.15
437.77	2427.42
438.145	2446.4
438.52	2468.32
438.895	2486.86
439.271	2493.18
439.646	2583.35
440.021	2583.8
440.395	2572.73
440.77	2534.31
441.145	2632.84
441.52	2665.38
441.895	2680.75
442.27	2699.96
442.645	2687.53
443.019	2761.42
443.394	2752.39
443.769	2777.02
444.143	2763.23
444.518	2838.26
444.892	2797.36
445.267	2860.41
445.641	2880.29
446.016	2883.68
446.39	2919.16
446.764	2937.92
447.139	2934.75
447.513	2985.37
447.887	3005.71
448.262	3005.26
448.636	3036.67
449.01	3078.48
449.384	3112.83
449.758	3152.37
450.132	3164.58
450.506	3201.41
450.88	3198.93
451.254	3218.59
451.628	3280.28
452.002	3341.75
452.376	3355.76
452.75	3388.75
453.123	3394.63
453.497	3434.4
453.871	3490.44
454.244	3553.27
454.618	3583.1
454.992	3623.55
455.365	3661.74
455.739	3741.06
456.112	3766.14
456.486	3806.37
456.859	3848.18
457.232	3901.73
457.606	3912.13
457.979	3955.52
458.352	4063.31
458.725	4094.27
459.099	4148.51
459.472	4243.19
459.845	4246.81
460.218	4266.02
460.591	4350.76
460.964	4374.94
461.337	4479.35
461.71	4507.37
462.083	4623.07
462.456	4562.96
462.829	4621.26
463.201	4709.17
463.574	4746.01
463.947	4830.75
464.32	4915.72
464.692	4987.81
465.065	4987.35
465.438	5051.53
465.81	5188.03
466.183	5216.73
466.555	5336.95
466.928	5347.12
467.3	5336.72
467.672	5453.78
468.045	5604.06
468.417	5609.26
468.789	5675.7
469.161	5717.51
469.534	5833.43
469.906	5947.56
470.278	6032.75
470.65	6119.53
471.022	6178.28
471.394	6329.01
471.766	6307.09
472.138	6452.85
472.51	6599.52
472.882	6703.02
473.253	6729.91
473.625	6844.71
473.997	6948.43
474.369	7089.22
474.74	7121.31
475.112	7287.86
475.484	7455.76
475.855	7555.65
476.227	7629.77
476.598	7923.77
476.97	7887.17
477.341	8096.43
477.713	8251.45
478.084	8331.22
478.455	8521.5
478.827	8616.19
479.198	8883.07
479.569	8912.9
479.94	9141.37
480.311	9180.92
480.682	9433.57
481.053	9577.52
481.424	9775.48
481.795	9850.28
482.166	10005.08
482.537	10163.26
482.908	10369.36
483.279	10510.83
483.65	10719.63
484.021	10970.02
484.391	11076.46
484.762	11156.46
485.133	11306.51
485.503	11511.25
485.874	11680.06
486.244	11814.97
486.615	12049.99
486.985	12195.3
487.356	12452.47
487.726	12583.99
488.097	12870.09
488.467	12909.41
488.837	13140.81
489.207	13328.38
489.578	13510.75
489.948	13635.26
490.318	13792.55
490.688	13881.13
491.058	14157.96
491.428	14310.95
491.798	14458.29
492.168	14725.86
492.538	14771.28
492.908	14943.48
493.278	15184.83
493.648	15247.88
494.017	15398.15
494.387	15572.84
494.757	15662.33
495.126	15844.02
495.496	15937.35
495.866	16072.04
496.235	16190.68
496.605	16393.61
496.974	16578.46
497.344	16677.89
497.713	16759.02
498.082	16889.41
498.452	17148.84
498.821	17163.08
499.19	17384.09
499.559	17529.4
499.928	17576.4
500.298	17722.61
500.667	17944.08
501.036	17924.19
501.405	18076.95
501.774	18188.14
502.143	18434.68
502.512	18464.74
502.88	18714
503.249	18626.54
503.618	18852.07
503.987	18936.59
504.356	19034.44
504.724	19214.55
505.093	19359.18
505.462	19363.02
505.83	19579.29
506.199	19674.43
506.567	19927.53
506.936	19945.61
507.304	20241.42
507.672	20370.91
508.041	20299.72
508.409	20612.71
508.777	20736.77
509.145	20827.62
509.514	20960.27
509.882	21086.82
510.25	21300.37
510.618	21466.47
510.986	21520.93
511.354	21815.16
511.722	22007.47
512.09	22237.3
512.458	22331.31
512.826	22430.96
513.193	22584.18
513.561	22605.42
513.929	22948.92
514.297	23020.55
514.664	23204.73
515.032	23276.82
515.4	23684.94
515.767	23688.78
516.135	23895.11
516.502	23751.38
516.869	24182.56
517.237	24298.03
517.604	24354.53
517.972	24877.23
518.339	24843.56
518.706	24980.05
519.073	25144.34
519.44	25333.94
519.808	25524.22
520.175	25686.92
520.542	25939.12
520.909	26073.81
521.276	26243.52
521.643	26514.25
522.009	26600.35
522.376	26940.9
522.743	27057.28
523.11	27489.59
523.477	27529.13
523.843	27882.12
524.21	28144.71
524.577	28431.71
524.943	28514.19
525.31	28639.84
525.676	28947.18
526.043	29228.98
526.409	29325.25
526.776	29652.02
527.142	29637.1
527.508	30000.03
527.874	30141.04
528.241	30436.86
528.607	30550.52
528.973	30744.87
529.339	30837.75
529.705	31204.74
530.071	31387.11
530.437	31588.69
530.803	31748.01
531.169	32063.03
531.535	31981.22
531.901	32244.49
532.267	32381.21
532.632	32624.59
532.998	32664.59
533.364	32862.55
533.73	32998.6
534.095	33380.05
534.461	33272.94
534.826	33579.82
535.192	33662.76
535.557	33919.02
535.923	33889.65
536.288	34098.23
536.653	34259.35
537.019	34362.85
537.384	34461.83
537.749	34735.5
538.114	34741.6
538.479	34931.2
538.845	34965.78
539.21	35055.94
539.575	35188.37
539.94	35284.64
540.305	35512.65
540.67	35437.85
541.034	35674.68
541.399	35872.87
541.764	35942.7
542.129	36001.68
542.494	36089.36
542.858	36237.15
543.223	36242.8
543.587	36502.23
543.952	36439.86
544.316	36782.45
544.681	36667.88
545.045	36999.62
545.41	37230.8
545.774	37383.57
546.138	37248.2
546.503	37567.97
546.867	37631.69
547.231	37916.88
547.595	37984
547.959	38007.28
548.324	38160.95
548.688	38275.07
549.052	38553.03
549.416	38520.03
549.779	38638.9
550.143	38728.61
550.507	38967.48
550.871	39016.06
551.235	39047.7
551.599	39367.69
551.962	39333.34
552.326	39431.19
552.689	39684.97
553.053	39659.66
553.417	39657.18
553.78	40235.92
554.143	39975.81
554.507	40236.15
554.87	40486.99
555.234	40806.75
555.597	40542.35
555.96	40777.15
556.323	40945.28
556.686	41140.98
557.05	41324.7
557.413	41559.27
557.776	41658.03
558.139	41761.76
558.502	42024.57
558.865	42070.45
559.228	42278.13
559.59	42426.6
559.953	42605.8
560.316	43085.11
560.679	43067.26
561.041	43350.64
561.404	43577.07
561.767	43834.24
562.129	43655.49
562.492	44133.44
562.854	44111.52
563.217	44182.48
563.579	44534.11
563.941	44660.89
564.304	44950.37
564.666	45250.02
565.028	45304.26
565.39	45473.3
565.753	45743.35
566.115	45960.74
566.477	46055.88
566.839	46178.81
567.201	46429.65
567.563	46519.14
567.925	46854.95
568.287	46756.88
568.648	46851.79
569.01	47137.21
569.372	47452.9
569.734	47499.68
570.095	47634.14
570.457	47785.33
570.819	47884.08
571.18	47964.76
571.542	48280.91
571.903	48312.54
572.265	48426.66
572.626	48594.34
572.987	48733.32
573.349	48836.6
573.71	48959.31
574.071	49269.81
574.432	49260.99
574.794	49500.76
575.155	49572.62
575.516	49348.67
575.877	49616.69
576.238	49640.19
576.599	49877.93
576.96	49847.87
577.32	49910.47
577.681	50048.99
578.042	50147.07
578.403	50156.11
578.763	50183.23
579.124	50364.92
579.485	50455.76
579.845	50628.64
580.206	50550.9
580.566	50572.37
580.927	50614.18
581.287	50829.77
581.648	50732.37
582.008	50878.58
582.368	50795.87
582.728	50967.61
583.089	50853.27
583.449	50930.55
583.809	50953.83
584.169	51085.35
584.529	51092.81
584.889	51307.72
585.249	51047.61
585.609	51126.93
585.969	51296.19
586.329	51089.42
586.688	51214.39
587.048	51219.36
587.408	51252.35
587.768	51259.36
588.127	51188.4
588.487	51139.81
588.846	51414.61
589.206	51145.69
589.565	51119.93
589.925	51401.05
590.284	51180.04
590.643	51271.11
591.003	51380.26
591.362	51456.64
591.721	51393.59
592.08	51333.48
592.44	51476.08
592.799	51471.56
593.158	51368.73
593.517	51441.05
593.876	51400.82
594.235	51413.03
594.593	51431.11
594.952	51615.73
595.311	51427.04
595.67	51535.96
596.029	51692.79
596.387	51735.05
596.746	51901.6
597.104	51643.98
597.463	51635.17
597.822	51724.66
598.18	51592.68
598.538	51567.15
598.897	51796.97
599.255	51578.67
599.613	52017.98
599.972	51812.11
600.33	51787.48
600.688	51741.15
601.046	51822.73
601.404	52047.13
601.762	52001.49
602.12	52091.2
602.478	52124.19
602.836	52096.85
603.194	51951.09
603.552	52081.71
603.91	51977.53
604.268	52144.76
604.625	52053.69
604.983	52206.45
605.341	52046
605.698	52243.74
606.056	52299.78
606.413	52152.44
606.771	52325.32
607.128	52439.67
607.485	52236.51
607.843	52233.8
608.2	52441.47
608.557	52521.7
608.914	52391.08
609.272	52544.3
609.629	52655.71
609.986	52794.46
610.343	52485.54
610.7	52847.34
611.057	52782.71
611.414	52760.11
611.771	52736.16
612.127	52900.9
612.484	52816.61
612.841	52984.51
613.198	52932.53
613.554	52965.53
613.911	53107.45
614.267	53076.71
614.624	53101.12
614.98	53119.2
615.337	53265.41
615.693	53204.62
616.05	53226.54
616.406	53430.37
616.762	53241.45
617.118	53292.75
617.475	53289.59
617.831	53379.98
618.187	53339.98
618.543	53358.51
618.899	53517.6
619.255	53479.86
619.611	53383.82
619.967	53525.97
620.323	53572.29
620.678	53487.1
621.034	53444.39
621.39	53469.02
621.746	53409.58
622.101	53743.59
622.457	53497.72
622.812	53599.41
623.168	53674.21
623.523	53652.29
623.879	53822
624.234	53585.85
624.589	53746.52
624.945	53737.03
625.3	53817.48
625.655	53701.78
626.01	53776.35
626.365	53659.75
626.72	53718.05
627.075	53668.79
627.43	53678.5
627.785	53657.04
628.14	53652.06
628.495	53666.98
628.85	53639.86
629.205	53538.17
629.559	53668.79
629.914	53522.12
630.269	53663.81
630.623	53569.13
630.978	53518.73
631.332	53542.91
631.687	53568.9
632.041	53443.71
632.396	53485.29
632.75	53445.29
633.104	53481.22
633.459	53264.5
633.813	53240.55
634.167	53321.9
634.521	53235.58
634.875	53358.06
635.229	53173.43
635.583	53018.18
635.937	53066.54
636.291	52917.62
636.645	52892.99
636.999	52850.05
637.352	52963.49
637.706	52725.99
638.06	52786.78
638.413	52616.61
638.767	52550.62
639.121	52547.91
639.474	52307.92
639.828	52399.89
640.181	52425.43
640.534	52447.58
640.888	52372.78
641.241	52251.87
641.594	52280.57
641.947	52328.26
642.301	52277.41
642.654	52245.77
643.007	52221.59
643.36	52164.42
643.713	52210.52
644.066	52210.52
644.419	51952
644.771	51819.57
645.124	51419.81
645.477	51541.38
645.83	51281.28
646.182	51163.54
646.535	51101.85
646.888	51108.85
647.24	50945.02
647.593	51213.71
647.945	51035.86
648.298	50853.72
648.65	50652.14
649.002	50709.99
649.355	50810.1
649.707	50689.43
650.059	50875.64
650.411	51241.05
650.763	51203.54
651.115	51551.55
651.467	51397.89
651.819	51415.74
652.171	51266.82
652.523	51221.62
652.875	51232.24
653.227	51063.66
653.578	51331.45
653.93	51243.77
654.282	51068.18
654.633	50928.97
654.985	51036.54
655.337	50997.22
655.688	51014.39
656.039	51228.85
656.391	50855.75
656.742	50859.59
657.094	50866.6
657.445	51001.29
657.796	50832.25
658.147	50824.12
658.498	50696.21
658.849	50812.36
659.2	50780.5
659.551	50626.15
659.902	50742.08
660.253	50677.45
660.604	50775.98
660.955	50496.89
661.306	50548.19
661.656	50496.89
662.007	50538.7
662.358	50471.13
662.708	50538.93
663.059	50523.78
663.409	50128.31
663.76	50508.64
664.11	50436.56
664.461	50525.37
664.811	50453.96
665.161	50396.78
665.511	50298.48
665.862	50378.25
666.212	50442.43
666.562	50429.78
666.912	50242.44
667.262	50264.36
667.612	50223.45
667.962	50102.55
668.312	50121.76
668.662	50381.64
669.011	50201.53
669.361	50151.14
669.711	50163.79
670.06	50140.29
670.41	50066.4
670.76	49964.7
671.109	50052.16
671.459	49964.7
671.808	49933.07
672.157	50063.91
672.507	49844.48
672.856	49823.24
673.205	49902.33
673.554	50067.98
673.904	49828.21
674.253	49973.97
674.602	49846.51
674.951	49272.29
675.3	49098.96
675.649	49704.15
675.998	49666.18
676.346	49760.87
676.695	49765.84
677.044	49561.55
677.393	49632.96
677.741	49704.6
678.09	49608.78
678.438	49514.32
678.787	49579.18
679.135	49561.1
679.484	49334.21
679.832	49478.39
680.181	49175.12
680.529	49312.06
680.877	49277.49
681.225	49174.89
681.573	49328.34
681.922	48969.25
682.27	48821.68
682.618	49014.22
682.966	48814
683.314	48898.52
683.661	48792.53
684.009	48536.72
684.357	48569.26
684.705	48448.58
685.053	48521.13
685.4	48394.8
685.748	48118.65
686.095	48284.07
686.443	48084.3
686.79	47938.77
687.138	48101.48
687.485	47942.61
687.832	47800.24
688.18	47938.09
688.527	47698.77
688.874	47652.22
689.221	47585.1
689.568	47495.16
689.915	47396.86
690.262	47427.82
690.609	47268.5
690.956	47167.04
691.303	47110.77
691.65	46871.68
691.997	46854.95
692.344	46517.56
692.69	46580.16
693.037	46629.65
693.383	46212.03
693.73	46307.62
694.077	46052.49
694.423	46096.78
694.769	45958.93
695.116	45968.2
695.462	45881.42
695.808	45669
696.155	45665.83
696.501	45375.67
696.847	45295.9
697.193	45056.58
697.539	45316.24
697.885	45042.35
698.231	44868.57
698.577	44774.56
698.923	44712.19
699.269	44508.12
699.614	44323.95
699.96	44286.43
700.306	44290.73
700.651	44129.6
700.997	44008.7
701.342	43823.4
701.688	43853.23
702.033	43695.49
702.379	43731.87
702.724	43453.01
703.069	43583.63
703.415	43038.11
703.76	43073.13
704.105	43151.77
704.45	43133.92
704.795	42860.71
705.14	42761.05
705.485	42677.66
705.83	42520.83
706.175	42739.36
706.52	42423.88
706.865	42166.72
707.209	42335.53
707.554	42140.28
707.899	42194.06
708.243	41994.29
708.588	41953.39
708.932	41613.28
709.277	41692.15
709.621	41640.4
709.966	41411.48
710.31	41361.31
710.654	40985.28
710.998	41185.27
711.342	41053.53
711.687	40994.77
712.031	40820.08
712.375	40614.89
712.719	40762.46
713.063	40736.25
713.407	40689.01
713.75	40439.98
714.094	40369.7
714.438	40274.34
714.782	40382.81
715.125	40046.09
715.469	40225.52
715.812	39971.29
716.156	39535.82
716.499	39724.97
716.843	39641.58
717.186	39531.31
717.53	39601.36
717.873	39634.58
718.216	39433.68
718.559	39345.1
718.902	39151.88
719.246	39197.08
719.589	39206.57
719.932	39112.33
720.275	39028.04
720.617	38944.2
720.96	38897.88
721.303	38909.4
721.646	38873.92
721.989	38588.96
722.331	38680.71
722.674	38535.85
723.016	38490.65
723.359	38385.57
723.701	38386.7
724.044	38134.28
724.386	38048.86
724.729	38117.78
725.071	38008.18
725.413	37839.15
725.755	37996.66
726.097	37730.9
726.439	37562.32
726.782	37613.62
727.124	37854.97
727.465	37569.32
727.807	37551.92
728.149	37401.64
728.491	37268.77
728.833	37422.89
729.175	37173.85
729.516	37029.22
729.858	37074.19
730.199	37098.6
730.541	36968.21
730.882	36795.78
731.224	37032.61
731.565	36727.76
731.906	36677.82
732.248	36678.72
732.589	36551.72
732.93	36429.24
733.271	36369.58
733.612	36340.43
733.953	36316.93
734.294	36211.62
734.635	36072.41
734.976	36118.06
735.317	36016.37
735.658	35978.63
735.999	35968.24
736.339	35790.84
736.68	35978.63
737.021	35820.89
737.361	35612.31
737.702	35762.82
738.042	35640.11
738.383	35507.68
738.723	35636.49
739.063	35489.6
739.404	35542.48
739.744	35521.69
740.084	35217.29
740.424	35184.07
740.764	35220.23
741.104	35259.33
741.444	35048.71
741.784	34951.09
742.124	34964.87
742.464	34891.2
742.804	34668.83
743.143	34761.26
743.483	34661.38
743.823	34631.32
744.162	34490.76
744.502	34531.44
744.841	34275.17
745.181	34432.68
745.52	34370.99
745.86	34242.4
746.199	34194.04
746.538	34080.38
746.877	34071.34
747.216	34021.62
747.556	33846.03
747.895	33810.55
748.234	33841.29
748.573	33740.95
748.911	33697.33
749.25	33516.55
749.589	33388.19
749.928	33494.4
750.267	33485.36
750.605	33298.7
750.944	33236.78
751.283	33218.48
751.621	33159.04
751.96	33112.94
752.298	33034.53
752.636	33023
