Data from aluminium_macbook_case_FLMS001491_068.txt Node
Date: Tue Feb 07 10:44:02 GMT 2017
User: dcchb
Spectrometer: FLMS00149
Trigger mode: 0
Integration Time (sec): 2.000000E-2
Scans to average: 10
Electric dark correction enabled: true
Nonlinearity correction enabled: false
Boxcar width: 0
XAxis mode: Wavelengths
Number of Pixels in Spectrum: 2048
>>>>>Begin Spectral Data<<<<<
341.393	-5.21
341.776	-5.21
342.16	-5.21
342.543	-62.61
342.927	-58.54
343.31	-68.03
343.693	-46.34
344.077	-52.44
344.46	-60.13
344.843	-56.96
345.226	-49.05
345.61	-37.75
345.993	-33.01
346.376	-2.05
346.759	9.48
347.142	31.4
347.525	46.54
347.908	63.71
348.291	60.55
348.674	87.67
349.057	106.42
349.44	104.84
349.823	138.29
350.206	160.66
350.588	246.53
350.971	274.33
351.354	256.93
351.737	306.64
352.119	315.46
352.502	310.71
352.884	336.02
353.267	349.58
353.65	335.12
354.032	351.39
354.414	364.72
354.797	375.12
355.179	379.86
355.562	381.67
355.944	371.73
356.326	401.33
356.709	390.26
357.091	404.5
357.473	414.21
357.855	386.42
358.238	411.73
358.62	409.01
359.002	413.76
359.384	390.48
359.766	430.71
360.148	416.25
360.53	400.43
360.912	402.69
361.294	392.74
361.676	416.47
362.057	408.56
362.439	404.95
362.821	420.09
363.203	412.86
363.584	419.41
363.966	406.98
364.348	418.73
364.729	437.71
365.111	420.77
365.493	436.36
365.874	415.57
366.256	440.88
366.637	446.53
367.019	427.77
367.4	437.71
367.781	411.27
368.163	408.56
368.544	455.34
368.925	429.81
369.306	433.42
369.688	458.73
370.069	458.5
370.45	454.66
370.831	435.23
371.212	443.36
371.593	438.17
371.974	456.92
372.355	475.45
372.736	454.66
373.117	461.22
373.498	478.84
373.879	473.65
374.26	462.35
374.641	474.32
375.021	467.09
375.402	463.25
375.783	483.59
376.163	507.54
376.544	516.36
376.925	498.5
377.305	509.35
377.686	523.36
378.066	524.04
378.447	502.35
378.827	522.46
379.208	549.58
379.588	535.34
379.968	533.53
380.349	540.54
380.729	557.71
381.109	540.76
381.489	536.69
381.87	558.84
382.25	590.7
382.63	601.33
383.01	582.12
383.39	611.72
383.77	585.73
384.15	628.44
384.53	596.81
384.91	580.99
385.29	614.21
385.67	613.3
386.049	642.91
386.429	653.3
386.809	644.26
387.189	659.86
387.568	655.11
387.948	678.39
388.328	680.87
388.707	685.62
389.087	687.65
389.466	693.3
389.846	711.61
390.225	719.29
390.605	722
390.984	722.23
391.363	720.19
391.743	754.09
392.122	767.2
392.501	750.47
392.881	782.79
393.26	812.85
393.639	802.45
394.018	799.29
394.397	819.4
394.776	840.42
395.155	844.03
395.534	840.87
395.913	837.93
396.292	891.49
396.671	867.08
397.05	861.21
397.429	896.46
397.808	914.99
398.186	905.5
398.565	919.28
398.944	920.41
399.323	942.11
399.701	933.75
400.08	982.56
400.458	966.51
400.837	981.2
401.215	986.4
401.594	980.75
401.972	1031.37
402.351	1009.9
402.729	1047.42
403.107	1045.38
403.486	1032.73
403.864	1058.26
404.242	1107.98
404.62	1094.19
404.999	1131.26
405.377	1138.71
405.755	1149.33
406.133	1155.21
406.511	1162.89
406.889	1198.37
407.267	1213.51
407.645	1228.43
408.023	1246.96
408.401	1249.9
408.779	1275.43
409.156	1311.14
409.534	1327.18
409.912	1326.28
410.29	1387.07
410.667	1383.9
411.045	1376.9
411.422	1422.32
411.8	1455.54
412.178	1476.11
412.555	1470.46
412.933	1504.13
413.31	1548.65
413.687	1531.25
414.065	1526.73
414.442	1580.51
414.819	1607.4
415.197	1605.59
415.574	1653.28
415.951	1656.44
416.328	1655.31
416.705	1677.46
417.082	1699.38
417.46	1743.22
417.837	1782.54
418.214	1771.01
418.591	1778.02
418.967	1775.53
419.344	1853.5
419.721	1842.65
420.098	1859.6
420.475	1880.84
420.852	1902.99
421.228	1927.39
421.605	1945.47
421.982	1952.25
422.358	1979.14
422.735	2018.69
423.111	2016.88
423.488	2032.25
423.864	2084.45
424.241	2104.11
424.617	2131
424.994	2145.69
425.37	2183.88
425.746	2213.94
426.123	2235.63
426.499	2218.01
426.875	2278.34
427.251	2359.02
427.627	2447.61
428.003	2402.18
428.379	2445.57
428.756	2445.8
429.132	2505.46
429.507	2530.09
429.883	2557.21
430.259	2621.39
430.635	2656.87
431.011	2637.2
431.387	2729.41
431.763	2777.99
432.138	2789.74
432.514	2817.54
432.89	2872.45
433.265	2957.87
433.641	2978.66
434.016	3032.45
434.392	3055.72
434.767	3085.33
435.143	3126.01
435.518	3147.93
435.894	3167.81
436.269	3263.63
436.644	3309.96
437.02	3311.54
437.395	3343.4
437.77	3439.9
438.145	3412.1
438.52	3449.61
438.895	3553.56
439.271	3514.47
439.646	3592.66
440.021	3623.85
440.395	3659.78
440.77	3624.3
441.145	3720.57
441.52	3763.95
441.895	3761.92
442.27	3829.94
442.645	3799.89
443.019	3895.93
443.394	3872.88
443.769	3949.71
444.143	3920.11
444.518	3980.22
444.892	4010.95
445.267	4048.24
445.641	4090.95
446.016	4112.65
446.39	4134.34
446.764	4203.72
447.139	4239.2
447.513	4234.68
447.887	4269.48
448.262	4270.38
448.636	4320.1
449.01	4394.45
449.384	4425.63
449.758	4428.57
450.132	4568.68
450.506	4561.67
450.88	4612.07
451.254	4672.18
451.628	4692.29
452.002	4755.34
452.376	4854.32
452.75	4914.43
453.123	4923.92
453.497	5000.31
453.871	4988.33
454.244	5163.24
454.618	5109.23
454.992	5238.49
455.365	5196.69
455.739	5391.93
456.112	5457.7
456.486	5398.71
456.859	5549.22
457.232	5649.33
457.606	5605.04
457.979	5702.43
458.352	5828.31
458.725	5925.71
459.099	5898.59
459.472	6072.59
459.845	6144.91
460.218	6169.32
460.591	6226.26
460.964	6293.38
461.337	6407.5
461.71	6562.98
462.083	6628.29
462.456	6670.77
462.829	6682.75
463.201	6808.17
463.574	6867.15
463.947	6969.52
464.32	7181.72
464.692	7142.85
465.065	7242.73
465.438	7338.1
465.81	7474.37
466.183	7527.92
466.555	7738.09
466.928	7733.79
467.3	7727.24
467.672	7922.72
468.045	8163.84
468.417	8170.17
468.789	8191.86
469.161	8362.93
469.534	8447.22
469.906	8638.85
470.278	8674.11
470.65	8838.4
471.022	9061.44
471.394	9193.87
471.766	9304.83
472.138	9409.23
472.51	9627.08
472.882	9757.02
473.253	9905.04
473.625	10013.28
473.997	10205.14
474.369	10373.5
474.74	10450.78
475.112	10728.74
475.484	10834.05
475.855	11021.39
476.227	11029.53
476.598	11448.72
476.97	11475.16
477.341	11746.8
477.713	11963.06
478.084	12074.7
478.455	12410.28
478.827	12563.5
479.198	12942.92
479.569	12914.45
479.94	13285.51
480.311	13307.88
480.682	13678.5
481.053	13964.14
481.424	14195.77
481.795	14307.63
482.166	14661.07
482.537	14775.42
482.908	15241.62
483.279	15278.91
483.65	15619.91
484.021	15929.28
484.391	16065.33
484.762	16263.51
485.133	16407.69
485.503	16781.01
485.874	17085.64
486.244	17188.46
486.615	17645.17
486.985	17838.84
487.356	18133.29
487.726	18232.95
488.097	18578.71
488.467	18726.05
488.837	19159.48
489.207	19321.74
489.578	19516.99
489.948	19730.09
490.318	20032.45
490.688	20103.19
491.058	20453.91
491.428	20624.08
491.798	21009.38
492.168	21390.38
492.538	21400.55
492.908	21795.57
493.278	22072.4
493.648	22120.31
494.017	22431.94
494.387	22598.04
494.757	22824.7
495.126	23085.25
495.496	23253.84
495.866	23473.49
496.235	23683.43
496.605	23899.7
496.974	24072.57
497.344	24303.98
497.713	24413.81
498.082	24641.37
498.452	24828.49
498.821	25039.78
499.19	25002.04
499.559	25348.92
499.928	25504.85
500.298	25698.75
500.667	25891.73
501.036	25824.17
501.405	26193.65
501.774	26241.33
502.143	26550.25
502.512	26618.95
502.88	26980.29
503.249	26892.61
503.618	27184.81
503.987	27267.29
504.356	27545.25
504.724	27757
505.093	27919.48
505.462	28121.73
505.83	28294.61
506.199	28635.39
506.567	28957.64
506.936	28942.05
507.304	29362.83
507.672	29444.86
508.041	29628.13
508.409	29894.57
508.777	30134.79
509.145	30312.64
509.514	30463.37
509.882	30686.41
510.25	30810.7
510.618	31015.22
510.986	31246.17
511.354	31428.09
511.722	31590.57
512.09	32045.24
512.458	32112.59
512.826	32333.6
513.193	32375.18
513.561	32470.77
513.929	32769.52
514.297	33251.54
514.664	33352.1
515.032	33510.74
515.4	33781.47
515.767	33978.3
516.135	34280.67
516.502	34092.42
516.869	34889.69
517.237	34910.93
517.604	34843.59
517.972	35343.46
518.339	35645.6
518.706	35718.82
519.073	35997.91
519.44	36104.35
519.808	36816.19
520.175	36691
520.542	37375.05
520.909	37406.46
521.276	37341.38
521.643	37919.21
522.009	38154.24
522.376	38431.07
522.743	38695.01
523.11	39021.78
523.477	39391.72
523.843	39569.79
524.21	39920.52
524.577	40323.9
524.943	40412.26
525.31	40647.73
525.676	41140.6
526.043	41192.12
526.409	41316.19
526.776	41660.13
527.142	41929.28
527.508	42240.68
527.874	42625.76
528.241	42703.72
528.607	42901.68
528.973	43392.29
529.339	43350.71
529.705	43805.39
530.071	44134.64
530.437	44353.62
530.803	44649.89
531.169	44848.3
531.535	44910.22
531.901	45094.17
532.267	45312.01
532.632	45636.98
532.998	45832
533.364	46088.72
533.73	46170.98
534.095	46509.27
534.461	46522.15
534.826	46777.74
535.192	47047.79
535.557	47241.46
535.923	47262.25
536.288	47451.62
536.653	47574.55
537.019	47512.86
537.384	47755.34
537.749	47888.67
538.114	47996.24
538.479	47984.26
538.845	48330.24
539.21	48240.53
539.575	48425.15
539.94	48628.76
540.305	48808.65
540.67	48763
541.034	49010.9
541.399	49225.58
541.764	49270.78
542.129	49467.39
542.494	49674.16
542.858	49936.53
543.223	49770.2
543.587	50026.92
543.952	50030.76
544.316	50299.45
544.681	50322.28
545.045	50559.79
545.41	50692.89
545.774	50831.64
546.138	50904.18
546.503	50957.52
546.867	50993.9
547.231	51239.09
547.595	51407.22
547.959	51606.54
548.324	51555.69
548.688	51656.25
549.052	51757.95
549.416	51863.71
549.779	52014.21
550.143	52051.95
550.507	52204.49
550.871	52350.25
551.235	52345.28
551.599	52477.93
551.962	52652.84
552.326	52624.14
552.689	52823.68
553.053	52783.46
553.417	52859.84
553.78	53230.22
554.143	53108.65
554.507	53326.27
554.87	53332.37
555.234	53690.33
555.597	53628.86
555.96	53799.02
556.323	53951.34
556.686	53932.13
557.05	54229.52
557.413	54348.16
557.776	54457.76
558.139	54551.09
558.502	54657.08
558.865	54711.54
559.228	54951.31
559.59	55123.06
559.953	55173
560.316	55437.62
560.679	55393.33
561.041	55695.24
561.404	55804.39
561.767	55947.22
562.129	55876.71
562.492	56113.31
562.854	56134.56
563.217	56204.61
563.579	56310.14
563.941	56434.89
564.304	56527.99
564.666	56680.08
565.028	56757.59
565.39	56771.37
565.753	56954.42
566.115	56982.22
566.477	57076.68
566.839	57134.53
567.201	57345.6
567.563	57344.47
567.925	57466.05
568.287	57518.47
568.648	57574.07
569.01	57743.78
569.372	57854.06
569.734	57832.82
570.095	58014.96
570.457	58205.24
570.819	58228.29
571.18	58217.44
571.542	58355.74
571.903	58412.69
572.265	58518.45
572.626	58568.62
572.987	58595.06
573.349	58749.85
573.71	58853.58
574.071	58898.78
574.432	59002.05
574.794	59136.74
575.155	59166.34
575.516	59135.38
575.877	59294.92
576.238	59341.02
576.599	59426.67
576.96	59445.88
577.32	59457.63
577.681	59504.64
578.042	59628.7
578.403	59568.14
578.763	59643.62
579.124	59660.79
579.485	59725.42
579.845	59768.81
580.206	59672.09
580.566	59611.53
580.927	59728.36
581.287	59728.13
581.648	59640.68
582.008	59787.34
582.368	59662.15
582.728	59769.94
583.089	59776.95
583.449	59725.42
583.809	59811.75
584.169	59772.2
584.529	59745.08
584.889	59935.59
585.249	59844.74
585.609	59715.7
585.969	59856.72
586.329	59810.16
586.688	59862.14
587.048	59805.87
587.408	59832.08
587.768	59883.16
588.127	59865.98
588.487	59857.4
588.846	60036.6
589.206	59887.22
589.565	59937.17
589.925	60003.61
590.284	59972.19
590.643	60032.76
591.003	60126.77
591.362	60164.73
591.721	60097.61
592.08	60143.72
592.44	60170.38
592.799	60238.85
593.158	60183.94
593.517	60161.57
593.876	60171.29
594.235	60125.18
594.593	60135.35
594.952	60159.53
595.311	60108.01
595.67	60123.38
596.029	60235.69
596.387	60248.35
596.746	60232.3
597.104	60099.65
597.463	60090.38
597.822	60131.74
598.18	60108.24
598.538	60038.41
598.897	60199.76
599.255	60039.54
599.613	60378.29
599.972	60209.25
600.33	60258.97
600.688	60211.96
601.046	60238.4
601.404	60380.09
601.762	60312.75
602.12	60456.25
602.478	60374.9
602.836	60389.36
603.194	60273.66
603.552	60337.61
603.91	60348.91
604.268	60488.56
604.625	60371.73
604.983	60488.79
605.341	60448.79
605.698	60503.48
606.056	60639.75
606.413	60625.74
606.771	60647.66
607.128	60750.48
607.485	60606.3
607.843	60722.01
608.2	60878.61
608.557	60899.18
608.914	60834.32
609.272	60985.95
609.629	60984.6
609.986	61121.09
610.343	60939.17
610.7	61141.2
611.057	61082.22
611.414	61018.27
611.771	61043.13
612.127	61076.57
612.484	61039.06
612.841	61138.94
613.198	60937.59
613.554	61058.49
613.911	61186.63
614.267	61137.59
614.624	61027.08
614.98	61074.54
615.337	61207.42
615.693	61148.43
616.05	61117.7
616.406	61239.05
616.762	61116.8
617.118	61105.5
617.475	61134.2
617.831	61187.3
618.187	61246.96
618.543	61251.03
618.899	61335.32
619.255	61265.27
619.611	61276.11
619.967	61340.97
620.323	61359.28
620.678	61322.67
621.034	61267.3
621.39	61353.4
621.746	61265.04
622.101	61507.75
622.457	61331.48
622.812	61432.04
623.168	61551.59
623.523	61511.36
623.879	61541.19
624.234	61421.65
624.589	61559.95
624.945	61509.33
625.3	61630.46
625.655	61596.56
626.01	61517.01
626.365	61659.16
626.72	61595.88
627.075	61565.6
627.43	61552.04
627.785	61535.77
628.14	61593.85
628.495	61583.45
628.85	61547.75
629.205	61385.04
629.559	61554.3
629.914	61350.24
630.269	61392.5
630.623	61298.49
630.978	61218.26
631.332	61291.03
631.687	61326.06
632.041	61173.74
632.396	61242.9
632.75	61075.67
633.104	61083.13
633.459	60976.01
633.813	60938.04
634.167	60956.8
634.521	60942.34
634.875	60908.89
635.229	60836.35
635.583	60761.33
635.937	60816.69
636.291	60785.96
636.645	60739.86
636.999	60742.8
637.352	60788.67
637.706	60605.85
638.06	60582.57
638.413	60544.83
638.767	60505.06
639.121	60503.48
639.474	60419.19
639.828	60497.6
640.181	60468.68
640.534	60532.63
640.888	60437.04
641.241	60329.02
641.594	60338.96
641.947	60421.67
642.301	60320.89
642.654	60347.55
643.007	60399.08
643.36	60350.26
643.713	60292.19
644.066	60435.68
644.419	60267.1
644.771	60149.59
645.124	59888.58
645.477	59900.11
645.83	59747.34
646.182	59592.32
646.535	59512.55
646.888	59523.39
647.24	59354.36
647.593	59561.13
647.945	59428.93
648.298	59349.39
648.65	59268.48
649.002	59143.74
649.355	59197.75
649.707	59210.18
650.059	59309.61
650.411	59535.14
650.763	59559.1
651.115	59780.56
651.467	59617.18
651.819	59614.24
652.171	59535.14
652.523	59500.57
652.875	59512.77
653.227	59299.67
653.578	59530.62
653.93	59412.89
654.282	59283.62
654.633	59218.54
654.985	59207.69
655.337	59216.73
655.688	59137.87
656.039	59333.12
656.391	59008.83
656.742	59079.11
657.094	59086.12
657.445	59099.9
657.796	59007.7
658.147	59016.06
658.498	58935.39
658.849	59042.95
659.2	58958.21
659.551	58939
659.902	59004.54
660.253	58922.73
660.604	59001.6
660.955	58948.94
661.306	58974.93
661.656	58924.54
662.007	58910.75
662.358	58946.91
662.708	59018.1
663.059	58987.36
663.409	58847.03
663.76	59040.47
664.11	59019.9
664.461	58980.58
664.811	58979.9
665.161	59016.97
665.511	58894.26
665.862	58989.17
666.212	59041.15
666.562	59069.62
666.912	58876.63
667.262	58872.56
667.612	58864.88
667.962	58922.96
668.312	58793.69
668.662	58939.91
669.011	58770.19
669.361	58777.42
669.711	58786.91
670.06	58663.75
670.41	58654.26
670.76	58587.15
671.109	58632.12
671.459	58587.6
671.808	58491.1
672.157	58509.41
672.507	58285.46
672.856	58310.54
673.205	58341.95
673.554	58328.62
673.904	58244.56
674.253	58321.62
674.602	58242.97
674.951	57868.29
675.3	57748.98
675.649	58130.21
675.998	58055.18
676.346	58055.86
676.695	58121.85
677.044	57917.56
677.393	58049.76
677.741	58002.3
678.09	57954.39
678.438	57859.26
678.787	57944.23
679.135	57896.54
679.484	57712.59
679.832	57859.93
680.181	57690.9
680.529	57748.75
680.877	57709.88
681.225	57686.83
681.573	57845.7
681.922	57599.38
682.27	57630.79
682.618	57642.54
682.966	57605.7
683.314	57686.83
683.661	57506.04
684.009	57448.87
684.357	57415.65
684.705	57412.49
685.053	57502.43
685.4	57342.88
685.748	57224.92
686.095	57221.31
686.443	57133.17
686.79	57127.07
687.138	57170.23
687.485	57186.05
687.832	57004.14
688.18	57016.79
688.527	56892.05
688.874	56871.71
689.221	56818.6
689.568	56699.29
689.915	56581.55
690.262	56576.35
690.609	56497.94
690.956	56436.92
691.303	56388.11
691.65	56236.25
691.997	56286.87
692.344	56031.51
692.69	56006.87
693.037	56073.09
693.383	55768.91
693.73	55809.14
694.077	55679.43
694.423	55607.79
694.769	55498.19
695.116	55429.49
695.462	55237.86
695.808	55211.87
696.155	55192.88
696.501	54973.91
696.847	55009.84
697.193	54742.28
697.539	54822.95
697.885	54759.22
698.231	54494.6
698.577	54493.47
698.923	54380.7
699.269	54276.07
699.614	54179.35
699.96	54197.43
700.306	54146.58
700.651	53925.8
700.997	53909.98
701.342	53750.66
701.688	53847.16
702.033	53726.26
702.379	53637.9
702.724	53644.23
703.069	53742.08
703.415	53301.41
703.76	53360.62
704.105	53417.34
704.45	53331.01
704.795	53098.7
705.14	52989.33
705.485	53105.71
705.83	52860.97
706.175	52947.75
706.52	52783.46
706.865	52708.43
707.209	52765.6
707.554	52622.11
707.899	52772.16
708.243	52675.21
708.588	52605.16
708.932	52346.63
709.277	52305.05
709.621	52350.47
709.966	52002.91
710.31	52258.95
710.654	51948
710.998	52074.32
711.342	52076.58
711.687	51839.75
712.031	51777.38
712.375	51606.09
712.719	51612.19
713.063	51575.35
713.407	51547.56
713.75	51441.35
714.094	51279.54
714.438	51216.49
714.782	51339.65
715.125	51018.76
715.469	51012.88
715.812	50864.64
716.156	50614.93
716.499	50616.73
716.843	50583.06
717.186	50432.33
717.53	50595.04
717.873	50504.42
718.216	50389.4
718.559	50138.78
718.902	49889.52
719.246	49913.48
719.589	49825.12
719.932	49607.72
720.275	49554.62
720.617	49558
720.96	49419.03
721.303	49432.81
721.646	49331.8
721.989	49039.37
722.331	49241.18
722.674	48909.89
723.016	49011.8
723.359	48834.41
723.701	48755.99
724.044	48536.34
724.386	48483.23
724.729	48637.8
725.071	48507.64
725.413	48444.36
725.755	48302.44
726.097	48229.9
726.439	48070.36
726.782	48149.23
727.124	48403.68
727.465	48059.97
727.807	48011.38
728.149	48037.59
728.491	47919.4
728.833	48046.41
729.175	47936.58
729.516	47834.66
729.858	47758.73
730.199	47800.08
730.541	47759.18
730.882	47574.78
731.224	47757.15
731.565	47494.33
731.906	47409.81
732.248	47503.14
732.589	47266.77
732.93	47247.11
733.271	47272.42
733.612	47346.76
733.953	47332.3
734.294	47154
734.635	47115.81
734.976	47144.96
735.317	46851.64
735.658	46947
735.999	46893.22
736.339	46777.29
736.68	46777.74
737.021	46548.59
737.361	46405.77
737.702	46541.59
738.042	46371.2
738.383	46236.96
738.723	46237.87
739.063	46071.09
739.404	46187.7
739.744	45963.07
740.084	45857.99
740.424	45913.35
740.764	45613.93
741.104	45660.25
741.444	45317.89
741.784	45202.41
742.124	45508.85
742.464	45302.07
742.804	45145.01
743.143	45067.95
743.483	45089.87
743.823	44766.94
744.162	44745.25
744.502	44689.21
744.841	44551.13
745.181	44646.72
745.52	44421.64
745.86	44422.09
746.199	44304.36
746.538	44139.84
746.877	44176.45
747.216	44047.64
747.556	43865.27
747.895	43861.88
748.234	43615.34
748.573	43542.57
748.911	43570.59
749.25	43500.54
749.589	43193.43
749.928	43366.53
750.267	43327.66
750.605	43122.24
750.944	43081.56
751.283	42823.49
751.621	43026.65
751.96	42776.04
752.298	42700.56
