Data from aluminium_surface_pro_back_FLMS001491_00061.txt Node
Date: Wed Feb 08 15:34:22 GMT 2017
User: dcchb
Spectrometer: FLMS00149
Trigger mode: 0
Integration Time (sec): 2.000000E-2
Scans to average: 10
Electric dark correction enabled: true
Nonlinearity correction enabled: false
Boxcar width: 0
XAxis mode: Wavelengths
Number of Pixels in Spectrum: 2048
>>>>>Begin Spectral Data<<<<<
341.393	-15.59
341.776	-15.59
342.16	-15.59
342.543	-72.99
342.927	-72.77
343.31	-64.18
343.693	-58.53
344.077	-61.92
344.46	-58.98
344.843	-39.1
345.226	-23.95
345.61	-39.1
345.993	-21.47
346.376	-24.18
346.759	11.3
347.142	43.39
347.525	54.24
347.908	35.25
348.291	77.06
348.674	77.74
349.057	92.43
349.44	143.27
349.823	166.78
350.206	179.66
350.588	237.51
350.971	246.1
351.354	257.17
351.737	263.95
352.119	295.36
352.502	293.55
352.884	293.33
353.267	318.86
353.65	339.65
354.032	337.39
354.414	314.79
354.797	362.93
355.179	353.89
355.562	362.02
355.944	355.7
356.326	371.29
356.709	356.15
357.091	384.4
357.473	388.24
357.855	387.33
358.238	380.33
358.62	370.84
359.002	376.49
359.384	370.61
359.766	377.39
360.148	380.55
360.53	364.51
360.912	369.71
361.294	383.49
361.676	355.47
362.057	384.4
362.439	367.9
362.821	381.68
363.203	347.11
363.584	366.54
363.966	364.28
364.348	369.03
364.729	369.26
365.111	368.13
365.493	351.18
365.874	339.88
366.256	372.65
366.637	360.89
367.019	354.34
367.4	362.25
367.781	379.65
368.163	380.1
368.544	364.51
368.925	352.99
369.306	387.56
369.688	354.79
370.069	391.63
370.45	376.04
370.831	380.55
371.212	361.8
371.593	387.79
371.974	391.63
372.355	373.78
372.736	394.11
373.117	375.36
373.498	383.72
373.879	377.39
374.26	398.86
374.641	375.81
375.021	375.58
375.402	389.37
375.783	409.25
376.163	413.1
376.544	395.7
376.925	408.8
377.305	430.5
377.686	426.2
378.066	429.37
378.447	418.07
378.827	445.19
379.208	422.36
379.588	440.44
379.968	455.36
380.349	440.21
380.729	435.69
381.109	449.03
381.489	459.87
381.87	458.97
382.25	463.49
382.63	479.31
383.01	458.75
383.39	475.69
383.77	487.9
384.15	478.41
384.53	453.55
384.91	504.17
385.29	479.76
385.67	512.08
386.049	504.39
386.429	505.75
386.809	520.66
387.189	501.46
387.568	507.11
387.948	518.4
388.328	532.87
388.707	526.99
389.087	550.95
389.466	545.75
389.846	546.88
390.225	561.34
390.605	562.47
390.984	581.45
391.363	576.71
391.743	565.63
392.122	623.03
392.501	602.92
392.881	605.86
393.26	606.76
393.639	619.42
394.018	614.67
394.397	607.44
394.776	625.07
395.155	633.43
395.534	645.41
395.913	646.08
396.292	635.69
396.671	691.51
397.05	693.54
397.429	665.97
397.808	682.02
398.186	691.73
398.565	708.46
398.944	700.77
399.323	709.13
399.701	729.7
400.08	717.95
400.458	732.41
400.837	733.31
401.215	736.93
401.594	779.41
401.972	761.56
402.351	798.62
402.729	810.37
403.107	786.87
403.486	800.88
403.864	794.78
404.242	822.13
404.62	855.34
404.999	833.65
405.377	839.98
405.755	867.1
406.133	904.61
406.511	884.72
406.889	894.21
407.267	935.57
407.645	930.15
408.023	931.73
408.401	962.01
408.779	965.4
409.156	986.41
409.534	981.9
409.912	989.58
410.29	998.39
410.667	1024.61
411.045	1029.13
411.422	1078.62
411.8	1073.19
412.178	1072.97
412.555	1108.9
412.933	1120.42
413.31	1122.46
413.687	1143.92
414.065	1147.77
414.442	1146.41
414.819	1189.8
415.197	1219.18
415.574	1183.7
415.951	1228.44
416.328	1214.21
416.705	1216.69
417.082	1233.19
417.46	1268.89
417.837	1279.74
418.214	1323.36
418.591	1312.51
418.967	1339.17
419.344	1325.16
419.721	1363.58
420.098	1373.07
420.475	1364.71
420.852	1404.93
421.228	1405.16
421.605	1407.42
421.982	1433.18
422.358	1442.22
422.735	1458.72
423.111	1489.68
423.488	1503.46
423.864	1486.97
424.241	1562.9
424.617	1557.25
424.994	1555.44
425.37	1535.33
425.746	1558.6
426.123	1581.88
426.499	1618.94
426.875	1660.07
427.251	1652.84
427.627	1687.87
428.003	1730.8
428.379	1718.15
428.756	1756.79
429.132	1767.19
429.507	1790.01
429.883	1809.22
430.259	1855.77
430.635	1881.31
431.011	1879.72
431.387	1939.61
431.763	1967.86
432.138	1996.78
432.514	2040.4
432.89	1997.01
433.265	2077.69
433.641	2081.08
434.016	2128.98
434.392	2137.34
434.767	2171.47
435.143	2165.37
435.518	2207.17
435.894	2237.68
436.269	2286.49
436.644	2276.1
437.02	2309.09
437.395	2325.81
437.77	2331.46
438.145	2395.64
438.52	2428.64
438.895	2444.46
439.271	2472.48
439.646	2496.66
440.021	2508.86
440.395	2546.6
440.77	2514.06
441.145	2562.19
441.52	2610.78
441.895	2592.25
442.27	2624.34
442.645	2670.89
443.019	2674.05
443.394	2676.09
443.769	2735.75
444.143	2723.09
444.518	2746.37
444.892	2753.83
445.267	2785.69
445.641	2811.9
446.016	2818
446.39	2862.3
446.764	2893.48
447.139	2879.25
447.513	2932.58
447.887	2921.51
448.262	2926.02
448.636	2976.42
449.01	3025.01
449.384	3035.17
449.758	3107.94
450.132	3116.53
450.506	3137.54
450.88	3150.88
451.254	3151.78
451.628	3216.19
452.002	3264.55
452.376	3245.56
452.75	3283.53
453.123	3314.49
453.497	3392.91
453.871	3422.51
454.244	3486.69
454.618	3476.97
454.992	3527.14
455.365	3583.63
455.739	3678.1
456.112	3691.43
456.486	3726
456.859	3734.82
457.232	3819.33
457.606	3811.43
457.979	3880.8
458.352	3953.79
458.725	4028.37
459.099	4035.37
459.472	4114.02
459.845	4157.86
460.218	4215.93
460.591	4189.27
460.964	4285.31
461.337	4362.37
461.71	4428.58
462.083	4468.58
462.456	4508.58
462.829	4524.4
463.201	4578.41
463.574	4633.1
463.947	4684.85
464.32	4787.67
464.692	4817.73
465.065	4859.53
465.438	4983.15
465.81	5042.81
466.183	5052.3
466.555	5140.66
466.928	5177.04
467.3	5203.25
467.672	5329.13
468.045	5448.44
468.417	5447.99
468.789	5538.39
469.161	5607.31
469.534	5685.5
469.906	5794.2
470.278	5791.03
470.65	5853.86
471.022	6007.75
471.394	6124.81
471.766	6156.22
472.138	6239.16
472.51	6397.35
472.882	6518.25
473.253	6559.38
473.625	6701.74
473.997	6807.73
474.369	6876.2
474.74	6981.51
475.112	7060.83
475.484	7179.25
475.855	7332.91
476.227	7418.56
476.598	7597.09
476.97	7663.3
477.341	7876.86
477.713	7963.18
478.084	8014.48
478.455	8261.03
478.827	8325.2
479.198	8591.86
479.569	8533.56
479.94	8870.5
480.311	8954.57
480.682	9125.41
481.053	9271.85
481.424	9460.09
481.795	9586.64
482.166	9709.12
482.537	9797.48
482.908	10058.72
483.279	10129.68
483.65	10323.8
484.021	10564.24
484.391	10689.89
484.762	10831.35
485.133	10823.9
485.503	11042.65
485.874	11329.65
486.244	11455.74
486.615	11633.82
486.985	11807.83
487.356	11938.22
487.726	12116.97
488.097	12345.44
488.467	12417.3
488.837	12675.37
489.207	12889.38
489.578	12948.81
489.948	13151.29
490.318	13375.92
490.688	13391.29
491.058	13630.38
491.428	13832.4
491.798	13991.95
492.168	14264.48
492.538	14260.42
492.908	14488.88
493.278	14712.83
493.648	14778.82
494.017	14959.15
494.387	15131.58
494.757	15240.96
495.126	15394.62
495.496	15483.43
495.866	15511.23
496.235	15705.35
496.605	15832.58
496.974	16005.91
497.344	16141.95
497.713	16100.59
498.082	16306.69
498.452	16502.62
498.821	16573.8
499.19	16759.11
499.559	16884.3
499.928	16942.61
500.298	17209.27
500.667	17284.74
501.036	17150.74
501.405	17502.59
501.774	17575.36
502.143	17761.34
502.512	17721.12
502.88	17998.62
503.249	17978.28
503.618	18166.3
503.987	18279.52
504.356	18355.22
504.724	18430.7
505.093	18538.72
505.462	18668.66
505.83	18839.05
506.199	19059.84
506.567	19333.05
506.936	19297.35
507.304	19537.79
507.672	19537.57
508.041	19710.89
508.409	19918.8
508.777	20037.67
509.145	20288.73
509.514	20227.49
509.882	20441.27
510.25	20509.07
510.618	20771.43
510.986	20797.19
511.354	21066.79
511.722	21265.66
512.09	21428.14
512.458	21412.54
512.826	21667.45
513.193	21740.9
513.561	21851.18
513.929	22037.84
514.297	22280.77
514.664	22333.65
515.032	22561.89
515.4	22712.62
515.767	22860.87
516.135	23044.14
516.502	23082.56
516.869	23352.61
517.237	23644.12
517.604	23522.77
517.972	23778.58
518.339	23970.44
518.706	24038.69
519.073	24200.04
519.44	24533.82
519.808	24739.69
520.175	24712.34
520.542	25205.89
520.909	25305.32
521.276	25276.85
521.643	25588.93
522.009	25762.94
522.376	25962.71
522.743	26087.45
523.11	26360.89
523.477	26672.29
523.843	26777.15
524.21	27082.45
524.577	27291.03
524.943	27553.85
525.31	27638.6
525.676	27919.49
526.043	28106.83
526.409	28213.72
526.776	28524.9
527.142	28623.88
527.508	28961.95
527.874	28979.35
528.241	29337.53
528.607	29350.41
528.973	29714.92
529.339	29649.16
529.705	30002.37
530.071	30196.72
530.437	30456.15
530.803	30541.8
531.169	30683.71
531.535	30780.89
531.901	30923.25
532.267	31104.27
532.632	31286.63
532.998	31405.73
533.364	31632.16
533.73	31760.97
534.095	32020.4
534.461	32048.42
534.826	32388.3
535.192	32531.35
535.557	32687.95
535.923	32626.49
536.288	32729.31
536.653	32995.74
537.019	32973.14
537.384	33136.3
537.749	33307.6
538.114	33345.79
538.479	33578.78
538.845	33694.48
539.21	33732.45
539.575	33914.14
539.94	34107.8
540.305	34209.27
540.67	34218.99
541.034	34419.43
541.399	34518.64
541.764	34696.04
542.129	34769.93
542.494	34829.14
542.858	34950.27
543.223	35138.06
543.587	35252.63
543.952	35218.28
544.316	35455.56
544.681	35417.6
545.045	35580.76
545.41	35910.92
545.774	35888.1
546.138	35936.68
546.503	36122.67
546.867	36010.13
547.231	36416.67
547.595	36420.51
547.959	36615.08
548.324	36787.06
548.688	36826.15
549.052	36964.45
549.416	37062.98
549.779	37149.76
550.143	37309.3
550.507	37534.15
550.871	37636.07
551.235	37641.95
551.599	38001.03
551.962	38041.71
552.326	38134.14
552.689	38348.6
553.053	38263.63
553.417	38396.28
553.78	38907.23
554.143	38747.91
554.507	38978.41
554.87	39035.13
555.234	39446.42
555.597	39388.57
555.96	39576.81
556.323	39770.71
556.686	39785.17
557.05	40198.94
557.413	40240.75
557.776	40381.99
558.139	40620.63
558.502	40851.81
558.865	40992.59
559.228	41175.64
559.59	41477.1
559.953	41447.5
560.316	41967.48
560.679	41939.46
561.041	42119.8
561.404	42394.59
561.767	42722.72
562.129	42515.94
562.492	42983.5
562.854	42982.15
563.217	43125.65
563.579	43264.85
563.941	43656.71
564.304	43819.41
564.666	43985.28
565.028	44105.51
565.39	44315.44
565.753	44474.76
566.115	44688.77
566.477	44882.21
566.839	44908.42
567.201	45295.76
567.563	45434.29
567.925	45604.68
568.287	45711.57
568.648	45901.39
569.01	46045.34
569.372	46333.47
569.734	46344.32
570.095	46569.17
570.457	46809.39
570.819	47001.93
571.18	47159.21
571.542	47266.1
571.903	47268.36
572.265	47590.84
572.626	47643.72
572.987	47809.14
573.349	47957.16
573.71	48129.13
574.071	48119.41
574.432	48341.1
574.794	48544.71
575.155	48650.7
575.516	48548.33
575.877	48807.76
576.238	48919.62
576.599	49006.17
576.96	49056.11
577.32	49067.86
577.681	49178.59
578.042	49265.82
578.403	49349.89
578.763	49513.5
579.124	49465.82
579.485	49692.25
579.845	49905.58
580.206	49694.74
580.566	49783.55
580.927	49878.01
581.287	49976.09
581.648	49881.85
582.008	50163.65
582.368	49924.11
582.728	50149.19
583.089	50136.08
583.449	50058.8
583.809	50089.3
584.169	50276.87
584.529	50063.99
584.889	50443.87
585.249	50194.61
585.609	50211.56
585.969	50237.1
586.329	50261.5
586.688	50338.79
587.048	50246.36
587.408	50215.63
587.768	50124.33
588.127	50232.8
588.487	50152.13
588.846	50469.86
589.206	50303.76
589.565	50352.57
589.925	50583.3
590.284	50481.61
590.643	50517.09
591.003	50564.32
591.362	50657.88
591.721	50514.83
592.08	50554.15
592.44	50748.95
592.799	50724.09
593.158	50599.12
593.517	50610.65
593.876	50785.56
594.235	50646.58
594.593	50857.87
594.952	50851.54
595.311	50724.99
595.67	50851.54
596.029	51064.65
596.387	50954.59
596.746	51035.95
597.104	50879.79
597.463	50922.95
597.822	51075.95
598.18	50888.15
598.538	50976.96
598.897	51182.61
599.255	50883.41
599.613	51359.78
599.972	51047.25
600.33	51280.91
600.688	51137.86
601.046	51184.64
601.404	51343.06
601.762	51261.7
602.12	51404.07
602.478	51428.48
602.836	51428.93
603.194	51268.26
603.552	51456.05
603.91	51185.09
604.268	51589.38
604.625	51456.95
604.983	51524.29
605.341	51428.03
605.698	51590.96
606.056	51716.15
606.413	51648.81
606.771	51802.71
607.128	51784.4
607.485	51598.42
607.843	51729.26
608.2	51872.53
608.557	52005.19
608.914	51824.4
609.272	52034.79
609.629	52096.48
609.986	52146.88
610.343	51992.98
610.7	52232.98
611.057	52145.52
611.414	52142.58
611.771	52104.84
612.127	52249.47
612.484	52185.52
612.841	52402.69
613.198	52244.73
613.554	52234.56
613.911	52551.39
614.267	52538.28
614.624	52570.82
614.98	52510.03
615.337	52698.73
615.693	52651.27
616.05	52577.83
616.406	52750.03
616.762	52594.32
617.118	52565.17
617.475	52628.45
617.831	52655.34
618.187	52735.79
618.543	52682.23
618.899	52783.92
619.255	52819.18
619.611	52751.61
619.967	52889.68
620.323	52918.16
620.678	52820.98
621.034	52726.75
621.39	52789.57
621.746	52741.89
622.101	53108.66
622.457	52830.93
622.812	52877.71
623.168	52897.82
623.523	52888.33
623.879	52932.62
624.234	52800.42
624.589	52976.01
624.945	52905.5
625.3	52952.96
625.655	52886.97
626.01	52904.82
626.365	52863.47
626.72	52826.63
627.075	52858.72
627.43	52808.1
627.785	52739.18
628.14	52759.52
628.495	52830.7
628.85	52790.02
629.205	52708.67
629.559	52906.41
629.914	52717.03
630.269	52835.22
630.623	52739.4
630.978	52660.31
631.332	52888.78
631.687	52911.6
632.041	52686.52
632.396	52781.66
632.75	52700.31
633.104	52685.62
633.459	52541.22
633.813	52637.71
634.167	52559.3
634.521	52496.7
634.875	52594.1
635.229	52464.61
635.583	52263.03
635.937	52256.25
636.291	52259.64
636.645	52253.54
636.999	52222.36
637.352	52385.06
637.706	52087.22
638.06	52285.86
638.413	52124.28
638.767	51953.44
639.121	52055.58
639.474	51889.94
639.828	51898.52
640.181	51986.66
640.534	51983.72
640.888	51842.48
641.241	51776.49
641.594	51599.1
641.947	51772.2
642.301	51590.51
642.654	51662.82
643.007	51643.84
643.36	51574.92
643.713	51489.27
644.066	51731.97
644.419	51423.51
644.771	51230.52
645.124	50937.42
645.477	50789.85
645.83	50717.76
646.182	50581.95
646.535	50423.31
646.888	50581.72
647.24	50386.92
647.593	50536.07
647.945	50314.16
648.298	50146.93
648.65	50148.51
649.002	50128.17
649.355	50185.12
649.707	50161.39
650.059	50286.14
650.411	50734.26
650.763	50577.43
651.115	50858.78
651.467	50813.81
651.819	50829.17
652.171	50671.44
652.523	50703.75
652.875	50591.89
653.227	50481.16
653.578	50753.47
653.93	50615.17
654.282	50422.85
654.633	50358.22
654.985	50441.61
655.337	50427.6
655.688	50354.16
656.039	50513.7
656.391	50245.46
656.742	50180.83
657.094	50337.21
657.445	50363.87
657.796	50217.89
658.147	50111.9
658.498	50212.47
658.849	50109.19
659.2	50176.99
659.551	50073.94
659.902	50191.67
660.253	49943.55
660.604	50097.44
660.955	49861.51
661.306	50056.76
661.656	50076.88
662.007	49969.53
662.358	49934.96
662.708	49916.65
663.059	49954.84
663.409	49723.66
663.76	50035.29
664.11	50035.52
664.461	49887.5
664.811	50028.52
665.161	49829.42
665.511	49764.34
665.862	49782.65
666.212	49930.66
666.562	49875.3
666.912	49870.1
667.262	49840.5
667.612	49798.46
667.962	49774.51
668.312	49616.55
668.662	49927.73
669.011	49814.74
669.361	49633.95
669.711	49617.45
670.06	49517.34
670.41	49516.44
670.76	49386.27
671.109	49568.41
671.459	49493.39
671.808	49414.75
672.157	49464.01
672.507	49252.72
672.856	49334.52
673.205	49360.06
673.554	49438.93
673.904	49296.1
674.253	49379.04
674.602	49187.41
674.951	48675.33
675.3	48469.46
675.649	49099.73
675.998	48982.21
676.346	49083.68
676.695	49116.22
677.044	48711.49
677.393	48860.18
677.741	48804.37
678.09	48706.74
678.438	48644.6
678.787	48751.49
679.135	48743.35
679.484	48473.98
679.832	48575.22
680.181	48408.67
680.529	48637.82
680.877	48339.75
681.225	48326.64
681.573	48443.25
681.922	48224.95
682.27	48186.3
682.618	48175
682.966	48065.18
683.314	48240.77
683.661	47967.78
684.009	47942.47
684.357	47864.96
684.705	47638.3
685.053	47817.95
685.4	47710.16
685.748	47532.31
686.095	47546.09
686.443	47272.2
686.79	47278.53
687.138	47434.23
687.485	47434.01
687.832	47260.68
688.18	47263.39
688.527	47062.94
688.874	47134.13
689.221	46962.83
689.568	46783.63
689.915	46792.44
690.262	46594.48
690.609	46570.98
690.956	46468.38
691.303	46408.27
691.65	46137.54
691.997	46173.25
692.344	46022.07
692.69	45989.75
693.037	45852.35
693.383	45699.14
693.73	45770.55
694.077	45648.29
694.423	45497.56
694.769	45468.18
695.116	45317.45
695.462	45442.87
695.808	45081.98
696.155	45164.24
696.501	44783.68
696.847	44738.48
697.193	44491.71
697.539	44689.67
697.885	44371.94
698.231	44319.29
698.577	44234.09
698.923	44095.34
699.269	43985.51
699.614	43870.26
699.96	43811.73
700.306	43757.72
700.651	43477.5
700.997	43475.47
701.342	43400.21
701.688	43283.38
702.033	43134.01
702.379	43166.1
702.724	43020.11
703.069	43033.22
703.415	42674.58
703.76	42688.37
704.105	42603.63
704.45	42509.84
704.795	42379.68
705.14	42131.1
705.485	42009.52
705.83	41896.75
706.175	41938.56
706.52	42005.9
706.865	41855.17
707.209	41627.61
707.554	41419.02
707.899	41623.09
708.243	41203.21
708.588	41307.16
708.932	41115.53
709.277	41008.64
709.621	41216.09
709.966	40917.57
710.31	41009.09
710.654	40593.06
710.998	40586.5
711.342	40721.42
711.687	40495.21
712.031	40203.69
712.375	40357.58
712.719	40402.1
713.063	40291.14
713.407	40392.16
713.75	40163.24
714.094	40202.11
714.438	40017.7
714.782	39972.96
715.125	39760.76
715.469	39793.3
715.812	39656.13
716.156	39328.23
716.499	39412.97
716.843	39392.86
717.186	39132.53
717.53	39410.72
717.873	39321.23
718.216	39112.64
718.559	38877.17
718.902	38721.69
719.246	38720.34
719.589	38504.98
719.932	38471.08
720.275	38494.58
720.617	38392.66
720.96	38330.74
721.303	38313.57
721.646	38202.61
721.989	37922.62
722.331	38023.18
722.674	37999
723.016	37943.86
723.359	37785.45
723.701	37956.74
724.044	37665.9
724.386	37294.39
724.729	37660.25
725.071	37427.49
725.413	37484.66
725.755	37407.6
726.097	37354.05
726.439	37186.82
726.782	37090.78
727.124	37312.92
727.465	37067.05
727.807	36992.47
728.149	36894.4
728.491	36824.79
728.833	36864.57
729.175	36835.64
729.516	36722.42
729.858	36676.1
730.199	36594.74
730.541	36532.15
730.882	36491.92
731.224	36614.63
731.565	36234.3
731.906	36169.44
732.248	36391.59
732.589	36094.87
732.93	35842
733.271	36009.22
733.612	35906.4
733.953	35933.29
734.294	35776.46
734.635	35590.7
734.976	35803.58
735.317	35568.33
735.658	35610.14
735.999	35580.31
736.339	35477.71
736.68	35580.76
737.021	35399.75
737.361	35131.51
737.702	35304.61
738.042	35180.77
738.383	35108.23
738.723	35117.49
739.063	34990.94
739.404	35037.27
739.744	34837.95
740.084	34799.08
740.424	34846.54
740.764	34635.25
741.104	34865.3
741.444	34567.45
741.784	34507.34
742.124	34556.83
742.464	34415.59
742.804	34328.59
743.143	34181.93
743.483	34331.53
743.823	34111.19
744.162	34099.22
744.502	34012.67
744.841	33927.02
745.181	34087.47
745.52	33863.06
745.86	34018.54
746.199	33978.09
746.538	33799.56
746.877	33926.11
747.216	33666.46
747.556	33548.5
747.895	33820.81
748.234	33477.99
748.573	33501.04
748.911	33396.18
749.25	33407.71
749.589	33235.28
749.928	33318.67
750.267	33223.08
750.605	33017.89
750.944	33142.41
751.283	32833.26
751.621	32998.23
751.96	32682.08
752.298	32803.66
752.636	32750.1
752.975	32724.79
