Data from aluminium_macbook_case_FLMS001491_028.txt Node
Date: Tue Feb 07 10:43:26 GMT 2017
User: dcchb
Spectrometer: FLMS00149
Trigger mode: 0
Integration Time (sec): 2.000000E-2
Scans to average: 10
Electric dark correction enabled: true
Nonlinearity correction enabled: false
Boxcar width: 0
XAxis mode: Wavelengths
Number of Pixels in Spectrum: 2048
>>>>>Begin Spectral Data<<<<<
341.393	-1.69
341.776	-1.69
342.16	-1.69
342.543	-61.81
342.927	-51.19
343.31	-86.44
343.693	-48.25
344.077	-34.24
344.46	-74.69
344.843	-47.57
345.226	-59.09
345.61	-39.43
345.993	-13.67
346.376	-30.17
346.759	4.86
347.142	29.26
347.525	48.7
347.908	70.85
348.291	67
348.674	100.45
349.057	112.43
349.44	116.95
349.823	140.67
350.206	165.98
350.588	259.99
350.971	252.54
351.354	278.3
351.737	287.79
352.119	288.24
352.502	315.13
352.884	322.14
353.267	331.4
353.65	313.55
354.032	357.84
354.414	362.82
354.797	361.46
355.179	390.84
355.562	349.71
355.944	373.89
356.326	379.09
356.709	400.1
357.091	378.41
357.473	405.75
357.855	416.37
358.238	403.94
358.62	410.05
359.002	424.51
359.384	410.5
359.766	415.02
360.148	397.84
360.53	421.12
360.912	410.5
361.294	397.16
361.676	413.21
362.057	410.95
362.439	415.7
362.821	404.17
363.203	425.64
363.584	402.59
363.966	421.12
364.348	441.23
364.729	418.86
365.111	407.33
365.493	426.99
365.874	422.47
366.256	408.92
366.637	419.09
367.019	413.66
367.4	426.54
367.781	426.77
368.163	447.78
368.544	426.99
368.925	443.94
369.306	433.32
369.688	448.46
370.069	439.88
370.45	437.39
370.831	426.99
371.212	443.72
371.593	461.57
371.974	456.82
372.355	460.21
372.736	472.87
373.117	467.22
373.498	468.35
373.879	451.17
374.26	459.54
374.641	446.65
375.021	466.54
375.402	441.23
375.783	469.93
376.163	515.58
376.544	517.61
376.925	502.02
377.305	512.42
377.686	512.87
378.066	523.49
378.447	511.06
378.827	514.68
379.208	522.13
379.588	523.94
379.968	544.28
380.349	545.86
380.729	537.5
381.109	554.45
381.489	566.2
381.87	548.57
382.25	541.34
382.63	575.24
383.01	562.13
383.39	591.06
383.77	574.11
384.15	591.28
384.53	612.07
384.91	616.82
385.29	611.4
385.67	629.02
386.049	654.11
386.429	651.85
386.809	621.34
387.189	655.24
387.568	643.03
387.948	664.05
388.328	655.01
388.707	664.05
389.087	671.51
389.466	680.77
389.846	695.91
390.225	701.56
390.605	709.02
390.984	749.7
391.363	721.68
391.743	748.34
392.122	765.74
392.501	760.77
392.881	791.05
393.26	783.37
393.639	758.06
394.018	810.49
394.397	792.86
394.776	808.68
395.155	817.94
395.534	838.96
395.913	813.2
396.292	833.09
396.671	879.64
397.05	848.45
397.429	853.42
397.808	882.12
398.186	865.63
398.565	906.3
398.944	918.96
399.323	920.09
399.701	950.14
400.08	941.33
400.458	924.83
400.837	968.68
401.215	1001.22
401.594	966.19
401.972	964.38
402.351	1008.67
402.729	1013.19
403.107	991.05
403.486	1024.27
403.864	1031.72
404.242	1043.02
404.62	1083.47
404.999	1112.17
405.377	1105.85
405.755	1137.48
406.133	1133.64
406.511	1162.79
406.889	1178.61
407.267	1192.4
407.645	1205.51
408.023	1240.98
408.401	1213.19
408.779	1244.83
409.156	1264.03
409.534	1272.85
409.912	1283.24
410.29	1331.15
410.667	1358.27
411.045	1352.17
411.422	1405.95
411.8	1389.91
412.178	1417.25
412.555	1451.15
412.933	1459.28
413.31	1471.49
413.687	1527.53
414.065	1523.69
414.442	1522.78
414.819	1549.22
415.197	1595.33
415.574	1636
415.951	1632.16
416.328	1660.41
416.705	1636.91
417.082	1657.24
417.46	1680.29
417.837	1707.86
418.214	1734.53
418.591	1763.23
418.967	1726.4
419.344	1811.59
419.721	1801.2
420.098	1807.75
420.475	1852.49
420.852	1866.05
421.228	1892.49
421.605	1922.55
421.982	1934.3
422.358	1941.3
422.735	1983.34
423.111	1965.94
423.488	1994.64
423.864	2043
424.241	2081.87
424.617	2108.31
424.994	2130.9
425.37	2133.39
425.746	2143.11
426.123	2196.44
426.499	2223.11
426.875	2237.79
427.251	2249.77
427.627	2360.28
428.003	2337
428.379	2373.61
428.756	2396.89
429.132	2414.96
429.507	2478.69
429.883	2518.24
430.259	2592.36
430.635	2606.82
431.011	2624.68
431.387	2645.69
431.763	2703.54
432.138	2721.17
432.514	2741.74
432.89	2800.94
433.265	2880.94
433.641	2891.11
434.016	2887.04
434.392	2955.29
434.767	3068.96
435.143	3026.93
435.518	3067.38
435.894	3079.35
436.269	3222.18
436.644	3186.7
437.02	3241.84
437.395	3264.66
437.77	3279.12
438.145	3377.2
438.52	3357.76
438.895	3423.3
439.271	3446.35
439.646	3518.44
440.021	3527.03
440.395	3561.15
440.77	3557.08
441.145	3577.87
441.52	3651.09
441.895	3700.35
442.27	3702.61
442.645	3711.65
443.019	3793.46
443.394	3759.56
443.769	3845.66
444.143	3861.48
444.518	3890.86
444.892	3847.92
445.267	3946.22
445.641	3985.77
446.016	4039.78
446.39	4070.51
446.764	4079.78
447.139	4111.42
447.513	4172.43
447.887	4205.65
448.262	4212.43
448.636	4190.51
449.01	4254.46
449.384	4289.72
449.758	4350.51
450.132	4383.5
450.506	4442.71
450.88	4460.79
451.254	4534.46
451.628	4502.37
452.002	4616.04
452.376	4696.49
452.75	4725.41
453.123	4791.17
453.497	4879.08
453.871	4880.21
454.244	5002.47
454.618	5007.66
454.992	5091.28
455.365	5116.81
455.739	5253.31
456.112	5336.92
456.486	5340.99
456.859	5392.74
457.232	5540.53
457.606	5471.38
457.979	5608.78
458.352	5691.26
458.725	5747.76
459.099	5770.13
459.472	5962.67
459.845	5950.47
460.218	6052.84
460.591	6066.85
460.964	6117.92
461.337	6264.81
461.71	6376.67
462.083	6495.31
462.456	6487.17
462.829	6545.93
463.201	6713.83
463.574	6725.59
463.947	6812.59
464.32	6994.73
464.692	7049.19
465.065	7126.71
465.438	7198.57
465.81	7299.81
466.183	7377.77
466.555	7627.94
466.928	7575.06
467.3	7566.69
467.672	7710.19
468.045	7965.1
468.417	8012.11
468.789	8071.77
469.161	8198.32
469.534	8252.33
469.906	8482.6
470.278	8510.85
470.65	8615.71
471.022	8806.21
471.394	8995.58
471.766	9139.76
472.138	9222.24
472.51	9433.09
472.882	9544.04
473.253	9736.58
473.625	9792.17
473.997	10083.01
474.369	10117.81
474.74	10265.83
475.112	10444.36
475.484	10650
475.855	10825.82
476.227	10932.48
476.598	11312.36
476.97	11263.77
477.341	11680.03
477.713	11734.04
478.084	11699.01
478.455	12157.08
478.827	12224.65
479.198	12583.51
479.569	12609.05
479.94	13047
480.311	13123.84
480.682	13530.38
481.053	13716.36
481.424	13929.46
481.795	14112.28
482.166	14367.64
482.537	14533.52
482.908	14954.07
483.279	15131.92
483.65	15404
484.021	15707.5
484.391	15815.52
484.762	15981.16
485.133	16272
485.503	16421.15
485.874	16808.48
486.244	16895.71
486.615	17224.07
486.985	17506.09
487.356	17771.17
487.726	17872.41
488.097	18315.11
488.467	18307.43
488.837	18673.07
489.207	18948.54
489.578	19191.92
489.948	19356.89
490.318	19697.45
490.688	19720.72
491.058	20170.88
491.428	20337.88
491.798	20578.78
492.168	21050.63
492.538	21219.44
492.908	21339.44
493.278	21721.35
493.648	21833.89
494.017	22061.91
494.387	22301.67
494.757	22452.4
495.126	22825.28
495.496	22797.48
495.866	23072.05
496.235	23407.63
496.605	23463.45
496.974	23709.77
497.344	23884.23
497.713	24096.43
498.082	24138.46
498.452	24447.15
498.821	24488.28
499.19	24598.56
499.559	24826.8
499.928	25037.65
500.298	25213.91
500.667	25427.69
501.036	25413.91
501.405	25766.44
501.774	25810.06
502.143	26064.51
502.512	26285.75
502.88	26431.06
503.249	26522.58
503.618	26782.01
503.987	26967.31
504.356	27199.4
504.724	27401.88
505.093	27638.03
505.462	27813.17
505.83	27957.8
506.199	28277.79
506.567	28444.56
506.936	28569.08
507.304	28936.98
507.672	29037.77
508.041	29124.32
508.409	29383.3
508.777	29640.46
509.145	29790.97
509.514	29734.02
509.882	30164.52
510.25	30133.56
510.618	30461.91
510.986	30641.34
511.354	30925.85
511.722	31161.1
512.09	31334.88
512.458	31403.13
512.826	31697.81
513.193	31921.31
513.561	32032.49
513.929	32347.06
514.297	32687.62
514.664	32923.77
515.032	33077.66
515.4	33420.7
515.767	33629.96
516.135	33804.87
516.502	33933.23
516.869	34379.77
517.237	34700.44
517.604	34498.41
517.972	34891.4
518.339	35197.61
518.706	35309.47
519.073	35677.59
519.44	35717.37
519.808	36282.32
520.175	36051.14
520.542	36635.31
520.909	36803.67
521.276	36824
521.643	37421.05
522.009	37572.91
522.376	37725.22
522.743	38059
523.11	38326.34
523.477	38748.25
523.843	38924.74
524.21	39233.66
524.577	39715
524.943	39563.14
525.31	40110.24
525.676	40212.39
526.043	40656.9
526.409	40878.81
526.776	41177.34
527.142	41543.88
527.508	41807.15
527.874	42212.79
528.241	42231.77
528.607	42504.08
528.973	42921.47
529.339	43021.58
529.705	43543.83
530.071	43801.67
530.437	43868.56
530.803	44183.81
531.169	44376.12
531.535	44385.39
531.901	44509.23
532.267	44700.41
532.632	45026.5
532.998	45071.47
533.364	45354.85
533.73	45435.3
534.095	45710.32
534.461	45806.82
534.826	46119.35
535.192	46148.96
535.557	46585.78
535.923	46432.56
536.288	46640.92
536.653	46957.3
537.019	46850.63
537.384	46934.92
537.749	47117.07
538.114	47310.06
538.479	47426.44
538.845	47789.36
539.21	47731.06
539.575	47964.05
539.94	48174.89
540.305	48376.69
540.67	48492.4
541.034	48640.42
541.399	48781.43
541.764	48842.22
542.129	49123.34
542.494	49270.46
542.858	49321.3
543.223	49502.54
543.587	49639.94
543.952	49587.28
544.316	49657.56
544.681	49763.55
545.045	49938.01
545.41	50153.37
545.774	50101.85
546.138	50262.75
546.503	50328.73
546.867	50345.91
547.231	50715.62
547.595	50693.92
547.959	50865.89
548.324	50875.16
548.688	51027.7
549.052	51016.4
549.416	51163.06
549.779	51230.18
550.143	51417.97
550.507	51571.41
550.871	51717.4
551.235	51674.01
551.599	52067.9
551.962	51981.57
552.326	52172.53
552.689	52349.47
553.053	52216.82
553.417	52384.05
553.78	52772.06
554.143	52754.43
554.507	52938.16
554.87	53158.26
555.234	53312.38
555.597	53230.13
555.96	53395.77
556.323	53573.17
556.686	53630.79
557.05	53814.97
557.413	53919.83
557.776	53966.38
558.139	54169.99
558.502	54172.25
558.865	54243.88
559.228	54451.56
559.59	54577.66
559.953	54605.23
560.316	54818.78
560.679	54834.6
561.041	55044.99
561.404	55211.54
561.767	55298.77
562.129	55141.71
562.492	55438.43
562.854	55479.33
563.217	55570.18
563.579	55710.96
563.941	55856.27
564.304	56008.36
564.666	56074.57
565.028	56140.11
565.39	56224.85
565.753	56478.18
566.115	56557.72
566.477	56673.88
566.839	56736.02
567.201	56905.96
567.563	56943.93
567.925	57110.02
568.287	57162
568.648	57308.89
569.01	57432.95
569.372	57587.07
569.734	57545.94
570.095	57707.3
570.457	57743.45
570.819	57919.04
571.18	57857.8
571.542	57999.72
571.903	58113.61
572.265	58190.67
572.626	58246.27
572.987	58298.92
573.349	58295.3
573.71	58369.88
574.071	58378.92
574.432	58449.65
574.794	58624.11
575.155	58508.41
575.516	58493.94
575.877	58646.25
576.238	58652.13
576.599	58809.41
576.96	58774.61
577.32	58864.55
577.681	58896.64
578.042	58949.3
578.403	58953.82
578.763	58991.1
579.124	59036.07
579.485	59105.68
579.845	59186.81
580.206	59109.52
580.566	59178.22
580.927	59252.11
581.287	59373.02
581.648	59324.2
582.008	59415.73
582.368	59347.71
582.728	59440.81
583.089	59405.56
583.449	59407.14
583.809	59440.13
584.169	59499.34
584.529	59512.45
584.889	59677.41
585.249	59469.51
585.609	59438.32
585.969	59609.85
586.329	59520.81
586.688	59573.91
587.048	59552.67
587.408	59507.47
587.768	59519.68
588.127	59466.12
588.487	59437.19
588.846	59585.89
589.206	59389.96
589.565	59443.3
589.925	59595.16
590.284	59428.83
590.643	59405.33
591.003	59434.48
591.362	59529.85
591.721	59476.97
592.08	59504.09
592.44	59501.6
592.799	59450.98
593.158	59429.28
593.517	59418.44
593.876	59519.45
594.235	59499.11
594.593	59521.94
594.952	59600.35
595.311	59512.67
595.67	59557.19
596.029	59683.52
596.387	59675.38
596.746	59714.7
597.104	59659.11
597.463	59668.6
597.822	59798.77
598.18	59717.19
598.538	59678.77
598.897	59895.04
599.255	59729.62
599.613	60076.27
599.972	59879.89
600.33	59984.52
600.688	59928.93
601.046	59950.18
601.404	60111.75
601.762	60057.74
602.12	60183.39
602.478	60138.42
602.836	60127.12
603.194	59972.1
603.552	60006.44
603.91	59968.48
604.268	60140.68
604.625	59966.9
604.983	60080.12
605.341	59976.62
605.698	60055.71
606.056	60117.4
606.413	60005.31
606.771	60102.26
607.128	60166.21
607.485	60018.42
607.843	60006.22
608.2	60159.66
608.557	60198.08
608.914	60086.22
609.272	60233.56
609.629	60231.07
609.986	60313.33
610.343	60273.56
610.7	60379.09
611.057	60371.41
611.414	60374.34
611.771	60424.96
612.127	60549.71
612.484	60460.9
612.841	60592.64
613.198	60547.45
613.554	60506.09
613.911	60690.04
614.267	60650.72
614.624	60664.96
614.98	60729.59
615.337	60910.83
615.693	60820.66
616.05	60906.53
616.406	60926.87
616.762	60874.67
617.118	60943.14
617.475	60922.13
617.831	60973.43
618.187	61015.01
618.543	60979.3
618.899	61106.75
619.255	61023.82
619.611	60959.87
619.967	61065.63
620.323	61104.95
620.678	61057.72
621.034	60953.76
621.39	60960.09
621.746	60880.32
622.101	61154.66
622.457	60906.99
622.812	60919.64
623.168	60950.37
623.523	60929.13
623.879	60944.95
624.234	60816.59
624.589	60836.48
624.945	60870.15
625.3	60923.26
625.655	60794.45
626.01	60831.28
626.365	60777.27
626.72	60724.62
627.075	60776.37
627.43	60748.57
627.785	60717.39
628.14	60823.37
628.495	60798.51
628.85	60760.55
629.205	60690.49
629.559	60852.3
629.914	60715.35
630.269	60786.31
630.623	60765.75
630.978	60703.83
631.332	60809.14
631.687	60829.47
632.041	60716.03
632.396	60791.06
632.75	60699.53
633.104	60770.27
633.459	60589.03
633.813	60674
634.167	60636.48
634.521	60668.8
634.875	60627.67
635.229	60582.47
635.583	60496.83
635.937	60515.81
636.291	60559.42
636.645	60477.62
636.999	60470.61
637.352	60453.44
637.706	60358.98
638.06	60405.53
638.413	60304.97
638.767	60234.46
639.121	60225.87
639.474	60048.48
639.828	60104.52
640.181	60099.55
640.534	60073.11
640.888	59980.23
641.241	59806.22
641.594	59870.18
641.947	59883.96
642.301	59753.57
642.654	59716.96
643.007	59711.54
643.36	59671.76
643.713	59614.82
644.066	59646.23
644.419	59468.83
644.771	59371.89
645.124	59082.4
645.477	59104.1
645.83	58890.99
646.182	58773.71
646.535	58682.86
646.888	58757.89
647.24	58608.29
647.593	58798.11
647.945	58616.88
648.298	58546.82
648.65	58569.19
649.002	58427.28
649.355	58646.93
649.707	58567.84
650.059	58643.54
650.411	58997.66
650.763	59048.96
651.115	59193.81
651.467	59162.17
651.819	59179.12
652.171	59143.64
652.523	59119.01
652.875	59139.8
653.227	59042.85
653.578	59159.46
653.93	59096.64
654.282	58933.93
654.633	58948.17
654.985	58952.91
655.337	58951.11
655.688	58965.12
656.039	59002.63
656.391	58849.64
656.742	58755.63
657.094	58804.89
657.445	58837.66
657.796	58867.27
658.147	58791.56
658.498	58703.65
658.849	58753.37
659.2	58678.57
659.551	58608.52
659.902	58653.26
660.253	58554.51
660.604	58520.38
660.955	58408.29
661.306	58432.47
661.656	58409.42
662.007	58362.19
662.358	58338.92
662.708	58288.52
663.059	58214.4
663.409	58092.14
663.76	58218.02
664.11	58160.84
664.461	58229.09
664.811	58125.59
665.161	58074.07
665.511	58007.85
665.862	58034.29
666.212	58144.12
666.562	58109.09
666.912	58105.48
667.262	58027.06
667.612	58050.56
667.962	58054.18
668.312	58151.58
668.662	58181.86
669.011	58091.01
669.361	58093.5
669.711	58153.84
670.06	58111.35
670.41	58125.14
670.76	58086.04
671.109	58190.9
671.459	58088.3
671.808	58047.85
672.157	58213.5
672.507	57950.68
672.856	57978.48
673.205	58017.12
673.554	58075.2
673.904	57946.84
674.253	58143.44
674.602	58085.37
674.951	57684.25
675.3	57502.78
675.649	57925.37
675.998	57825.03
676.346	57903.68
676.695	57982.77
677.044	57704.36
677.393	57787.75
677.741	57796.79
678.09	57675.21
678.438	57651.25
678.787	57660.29
679.135	57642.89
679.484	57428.66
679.832	57528.77
680.181	57276.35
680.529	57389.34
680.877	57284.03
681.225	57200.42
681.573	57351.15
681.922	57092.85
682.27	56978.05
682.618	57032.96
682.966	56939.63
683.314	56949.35
683.661	56804.95
684.009	56686.76
684.357	56657.83
684.705	56641.11
685.053	56597.04
685.4	56577.61
685.748	56387.33
686.095	56412.87
686.443	56252.87
686.79	56234.57
687.138	56319.99
687.485	56228.92
687.832	56146.21
688.18	56209.03
688.527	56063.27
688.874	56032.76
689.221	55995.48
689.568	55957.29
689.915	55976.72
690.262	55912.99
690.609	55867.8
690.956	55779.44
691.303	55779.44
691.65	55642.04
691.997	55688.82
692.344	55428.26
692.69	55491.08
693.037	55529.05
693.383	55304.42
693.73	55315.72
694.077	55234.82
694.423	55170.87
694.769	55067.59
695.116	55060.59
695.462	55007.48
695.808	54923.87
696.155	54945.11
696.501	54792.12
696.847	54691.1
697.193	54538.79
697.539	54613.59
697.885	54422.18
698.231	54317.1
698.577	54365.69
698.923	54353.49
699.269	54081.4
699.614	53943.1
699.96	53880.05
700.306	53846.61
700.651	53640.28
700.997	53556.44
701.342	53475.09
701.688	53428.99
702.033	53291.82
702.379	53281.65
702.724	53181.09
703.069	53139.96
703.415	52780.87
703.76	52804.15
704.105	52772.96
704.45	52702.23
704.795	52378.17
705.14	52358.28
705.485	52311.73
705.83	52127.56
706.175	52142.47
706.52	52119.19
706.865	51879.43
707.209	51805.08
707.554	51718.08
707.899	51649.83
708.243	51538.42
708.588	51548.81
708.932	51291.19
709.277	51219.11
709.621	51382.72
709.966	51237.86
710.31	51180.24
710.654	50857.76
710.998	50968.49
711.342	51091.88
711.687	50914.71
712.031	50756.52
712.375	50571.44
712.719	50707.93
713.063	50517.43
713.407	50782.96
713.75	50497.32
714.094	50537.32
714.438	50370.54
714.782	50460.71
715.125	50281.28
715.469	50428.39
715.812	50179.36
716.156	49996.99
716.499	50126.25
716.843	50157.44
717.186	49800.39
717.53	49984.11
717.873	49921.74
718.216	49865.92
718.559	49614.85
718.902	49440.62
719.246	49593.16
719.589	49389.32
719.932	49235.88
720.275	49279.27
720.617	49062.1
720.96	49028.65
721.303	49065.72
721.646	48967.19
721.989	48808.77
722.331	48927.41
722.674	48821.43
723.016	48736.68
723.359	48537.59
723.701	48659.85
724.044	48315.23
724.386	48197.72
724.729	48310.03
725.071	48113.2
725.413	48030.49
725.755	48015.8
726.097	47777.61
726.439	47610.16
726.782	47600.67
727.124	47673.21
727.465	47403.84
727.807	47380.56
728.149	47245.2
728.491	47184.41
728.833	47242.26
729.175	46961.82
729.516	46819.67
729.858	46707.36
730.199	46830.52
730.541	46723.86
730.882	46579.23
731.224	46736.96
731.565	46335.62
731.906	46508.95
732.248	46360.25
732.589	46080.94
732.93	46019.02
733.271	45954.84
733.612	45971.33
733.953	46222.85
734.294	45731.34
734.635	45733.83
734.976	45920.26
735.317	45723.88
735.658	45696.31
735.999	45684.34
736.339	45522.76
736.68	45695.86
737.021	45529.54
737.361	45428.52
737.702	45475.98
738.042	45386.72
738.383	45289.32
738.723	45374.97
739.063	45323.89
739.404	45345.81
739.744	45113.96
740.084	44995.09
740.424	45177.46
740.764	44950.57
741.104	45126.16
741.444	44762.1
741.784	44835.54
742.124	44768.65
742.464	44646.17
742.804	44572.5
743.143	44462.45
743.483	44642.33
743.823	44351.72
744.162	44225.62
744.502	44375.9
744.841	44210.02
745.181	44277.82
745.52	43987.43
745.86	44121.66
746.199	43799.64
746.538	43825.18
746.877	43874.44
747.216	43796.48
747.556	43648.68
747.895	43601.23
748.234	43405.98
748.573	43321.23
748.911	43190.62
749.25	43294.34
749.589	42866.56
749.928	43013.22
750.267	42877.4
750.605	42822.49
750.944	42746.56
751.283	42624.53
751.621	42476.51
751.96	42341.15
