Data from aluminium_surface_pro_back_FLMS001491_00077.txt Node
Date: Wed Feb 08 15:34:32 GMT 2017
User: dcchb
Spectrometer: FLMS00149
Trigger mode: 0
Integration Time (sec): 2.000000E-2
Scans to average: 10
Electric dark correction enabled: true
Nonlinearity correction enabled: false
Boxcar width: 0
XAxis mode: Wavelengths
Number of Pixels in Spectrum: 2048
>>>>>Begin Spectral Data<<<<<
341.393	-10.8
341.776	-10.8
342.16	-10.8
342.543	-60.52
342.927	-56.68
343.31	-47.64
343.693	-86.96
344.077	-73.85
344.46	-74.31
344.843	-44.48
345.226	-27.98
345.61	-34.53
345.993	-17.81
346.376	-14.42
346.759	14.05
347.142	23.77
347.525	54.96
347.908	49.98
348.291	79.59
348.674	89.53
349.057	110.1
349.44	126.82
349.823	133.15
350.206	184.22
350.588	217.89
350.971	245.46
351.354	277.32
351.737	263.09
352.119	290.88
352.502	286.59
352.884	304.22
353.267	304.22
353.65	328.4
354.032	339.92
354.414	325.46
354.797	332.24
355.179	364.55
355.562	350.32
355.944	353.25
356.326	359.58
356.709	346.02
357.091	375.85
357.473	366.13
357.855	369.52
358.238	391.22
358.62	369.75
359.002	363.65
359.384	400.26
359.766	384.67
360.148	387.83
360.53	366.81
360.912	393.03
361.294	376.98
361.676	374.95
362.057	347.83
362.439	370.2
362.821	372.91
363.203	391.67
363.584	383.54
363.966	377.89
364.348	375.4
364.729	371.11
365.111	369.52
365.493	381.95
365.874	368.17
366.256	374.72
366.637	372.46
367.019	364.78
367.4	381.5
367.781	347.15
368.163	377.89
368.544	371.33
368.925	386.02
369.306	365.46
369.688	383.76
370.069	402.74
370.45	390.99
370.831	388.73
371.212	383.99
371.593	396.42
371.974	366.36
372.355	388.28
372.736	390.54
373.117	388.96
373.498	393.93
373.879	393.03
374.26	393.03
374.641	384.44
375.021	409.07
375.402	399.81
375.783	404.55
376.163	434.83
376.544	433.03
376.925	409.75
377.305	425.79
377.686	425.57
378.066	441.84
378.447	438.9
378.827	435.96
379.208	436.64
379.588	431.9
379.968	426.7
380.349	461.73
380.729	461.73
381.109	466.02
381.489	452.91
381.87	458.11
382.25	483.42
382.63	449.75
383.01	466.02
383.39	501.5
383.77	462.86
384.15	483.87
384.53	475.96
384.91	485.23
385.29	501.5
385.67	506.24
386.049	514.15
386.429	503.53
386.809	520.71
387.189	516.64
387.568	535.85
387.948	553.02
388.328	527.71
388.707	543.08
389.087	541.95
389.466	543.3
389.846	554.83
390.225	556.41
390.605	574.26
390.984	550.54
391.363	583.3
391.743	597.99
392.122	604.32
392.501	593.7
392.881	633.02
393.26	618.11
393.639	618.78
394.018	613.81
394.397	630.08
394.776	656.07
395.155	621.04
395.534	652.91
395.913	645.22
396.292	642.51
396.671	680.48
397.05	693.36
397.429	698.56
397.808	679.57
398.186	699.23
398.565	700.59
398.944	713.92
399.323	739.68
399.701	721.61
400.08	735.16
400.458	755.28
400.837	764.32
401.215	778.55
401.594	761.38
401.972	769.51
402.351	785.33
402.729	806.57
403.107	802.06
403.486	816.29
403.864	836.4
404.242	813.58
404.62	826.01
404.999	873.24
405.377	881.6
405.755	893.58
406.133	872.79
406.511	899.45
406.889	914.14
407.267	932
407.645	922.28
408.023	934.48
408.401	940.13
408.779	996.4
409.156	996.85
409.534	1013.8
409.912	988.72
410.29	1025.33
410.667	1060.81
411.045	1085.66
411.422	1045.44
411.8	1070.52
412.178	1076.62
412.555	1106.23
412.933	1122.95
413.31	1136.51
413.687	1152.78
414.065	1163.18
414.442	1182.84
414.819	1214.7
415.197	1207.92
415.574	1232.55
415.951	1257.18
416.328	1235.26
416.705	1267.81
417.082	1270.07
417.46	1294.47
417.837	1300.8
418.214	1295.38
418.591	1324.75
418.967	1309.84
419.344	1362.94
419.721	1380.57
420.098	1322.27
420.475	1397.52
420.852	1397.29
421.228	1416.05
421.605	1423.96
421.982	1439.1
422.358	1430.06
422.735	1454.24
423.111	1495.14
423.488	1515.93
423.864	1516.39
424.241	1534.47
424.617	1543.73
424.994	1550.28
425.37	1556.39
425.746	1571.98
426.123	1619.43
426.499	1629.38
426.875	1641.58
427.251	1676.38
427.627	1696.04
428.003	1714.12
428.379	1759.77
428.756	1783.27
429.132	1788.47
429.507	1804.97
429.883	1818.53
430.259	1885.87
430.635	1863.04
431.011	1893.78
431.387	1944.4
431.763	1948.92
432.138	1992.53
432.514	2027.11
432.89	2012.87
433.265	2055.58
433.641	2094.22
434.016	2122.7
434.392	2130.16
434.767	2198.18
435.143	2190.27
435.518	2233.2
435.894	2243.37
436.269	2247.89
436.644	2302.58
437.02	2329.02
437.395	2316.59
437.77	2360.21
438.145	2430.71
438.52	2408.79
438.895	2461.67
439.271	2511.84
439.646	2513.2
440.021	2526.98
440.395	2566.98
440.77	2519.3
441.145	2561.1
441.52	2648.79
441.895	2617.15
442.27	2634.1
442.645	2649.01
443.019	2693.76
443.394	2667.77
443.769	2725.85
444.143	2731.27
444.518	2770.82
444.892	2738.73
445.267	2784.38
445.641	2820.76
446.016	2818.27
446.39	2854.66
446.764	2876.8
447.139	2897.37
447.513	2931.72
447.887	2970.36
448.262	2933.98
448.636	2943.24
449.01	3036.57
449.384	3029.34
449.758	3042.22
450.132	3104.37
450.506	3089
450.88	3108.44
451.254	3155.44
451.628	3173.52
452.002	3212.61
452.376	3246.06
452.75	3281.76
453.123	3334.42
453.497	3420.29
453.871	3386.39
454.244	3433.17
454.618	3485.83
454.992	3541.19
455.365	3539.84
455.739	3650.34
456.112	3667.74
456.486	3717.46
456.859	3758.36
457.232	3794.07
457.606	3789.77
457.979	3839.04
458.352	3958.81
458.725	4009.43
459.099	4026.83
459.472	4075.87
459.845	4131.46
460.218	4163.32
460.591	4186.82
460.964	4231.57
461.337	4326.48
461.71	4430.89
462.083	4415.97
462.456	4500.04
462.829	4485.8
463.201	4594.05
463.574	4628.17
463.947	4671.11
464.32	4762.4
464.692	4805.34
465.065	4871.33
465.438	4907.71
465.81	5042.62
466.183	5020.7
466.555	5134.6
466.928	5206.69
467.3	5155.84
467.672	5320.13
468.045	5422.72
468.417	5443.52
468.789	5487.58
469.161	5524.64
469.534	5622.04
469.906	5783.39
470.278	5832.21
470.65	5918.08
471.022	5935.48
471.394	6085.76
471.766	6186.32
472.138	6237.17
472.51	6349.03
472.882	6474.45
473.253	6557.61
473.625	6637.38
473.997	6770.03
474.369	6815.46
474.74	6857.26
475.112	6971.61
475.484	7146.97
475.855	7262.9
476.227	7330.92
476.598	7512.84
476.97	7603.23
477.341	7781.76
477.713	7887.29
478.084	7934.07
478.455	8115.76
478.827	8198.24
479.198	8466.03
479.569	8521.4
479.94	8766.14
480.311	8796.87
480.682	8985.79
481.053	9222.62
481.424	9409.51
481.795	9440.7
482.166	9549.17
482.537	9752.33
482.908	9940.8
483.279	10027.8
483.65	10248.59
484.021	10416.72
484.391	10590.05
484.762	10646.77
485.133	10818.29
485.503	10874.11
485.874	11205.85
486.244	11311.84
486.615	11492.62
486.985	11612.84
487.356	11780.52
487.726	11936.23
488.097	12317.23
488.467	12288.98
488.837	12590.67
489.207	12668.64
489.578	12832.02
489.948	12962.19
490.318	13126.7
490.688	13211.67
491.058	13427.71
491.428	13581.61
491.798	13750.19
492.168	14008.26
492.538	14086
492.908	14279.89
493.278	14385.43
493.648	14393.56
494.017	14628.81
494.387	14815.02
494.757	14934.11
495.126	15065.63
495.496	15177.95
495.866	15316.48
496.235	15573.19
496.605	15648.44
496.974	15759.18
497.344	15985.84
497.713	16122.33
498.082	16073.29
498.452	16383.11
498.821	16437.58
499.19	16390.57
499.559	16650.68
499.928	16710.79
500.298	17001.4
500.667	17156.65
501.036	17098.8
501.405	17265.35
501.774	17292.92
502.143	17525.01
502.512	17540.15
502.88	17826.01
503.249	17804.55
503.618	17988.27
503.987	17970.19
504.356	18177.64
504.724	18299.22
505.093	18372.67
505.462	18493.12
505.83	18604.07
506.199	18819.43
506.567	19076.6
506.936	19038.41
507.304	19302.59
507.672	19340.55
508.041	19395.46
508.409	19690.6
508.777	19823.93
509.145	20059.4
509.514	19980.08
509.882	20082.9
510.25	20099.4
510.618	20475.44
510.986	20519.95
511.354	20722.89
511.722	20841.3
512.09	21060.28
512.458	21021.64
512.826	21447.61
513.193	21485.35
513.561	21657.78
513.929	21857.32
514.297	22076.07
514.664	22238.1
515.032	22291.89
515.4	22443.75
515.767	22661.59
516.135	22770.97
516.502	22695.26
516.869	23210.05
517.237	23337.73
517.604	23299.09
517.972	23696.59
518.339	23702.7
518.706	23830.83
519.073	23974.1
519.44	24252.29
519.808	24588.1
520.175	24506.29
520.542	24858.6
520.909	25055.88
521.276	24943.34
521.643	25271.02
522.009	25482.99
522.376	25722.76
522.743	25942.41
523.11	26180.37
523.477	26451.55
523.843	26612.22
524.21	26868.04
524.577	27070.29
524.943	27165.66
525.31	27350.28
525.676	27608.81
526.043	27830.5
526.409	27888.35
526.776	28366.98
527.142	28509.58
527.508	28667.31
527.874	28754.77
528.241	29063.91
528.607	28976.23
528.973	29364.69
529.339	29304.13
529.705	29667.74
530.071	29896.66
530.437	29997.22
530.803	30174.39
531.169	30467.49
531.535	30418.45
531.901	30645.56
532.267	30718.1
532.632	30885.11
532.998	30959.45
533.364	31145.44
533.73	31347.24
534.095	31707.23
534.461	31758.53
534.826	31980.9
535.192	31985.42
535.557	32215.47
535.923	32221.57
536.288	32399.42
536.653	32665.17
537.019	32497.04
537.384	32770.48
537.749	32998.5
538.114	33091.6
538.479	33253.63
538.845	33373.18
539.21	33335.66
539.575	33553.06
539.94	33637.35
540.305	33911.69
540.67	33801.41
541.034	33973.16
541.399	34095.64
541.764	34144.91
542.129	34402.53
542.494	34366.82
542.858	34525.24
543.223	34639.81
543.587	34908.5
543.952	34964.32
544.316	34989.86
544.681	34933.81
545.045	35215.16
545.41	35445.89
545.774	35469.17
546.138	35600.24
546.503	35615.38
546.867	35612.21
547.231	36105.76
547.595	35990.73
547.959	36241.58
548.324	36262.37
548.688	36281.8
549.052	36535.58
549.416	36702.81
549.779	36797.27
550.143	36810.83
550.507	37024.15
550.871	37185.73
551.235	37269.57
551.599	37576.68
551.962	37553.18
552.326	37638.6
552.689	37979.16
553.053	37759.95
553.417	37999.04
553.78	38369.43
554.143	38361.07
554.507	38450.56
554.87	38572.36
555.234	38998.56
555.597	38758.57
555.96	39071.33
556.323	39271.1
556.686	39316.52
557.05	39671.99
557.413	39674.25
557.776	39843.74
558.139	40083.06
558.502	40200.57
558.865	40215.26
559.228	40795.35
559.59	40738.63
559.953	40864.05
560.316	41357.82
560.679	41272.86
561.041	41516.46
561.404	41723.01
561.767	41932.27
562.129	41838.04
562.492	42326.61
562.854	42287.29
563.217	42405.48
563.579	42685.7
563.941	42842.76
564.304	43162.3
564.666	43413.82
565.028	43483.64
565.39	43797.31
565.753	43861.71
566.115	44035.27
566.477	44338.09
566.839	44389.38
567.201	44666.44
567.563	44806.32
567.925	45143.94
568.287	45129.93
568.648	45352.07
569.01	45626.19
569.372	45752.06
569.734	45587.54
570.095	45920.87
570.457	46148.21
570.819	46358.37
571.18	46409.9
571.542	46581.19
571.903	46774.41
572.265	46947.28
572.626	46982.76
572.987	47142.76
573.349	47354.28
573.71	47407.16
574.071	47508.62
574.432	47681.27
574.794	47883.3
575.155	47923.98
575.516	47932.79
575.877	48110.19
576.238	48204.2
576.599	48425.66
576.96	48358.54
577.32	48495.26
577.681	48591.31
578.042	48665.88
578.403	48598.31
578.763	48795.37
579.124	48909.94
579.485	49165.3
579.845	49288.46
580.206	49286.43
580.566	49217.96
580.927	49342.02
581.287	49518.06
581.648	49423.83
582.008	49575.46
582.368	49532.07
582.728	49552.86
583.089	49511.51
583.449	49656.36
583.809	49622.24
584.169	49736.14
584.529	49673.99
584.889	49956.47
585.249	49716.25
585.609	49727.77
585.969	49939.52
586.329	49711.28
586.688	49827.66
587.048	49815.68
587.408	49784.72
587.768	49783.14
588.127	49912.85
588.487	49774.78
588.846	50094.32
589.206	49873.76
589.565	49892.29
589.925	50054.09
590.284	49922.8
590.643	50012.96
591.003	50050.93
591.362	50205.73
591.721	50135.9
592.08	50083.7
592.44	50387.87
592.799	50213.19
593.158	50103.58
593.517	50137.93
593.876	50240.3
594.235	50113.98
594.593	50207.08
594.952	50288.89
595.311	50207.31
595.67	50343.8
596.029	50426.29
596.387	50574.53
596.746	50551.26
597.104	50345.16
597.463	50407.76
597.822	50548.77
598.18	50434.65
598.538	50446.63
598.897	50648.65
599.255	50372.96
599.613	50984.01
599.972	50612.72
600.33	50777.92
600.688	50617.47
601.046	50844.81
601.404	50897.69
601.762	50866.95
602.12	50943.79
602.478	51057.68
602.836	50967.06
603.194	50871.7
603.552	50910.12
603.91	50813.62
604.268	51006.38
604.625	50861.98
604.983	51062.43
605.341	50900.4
605.698	51117.57
606.056	51068.98
606.413	51069.43
606.771	51228.98
607.128	51258.58
607.485	51057.23
607.843	51127.96
608.2	51270.56
608.557	51485.69
608.914	51252.25
609.272	51435.07
609.629	51494.73
609.986	51622.64
610.343	51392.14
610.7	51667.16
611.057	51610.66
611.414	51543.32
611.771	51454.28
612.127	51621.74
612.484	51649.53
612.841	51749.42
613.198	51669.42
613.554	51691.56
613.911	51849.3
614.267	51765.46
614.624	51796.42
614.98	51818.57
615.337	52006.81
615.693	51828.06
616.05	51803.65
616.406	52032.57
616.762	52005.45
617.118	52009.52
617.475	51865.8
617.831	52012.01
618.187	52091.33
618.543	52052.69
618.899	52227.14
619.255	52174.26
619.611	52168.61
619.967	52340.14
620.323	52423.07
620.678	52303.75
621.034	52255.17
621.39	52199.8
621.746	52222.85
622.101	52560.69
622.457	52296.52
622.812	52395.95
623.168	52387.82
623.523	52413.58
623.879	52534.71
624.234	52230.53
624.589	52377.2
624.945	52413.81
625.3	52373.81
625.655	52439.57
626.01	52296.07
626.365	52386.24
626.72	52411.77
627.075	52265.11
627.43	52365.9
627.785	52243.19
628.14	52354.15
628.495	52359.34
628.85	52310.98
629.205	52346.69
629.559	52422.62
629.914	52214.26
630.269	52240.48
630.623	52168.61
630.978	52137.65
631.332	52343.98
631.687	52333.58
632.041	52111.67
632.396	52266.92
632.75	52082.97
633.104	52139.69
633.459	51963.42
633.813	52060.82
634.167	52017.88
634.521	51950.09
634.875	51962.74
635.229	51962.07
635.583	51745.12
635.937	51784.44
636.291	51648.63
636.645	51612.24
636.999	51621.96
637.352	51682.75
637.706	51484.34
638.06	51654.73
638.413	51573.38
638.767	51412.25
639.121	51481.63
639.474	51343.78
639.828	51338.13
640.181	51363.89
640.534	51325.47
640.888	51184.69
641.241	51087.29
641.594	51163.89
641.947	51174.06
642.301	50995.09
642.654	51084.35
643.007	51081.41
643.36	50991.02
643.713	51012.71
644.066	51078.7
644.419	50819.95
644.771	50684.59
645.124	50229.46
645.477	50295.22
645.83	49936.13
646.182	49842.35
646.535	49897.71
646.888	49888.9
647.24	49710.83
647.593	49760.54
647.945	49723.71
648.298	49466.54
648.65	49396.03
649.002	49275.58
649.355	49372.53
649.707	49367.56
650.059	49467.67
650.411	49967.09
650.763	50091.83
651.115	50233.3
651.467	50100.65
651.819	50050.25
652.171	49922.12
652.523	49932.74
652.875	50024.94
653.227	49885.74
653.578	50008.67
653.93	49983.59
654.282	49762.12
654.633	49629.25
654.985	49800.77
655.337	49778.85
655.688	49720.54
656.039	49850.26
656.391	49575.46
656.742	49538.4
657.094	49605.52
657.445	49635.8
657.796	49574.78
658.147	49555.58
658.498	49326.88
658.849	49481.23
659.2	49309.71
659.551	49217.73
659.902	49335.02
660.253	49198.52
660.604	49329.37
660.955	49208.92
661.306	49194.68
661.656	49080.11
662.007	49205.3
662.358	49178.64
662.708	49229.71
663.059	49145.42
663.409	48868.36
663.76	49243.27
664.11	49060.45
664.461	49138.64
664.811	49066.55
665.161	49202.14
665.511	49107.23
665.862	48995.59
666.212	49026.32
666.562	49127.34
666.912	48898.64
667.262	48940.45
667.612	48926.89
667.962	48878.76
668.312	48793.79
668.662	48996.27
669.011	48843.73
669.361	48824.3
669.711	48808.7
670.06	48696.39
670.41	48683.06
670.76	48656.62
671.109	48706.78
671.459	48724.64
671.808	48602.61
672.157	48728.25
672.507	48384.31
672.856	48369.62
673.205	48532.78
673.554	48496.39
673.904	48406.45
674.253	48605.09
674.602	48347.02
674.951	47892.57
675.3	47745
675.649	48264.08
675.998	48274.25
676.346	48366.91
676.695	48333.01
677.044	47914.49
677.393	48046.24
677.741	48073.81
678.09	47944.77
678.438	47855.73
678.787	47855.06
679.135	47943.19
679.484	47645.12
679.832	47861.61
680.181	47601.05
680.529	47753.59
680.877	47635.63
681.225	47437.44
681.573	47601.73
681.922	47450.09
682.27	47319.7
682.618	47336.65
682.966	47259.82
683.314	47326.03
683.661	47177.33
684.009	46926.72
684.357	46935.53
684.705	46852.14
685.053	46816.66
685.4	46754.75
685.748	46479.72
686.095	46581.19
686.443	46333.74
686.79	46372.38
687.138	46384.81
687.485	46441.08
687.832	46227.08
688.18	46264.59
688.527	46039.96
688.874	46034.99
689.221	45808.1
689.568	45881.55
689.915	45835.45
690.262	45730.14
690.609	45482.69
690.956	45479.52
691.303	45380.77
691.65	45240.43
691.997	45130.16
692.344	44843.84
692.69	44748.02
693.037	44796.6
693.383	44505.54
693.73	44737.4
694.077	44431.64
694.423	44429.83
694.769	44169.95
695.116	44115.27
695.462	43996.85
695.808	43985.78
696.155	44034.82
696.501	43648.61
696.847	43727.71
697.193	43403.42
697.539	43581.04
697.885	43211.79
698.231	43238
698.577	43205.46
698.923	43058.35
699.269	42875.3
699.614	42704.91
699.96	42851.35
700.306	42720.5
700.651	42470.79
700.997	42237.8
701.342	42301.53
701.688	42125.26
702.033	42018.15
702.379	41959.39
702.724	41814.99
703.069	41918.04
703.415	41371.84
703.76	41367.54
704.105	41413.87
704.45	41280.76
704.795	41161.45
705.14	40968.23
705.485	41004.84
705.83	40705.41
706.175	40851.85
706.52	40553.78
706.865	40635.58
707.209	40429.94
707.554	40283.28
707.899	40460.67
708.243	40166.67
708.588	40081.02
708.932	39807.81
709.277	39649.4
709.621	39744.08
709.966	39517.65
710.31	39660.69
710.654	39334.38
710.998	39345
711.342	39413.24
711.687	39080.37
712.031	39121.05
712.375	38759.25
712.719	38933.71
713.063	38769.42
713.407	39039.92
713.75	38796.54
714.094	38719.48
714.438	38515.41
714.782	38667.27
715.125	38328.3
715.469	38562.64
715.812	38203.11
716.156	38038.14
716.499	38006.95
716.843	38100.96
717.186	37865.04
717.53	37941.19
717.873	38002.66
718.216	37896.22
718.559	37693.51
718.902	37512.05
719.246	37580.52
719.589	37300.08
719.932	37245.16
720.275	37140.53
720.617	37147.09
720.96	37218.5
721.303	37003.59
721.646	36971.05
721.989	36834.55
722.331	37062.12
722.674	36899.19
723.016	36776.7
723.359	36682.47
723.701	36698.29
724.044	36458.52
724.386	36580.32
724.729	36550.95
725.071	36514.56
725.413	36395.24
725.755	36441.57
726.097	36211.97
726.439	36157.06
726.782	36211.29
727.124	36214.91
727.465	36000.23
727.807	36023.73
728.149	35845.2
728.491	35925.88
728.833	35866.67
729.175	35683.4
729.516	35691.08
729.858	35591.65
730.199	35606.34
730.541	35587.36
730.882	35261.49
731.224	35446.57
731.565	35242.96
731.906	35232.11
732.248	35188.72
732.589	35030.99
732.93	34841.84
733.271	34967.71
733.612	34942.63
733.953	34904.44
734.294	34645.23
734.635	34526.82
734.976	34654.5
735.317	34471.45
735.658	34474.16
735.999	34389.87
736.339	34340.61
736.68	34421.28
737.021	34179.71
737.361	34172.03
737.702	34253.38
738.042	34089.32
738.383	34008.87
738.723	34057.68
739.063	33902.43
739.404	33921.86
739.744	33949.21
740.084	33761.87
740.424	33808.19
740.764	33679.16
741.104	33759.38
741.444	33620.18
741.784	33305.61
742.124	33470.35
742.464	33388.99
742.804	33334.08
743.143	33223.35
743.483	33236
743.823	33093.64
744.162	32967.31
744.502	33037.37
744.841	32856.58
745.181	33005.5
745.52	32895.45
745.86	32979.97
746.199	32853.87
746.538	32849.12
746.877	32774.55
747.216	32632.86
747.556	32517.15
747.895	32469.02
748.234	32336.59
748.573	32284.17
748.911	32124.85
749.25	32213.21
749.589	31941.58
749.928	32091.63
750.267	32088.24
750.605	31984.96
750.944	31930.73
751.283	31780
751.621	31733.67
751.96	31505.43
752.298	31552.89
752.636	31494.58
