Data from aluminium_surface_pro_back_FLMS001491_00031.txt Node
Date: Wed Feb 08 15:33:58 GMT 2017
User: dcchb
Spectrometer: FLMS00149
Trigger mode: 0
Integration Time (sec): 2.000000E-2
Scans to average: 10
Electric dark correction enabled: true
Nonlinearity correction enabled: false
Boxcar width: 0
XAxis mode: Wavelengths
Number of Pixels in Spectrum: 2048
>>>>>Begin Spectral Data<<<<<
341.393	-28.04
341.776	-28.04
342.16	-28.04
342.543	-36.85
342.927	-51.54
343.31	-86.79
343.693	-67.81
344.077	-73.91
344.46	-64.19
344.843	-34.59
345.226	-45.21
345.61	-42.95
345.993	-19.22
346.376	12.87
346.759	2.92
347.142	35.01
347.525	37.05
347.908	52.87
348.291	83.37
348.674	90.38
349.057	120.21
349.44	136.25
349.823	151.62
350.206	165.41
350.588	207.89
350.971	232.97
351.354	257.83
351.737	248.57
352.119	275.46
352.502	284.5
352.884	303.71
353.267	310.26
353.65	323.82
354.032	351.62
354.414	323.14
354.797	334.67
355.179	347.32
355.562	345.74
355.944	339.19
356.326	347.32
356.709	380.99
357.091	373.31
357.473	369.24
357.855	369.24
358.238	362.69
358.62	375.12
359.002	386.19
359.384	372.86
359.766	384.83
360.148	376.02
360.53	400.88
360.912	360.2
361.294	371.05
361.676	388.22
362.057	362.46
362.439	376.47
362.821	361.33
363.203	368.34
363.584	384.38
363.966	356.13
364.348	361.11
364.729	353.87
365.111	369.69
365.493	343.25
365.874	359.07
366.256	362.46
366.637	360.43
367.019	383.7
367.4	368.56
367.781	365.85
368.163	377.15
368.544	364.04
368.925	343.93
369.306	380.31
369.688	385.51
370.069	376.93
370.45	367.43
370.831	381.44
371.212	371.28
371.593	368.34
371.974	377.15
372.355	376.7
372.736	382.8
373.117	389.35
373.498	383.7
373.879	381.67
374.26	375.8
374.641	380.09
375.021	384.16
375.402	387.55
375.783	396.59
376.163	402.69
376.544	399.75
376.925	416.7
377.305	400.2
377.686	419.41
378.066	433.19
378.447	425.74
378.827	422.8
379.208	420.31
379.588	416.92
379.968	442.01
380.349	423.25
380.729	415.79
381.109	445.62
381.489	451.05
381.87	429.13
382.25	459.41
382.63	444.27
383.01	461.89
383.39	467.09
383.77	459.63
384.15	462.57
384.53	463.7
384.91	479.52
385.29	478.84
385.67	500.54
386.049	491.05
386.429	500.99
386.809	495.57
387.189	495.57
387.568	476.13
387.948	501.89
388.328	543.02
388.707	502.35
389.087	547.54
389.466	534.66
389.846	522.68
390.225	536.69
390.605	520.88
390.984	544.6
391.363	544.38
391.743	565.85
392.122	566.75
392.501	566.07
392.881	578.73
393.26	573.08
393.639	578.05
394.018	607.65
394.397	623.02
394.776	616.47
395.155	620.99
395.534	604.26
395.913	629.57
396.292	623.25
396.671	647.65
397.05	648.56
397.429	654.88
397.808	633.87
398.186	679.74
398.565	679.29
398.944	663.7
399.323	671.38
399.701	717.26
400.08	677.71
400.458	699.63
400.837	706.86
401.215	718.39
401.594	724.03
401.972	730.59
402.351	731.72
402.729	762.23
403.107	766.97
403.486	768.55
403.864	774.88
404.242	779.17
404.62	788.21
404.999	804.03
405.377	825.27
405.755	833.86
406.133	831.83
406.511	840.64
406.889	856.46
407.267	884.93
407.645	873.41
408.023	892.17
408.401	903.46
408.779	911.37
409.156	930.13
409.534	959.96
409.912	924.71
410.29	975.1
410.667	982.33
411.045	975.1
411.422	986.85
411.8	987.76
412.178	1014.2
412.555	1028.66
412.933	1048.77
413.31	1066.4
413.687	1081.99
414.065	1079.28
414.442	1102.1
414.819	1104.59
415.197	1109.56
415.574	1150.01
415.951	1147.75
416.328	1163.35
416.705	1184.59
417.082	1174.64
417.46	1194.98
417.837	1203.57
418.214	1233.63
418.591	1229.56
418.967	1267.07
419.344	1269.33
419.721	1252.38
420.098	1297.58
420.475	1286.05
420.852	1308.65
421.228	1338.71
421.605	1341.19
421.982	1330.12
422.358	1352.49
422.735	1381.64
423.111	1392.94
423.488	1401.98
423.864	1411.47
424.241	1416.22
424.617	1482.88
424.994	1464.58
425.37	1475.88
425.746	1504.58
426.123	1509.55
426.499	1478.14
426.875	1521.53
427.251	1576.67
427.627	1606.27
428.003	1639.94
428.379	1615.99
428.756	1637.91
429.132	1648.98
429.507	1703.44
429.883	1710.68
430.259	1752.03
430.635	1742.09
431.011	1745.25
431.387	1837.68
431.763	1851.01
432.138	1850.78
432.514	1884.91
432.89	1878.35
433.265	1934.17
433.641	1967.39
434.016	1978.24
434.392	2011.01
434.767	2013.49
435.143	2047.62
435.518	2054.4
435.894	2071.57
436.269	2134.62
436.644	2164
437.02	2177.1
437.395	2154.51
437.77	2205.35
438.145	2224.11
438.52	2258.91
438.895	2285.35
439.271	2292.13
439.646	2344.56
440.021	2389.08
440.395	2392.47
440.77	2386.14
441.145	2411.45
441.52	2447.61
441.895	2438.11
442.27	2441.96
442.645	2453.71
443.019	2506.13
443.394	2532.57
443.769	2549.07
444.143	2505
444.518	2552.46
444.892	2558.79
445.267	2636.07
445.641	2598.34
446.016	2647.83
446.39	2666.58
446.764	2701.38
447.139	2697.77
447.513	2725.56
447.887	2771.21
448.262	2748.61
448.636	2760.59
449.01	2806.69
449.384	2848.5
449.758	2822.96
450.132	2903.41
450.506	2893.24
450.88	2934.37
451.254	2948.83
451.628	2985.9
452.002	3024.09
452.376	3049.62
452.75	3126.68
453.123	3116.97
453.497	3147.02
453.871	3209.62
454.244	3254.14
454.618	3244.87
454.992	3299.33
455.365	3327.58
455.739	3391.31
456.112	3428.82
456.486	3440.57
456.859	3483.51
457.232	3539.55
457.606	3542.04
457.979	3624.75
458.352	3674.47
458.725	3695.71
459.099	3770.96
459.472	3830.17
459.845	3887.34
460.218	3918.75
460.591	3911.3
460.964	3977.51
461.337	4087.34
461.71	4104.51
462.083	4181.34
462.456	4217.95
462.829	4200.78
463.201	4294.79
463.574	4351.28
463.947	4405.29
464.32	4510.83
464.692	4479.42
465.065	4548.57
465.438	4654.78
465.81	4673.08
466.183	4707.88
466.555	4827.2
466.928	4894.32
467.3	4888.22
467.672	4982.23
468.045	5132.05
468.417	5104.48
468.789	5133.64
469.161	5217.7
469.534	5318.26
469.906	5418.37
470.278	5463.35
470.65	5481.88
471.022	5584.47
471.394	5655.88
471.766	5745.82
472.138	5834.63
472.51	5939.26
472.882	6032.6
473.253	6112.37
473.625	6231.91
473.997	6296.09
474.369	6381.06
474.74	6466.48
475.112	6562.75
475.484	6729.3
475.855	6807.49
476.227	6911.44
476.598	7084.77
476.97	7069.63
477.341	7226.69
477.713	7390.98
478.084	7462.39
478.455	7676.39
478.827	7682.95
479.198	7954.8
479.569	7885.88
479.94	8174.69
480.311	8217.4
480.682	8381.23
481.053	8573.09
481.424	8722.24
481.795	8857.83
482.166	8995.91
482.537	9162.46
482.908	9314.09
483.279	9354.77
483.65	9563.8
484.021	9740.97
484.391	9865.26
484.762	9998.59
485.133	10087.86
485.503	10272.48
485.874	10476.77
486.244	10580.05
486.615	10757.22
486.985	10952.01
487.356	11109.98
487.726	11168.28
488.097	11483.07
488.467	11456.86
488.837	11672.45
489.207	11783.4
489.578	11970.29
489.948	12074.47
490.318	12327.57
490.688	12320.11
491.058	12607.79
491.428	12761.68
491.798	12935.69
492.168	13117.16
492.538	13142.92
492.908	13332.52
493.278	13470.59
493.648	13542.68
494.017	13719.85
494.387	13917.81
494.757	13951.94
495.126	14111.93
495.496	14185.15
495.866	14267.41
496.235	14457.91
496.605	14614.52
496.974	14795.3
497.344	14944.45
497.713	14963.66
498.082	15046.14
498.452	15230.77
498.821	15272.35
499.19	15371.33
499.559	15578.11
499.928	15646.58
500.298	15774.03
500.667	15934.26
501.036	15940.36
501.405	16124.31
501.774	16152.1
502.143	16370.63
502.512	16374.47
502.88	16571.98
503.249	16638.87
503.618	16801.58
503.987	16849.71
504.356	17058.29
504.724	17101.46
505.093	17112.76
505.462	17298.29
505.83	17449.24
506.199	17548.45
506.567	17846.07
506.936	17836.81
507.304	18180.98
507.672	18185.04
508.041	18299.62
508.409	18370.12
508.777	18609.67
509.145	18766.05
509.514	18767.4
509.882	18906.16
510.25	18978.47
510.618	19182.98
510.986	19150.22
511.354	19397.22
511.722	19587.27
512.09	19676.98
512.458	19750.88
512.826	19905.68
513.193	20085.33
513.561	20133.24
513.929	20337.3
514.297	20519.67
514.664	20664.3
515.032	20744.98
515.4	20928.93
515.767	21015.03
516.135	21086.89
516.502	21121.46
516.869	21582.47
517.237	21702.47
517.604	21697.04
517.972	22051.38
518.339	22167.09
518.706	22268.55
519.073	22382.67
519.44	22599.84
519.808	22894.98
520.175	22860.63
520.542	23139.49
520.909	23440.95
521.276	23393.04
521.643	23679.82
522.009	23872.35
522.376	24066.7
522.743	24139.46
523.11	24444.54
523.477	24701.03
523.843	24663.29
524.21	25095.15
524.577	25386.89
524.943	25351.86
525.31	25526.09
525.676	25776.26
526.043	26031.62
526.409	26002.01
526.776	26384.15
527.142	26493.3
527.508	26667.99
527.874	26823.24
528.241	27126.28
528.607	27131.02
528.973	27403.11
529.339	27430.68
529.705	27778.46
530.071	27907.73
530.437	28170.77
530.803	28350.43
531.169	28399.24
531.535	28420.71
531.901	28686.24
532.267	28746.12
532.632	28996.51
532.998	29116.28
533.364	29350.4
533.73	29374.81
534.095	29690.96
534.461	29688.24
534.826	29968.01
535.192	30036.03
535.557	30248.91
535.923	30392.63
536.288	30431.05
536.653	30669.24
537.019	30560.54
537.384	30834.2
537.749	30924.14
538.114	30949
538.479	31193.97
538.845	31360.74
539.21	31318.26
539.575	31439.61
539.94	31613.17
540.305	31689.77
540.67	31643
541.034	31860.62
541.399	31981.07
541.764	32061.52
542.129	32289.98
542.494	32356.88
542.858	32434.16
543.223	32492.46
543.587	32793.93
543.952	32859.91
544.316	32894.04
544.681	32926.58
545.045	33224.2
545.41	33380.8
545.774	33351.88
546.138	33522.95
546.503	33612.21
546.867	33548.03
547.231	33917.74
547.595	34053.1
547.959	34116.83
548.324	34107.56
548.688	34254.45
549.052	34449.02
549.416	34511.39
549.779	34380.55
550.143	34667.1
550.507	34905.96
550.871	35010.82
551.235	34888.56
551.599	35234.77
551.962	35330.58
552.326	35509.79
552.689	35697.35
553.053	35547.53
553.417	35643.34
553.78	36172.14
554.143	36132.37
554.507	36250.78
554.87	36291.46
555.234	36735.07
555.597	36636.99
555.96	36818.68
556.323	37046.7
556.686	37070.42
557.05	37353.13
557.413	37467.25
557.776	37712.89
558.139	37905.66
558.502	37864.75
558.865	38081.02
559.228	38392.65
559.59	38515.36
559.953	38501.35
560.316	38873.31
560.679	38920.32
561.041	39250.93
561.404	39455.45
561.767	39634.42
562.129	39476.91
562.492	39950.57
562.854	39876.9
563.217	39816.57
563.579	40292.03
563.941	40517.56
564.304	40600.27
564.666	40934.95
565.028	41041.84
565.39	41094.72
565.753	41541.72
566.115	41473.47
566.477	41736.97
566.839	41842.73
567.201	42197.52
567.563	42213.34
567.925	42522.71
568.287	42527.91
568.648	42762.7
569.01	42976.71
569.372	43245.4
569.734	43240.88
570.095	43612.85
570.457	43898.72
570.819	43961.99
571.18	44161.76
571.542	44349.33
571.903	44539.15
572.265	44674.07
572.626	44718.58
572.987	44854.4
573.349	45094.85
573.71	45269.08
574.071	45293.26
574.432	45478.11
574.794	45812.11
575.155	45790.42
575.516	45706.35
575.877	45978.66
576.238	46071.54
576.599	46239.9
576.96	46121.03
577.32	46209.17
577.681	46442.61
578.042	46422.95
578.403	46438.31
578.763	46582.04
579.124	46688.7
579.485	46829.49
579.845	47018.86
580.206	46878.98
580.566	46979.09
580.927	47107.67
581.287	47193.32
581.648	47093.89
582.008	47302.7
582.368	47291.85
582.728	47372.98
583.089	47356.93
583.449	47368.23
583.809	47565.06
584.169	47562.58
584.529	47509.02
584.889	47749.69
585.249	47507.21
585.609	47472.86
585.969	47829.24
586.329	47544.5
586.688	47654.55
587.048	47679.18
587.408	47516.25
587.768	47656.36
588.127	47617.72
588.487	47621.78
588.846	47852.06
589.206	47582.24
589.565	47619.07
589.925	47793.31
590.284	47704.04
590.643	47614.33
591.003	47930.48
591.362	47873.98
591.721	47797.15
592.08	47945.39
592.44	47928.9
592.799	47884.6
593.158	47843.93
593.517	47940.87
593.876	48060.19
594.235	47958.72
594.593	47988.78
594.952	48167.76
595.311	47983.58
595.67	48116.23
596.029	48179.96
596.387	48283.24
596.746	48299.28
597.104	48117.36
597.463	48111.26
597.822	48305.61
598.18	48185.61
598.538	48158.49
598.897	48454.53
599.255	48079.17
599.613	48519.16
599.972	48228.77
600.33	48352.39
600.688	48179.28
601.046	48321.65
601.404	48553.06
601.762	48495.66
602.12	48637.8
602.478	48707.41
602.836	48719.61
603.194	48491.82
603.552	48678.48
603.91	48549.67
604.268	48764.35
604.625	48674.86
604.983	48698.59
605.341	48612.72
605.698	48786.5
606.056	48855.2
606.413	48708.99
606.771	49025.82
607.128	48921.41
607.485	48689.33
607.843	48860.85
608.2	48974.74
608.557	49090.22
608.914	48937.23
609.272	49271.91
609.629	49237.56
609.986	49382.87
610.343	49071.92
610.7	49345.36
611.057	49371.34
611.414	49255.19
611.771	49390.78
612.127	49474.84
612.484	49363.21
612.841	49638.23
613.198	49386.03
613.554	49501.06
613.911	49787.83
614.267	49732.46
614.624	49693.37
614.98	49858.34
615.337	50087.93
615.693	49888.39
616.05	49927.26
616.406	50241.38
616.762	50011.33
617.118	49975.39
617.475	49946.24
617.831	50146.46
618.187	50176.52
618.543	50181.94
618.899	50309.85
619.255	50284.09
619.611	50138.1
619.967	50371.54
620.323	50468.26
620.678	50252
621.034	50223.07
621.39	50304.65
621.746	50257.65
622.101	50663.74
622.457	50225.33
622.812	50268.95
623.168	50426
623.523	50416.06
623.879	50482.5
624.234	50340.13
624.589	50404.08
624.945	50300.81
625.3	50388.72
625.655	50384.65
626.01	50274.82
626.365	50440.47
626.72	50264.65
627.075	50262.62
627.43	50243.18
627.785	50247.03
628.14	50242.05
628.495	50348.49
628.85	50399.79
629.205	50360.24
629.559	50386.68
629.914	50219.23
630.269	50253.81
630.623	50199.8
630.978	50235.5
631.332	50186.24
631.687	50280.92
632.041	50024.43
632.396	50175.16
632.75	49948.96
633.104	50011.1
633.459	49842.29
633.813	49861.95
634.167	49718.68
634.521	49794.61
634.875	49897.43
635.229	49796.42
635.583	49621.28
635.937	49609.75
636.291	49565.69
636.645	49595.52
636.999	49643.2
637.352	49542.86
637.706	49368.41
638.06	49503.54
638.413	49388.74
638.767	49269.65
639.121	49160.5
639.474	49125.7
639.828	49068.98
640.181	49098.13
640.534	48965.7
640.888	48911.47
641.241	48694.98
641.594	48761.42
641.947	48811.81
642.301	48653.85
642.654	48617.69
643.007	48652.27
643.36	48398.49
643.713	48506.96
644.066	48470.8
644.419	48322.78
644.771	48108.1
645.124	47697.49
645.477	47599.86
645.83	47418.85
646.182	47277.84
646.535	47123.04
646.888	47116.49
647.24	46988.13
647.593	47192.42
647.945	47039.65
648.298	46878.3
648.65	46714.01
649.002	46759.89
649.355	46910.39
649.707	46721.7
650.059	46803.73
650.411	47296.37
650.763	47371.85
651.115	47690.94
651.467	47382.24
651.819	47570.03
652.171	47366.2
652.523	47307.89
652.875	47309.93
653.227	47202.59
653.578	47510.6
653.93	47408.23
654.282	47107.45
654.633	46972.76
654.985	47142.25
655.337	47121.68
655.688	47140.89
656.039	47251.17
656.391	46863.16
656.742	46904.97
657.094	46906.32
657.445	47034.23
657.796	46800.56
658.147	46794.69
658.498	46861.35
658.849	46791.98
659.2	46729.6
659.551	46772.32
659.902	46887.57
660.253	46591.53
660.604	46757.85
660.955	46500.91
661.306	46788.13
661.656	46547.24
662.007	46587.01
662.358	46483.28
662.708	46629.95
663.059	46550.4
663.409	46234.7
663.76	46530.74
664.11	46511.31
664.461	46514.47
664.811	46469.27
665.161	46482.61
665.511	46401.48
665.862	46465.66
666.212	46486.22
666.562	46603.96
666.912	46476.05
667.262	46360.35
667.612	46306.34
667.962	46310.41
668.312	46301.14
668.662	46357.41
669.011	46247.36
669.361	46063.86
669.711	46084.42
670.06	46006.69
670.41	46015.95
670.76	46123.07
671.109	46152.9
671.459	46061.83
671.808	45968.27
672.157	46062.96
672.507	45604.66
672.856	45858.44
673.205	45954.03
673.554	46039
673.904	45846.46
674.253	46066.12
674.602	45954.94
674.951	45323.77
675.3	45152.02
675.649	45744.55
675.998	45805.34
676.346	45571.67
676.695	45822.74
677.044	45491.67
677.393	45543.2
677.741	45518.11
678.09	45389.98
678.438	45423.65
678.787	45403.76
679.135	45428.62
679.484	45122.64
679.832	45253.49
680.181	45042.19
680.529	45258
680.877	45022.98
681.225	45036.09
681.573	45123.55
681.922	44870.22
682.27	44873.83
682.618	44931.01
682.966	44761.07
683.314	44757
683.661	44524.24
684.009	44472.71
684.357	44186.39
684.705	44236.56
685.053	44349.1
685.4	44110.46
685.748	43907.53
686.095	43891.04
686.443	43727.65
686.79	43598.61
687.138	43769.23
687.485	43672.74
687.832	43438.39
688.18	43552.96
688.527	43224.61
688.874	43199.53
689.221	43153.43
689.568	43106.65
689.915	43010.83
690.262	43001.79
690.609	42827.56
690.956	42721.35
691.303	42759.54
691.65	42559.32
691.997	42638.19
692.344	42240.01
692.69	42293.79
693.037	42327.01
693.383	41933.8
693.73	42219.21
694.077	41939.22
694.423	41974.7
694.769	41746.46
695.116	41768.61
695.462	41662.85
695.808	41544.88
696.155	41522.28
696.501	41208.62
696.847	41239.13
697.193	40851.34
697.539	41101.96
697.885	40777.44
698.231	40649.09
698.577	40595.3
698.923	40465.36
699.269	40379.72
699.614	40126.39
699.96	40109.89
700.306	40154.18
700.651	39878.49
700.997	39715.33
701.342	39604.82
701.688	39629.68
702.033	39556.23
702.379	39341.78
702.724	39175.68
703.069	39271.72
703.415	38839.19
703.76	39040.77
704.105	38840.55
704.45	38855.24
704.795	38556.49
705.14	38361.01
705.485	38386.1
705.83	38176.84
706.175	38296.83
706.52	38162.37
706.865	37997.18
707.209	37888.48
707.554	37953.56
707.899	37866.56
708.243	37754.25
708.588	37605.78
708.932	37487.59
709.277	37316.29
709.621	37405.56
709.966	37147.94
710.31	37289.17
710.654	37022.52
710.998	37099.12
711.342	37105.22
711.687	37058.9
712.031	36788.85
712.375	36662.3
712.719	36622.3
713.063	36572.13
713.407	36659.36
713.75	36534.62
714.094	36464.56
714.438	36302.08
714.782	36281.74
715.125	36105.7
715.469	36076.33
715.812	35897.8
716.156	35759.27
716.499	35879.49
716.843	35741.87
717.186	35586.85
717.53	35784.58
717.873	35705.71
718.216	35504.82
718.559	35450.35
718.902	35100.08
719.246	35256.23
719.589	35273.86
719.932	34976.24
720.275	34998.39
720.617	34839.52
720.96	34806.53
721.303	34980.76
721.646	34920.65
721.989	34689.47
722.331	34837.71
722.674	34489.93
723.016	34647.44
723.359	34444.05
723.701	34483.37
724.044	34309.37
724.386	34172.65
724.729	34384.84
725.071	34056.49
725.413	33976.04
725.755	34018.3
726.097	33771.98
726.439	33557.97
726.782	33769.95
727.124	33896.27
727.465	33620.8
727.807	33458.77
728.149	33564.3
728.491	33418.09
728.833	33382.61
729.175	33054.71
729.516	33127.7
729.858	33234.59
730.199	33236.17
730.541	33045.44
730.882	32946.92
731.224	33094.03
731.565	33005.22
731.906	32838.22
732.248	32956.41
732.589	32704.89
732.93	32663.08
733.271	32592.12
733.612	32628.05
733.953	32485.01
734.294	32568.85
734.635	32331.79
734.976	32392.81
735.317	32186.94
735.658	32210.89
735.999	32194.17
736.339	32153.49
736.68	32205.47
737.021	32073.49
737.361	31815.42
737.702	32036.88
738.042	31861.3
738.383	31778.36
738.723	31720.06
739.063	31760.05
739.404	31862.88
739.744	31744.01
740.084	31499.95
740.424	31562.32
740.764	31393.51
741.104	31614.52
741.444	31297.24
741.784	31328.65
742.124	31425.37
742.464	31283.68
742.804	31146.74
743.143	31109.45
743.483	31254.53
743.823	30955.1
744.162	30888.67
744.502	31005.72
744.841	30849.34
745.181	30938.38
745.52	30803.47
745.86	30811.38
746.199	30765.73
746.538	30753.98
746.877	30687.99
747.216	30769.35
747.556	30572.52
747.895	30554.21
748.234	30361.45
748.573	30218.17
748.911	30287.33
749.25	30192.41
749.589	30050.95
749.928	30088.23
750.267	30112.87
750.605	30028.57
750.944	29861.12
751.283	29765.08
751.621	29933.44
751.96	29647.34
752.298	29497.06
752.636	29518.31
752.975	29412.77
