Data from aluminium_macbook_case_FLMS001491_067.txt Node
Date: Tue Feb 07 10:44:02 GMT 2017
User: dcchb
Spectrometer: FLMS00149
Trigger mode: 0
Integration Time (sec): 2.000000E-2
Scans to average: 10
Electric dark correction enabled: true
Nonlinearity correction enabled: false
Boxcar width: 0
XAxis mode: Wavelengths
Number of Pixels in Spectrum: 2048
>>>>>Begin Spectral Data<<<<<
341.393	-15.49
341.776	-15.49
342.16	-15.49
342.543	-74.02
342.927	-79.9
343.31	-65.66
343.693	-79.45
344.077	-70.18
344.46	-55.49
344.843	-45.55
345.226	-49.39
345.61	-32.89
345.993	-13.23
346.376	-6
346.759	12.75
347.142	20.89
347.525	44.17
347.908	58.4
348.291	85.29
348.674	78.51
349.057	117.84
349.44	108.34
349.823	141.34
350.206	176.14
350.588	248.68
350.971	254.56
351.354	275.12
351.737	281.9
352.119	325.29
352.502	320.99
352.884	315.57
353.267	306.76
353.65	350.6
354.032	335.68
354.414	357.6
354.797	378.62
355.179	362.8
355.562	373.87
355.944	398.96
356.326	372.74
356.709	397.83
357.091	390.37
357.473	401.9
357.855	405.74
358.238	395.34
358.62	403.93
359.002	406.87
359.384	388.34
359.766	400.31
360.148	426.3
360.53	397.83
360.912	410.03
361.294	436.7
361.676	404.38
362.057	405.96
362.439	413.2
362.821	402.8
363.203	411.16
363.584	421.56
363.966	407.09
364.348	408
364.729	415.68
365.111	403.03
365.493	414.33
365.874	419.07
366.256	411.39
366.637	396.7
367.019	427.66
367.4	409.13
367.781	424.49
368.163	429.24
368.544	422.01
368.925	422.91
369.306	423.59
369.688	427.43
370.069	445.74
370.45	431.05
370.831	454.1
371.212	444.38
371.593	459.3
371.974	454.78
372.355	445.74
372.736	443.25
373.117	463.14
373.498	460.88
373.879	451.39
374.26	459.75
374.641	433.53
375.021	459.07
375.402	474.44
375.783	487.54
376.163	516.24
376.544	523.47
376.925	523.02
377.305	505.4
377.686	496.36
378.066	497.49
378.447	520.31
378.827	524.38
379.208	519.63
379.588	513.76
379.968	530.25
380.349	517.15
380.729	527.77
381.109	544.27
381.489	537.03
381.87	548.33
382.25	553.08
382.63	590.82
383.01	565.51
383.39	586.52
383.77	578.16
384.15	600.31
384.53	587.2
384.91	605.73
385.29	612.51
385.67	615.9
386.049	655.67
386.429	639.63
386.809	633.53
387.189	655.67
387.568	670.14
387.948	658.61
388.328	689.12
388.707	669.91
389.087	677.82
389.466	689.12
389.846	707.2
390.225	721.44
390.605	734.54
390.984	723.02
391.363	747.42
391.743	756.46
392.122	776.35
392.501	772.73
392.881	758.5
393.26	774.54
393.639	777.71
394.018	808.67
394.397	807.31
394.776	820.19
395.155	838.27
395.534	833.3
395.913	812.28
396.292	855.67
396.671	879.85
397.05	871.04
397.429	876.91
397.808	902.45
398.186	905.84
398.565	931.6
398.944	928.89
399.323	929.57
399.701	961.88
400.08	986.29
400.458	972.5
400.837	980.19
401.215	990.81
401.594	1013.18
401.972	1026.74
402.351	1039.39
402.729	1032.84
403.107	1035.78
403.486	1046.85
403.864	1052.73
404.242	1075.78
404.62	1111.48
404.999	1109
405.377	1143.35
405.755	1134.76
406.133	1137.02
406.511	1186.73
406.889	1197.58
407.267	1201.88
407.645	1233.06
408.023	1228.77
408.401	1263.12
408.779	1268.09
409.156	1269.22
409.534	1292.95
409.912	1340.85
410.29	1353.96
410.667	1363.68
411.045	1397.12
411.422	1406.84
411.8	1407.07
412.178	1445.26
412.555	1494.3
412.933	1478.7
413.31	1507.4
413.687	1543.56
414.065	1526.84
414.442	1552.37
414.819	1575.88
415.197	1606.61
415.574	1646.61
415.951	1632.6
416.328	1699.72
416.705	1676.89
417.082	1700.39
417.46	1702.2
417.837	1751.69
418.214	1781.07
418.591	1777.68
418.967	1801.18
419.344	1831.46
419.721	1866.94
420.098	1838.92
420.475	1885.25
420.852	1896.09
421.228	1931.35
421.605	1913.72
421.982	1960.05
422.358	1984.68
422.735	2033.94
423.111	2015.41
423.488	2071.91
423.864	2091.34
424.241	2106.71
424.617	2132.7
424.994	2195.52
425.37	2155.3
425.746	2201.17
426.123	2244.11
426.499	2268.97
426.875	2271.45
427.251	2298.34
427.627	2353.03
428.003	2384.67
428.379	2439.81
428.756	2449.07
429.132	2462.86
429.507	2493.14
429.883	2551.22
430.259	2608.84
430.635	2617.66
431.011	2639.8
431.387	2718.22
431.763	2734.26
432.138	2798.9
432.514	2857.65
432.89	2877.31
433.265	2884.54
433.641	2928.38
434.016	3029.17
434.392	3019.23
434.767	3075.72
435.143	3102.84
435.518	3119.34
435.894	3171.31
436.269	3240.69
436.644	3285.21
437.02	3307.13
437.395	3352.55
437.77	3389.16
438.145	3411.31
438.52	3473.68
438.895	3511.42
439.271	3507.13
439.646	3595.26
440.021	3626.9
440.395	3644.07
440.77	3650.17
441.145	3683.62
441.52	3775.82
441.895	3791.19
442.27	3820.34
442.645	3784.18
443.019	3894.91
443.394	3879.09
443.769	3905.08
444.143	3922.26
444.518	4021.01
444.892	4024.63
445.267	4009.94
445.641	4118.86
446.016	4129.93
446.39	4140.1
446.764	4181.01
447.139	4196.6
447.513	4231.17
447.887	4229.82
448.262	4257.16
448.636	4327.44
449.01	4367.44
449.384	4365.63
449.758	4481.34
450.132	4534.89
450.506	4549.13
450.88	4620.09
451.254	4684.27
451.628	4709.35
452.002	4741.67
452.376	4771.95
452.75	4853.53
453.123	4879.52
453.497	4944.83
453.871	5007.42
454.244	5147.76
454.618	5136.46
454.992	5201.32
455.365	5194.99
455.739	5367.19
456.112	5432.05
456.486	5480.41
456.859	5533.74
457.232	5650.57
457.606	5665.26
457.979	5764.92
458.352	5802.88
458.725	5902.09
459.099	5969.89
459.472	6049.21
459.845	6137.79
460.218	6204.91
460.591	6243.32
460.964	6295.75
461.337	6429.99
461.71	6549.08
462.083	6607.38
462.456	6700.04
462.829	6714.72
463.201	6864.33
463.574	6870.88
463.947	6992.46
464.32	7185.45
464.692	7147.48
465.065	7240.59
465.438	7365.78
465.81	7411.66
466.183	7594.48
466.555	7731.2
466.928	7761.02
467.3	7799.22
467.672	7925.99
468.045	8121.02
468.417	8109.94
468.789	8247.57
469.161	8352.87
469.534	8487.33
469.906	8622.7
470.278	8736.14
470.65	8816.14
471.022	9026.75
471.394	9175.9
471.766	9246.18
472.138	9377.93
472.51	9619.73
472.882	9720.3
473.253	9851.82
473.625	9991.02
473.997	10231.24
474.369	10284.35
474.74	10454.51
475.112	10698.8
475.484	10850.66
475.855	11023.31
476.227	11059.7
476.598	11444.32
476.97	11509.85
477.341	11784.42
477.713	11943.06
478.084	12054.25
478.455	12470.05
478.827	12525.87
479.198	12824.39
479.569	12961.34
479.94	13276.13
480.311	13383.48
480.682	13662.79
481.053	13924.48
481.424	14256.45
481.795	14346.84
482.166	14560.62
482.537	14740.28
482.908	15183.88
483.279	15299.13
483.65	15646.47
484.021	15933.24
484.391	16100.92
484.762	16255.94
485.133	16463.39
485.503	16652.77
485.874	17133.66
486.244	17183.83
486.615	17548.34
486.985	17886.18
487.356	18063.13
487.726	18218.15
488.097	18624.47
488.467	18709.44
488.837	19074.63
489.207	19337.9
489.578	19493.37
489.948	19776.75
490.318	20037.09
490.688	20136.52
491.058	20430.07
491.428	20703.06
491.798	20864.41
492.168	21367.9
492.538	21491.74
492.908	21747.78
493.278	22088.78
493.648	22108.22
494.017	22431.37
494.387	22641.54
494.757	22780.52
495.126	23099.83
495.496	23232.93
495.866	23458.24
496.235	23726.03
496.605	24020.48
496.974	24029.52
497.344	24247.6
497.713	24387.25
498.082	24593.8
498.452	24897.75
498.821	24978.2
499.19	25129.38
499.559	25258.64
499.928	25543.38
500.298	25630.39
500.667	25964.39
501.036	25857.95
501.405	26236.92
501.774	26254.1
502.143	26522.34
502.512	26636.91
502.88	26892.05
503.249	26833.52
503.618	27147.41
503.987	27200.74
504.356	27671.24
504.724	27742.19
505.093	27931.79
505.462	28097.67
505.83	28299.02
506.199	28632.11
506.567	29005.89
506.936	28996.4
507.304	29284.07
507.672	29414.92
508.041	29539.21
508.409	29778.75
508.777	30153.88
509.145	30450.6
509.514	30431.62
509.882	30663.02
510.25	30717.71
510.618	31004.71
510.986	31134.65
511.354	31484.47
511.722	31667.97
512.09	31886.04
512.458	32071.12
512.826	32284.67
513.193	32368.51
513.561	32594.5
513.929	32883.53
514.297	33079
514.664	33475.83
515.032	33547.47
515.4	33832.43
515.767	33983.61
516.135	34198.75
516.502	34112.65
516.869	34876.24
517.237	35006.18
517.604	34946.07
517.972	35214.99
518.339	35554.19
518.706	35869.21
519.073	36018.13
519.44	36329.99
519.808	36735.86
520.175	36549.65
520.542	37275.28
520.909	37422.39
521.276	37477.08
521.643	37986.22
522.009	38252.88
522.376	38485.19
522.743	38680.44
523.11	38952.97
523.477	39521.09
523.843	39671.82
524.21	40022.32
524.577	40278.14
524.943	40504.57
525.31	40665.7
525.676	40864.34
526.043	41302.06
526.409	41331.89
526.776	41836.74
527.142	41999.67
527.508	42154.02
527.874	42513.78
528.241	42731.86
528.607	42954.9
528.973	43431.05
529.339	43422.91
529.705	43839.17
530.071	44080.75
530.437	44307.18
530.803	44631.02
531.169	44819.94
531.535	44971.8
531.901	44967.96
532.267	45310.32
532.632	45689.97
532.998	45795.5
533.364	46052.67
533.73	46145.55
534.095	46551.64
534.461	46738.08
534.826	46852.65
535.192	47076.83
535.557	47260.55
535.923	47261.46
536.288	47448.12
536.653	47588.68
537.019	47601.56
537.384	47810.14
537.749	47987.09
538.114	48002.45
538.479	48046.75
538.845	48249
539.21	48268.66
539.575	48374.87
539.94	48578.26
540.305	48785.48
540.67	48846.5
541.034	48926.95
541.399	49214.17
541.764	49189.99
542.129	49484.22
542.494	49674.72
542.858	49714.5
543.223	49805.57
543.587	50020.25
543.952	50102.28
544.316	50216.18
544.681	50346.12
545.045	50458.89
545.41	50739.33
545.774	50856.61
546.138	50980.23
546.503	51041.92
546.867	51043.28
547.231	51439.88
547.595	51406.88
547.959	51641.68
548.324	51510.61
548.688	51699.08
549.052	51763.71
549.416	51878.06
549.779	51979.52
550.143	51978.62
550.507	52225.84
550.871	52322.34
551.235	52304.03
551.599	52462
551.962	52699.96
552.326	52690.24
552.689	52825.6
553.053	52726.17
553.417	52886.39
553.78	53237.57
554.143	53040.51
554.507	53372.71
554.87	53434.85
555.234	53692.02
555.597	53557.11
555.96	53681.63
556.323	53885.69
556.686	54011.33
557.05	54213.59
557.413	54311.21
557.776	54484.09
558.139	54625.56
558.502	54697.87
558.865	54759.34
559.228	54968.82
559.59	55110.51
559.953	55153.45
560.316	55481.13
560.679	55404.29
561.041	55667.11
561.404	55734.9
561.767	55833.66
562.129	55858.97
562.492	56127.21
562.854	56178.51
563.217	56198.85
563.579	56270.94
563.941	56381.22
564.304	56551.38
564.666	56687.65
565.028	56743.24
565.39	56752.96
565.753	56952.95
566.115	56947.75
566.477	57082.89
566.839	57140.07
567.201	57355.43
567.563	57311.81
567.925	57433.84
568.287	57477.01
568.648	57559.49
569.01	57743.21
569.372	57862.98
569.734	57874.51
570.095	58079.93
570.457	58117.67
570.819	58212.13
571.18	58231.11
571.542	58382.97
571.903	58403.53
572.265	58559.69
572.626	58613.02
572.987	58654.15
573.349	58757.2
573.71	58831.32
574.071	58802.62
574.432	58932.11
574.794	59163.97
575.155	59172.55
575.516	59102.27
575.877	59217.75
576.238	59304.53
576.599	59410.29
576.96	59495.03
577.32	59442.83
577.681	59526.9
578.042	59641.24
578.403	59552.43
578.763	59667
579.124	59618.42
579.485	59692.31
579.845	59792.43
580.206	59634.92
580.566	59579.78
580.927	59721.01
581.287	59789.04
581.648	59596.95
582.008	59772.54
582.368	59705.42
582.728	59794.46
583.089	59776.15
583.449	59728.25
583.809	59759.66
584.169	59829.26
584.529	59738.64
584.889	59951.52
585.249	59782.71
585.609	59755.14
585.969	59951.06
586.329	59790.17
586.688	59869.94
587.048	59824.06
587.408	59848.02
587.768	59874.68
588.127	59830.39
588.487	59890.73
588.846	60034.45
589.206	59841.92
589.565	59885.3
589.925	60017.28
590.284	59925.53
590.643	60037.62
591.003	60094.56
591.362	60139.08
591.721	60132.98
592.08	60149.93
592.44	60201.68
592.799	60215.01
593.158	60214.79
593.517	60184.28
593.876	60179.53
594.235	60129.14
594.593	60179.08
594.952	60177.27
595.311	60100.89
595.67	60166.65
596.029	60262.7
596.387	60164.39
596.746	60249.36
597.104	60094.79
597.463	60094.56
597.822	60184.96
598.18	60097.73
598.538	60060.21
598.897	60231.96
599.255	60043.72
599.613	60324.61
599.972	60187.44
600.33	60301.79
600.688	60266.08
601.046	60260.21
601.404	60339.76
601.762	60303.6
602.12	60406.19
602.478	60439.64
602.836	60387.89
603.194	60335.24
603.552	60368.68
603.91	60298.85
604.268	60483.03
604.625	60433.99
604.983	60439.64
605.341	60405.74
605.698	60562.12
606.056	60582.91
606.413	60546.08
606.771	60670.82
607.128	60780.87
607.485	60617.94
607.843	60735.68
608.2	60805.51
608.557	60956.24
608.914	60797.37
609.272	60984.03
609.629	61012.05
609.986	61117.36
610.343	60955.11
610.7	61104.03
611.057	61121.43
611.414	61058.15
611.771	61059.06
612.127	61126.4
612.484	61035.78
612.841	61043.01
613.198	61014.31
613.554	61059.74
613.911	61137.7
614.267	61136.57
614.624	61058.83
614.98	61050.02
615.337	61185.61
615.693	61090.47
616.05	61080.98
616.406	61197.59
616.762	61107.19
617.118	61115.55
617.475	61106.74
617.831	61223.12
618.187	61287.75
618.543	61240.97
618.899	61352.84
619.255	61301.76
619.611	61332.27
619.967	61323.46
620.323	61408.65
620.678	61307.87
621.034	61274.65
621.39	61302.67
621.746	61310.58
622.101	61513.96
622.457	61291.82
622.812	61414.76
623.168	61516.22
623.523	61552.6
623.879	61524.36
624.234	61442.55
624.589	61449.1
624.945	61513.51
625.3	61585.6
625.655	61517.13
626.01	61657.91
626.365	61572.94
626.72	61563.45
627.075	61566.16
627.43	61515.54
627.785	61523.23
628.14	61513.96
628.495	61549.89
628.85	61522.32
629.205	61400.07
629.559	61453.17
629.914	61358.03
630.269	61342.44
630.623	61286.62
630.978	61229.45
631.332	61274.19
631.687	61311.93
632.041	61194.65
632.396	61175.67
632.75	61106.51
633.104	61132.5
633.459	60936.8
633.813	60976.57
634.167	60954.65
634.521	60884.37
634.875	60913.53
635.229	60857.03
635.583	60740.42
635.937	60802.57
636.291	60725.51
636.645	60756.69
636.999	60715.11
637.352	60724.15
637.706	60590.6
638.06	60645.74
638.413	60522.35
638.767	60547.66
639.121	60542.46
639.474	60415.91
639.828	60471.5
640.181	60465.18
640.534	60503.37
640.888	60346.99
641.241	60316.25
641.594	60270.15
641.947	60410.71
642.301	60353.99
642.654	60375.01
643.007	60371.62
643.36	60255.24
643.713	60324.84
644.066	60471.5
644.419	60251.85
644.771	60109.25
645.124	59894.8
645.477	59924.4
645.83	59698.42
646.182	59575.48
646.535	59441.47
646.888	59570.51
647.24	59391.98
647.593	59495.94
647.945	59378.65
648.298	59342.27
648.65	59300.23
649.002	59269.05
649.355	59207.36
649.707	59186.57
650.059	59290.74
650.411	59497.07
650.763	59586.33
651.115	59722.82
651.467	59671.98
651.819	59612.32
652.171	59570.06
652.523	59509.72
652.875	59452.77
653.227	59328.26
653.578	59462.72
653.93	59408.71
654.282	59246.45
654.633	59148.6
654.985	59239.45
655.337	59243.74
655.688	59219.33
656.039	59226.34
656.391	59082.16
656.742	59072.44
657.094	59057.08
657.445	59123.06
657.796	59062.73
658.147	58949.28
658.498	58978.44
658.849	59011.65
659.2	58911.77
659.551	58925.1
659.902	58960.58
660.253	58896.86
660.604	59004.42
660.955	58881.04
661.306	58997.64
661.656	58932.33
662.007	58951.54
662.358	58962.39
662.708	58929.17
663.059	59026.57
663.409	58763.3
663.76	58958.32
664.11	58862.28
664.461	58999.9
664.811	59041.71
665.161	58999.23
665.511	58920.13
665.862	58977.08
666.212	58992.22
666.562	59032.9
666.912	58934.82
667.262	58890.08
667.612	58813.24
667.962	58885.56
668.312	58808.04
668.662	58908.61
669.011	58787.03
669.361	58658.44
669.711	58706.13
670.06	58659.12
670.41	58594.94
670.76	58557.88
671.109	58659.8
671.459	58551.78
671.808	58512.46
672.157	58526.92
672.507	58266.14
672.856	58295.29
673.205	58294.61
673.554	58351.33
673.904	58239.02
674.253	58319.02
674.602	58186.59
674.951	57868.63
675.3	57733.95
675.649	58144.33
675.998	58078.57
676.346	58116.31
676.695	58152.92
677.044	57919.25
677.393	57954.06
677.741	58012.81
678.09	57861.18
678.438	57831.57
678.787	57961.96
679.135	57891.46
679.484	57770.33
679.832	57897.56
680.181	57651.69
680.529	57724.23
680.877	57620.05
681.225	57734.63
681.573	57823.21
681.922	57648.53
682.27	57633.84
682.618	57662.76
682.966	57557
683.314	57651.01
683.661	57535.76
684.009	57419.83
684.357	57398.14
684.705	57391.58
685.053	57470.45
685.4	57385.48
685.748	57257.35
686.095	57252.15
686.443	57214.41
686.79	57125.6
687.138	57210.35
687.485	57134.42
687.832	56968.54
688.18	57043.34
688.527	56833.63
688.874	56884.03
689.221	56836.8
689.568	56685.39
689.915	56633.86
690.262	56635.67
690.609	56566.3
690.956	56432.74
691.303	56433.19
691.65	56248.56
691.997	56188.9
692.344	56089.7
692.69	56003.37
693.037	56030.49
693.383	55736.26
693.73	55812.19
694.077	55589.15
694.423	55598.64
694.769	55509.15
695.116	55355.25
695.462	55305.31
695.808	55237.06
696.155	55250.17
696.501	54969.27
696.847	54942.16
697.193	54717.08
697.539	54854.25
697.885	54665.55
698.231	54446.12
698.577	54379.91
698.923	54397.54
699.269	54301.27
699.614	54187.15
699.96	54059.47
700.306	54132.46
700.651	53993.71
700.997	53870.09
701.342	53802.75
701.688	53802.53
702.033	53735.18
702.379	53725.24
702.724	53552.59
703.069	53697.44
703.415	53317.34
703.76	53373.61
704.105	53351.46
704.45	53220.85
704.795	53120.06
705.14	53048.65
705.485	53113.05
705.83	52902.21
706.175	52943.34
706.52	52809.78
706.865	52719.16
707.209	52822.21
707.554	52706.74
707.899	52803.68
708.243	52573.86
708.588	52563.01
708.932	52403.69
709.277	52374.54
709.621	52400.53
709.966	52146.98
710.31	52276.46
710.654	51879.41
710.998	52075.57
711.342	51998.05
711.687	51908.79
712.031	51826.08
712.375	51607.56
712.719	51602.58
713.063	51503.83
713.407	51626.99
713.75	51405.98
714.094	51326.88
714.438	51171.86
714.782	51191.75
715.125	51076.5
715.469	51137.06
715.812	50841.25
716.156	50589.28
716.499	50596.96
716.843	50665.21
717.186	50307.93
717.53	50541.82
717.873	50538.66
718.216	50367.36
718.559	50121.94
718.902	49858.9
719.246	49919.46
719.589	49772.12
719.932	49636.08
720.275	49580.72
720.617	49570.09
720.96	49366.26
721.303	49347.73
721.646	49273.83
721.989	49002.43
722.331	49172.37
722.674	49017.79
723.016	48879.49
723.359	48921.75
723.701	48862.32
724.044	48528.77
724.386	48435.44
724.729	48642.44
725.071	48445.6
725.413	48530.12
725.755	48299.85
726.097	48164.03
726.439	48063.24
726.782	48034.32
727.124	48349.34
727.465	47997.25
727.807	48087.87
728.149	47975.56
728.491	47864.38
728.833	47917.48
729.175	47958.16
729.516	47835.9
729.858	47793.42
730.199	47713.65
730.541	47691.27
730.882	47580.77
731.224	47794.32
731.565	47468.46
731.906	47616.25
732.248	47338.97
732.589	47458.96
732.93	47267.1
733.271	47229.37
733.612	47330.61
733.953	47323.83
734.294	47111.63
734.635	47002.48
734.976	47173.77
735.317	47038.86
735.658	47013.78
735.999	46738.53
736.339	46636.84
736.68	46824.18
737.021	46484.98
737.361	46383.06
737.702	46517.07
738.042	46343.06
738.383	46172.9
738.723	46404.75
739.063	46160.47
739.404	46207.7
739.744	46049.51
740.084	45814.26
740.424	45892.68
740.764	45698.78
741.104	45825.11
741.444	45378.79
741.784	45331.79
742.124	45454.5
742.464	45298.57
742.804	45213.15
743.143	45031.01
743.483	45001.63
743.823	44830.56
744.162	44740.17
744.502	44794.18
744.841	44529.1
745.181	44562.54
745.52	44334.53
745.86	44299.27
746.199	44338.82
746.538	44233.29
746.877	44208.43
747.216	44115.32
747.556	43798.5
747.895	43804.82
748.234	43636.69
748.573	43541.33
748.911	43314.44
749.25	43424.27
749.589	43355.57
749.928	43269.02
750.267	43292.97
750.605	43183.37
750.944	43050.94
751.283	42955.35
751.621	43019.53
751.96	42829.03
