Data from aluminium_surface_pro_back_FLMS001491_00016.txt Node
Date: Wed Feb 08 15:33:41 GMT 2017
User: dcchb
Spectrometer: FLMS00149
Trigger mode: 0
Integration Time (sec): 2.000000E-2
Scans to average: 10
Electric dark correction enabled: true
Nonlinearity correction enabled: false
Boxcar width: 0
XAxis mode: Wavelengths
Number of Pixels in Spectrum: 2048
>>>>>Begin Spectral Data<<<<<
341.393	-9.05
341.776	-9.05
342.16	-9.05
342.543	-67.58
342.927	-68.03
343.31	-82.95
343.693	-73.91
344.077	-55.15
344.46	-56.28
344.843	-49.73
345.226	-40.24
345.61	-24.19
345.993	-17.87
346.376	2.25
346.759	3.83
347.142	14.45
347.525	42.7
347.908	51.51
348.291	78.85
348.674	96.71
349.057	110.04
349.44	128.12
349.823	157.72
350.206	159.08
350.588	225.52
350.971	233.43
351.354	261.9
351.737	261
352.119	272.07
352.502	248.34
352.884	301.45
353.267	298.96
353.65	322.69
354.032	325.4
354.414	303.93
354.797	319.07
355.179	352.52
355.562	351.39
355.944	344.61
356.326	355
356.709	349.13
357.091	346.87
357.473	362.24
357.855	353.87
358.238	373.31
358.62	355.91
359.002	364.5
359.384	400.2
359.766	373.08
360.148	352.74
360.53	359.52
360.912	376.93
361.294	344.61
361.676	383.48
362.057	369.47
362.439	362.46
362.821	379.64
363.203	364.27
363.584	360.2
363.966	368.79
364.348	363.59
364.729	378.51
365.111	362.01
365.493	354.33
365.874	371.5
366.256	379.86
366.637	382.12
367.019	371.95
367.4	376.7
367.781	363.59
368.163	342.58
368.544	372.86
368.925	371.5
369.306	372.18
369.688	375.57
370.069	364.27
370.45	367.21
370.831	383.93
371.212	373.54
371.593	361.33
371.974	391.84
372.355	394.55
372.736	392.07
373.117	385.29
373.498	381.9
373.879	368.56
374.26	396.13
374.641	367.66
375.021	383.03
375.402	388.22
375.783	395.91
376.163	423.03
376.544	416.25
376.925	413.31
377.305	406.98
377.686	415.12
378.066	423.03
378.447	409.92
378.827	423.03
379.208	422.8
379.588	427.77
379.968	431.61
380.349	421.9
380.729	439.97
381.109	455.57
381.489	424.61
381.87	442.91
382.25	445.17
382.63	444.27
383.01	468
383.39	458.28
383.77	448.11
384.15	481.56
384.53	464.38
384.91	471.84
385.29	488.33
385.67	490.14
386.049	494.66
386.429	478.39
386.809	505.06
387.189	493.31
387.568	525.4
387.948	522.23
388.328	537.37
388.707	517.94
389.087	519.29
389.466	539.63
389.846	556.36
390.225	545.73
390.605	543.25
390.984	547.99
391.363	568.33
391.743	564.49
392.122	552.97
392.501	592.06
392.881	581.44
393.26	587.77
393.639	612.85
394.018	597.94
394.397	610.82
394.776	624.6
395.155	610.14
395.534	636.81
395.913	653.08
396.292	653.98
396.671	666.86
397.05	663.25
397.429	644.71
397.808	643.13
398.186	677.03
398.565	679.06
398.944	695.56
399.323	701.21
399.701	714.09
400.08	719.06
400.458	729.01
400.837	734.66
401.215	737.82
401.594	752.96
401.972	722.68
402.351	774.43
402.729	763.81
403.107	788.67
403.486	799.06
403.864	802.45
404.242	807.65
404.62	807.2
404.999	826.4
405.377	835.44
405.755	839.06
406.133	856.69
406.511	871.15
406.889	891.71
407.267	876.8
407.645	899.62
408.023	949.34
408.401	946.85
408.779	907.31
409.156	965.16
409.534	962.9
409.912	977.14
410.29	1001.77
410.667	964.93
411.045	1002.45
411.422	1030.47
411.8	1022.11
412.178	1053.74
412.555	1088.77
412.933	1073.86
413.31	1088.32
413.687	1076.79
414.065	1089.45
414.442	1138.04
414.819	1142.55
415.197	1140.52
415.574	1185.72
415.951	1174.64
416.328	1195.21
416.705	1218.03
417.082	1204.93
417.46	1218.94
417.837	1227.75
418.214	1285.6
418.591	1265.49
418.967	1248.99
419.344	1270.46
419.721	1310.01
420.098	1297.8
420.475	1348.88
420.852	1360.85
421.228	1375.99
421.605	1369.67
421.982	1390.46
422.358	1392.27
422.735	1421.87
423.111	1408.99
423.488	1444.92
423.864	1436.56
424.241	1451.7
424.617	1480.62
424.994	1516.1
425.37	1531.25
425.746	1495.31
426.123	1559.94
426.499	1538.25
426.875	1585.03
427.251	1614.41
427.627	1667.51
428.003	1692.37
428.379	1679.49
428.756	1687.4
429.132	1710.45
429.507	1736.89
429.883	1754.52
430.259	1808.98
430.635	1810.11
431.011	1841.52
431.387	1902.76
431.763	1890.33
432.138	1954.06
432.514	1940.5
432.89	1921.29
433.265	2009.42
433.641	1997.22
434.016	2019.14
434.392	2090.33
434.767	2128.52
435.143	2098.24
435.518	2138.46
435.894	2167.16
436.269	2152.47
436.644	2220.94
437.02	2249.87
437.395	2258.91
437.77	2269.76
438.145	2331.9
438.52	2353.37
438.895	2385.01
439.271	2373.03
439.646	2458.9
440.021	2448.06
440.395	2462.29
440.77	2453.93
441.145	2453.03
441.52	2517.21
441.895	2499.58
442.27	2575.51
442.645	2547.72
443.019	2594.49
443.394	2596.53
443.769	2597.21
444.143	2641.95
444.518	2688.73
444.892	2651.89
445.267	2701.84
445.641	2709.29
446.016	2746.13
446.39	2763.98
446.764	2787.71
447.139	2797.2
447.513	2804.88
447.887	2829.97
448.262	2849.4
448.636	2859.35
449.01	2917.88
449.384	2928.72
449.758	2964.2
450.132	2978.89
450.506	3011.88
450.88	3065.44
451.254	3062.5
451.628	3063.18
452.002	3116.06
452.376	3138.43
452.75	3171.88
453.123	3220.24
453.497	3265.21
453.871	3301.37
454.244	3364.64
454.618	3388.15
454.992	3413
455.365	3415.04
455.739	3512.89
456.112	3537.29
456.486	3586.56
456.859	3638.99
457.232	3685.54
457.606	3698.19
457.979	3726.89
458.352	3781.13
458.725	3854.8
459.099	3926.21
459.472	3967.79
459.845	4024.06
460.218	4026.55
460.591	4100.22
460.964	4133.44
461.337	4207.11
461.71	4264.96
462.083	4359.87
462.456	4356.71
462.829	4399.42
463.201	4445.07
463.574	4425.41
463.947	4516.48
464.32	4633.99
464.692	4655.46
465.065	4706.75
465.438	4782.23
465.81	4839.18
466.183	4892.74
466.555	5097.48
466.928	5087.99
467.3	5053.86
467.672	5137.93
468.045	5260.19
468.417	5271.71
468.789	5314.2
469.161	5415.44
469.534	5514.64
469.906	5601.87
470.278	5598.48
470.65	5693.4
471.022	5804.8
471.394	5887.97
471.766	5988.08
472.138	6030.11
472.51	6220.39
472.882	6273.72
473.253	6386.26
473.625	6399.37
473.997	6555.07
474.369	6634.16
474.74	6680.26
475.112	6835.74
475.484	7032.34
475.855	7118.67
476.227	7085
476.598	7263.52
476.97	7412.67
477.341	7600.92
477.713	7696.73
478.084	7778.54
478.455	7997.52
478.827	8019.89
479.198	8281.35
479.569	8285.19
479.94	8562.47
480.311	8588.01
480.682	8799.08
481.053	8961.11
481.424	9144.15
481.795	9181.67
482.166	9336.92
482.537	9487.42
482.908	9723.35
483.279	9842.89
483.65	9975.32
484.021	10172.83
484.391	10277.46
484.762	10414.85
485.133	10477.22
485.503	10639.48
485.874	10871.34
486.244	10987.49
486.615	11215.74
486.985	11335.73
487.356	11565.11
487.726	11593.13
488.097	11894.14
488.467	11929.39
488.837	12269.49
489.207	12405.99
489.578	12547.23
489.948	12598.3
490.318	12799.88
490.688	12861.34
491.058	13080.09
491.428	13347.66
491.798	13421.78
492.168	13732.73
492.538	13802.33
492.908	14001.2
493.278	14163.91
493.648	14149.22
494.017	14447.52
494.387	14474.18
494.757	14616.55
495.126	14750.11
495.496	14868.75
495.866	14930.21
496.235	15168.17
496.605	15254.27
496.974	15344.89
497.344	15540.14
497.713	15494.72
498.082	15792.34
498.452	15936.97
498.821	16061.94
499.19	16110.75
499.559	16310.97
499.928	16430.29
500.298	16461.47
500.667	16675.71
501.036	16704.63
501.405	16897.17
501.774	16923.16
502.143	17183.49
502.512	17224.62
502.88	17366.31
503.249	17390.04
503.618	17509.58
503.987	17647.88
504.356	17781.21
504.724	17850.36
505.093	17901.66
505.462	18101.66
505.83	18162.22
506.199	18311.82
506.567	18551.81
506.936	18609.21
507.304	18823.67
507.672	18859.38
508.041	19047.17
508.409	19165.58
508.777	19322.87
509.145	19489.19
509.514	19563.77
509.882	19736.64
510.25	19822.52
510.618	19857.32
510.986	20007.82
511.354	20316.74
511.722	20399.22
512.09	20643.96
512.458	20668.14
512.826	20857.29
513.193	20885.09
513.561	21064.29
513.929	21095.02
514.297	21401.68
514.664	21573.2
515.032	21645.07
515.4	21929.13
515.767	22158.27
516.135	22131.83
516.502	22113.98
516.869	22477.81
517.237	22643.46
517.604	22568.88
517.972	22932.49
518.339	23154.41
518.706	23210.45
519.073	23287.96
519.44	23454.06
519.808	23777.44
520.175	23845.91
520.542	24112.57
520.909	24285.22
521.276	24282.06
521.643	24642.73
522.009	24791.65
522.376	24950.29
522.743	25203.39
523.11	25465.98
523.477	25735.81
523.843	25802.92
524.21	26193.2
524.577	26374.89
524.943	26478.39
525.31	26599.51
525.676	26957.24
526.043	26998.15
526.409	27340.51
526.776	27570.56
527.142	27623.44
527.508	27890.78
527.874	28011.68
528.241	28364.66
528.607	28322.41
528.973	28659.8
529.339	28647.37
529.705	28988.6
530.071	29194.92
530.437	29338.2
530.803	29527.12
531.169	29714.46
531.535	29637.17
531.901	29951.51
532.267	29997.39
532.632	30236.93
532.998	30339.75
533.364	30489.58
533.73	30611.84
534.095	30910.36
534.461	30976.57
534.826	31276
535.192	31291.59
535.557	31560.51
535.923	31611.81
536.288	31708.53
536.653	31942.2
537.019	31938.13
537.384	32140.84
537.749	32128.86
538.114	32296.09
538.479	32376.76
538.845	32623.99
539.21	32532.69
539.575	32695.4
539.94	32703.31
540.305	33008.84
540.67	32908.5
541.034	32997.54
541.399	33309.39
541.764	33364.31
542.129	33564.98
542.494	33639.55
542.858	33842.49
543.223	33961.8
543.587	34089.03
543.952	34048.36
544.316	34147.56
544.681	34079.32
545.045	34256.71
545.41	34599.53
545.774	34469.14
546.138	34693.31
546.503	34813.99
546.867	34768.11
547.231	35175.33
547.595	35212.17
547.959	35447.87
548.324	35431.6
548.688	35394.99
549.052	35706.62
549.416	35674.98
549.779	35710.91
550.143	36052.6
550.507	36302.08
550.871	36302.31
551.235	36367.84
551.599	36653.26
551.962	36795.18
552.326	36878.56
552.689	36982.29
553.053	36990.2
553.417	37079.24
553.78	37521.49
554.143	37408.72
554.507	37584.76
554.87	37749.28
555.234	38203.5
555.597	37996.73
555.96	38099.32
556.323	38346.1
556.686	38429.03
557.05	38588.58
557.413	38664.05
557.776	38888
558.139	39094.78
558.502	39166.64
558.865	39350.14
559.228	39709.45
559.59	39669
559.953	39808.43
560.316	40066.73
560.679	40232.15
561.041	40488.19
561.404	40660.61
561.767	40950.32
562.129	40880.72
562.492	41380.37
562.854	41317.32
563.217	41459.91
563.579	41609.97
563.941	41915.95
564.304	42027.58
564.666	42334.01
565.028	42390.06
565.39	42566.78
565.753	42647.68
566.115	42777.62
566.477	42975.58
566.839	43158.85
567.201	43268.45
567.563	43441.78
567.925	43812.62
568.287	43743.69
568.648	43947.3
569.01	44283.12
569.372	44572.37
569.734	44415.99
570.095	44827.96
570.457	44985.24
570.819	45069.08
571.18	45087.84
571.542	45414.84
571.903	45411.45
572.265	45617.32
572.626	45624.55
572.987	45803.08
573.349	45951.77
573.71	46285.77
574.071	46305.43
574.432	46502.04
574.794	46686.22
575.155	46815.48
575.516	46643.05
575.877	46789.94
576.238	46976.6
576.599	47053.89
576.96	47257.5
577.32	47118.97
577.681	47356.03
578.042	47449.36
578.403	47547.89
578.763	47632.18
579.124	47648
579.485	47959.18
579.845	47970.93
580.206	48012.51
580.566	48047.54
580.927	47934.77
581.287	48342.22
581.648	48063.35
582.008	48303.57
582.368	48260.64
582.728	48287.08
583.089	48346.51
583.449	48390.13
583.809	48432.84
584.169	48539.95
584.529	48293.41
584.889	48734.3
585.249	48402.78
585.609	48356
585.969	48632.15
586.329	48518.94
586.688	48612.94
587.048	48549.9
587.408	48579.05
587.768	48558.03
588.127	48365.95
588.487	48416.11
588.846	48778.82
589.206	48524.13
589.565	48560.52
589.925	48742.66
590.284	48637.13
590.643	48651.81
591.003	48735.43
591.362	48872.6
591.721	48831.92
592.08	48890.45
592.44	48901.75
592.799	48767.07
593.158	48786.73
593.517	48753.28
593.876	48856.1
594.235	48734.98
594.593	48845.03
594.952	48967.74
595.311	48689.33
595.67	48887.06
596.029	49167.51
596.387	49090.9
596.746	48987.85
597.104	48862.43
597.463	48972.94
597.822	49125.02
598.18	48933.39
598.538	49016.1
598.897	49348.29
599.255	48967.74
599.613	49417.67
599.972	49298.58
600.33	49358.91
600.688	49179.94
601.046	49350.78
601.404	49569.98
601.762	49423.77
602.12	49593.48
602.478	49669.64
602.836	49665.57
603.194	49516.42
603.552	49585.57
603.91	49571.11
604.268	49734.05
604.625	49619.92
604.983	49798
605.341	49767.72
605.698	49963.19
606.056	50035.28
606.413	49936.53
606.771	49973.81
607.128	50150.53
607.485	49993.02
607.843	49922.74
608.2	50348.27
608.557	50332.22
608.914	50128.61
609.272	50247.7
609.629	50363.63
609.986	50407.25
610.343	50242.05
610.7	50590.29
611.057	50488.38
611.414	50255.39
611.771	50422.61
612.127	50572.44
612.484	50569.96
612.841	50623.29
613.198	50560.24
613.554	50694.02
613.911	50843.85
614.267	50698.99
614.624	50726.11
614.98	50764.75
615.337	50914.81
615.693	50866.9
616.05	50812.44
616.406	51128.36
616.762	50975.59
617.118	50927.69
617.475	50915.48
617.831	50958.42
618.187	51016.27
618.543	50944.86
618.899	51213.33
619.255	51204.74
619.611	51132.65
619.967	51362.7
620.323	51403.83
620.678	51237.06
621.034	51201.8
621.39	51269.37
621.746	51150.28
622.101	51445.86
622.457	51225.31
622.812	51297.17
623.168	51398.63
623.523	51407.22
623.879	51449.71
624.234	51263.5
624.589	51353.89
624.945	51388.47
625.3	51459.42
625.655	51516.82
626.01	51353.66
626.365	51445.86
626.72	51350.05
627.075	51334.68
627.43	51410.84
627.785	51264.4
628.14	51338.07
628.495	51345.98
628.85	51235.7
629.205	51095.82
629.559	51341.46
629.914	51153.9
630.269	51181.24
630.623	51193.22
630.978	51196.15
631.332	51273.89
631.687	51297.85
632.041	51171.07
632.396	51113.67
632.75	51027.57
633.104	51152.31
633.459	50925.43
633.813	50955.48
634.167	50911.19
634.521	50955.03
634.875	50954.13
635.229	50901.02
635.583	50706.68
635.937	50688.6
636.291	50791.19
636.645	50742.83
636.999	50627.36
637.352	50801.36
637.706	50556.4
638.06	50654.47
638.413	50466.46
638.767	50389.4
639.121	50396.85
639.474	50289.96
639.828	50226.69
640.181	50241.6
640.534	50216.07
640.888	50167.03
641.241	49944.21
641.594	50077.99
641.947	50128.61
642.301	49979.91
642.654	50038.44
643.007	50060.36
643.36	49928.84
643.713	49888.62
644.066	50136.07
644.419	49736.53
644.771	49615.18
645.124	49210.67
645.477	49099.49
645.83	48896.78
646.182	48699.27
646.535	48638.03
646.888	48729.55
647.24	48439.16
647.593	48663.57
647.945	48581.08
648.298	48361.88
648.65	48260.86
649.002	48258.15
649.355	48400.3
649.707	48210.24
650.059	48429.9
650.411	48785.82
650.763	48760.29
651.115	49198.69
651.467	49026.27
651.819	48899.27
652.171	48886.61
652.523	48923.9
652.875	48837.8
653.227	48640.29
653.578	48997.79
653.93	48881.19
654.282	48714.64
654.633	48568.65
654.985	48590.12
655.337	48471.71
655.688	48511.93
656.039	48684.81
656.391	48365.72
656.742	48362.78
657.094	48314.2
657.445	48502.67
657.796	48381.99
658.147	48410.01
658.498	48333.18
658.849	48388.77
659.2	48353.52
659.551	48135.44
659.902	48287.76
660.253	48242.56
660.604	48349.45
660.955	48076.91
661.306	48233.97
661.656	48111.26
662.007	48074.88
662.358	47993.07
662.708	48115.78
663.059	47984.94
663.409	47768.9
663.76	48102.45
664.11	47949.69
664.461	48058.84
664.811	48098.61
665.161	48028.1
665.511	47855.22
665.862	47854.55
666.212	47875.34
666.562	47998.72
666.912	47904.26
667.262	47793.31
667.612	47733.19
667.962	47778.84
668.312	47657.26
668.662	47877.37
669.011	47487.55
669.361	47413.88
669.711	47475.57
670.06	47548.11
670.41	47452.3
670.76	47345.18
671.109	47563.93
671.459	47429.02
671.808	47276.48
672.157	47466.99
672.507	47082.36
672.856	47263.15
673.205	47367.55
673.554	47307.67
673.904	47159.42
674.253	47337.72
674.602	47261.57
674.951	46641.25
675.3	46516.05
675.649	47153.77
675.998	47001.69
676.346	47067.22
676.695	47094.57
677.044	46757.4
677.393	46955.59
677.741	46923.5
678.09	46801.92
678.438	46830.62
678.787	46876.49
679.135	46784.07
679.484	46588.59
679.832	46808.02
680.181	46553.34
680.529	46701.36
680.877	46392.89
681.225	46330.75
681.573	46727.57
681.922	46387.92
682.27	46169.62
682.618	46145.89
682.966	46084.65
683.314	46163.07
683.661	46058.21
684.009	45829.06
684.357	45731.21
684.705	45617.54
685.053	45726.69
685.4	45637.88
685.748	45538.9
686.095	45366.7
686.443	45291
686.79	45338.23
687.138	45402.86
687.485	45343.2
687.832	45154.73
688.18	45116.31
688.527	44870.9
688.874	44843.78
689.221	44756.32
689.568	44809.2
689.915	44622.32
690.262	44489.66
690.609	44372.15
690.956	44229.56
691.303	44221.65
691.65	44109.79
691.997	43999.51
692.344	43706.41
692.69	43757.25
693.037	43726.07
693.383	43368.34
693.73	43400.2
694.077	43362.24
694.423	43115.24
694.769	43101.23
695.116	42960.89
695.462	42916.82
695.808	42807.45
696.155	42878.41
696.501	42567.45
696.847	42498.98
697.193	42381.47
697.539	42514.12
697.885	42043.63
698.231	42080.69
698.577	41945.1
698.923	42025.55
699.269	41738.32
699.614	41569.51
699.96	41545.56
700.306	41414.04
700.651	41269.86
700.997	41176.3
701.342	41146.47
701.688	41215.63
702.033	40999.59
702.379	40903.54
702.724	40755.07
703.069	40829.65
703.415	40518.69
703.76	40537.45
704.105	40464.01
704.45	40287.51
704.795	40212.04
705.14	40011.59
705.485	40065.6
705.83	39887.98
706.175	39938.82
706.52	39823.57
706.865	39587.42
707.209	39553.3
707.554	39304.72
707.899	39492.96
708.243	39237.82
708.588	39174.1
708.932	39081.9
709.277	38793.99
709.621	38964.39
709.966	38655.92
710.31	38582.02
710.654	38375.93
710.998	38588.58
711.342	38403.27
711.687	38474
712.031	38185.42
712.375	38103.84
712.719	38186.1
713.063	38137.29
713.407	38191.07
713.75	37945.65
714.094	37995.6
714.438	37680.8
714.782	37815.49
715.125	37637.41
715.469	37602.16
715.812	37517.19
716.156	37364.43
716.499	37397.65
716.843	37329.63
717.186	37119.01
717.53	37215.96
717.873	37248.27
718.216	37086.92
718.559	36846.93
718.902	36662.3
719.246	36828.4
719.589	36587.95
719.932	36359.93
720.275	36527.84
720.617	36293.04
720.96	36446.94
721.303	36259.37
721.646	36341.4
721.989	35998.14
722.331	36148.19
722.674	35934.63
723.016	35898.25
723.359	35841.3
723.701	35914.07
724.044	35656.22
724.386	35437.7
724.729	35729.67
725.071	35443.12
725.413	35481.09
725.755	35345.5
726.097	35257.14
726.439	35121.1
726.782	35115.45
727.124	35215.78
727.465	34899.86
727.807	34922.46
728.149	34955.22
728.491	34806.08
728.833	34733.08
729.175	34634.1
729.516	34574.9
729.858	34584.84
730.199	34552.75
730.541	34456.48
730.882	34380.1
731.224	34331.96
731.565	34110.5
731.906	34075.93
732.248	34202.02
732.589	33988.47
732.93	33912.31
733.271	33895.59
733.612	34039.54
733.953	33964.97
734.294	33861.69
734.635	33807.68
734.976	33835.71
735.317	33491.99
735.658	33584.41
735.999	33529.27
736.339	33529.5
736.68	33675.71
737.021	33526.11
737.361	33401.14
737.702	33625.77
738.042	33311.65
738.383	33227.59
738.723	33291.99
739.063	33111.21
739.404	33154.37
739.744	33055.61
740.084	32837.54
740.424	32971.32
740.764	32829.41
741.104	32847.03
741.444	32764.1
741.784	32578.56
742.124	32622.86
742.464	32668.05
742.804	32471.45
743.143	32483.65
743.483	32331.79
743.823	32292.47
744.162	32295.18
744.502	32306.03
744.841	32133.38
745.181	32313.94
745.52	32148.07
745.86	32086.83
746.199	31978.13
746.538	31832.14
746.877	31913.72
747.216	31897.9
747.556	31835.31
747.895	31725.71
748.234	31515.32
748.573	31572.04
748.911	31599.38
749.25	31496.11
749.589	31417.46
749.928	31261.76
750.267	31334.3
750.605	31349.22
750.944	31359.61
751.283	31184.7
751.621	31235.77
751.96	31020.64
752.298	31049.11
752.636	31015.44
752.975	30785.84
753.313	30769.8
