Data from aluminium_surface_pro_back_FLMS001491_00090.txt Node
Date: Wed Feb 08 15:34:40 GMT 2017
User: dcchb
Spectrometer: FLMS00149
Trigger mode: 0
Integration Time (sec): 2.000000E-2
Scans to average: 10
Electric dark correction enabled: true
Nonlinearity correction enabled: false
Boxcar width: 0
XAxis mode: Wavelengths
Number of Pixels in Spectrum: 2048
>>>>>Begin Spectral Data<<<<<
341.393	-10.1
341.776	-10.1
342.16	-10.1
342.543	-71.57
342.927	-67.72
343.31	-70.44
343.693	-76.99
344.077	-60.27
344.46	-50.55
344.843	-67.5
345.226	-31.79
345.61	-31.12
345.993	-15.97
346.376	-3.32
346.759	17.92
347.142	28.09
347.525	36
347.908	40.52
348.291	59.96
348.674	102.89
349.057	122.55
349.44	130.24
349.823	176.11
350.206	186.05
350.588	219.5
350.971	230.35
351.354	245.26
351.737	254.3
352.119	269.67
352.502	300.18
352.884	317.58
353.267	322.55
353.65	332.49
354.032	330.23
354.414	333.85
354.797	354.19
355.179	357.12
355.562	372.04
355.944	365.94
356.326	374.07
356.709	361.64
357.091	375.88
357.473	365.71
357.855	385.6
358.238	395.77
358.62	373.85
359.002	382.43
359.384	387.18
359.766	394.41
360.148	373.17
360.53	369.1
360.912	392.83
361.294	388.99
361.676	381.76
362.057	377.01
362.439	384.02
362.821	384.02
363.203	368.65
363.584	354.86
363.966	388.31
364.348	359.61
364.729	373.39
365.111	375.88
365.493	387.63
365.874	372.94
366.256	377.69
366.637	361.42
367.019	371.36
367.4	350.12
367.781	364.13
368.163	369.78
368.544	395.54
368.925	384.02
369.306	386.05
369.688	382.66
370.069	376.33
370.45	378.59
370.831	390.34
371.212	383.56
371.593	366.61
371.974	371.13
372.355	389.21
372.736	390.79
373.117	385.37
373.498	394.18
373.879	417.01
374.26	398.48
374.641	382.21
375.021	396.22
375.402	413.62
375.783	391.7
376.163	425.6
376.544	413.17
376.925	440.74
377.305	397.57
377.686	423.79
378.066	412.72
378.447	425.6
378.827	442.54
379.208	437.8
379.588	417.46
379.968	451.58
380.349	443.9
380.729	457.01
381.109	461.08
381.489	449.32
381.87	456.33
382.25	468.53
382.63	486.16
383.01	465.14
383.39	477.57
383.77	463.79
384.15	501.07
384.53	499.72
384.91	492.04
385.29	486.39
385.67	498.81
386.049	507.18
386.429	508.31
386.809	521.41
387.189	520.73
387.568	513.5
387.948	529.1
388.328	537.68
388.707	541.53
389.087	535.2
389.466	548.98
389.846	558.93
390.225	568.19
390.605	569.1
390.984	588.08
391.363	569.1
391.743	595.08
392.122	598.02
392.501	607.06
392.881	605.03
393.26	621.07
393.639	620.62
394.018	613.61
394.397	653.16
394.776	635.08
395.155	629.43
395.534	657.45
395.913	657.68
396.292	676.89
396.671	662.2
397.05	663.78
397.429	700.62
397.808	685.02
398.186	709.66
398.565	700.39
398.944	714.63
399.323	726.38
399.701	713.95
400.08	724.12
400.458	722.99
400.837	768.19
401.215	774.97
401.594	763.21
401.972	799.37
402.351	804.8
402.729	794.4
403.107	801.18
403.486	809.31
403.864	820.39
404.242	849.99
404.62	854.06
404.999	868.3
405.377	876.43
405.755	890.44
406.133	866.94
406.511	899.93
406.889	900.84
407.267	917.11
407.645	939.48
408.023	921.85
408.401	971.12
408.779	980.84
409.156	1005.02
409.534	1011.12
409.912	1004.11
410.29	1016.77
410.667	1064.68
411.045	1070.1
411.422	1055.18
411.8	1086.37
412.178	1109.65
412.555	1111.68
412.933	1135.63
413.31	1173.15
413.687	1209.08
414.065	1186.48
414.442	1151
414.819	1200.72
415.197	1213.82
415.574	1240.94
415.951	1235.29
416.328	1256.99
416.705	1252.02
417.082	1284.1
417.46	1325.46
417.837	1322.52
418.214	1333.37
418.591	1328.17
418.967	1354.61
419.344	1352.58
419.721	1395.51
420.098	1384.22
420.475	1407.94
420.852	1406.81
421.228	1431.22
421.605	1453.59
421.982	1448.17
422.358	1452.69
422.735	1508.96
423.111	1498.79
423.488	1524.55
423.864	1526.58
424.241	1555.28
424.617	1606.81
424.994	1575.62
425.37	1617.43
425.746	1607.71
426.123	1641.84
426.499	1624.21
426.875	1692.46
427.251	1693.81
427.627	1750.08
428.003	1742.62
428.379	1757.31
428.756	1795.73
429.132	1792.79
429.507	1837.08
429.883	1852.9
430.259	1911.43
430.635	1893.81
431.011	1940.36
431.387	1983.07
431.763	2013.8
432.138	2040.02
432.514	2030.53
432.89	2040.92
433.265	2101.26
433.641	2129.28
434.016	2164.31
434.392	2170.86
434.767	2223.51
435.143	2222.84
435.518	2245.66
435.894	2291.08
436.269	2297.64
436.644	2348.94
437.02	2354.58
437.395	2392.55
437.77	2407.24
438.145	2448.82
438.52	2467.8
438.895	2511.19
439.271	2502.6
439.646	2569.04
440.021	2550.06
440.395	2612.88
440.77	2587.35
441.145	2641.58
441.52	2684.29
441.895	2640.45
442.27	2686.33
442.645	2733.33
443.019	2735.82
443.394	2735.37
443.769	2777.85
444.143	2779.66
444.518	2852.88
444.892	2807.68
445.267	2856.04
445.641	2873.44
446.016	2896.49
446.39	2950.5
446.764	2930.16
447.139	2935.81
447.513	2989.14
447.887	2998.18
448.262	3033.89
448.636	3004.51
449.01	3052.19
449.384	3101.91
449.758	3122.47
450.132	3161.12
450.506	3155.92
450.88	3196.37
451.254	3223.71
451.628	3294.45
452.002	3322.47
452.376	3345.75
452.75	3391.85
453.123	3404.5
453.497	3462.8
453.871	3462.13
454.244	3574.21
454.618	3578.51
454.992	3612.63
455.365	3652.18
455.739	3731.95
456.112	3734.66
456.486	3766.07
456.859	3809.91
457.232	3946.63
457.606	3925.39
457.979	3984.37
458.352	4020.98
458.725	4081.77
459.099	4094.88
459.472	4191.6
459.845	4259.39
460.218	4292.61
460.591	4301.65
460.964	4354.31
461.337	4413.97
461.71	4545.26
462.083	4565.83
462.456	4563.57
462.829	4602.21
463.201	4728.76
463.574	4772.37
463.947	4818.93
464.32	4879.26
464.692	4961.07
465.065	5017.34
465.438	5086.72
465.81	5159.26
466.183	5238.58
466.555	5335.07
466.928	5366.94
467.3	5344.11
467.672	5437.22
468.045	5605.12
468.417	5603.54
468.789	5647.38
469.161	5737.55
469.534	5859.8
469.906	5933.25
470.278	5991.1
470.65	6105.45
471.022	6188.61
471.394	6326.68
471.766	6419.56
472.138	6446
472.51	6581.82
472.882	6704.08
473.253	6765.32
473.625	6818.2
473.997	7013.22
474.369	7062.48
474.74	7161.46
475.112	7286.21
475.484	7359.88
475.855	7580.21
476.227	7627.21
476.598	7877.15
476.97	7932.74
477.341	8029.92
477.713	8223.36
478.084	8275.56
478.455	8508.1
478.827	8583.8
479.198	8833.96
479.569	8870.35
479.94	9151.24
480.311	9204.35
480.682	9417.68
481.053	9662.64
481.424	9779.7
481.795	9889.3
482.166	10083.65
482.537	10169.75
482.908	10447.71
483.279	10521.15
483.65	10713.24
484.021	10921.82
484.391	10955.26
484.762	11135.15
485.133	11299.43
485.503	11484.29
485.874	11750.95
486.244	11793.66
486.615	11960.21
486.985	12216.7
487.356	12450.82
487.726	12557.48
488.097	12878.38
488.467	12904.59
488.837	13060.29
489.207	13288.76
489.578	13490.56
489.948	13628.19
490.318	13836.54
490.688	13918.12
491.058	14142.07
491.428	14364.66
491.798	14472.01
492.168	14719.91
492.538	14805.56
492.908	15052.33
493.278	15187.92
493.648	15236.73
494.017	15372.32
494.387	15577.51
494.757	15681.24
495.126	15927.34
495.496	15905.42
495.866	16072.87
496.235	16193.77
496.605	16388.11
496.974	16489.58
497.344	16604.61
497.713	16804.15
498.082	16871.04
498.452	17148.32
498.821	17296.11
499.19	17294.76
499.559	17518.25
499.928	17669.21
500.298	17691.81
500.667	17895.65
501.036	17904.01
501.405	18172.25
501.774	18250.21
502.143	18333.37
502.512	18403.88
502.88	18609.3
503.249	18702.18
503.618	18847.48
503.987	18826.24
504.356	19004.32
504.724	19199.34
505.093	19320.47
505.462	19417.64
505.83	19571.08
506.199	19680.23
506.567	19909.83
506.936	19929.94
507.304	20212.87
507.672	20174.46
508.041	20362.02
508.409	20564.05
508.777	20735.12
509.145	20923.36
509.514	20914.1
509.882	21242.45
510.25	21221.89
510.618	21468.43
510.986	21558.37
511.354	21854.64
511.722	21982.77
512.09	22161.07
512.458	22122.88
512.826	22425.7
513.193	22591.57
513.561	22612.36
513.929	22935.51
514.297	23002.63
514.664	23266.13
515.032	23295.05
515.4	23474.71
515.767	23702.95
516.135	23881.7
516.502	23784.08
516.869	24262.48
517.237	24405.08
517.604	24300.9
517.972	24656.6
518.339	24888
518.706	24903.82
519.073	25090.26
519.44	25252.51
519.808	25541.32
520.175	25542.9
520.542	25949.22
520.909	26267.18
521.276	26219.04
521.643	26530.67
522.009	26573.16
522.376	26908.29
522.743	27104.44
523.11	27404.1
523.477	27618.78
523.843	27871.88
524.21	28114.36
524.577	28305.77
524.943	28446.1
525.31	28659.88
525.676	29091.74
526.043	29120.43
526.409	29309.58
526.776	29678.16
527.142	29724.03
527.508	29975.33
527.874	30246.51
528.241	30438.59
528.607	30399.27
528.973	30711.35
529.339	30790.9
529.705	31258.91
530.071	31449.87
530.437	31663.64
530.803	31799.46
531.169	32057.53
531.535	31935.73
531.901	32159.45
532.267	32295.72
532.632	32610.96
532.998	32726.89
533.364	32916.04
533.73	32978.86
534.095	33200.78
534.461	33390.83
534.826	33551.73
535.192	33697.72
535.557	33951.95
535.923	33918.27
536.288	34174.31
536.653	34267.87
537.019	34353.97
537.384	34568.65
537.749	34722.1
538.114	34755.09
538.479	34907.4
538.845	34991.92
539.21	34962.77
539.575	35132.93
539.94	35349.65
540.305	35502.64
540.67	35360.72
541.034	35479.36
541.399	35804.33
541.764	35822.18
542.129	35893.36
542.494	36064.66
542.858	36213.81
543.223	36229.63
543.587	36544.65
543.952	36581.03
544.316	36731.76
544.681	36808.37
545.045	36959.78
545.41	37275.47
545.774	37235.93
546.138	37339.65
546.503	37465.75
546.867	37574
547.231	37872.07
547.595	37956.36
547.959	38124.27
548.324	38192.06
548.688	38339.18
549.052	38472.96
549.416	38432.05
549.779	38536.23
550.143	38798.82
550.507	39059.61
550.871	38984.36
551.235	39106.61
551.599	39478.58
551.962	39413.72
552.326	39521.97
552.689	39570.1
553.053	39626.37
553.417	39705.02
553.78	40208.05
554.143	40117.89
554.507	40168.28
554.87	40520.81
555.234	40675.39
555.597	40701.37
555.96	40806.68
556.323	41014.36
556.686	41192.89
557.05	41337.74
557.413	41547.68
557.776	41488.02
558.139	41732.98
558.502	41864.73
558.865	41994.9
559.228	42468.78
559.59	42590.82
559.953	42586.3
560.316	43018.83
560.679	43146.51
561.041	43388.76
561.404	43475.76
561.767	43746.72
562.129	43644.12
562.492	44259.47
562.854	44115.29
563.217	44276.42
563.579	44495.62
563.941	44748.72
564.304	45091.54
564.666	45173.12
565.028	45313
565.39	45415.6
565.753	45661.92
566.115	45754.35
566.477	46077.05
566.839	46189.14
567.201	46329.02
567.563	46467.1
567.925	46715.68
568.287	46822.12
568.648	46934.43
569.01	47182.56
569.372	47440.86
569.734	47293.52
570.095	47731.92
570.457	47771.7
570.819	47821.64
571.18	47962.88
571.542	48206.26
571.903	48316.54
572.265	48486.93
572.626	48470.43
572.987	48698
573.349	48941.83
573.71	49024.77
574.071	49050.53
574.432	49206.46
574.794	49551.76
575.155	49511.09
575.516	49545.21
575.877	49622.04
576.238	49664.98
576.599	49784.75
576.96	49983.62
577.32	49895.03
577.681	50076.95
578.042	50071.52
578.403	50152.2
578.763	50341.8
579.124	50270.16
579.485	50528.91
579.845	50631.28
580.206	50508.57
580.566	50626.99
580.927	50651.62
581.287	50812.75
581.648	50653.65
582.008	50910.6
582.368	50762.58
582.728	50890.71
583.089	50885.74
583.449	50923.93
583.809	51013.42
584.169	51135.45
584.529	51015
584.889	51346.74
585.249	51055.68
585.609	51160.31
585.969	51365.95
586.329	51179.97
586.688	51127.09
587.048	51349.23
587.408	51182
587.768	51115.11
588.127	51214.09
588.487	51165.05
588.846	51405.05
589.206	51134.32
589.565	51309.23
589.925	51354.43
590.284	51175.45
590.643	51293.64
591.003	51431.71
591.362	51500.86
591.721	51469
592.08	51359.17
592.44	51374.54
592.799	51442.33
593.158	51411.6
593.517	51478.49
593.876	51461.32
594.235	51295.22
594.593	51450.47
594.952	51608.88
595.311	51394.88
595.67	51505.16
596.029	51664.93
596.387	51706.28
596.746	51759.61
597.104	51597.81
597.463	51533.86
597.822	51870.12
598.18	51665.38
598.538	51624.48
598.897	51839.39
599.255	51651.82
599.613	52030.11
599.972	51780.4
600.33	51948.54
600.688	51811.82
601.046	51835.32
601.404	51966.39
601.762	51861.08
602.12	52110.34
602.478	52126.84
602.836	52223.33
603.194	52058.36
603.552	52103.79
603.91	52008.42
604.268	52123.22
604.625	52111.02
604.983	52151.92
605.341	52077.8
605.698	52250.9
606.056	52287.96
606.413	52272.59
606.771	52272.37
607.128	52278.24
607.485	52311.46
607.843	52316.89
608.2	52505.36
608.557	52534.06
608.914	52406.38
609.272	52606.6
609.629	52666.93
609.986	52792.81
610.343	52615.41
610.7	52845.23
611.057	52807.04
611.414	52687.27
611.771	52758.46
612.127	52924.78
612.484	52899.24
612.841	53095.62
613.198	52911.22
613.554	52899.92
613.911	53089.52
614.267	53009.07
614.624	53088.84
614.98	53197.77
615.337	53256.75
615.693	53247.94
616.05	53255.62
616.406	53360.93
616.762	53232.34
617.118	53283.87
617.475	53221.5
617.831	53310.99
618.187	53269.18
618.543	53363.64
618.899	53541.26
619.255	53480.02
619.611	53466.01
619.967	53541.71
620.323	53596.63
620.678	53441.6
621.034	53419.91
621.39	53453.58
621.746	53432.79
622.101	53758.21
622.457	53404.09
622.812	53647.02
623.168	53717.3
623.523	53761.14
623.879	53864.19
624.234	53649.73
624.589	53780.35
624.945	53739.67
625.3	53759.11
625.655	53753.91
626.01	53689.05
626.365	53708.49
626.72	53670.98
627.075	53685.89
627.43	53637.98
627.785	53600.24
628.14	53646.34
628.495	53677.98
628.85	53700.81
629.205	53458.1
629.559	53751.88
629.914	53587.36
630.269	53612.22
630.623	53508.95
630.978	53511.88
631.332	53643.18
631.687	53483.41
632.041	53499.23
632.396	53461.26
632.75	53308.05
633.104	53448.83
633.459	53305.34
633.813	53409.51
634.167	53315.05
634.521	53298.1
634.875	53294.71
635.229	53195.73
635.583	53046.36
635.937	52960.94
636.291	52967.27
636.645	52968.17
636.999	52749.42
637.352	52814.95
637.706	52705.35
638.06	52774.95
638.413	52680.27
638.767	52547.16
639.121	52607.5
639.474	52377.9
639.828	52445.47
640.181	52493.15
640.534	52467.17
640.888	52259.94
641.241	52256.1
641.594	52256.78
641.947	52386.26
642.301	52274.18
642.654	52289.09
643.007	52238.47
643.36	52247.51
643.713	52136.55
644.066	52325.47
644.419	52010.68
644.771	51738.15
645.124	51543.35
645.477	51541.77
645.83	51394.88
646.182	51115.34
646.535	51047.09
646.888	51104.26
647.24	50974.78
647.593	51114.43
647.945	51058.39
648.298	50779.3
648.65	50775.23
649.002	50650.49
649.355	50778.85
649.707	50738.17
650.059	50835.12
650.411	51226.29
650.763	51314.65
651.115	51582.67
651.467	51431.94
651.819	51336.12
652.171	51258.16
652.523	51218.61
652.875	51173.87
653.227	51114.66
653.578	51286.41
653.93	51233.75
654.282	51124.15
654.633	50975.68
654.985	51053.87
655.337	51082.8
655.688	51116.47
656.039	51175.22
656.391	50876.02
656.742	50910.82
657.094	50899.75
657.445	50938.17
657.796	50866.53
658.147	50736.14
658.498	50754.89
658.849	50804.38
659.2	50737.04
659.551	50687.1
659.902	50695.91
660.253	50704.5
660.604	50668.34
660.955	50470.61
661.306	50590.6
661.656	50536.14
662.007	50506.54
662.358	50517.61
662.708	50473.55
663.059	50446.65
663.409	50340.89
663.76	50468.8
664.11	50462.92
664.461	50548.12
664.811	50438.52
665.161	50405.07
665.511	50192.42
665.862	50329.37
666.212	50509.48
666.562	50448.46
666.912	50281.01
667.262	50219.99
667.612	50254.34
667.962	50264.74
668.312	50250.95
668.662	50398.29
669.011	50301.8
669.361	50165.53
669.711	50099.54
670.06	50103.16
670.41	50098.19
670.76	50019.09
671.109	50086.21
671.459	49985.2
671.808	50001.69
672.157	50067
672.507	49777.97
672.856	49746.33
673.205	49820.46
673.554	50051.18
673.904	49857.06
674.253	49961.24
674.602	49883.28
674.951	49271.54
675.3	49134.6
675.649	49795.6
675.998	49679.67
676.346	49701.36
676.695	49776.16
677.044	49605.77
677.393	49742.72
677.741	49770.51
678.09	49572.33
678.438	49605.32
678.787	49545.89
679.135	49617.07
679.484	49382.27
679.832	49483.52
680.181	49200.58
680.529	49396.96
680.877	49286.01
681.225	49167.59
681.573	49346.34
681.922	48999.46
682.27	48840.37
682.618	48970.53
682.966	48902.06
683.314	48810.76
683.661	48783.65
684.009	48534.61
684.357	48582.52
684.705	48488.29
685.053	48426.37
685.4	48479.25
685.748	48291
686.095	48154.51
686.443	48068.64
686.79	48003.1
687.138	48081.97
687.485	48002.65
687.832	47828.42
688.18	47828.87
688.527	47618.93
688.874	47723.34
689.221	47622.55
689.568	47413.29
689.915	47364.02
690.262	47242.22
690.609	47205.16
690.956	47193.86
691.303	47112.96
691.65	46860.99
691.997	46823.02
692.344	46682.23
692.69	46632.06
693.037	46552.07
693.383	46297.16
693.73	46438.62
694.077	46096.94
694.423	46059.2
694.769	45934.23
695.116	45841.35
695.462	45927.9
695.808	45631.64
696.155	45720.68
696.501	45370.18
696.847	45345.32
697.193	45166.11
697.539	45368.14
697.885	45006.34
698.231	44808.38
698.577	44710.31
698.923	44790.98
699.269	44618.11
699.614	44384.44
699.96	44395.97
700.306	44204.11
700.651	43993.49
700.997	43980.61
701.342	43902.42
701.688	43847.28
702.033	43723.67
702.379	43571.58
702.724	43422.21
703.069	43499.04
703.415	43110.8
703.76	43243.45
704.105	43269.22
704.45	43082.33
704.795	42798.27
705.14	42661.1
705.485	42662.68
705.83	42608.67
706.175	42603.24
706.52	42547.65
706.865	42338.62
707.209	42255.46
707.554	42123.03
707.899	42104.5
708.243	41969.81
708.588	41947.22
708.932	41742.7
709.277	41564.63
709.621	41626.09
709.966	41386.33
710.31	41492.31
710.654	41015.26
710.998	41258.65
711.342	41202.6
711.687	40959.45
712.031	40811.88
712.375	40733.24
712.719	40742.95
713.063	40635.84
713.407	40715.84
713.75	40495.5
714.094	40293.7
714.438	40254.83
714.782	40247.6
715.125	40086.7
715.469	40087.38
715.812	39993.37
716.156	39753.83
716.499	39675.86
716.843	39855.29
717.186	39549.31
717.53	39748.18
717.873	39617.33
718.216	39589.99
718.559	39478.81
718.902	39045.15
719.246	39297.12
719.589	39091.47
719.932	39078.82
720.275	38977.35
720.617	39067.52
720.96	38948.2
721.303	38879.95
721.646	38811.03
721.989	38647.87
722.331	38694.19
722.674	38552.05
723.016	38646.29
723.359	38558.15
723.701	38455.1
724.044	38095.79
724.386	37984.61
724.729	38170.82
725.071	37974.89
725.413	38076.81
725.755	38003.82
726.097	37722.69
726.439	37659.42
726.782	37624.17
727.124	37906.19
727.465	37456.26
727.807	37489.25
728.149	37430.72
728.491	37310.05
728.833	37373.55
729.175	37237.96
729.516	37157.06
729.858	37075.93
730.199	37046.1
730.541	37039.1
730.882	36891.53
731.224	37117.29
731.565	36705.77
731.906	36657.86
732.248	36661.03
732.589	36458.32
732.93	36402.5
733.271	36369.74
733.612	36344.2
733.953	36470.07
734.294	36256.97
734.635	36078.44
734.976	36211.55
735.317	35951.67
735.658	36082.96
735.999	35932.69
736.339	35997.54
736.68	35917.77
737.021	35797.55
737.361	35718.91
737.702	35911.44
738.042	35657.66
738.383	35541.51
738.723	35586.48
739.063	35471.68
739.404	35559.14
739.744	35385.81
740.084	35232.14
740.424	35311.46
740.764	35131.8
741.104	35245.7
741.444	34868.76
741.784	35031.92
742.124	34873.96
742.464	34768.65
742.804	34795.54
743.143	34685.49
743.483	34774.98
743.823	34473.74
744.162	34405.04
744.502	34500.63
744.841	34321.88
745.181	34307.19
745.52	34251.37
745.86	34371.14
746.199	34121.89
746.538	34193.07
746.877	34110.13
747.216	34006.63
747.556	33979.52
747.895	33832.18
748.234	33759.41
748.573	33646.42
748.911	33564.39
749.25	33658.62
749.589	33389.93
749.928	33418.85
750.267	33549.7
750.605	33382.47
750.944	33277.61
751.283	33218.86
751.621	33252.08
751.96	33064.29
752.298	33052.53
752.636	33050.05
752.975	32887.79
