Data from aluminium_surface_pro_back_FLMS001491_00009.txt Node
Date: Wed Feb 08 15:33:30 GMT 2017
User: dcchb
Spectrometer: FLMS00149
Trigger mode: 0
Integration Time (sec): 2.000000E-2
Scans to average: 10
Electric dark correction enabled: true
Nonlinearity correction enabled: false
Boxcar width: 0
XAxis mode: Wavelengths
Number of Pixels in Spectrum: 2048
>>>>>Begin Spectral Data<<<<<
341.393	-20.37
341.776	-20.37
342.16	-20.37
342.543	-44.32
342.927	-63.76
343.31	-68.5
343.693	-58.56
344.077	-62.85
344.46	-70.31
344.843	-56.98
345.226	-26.69
345.61	-22.17
345.993	-27.82
346.376	-9.52
346.759	19.63
347.142	16.69
347.525	34.32
347.908	49.46
348.291	82
348.674	92.85
349.057	108.44
349.44	124.26
349.823	139.86
350.206	172.17
350.588	221.43
350.971	230.47
351.354	239.74
351.737	267.31
352.119	284.48
352.502	290.59
352.884	319.96
353.267	308.89
353.65	316.35
354.032	294.43
354.414	315.22
354.797	348.44
355.179	367.65
355.562	351.83
355.944	380.07
356.326	371.49
356.709	354.54
357.091	383.46
357.473	367.19
357.855	383.46
358.238	376.01
358.62	374.65
359.002	361.54
359.384	370.81
359.766	369.45
360.148	392.96
360.53	372.62
360.912	372.17
361.294	371.71
361.676	384.59
362.057	377.81
362.439	378.94
362.821	377.36
363.203	371.04
363.584	367.42
363.966	362.9
364.348	378.27
364.729	363.58
365.111	359.28
365.493	373.97
365.874	347.76
366.256	378.27
366.637	365.39
367.019	365.84
367.4	377.14
367.781	375.78
368.163	369.91
368.544	367.19
368.925	356.57
369.306	389.57
369.688	395.44
370.069	366.29
370.45	385.27
370.831	390.92
371.212	390.47
371.593	359.74
371.974	392.05
372.355	390.02
372.736	374.2
373.117	403.35
373.498	394.54
373.879	401.09
374.26	399.96
374.641	394.09
375.021	384.14
375.402	403.12
375.783	402.45
376.163	412.16
376.544	413.07
376.925	435.67
377.305	421.43
377.686	427.31
378.066	423.69
378.447	421.88
378.827	427.31
379.208	419.4
379.588	430.02
379.968	432.28
380.349	449
380.729	431.15
381.109	445.61
381.489	446.97
381.87	450.13
382.25	468.89
382.63	455.33
383.01	434.76
383.39	466.63
383.77	460.52
384.15	482.44
384.53	484.93
384.91	497.13
385.29	487.42
385.67	514.99
386.049	532.16
386.429	524.03
386.809	512.05
387.189	542.78
387.568	529.9
387.948	537.81
388.328	517.02
388.707	537.13
389.087	534.87
389.466	569.22
389.846	550.69
390.225	559.51
390.605	548.43
390.984	554.76
391.363	560.86
391.743	569.45
392.122	574.65
392.501	620.75
392.881	600.86
393.26	606.96
393.639	641.76
394.018	615.32
394.397	600.41
394.776	635.89
395.155	652.84
395.534	657.81
395.913	654.87
396.292	656.23
396.671	654.87
397.05	691.48
397.429	685.38
397.808	675.89
398.186	683.34
398.565	685.38
398.944	709.11
399.323	706.85
399.701	718.6
400.08	726.05
400.458	705.94
400.837	752.27
401.215	750.01
401.594	732.38
401.972	754.08
402.351	763.79
402.729	775.77
403.107	799.05
403.486	845.6
403.864	797.69
404.242	826.16
404.62	818.26
404.999	826.39
405.377	862.32
405.755	874.3
406.133	886.5
406.511	886.28
406.889	876.78
407.267	924.92
407.645	908.87
408.023	950.23
408.401	938.93
408.779	945.94
409.156	961.98
409.534	959.04
409.912	991.81
410.29	995.65
410.667	1022.54
411.045	1041.3
411.422	1024.35
411.8	1051.7
412.178	1062.32
412.555	1075.65
412.933	1106.16
413.31	1102.54
413.687	1131.24
414.065	1167.4
414.442	1169.21
414.819	1156.1
415.197	1172.14
415.574	1159.72
415.951	1222.99
416.328	1220.96
416.705	1230.67
417.082	1229.32
417.46	1250.11
417.837	1271.12
418.214	1292.82
418.591	1291.01
418.967	1321.74
419.344	1322.65
419.721	1331.69
420.098	1346.15
420.475	1353.38
420.852	1385.47
421.228	1371.46
421.605	1387.05
421.982	1423.66
422.358	1463.21
422.735	1444.23
423.111	1444.45
423.488	1509.31
423.864	1494.17
424.241	1512.25
424.617	1515.86
424.994	1543.43
425.37	1573.26
425.746	1586.14
426.123	1597.9
426.499	1639.02
426.875	1623.21
427.251	1654.17
427.627	1670.89
428.003	1715.63
428.379	1696.2
428.756	1729.64
429.132	1753.6
429.507	1777.55
429.883	1819.36
430.259	1837.89
430.635	1842.18
431.011	1873.59
431.387	1933.03
431.763	1919.47
432.138	1935.06
432.514	1996.76
432.89	2010.99
433.265	2051.44
433.641	2042.86
434.016	2090.09
434.392	2084.21
434.767	2147.94
435.143	2169.41
435.518	2197.65
435.894	2209.86
436.269	2269.06
436.644	2269.29
437.02	2284.21
437.395	2293.7
437.77	2305.45
438.145	2379.8
438.52	2390.19
438.895	2392.23
439.271	2433.35
439.646	2492.79
440.021	2491.21
440.395	2522.39
440.77	2486.23
441.145	2520.81
441.52	2592.67
441.895	2586.12
442.27	2610.52
442.645	2636.06
443.019	2657.75
443.394	2685.32
443.769	2712.22
444.143	2656.63
444.518	2769.84
444.892	2740.46
445.267	2793.34
445.641	2768.94
446.016	2821.14
446.39	2838.09
446.764	2827.24
447.139	2884.42
447.513	2904.98
447.887	2907.47
448.262	2921.93
448.636	2979.78
449.01	2993.11
449.384	3010.29
449.758	3057.29
450.132	3102.26
450.506	3108.36
450.88	3135.26
451.254	3180.68
451.628	3178.42
452.002	3250.28
452.376	3237.63
452.75	3296.16
453.123	3291.86
453.497	3342.03
453.871	3408.24
454.244	3447.79
454.618	3506.77
454.992	3507.68
455.365	3514.91
455.739	3670.38
456.112	3671.97
456.486	3682.13
456.859	3685.98
457.232	3774.11
457.606	3805.3
457.979	3883.94
458.352	3941.79
458.725	3956.48
459.099	4018.17
459.472	4098.17
459.845	4133.65
460.218	4159.64
460.591	4183.82
460.964	4214.32
461.337	4356.92
461.71	4372.29
462.083	4409.8
462.456	4438.27
462.829	4514.43
463.201	4575.67
463.574	4613.86
463.947	4691.37
464.32	4787.87
464.692	4831.03
465.065	4890.01
465.438	4899.28
465.81	4973.17
466.183	5060.63
466.555	5146.5
466.928	5183.34
467.3	5169.1
467.672	5265.37
468.045	5391.92
468.417	5395.08
468.789	5464.01
469.161	5520.96
469.534	5678.69
469.906	5759.82
470.278	5835.07
470.65	5858.35
471.022	5998.23
471.394	6085.24
471.766	6165.46
472.138	6234.16
472.51	6339.01
472.882	6447.49
473.253	6537.43
473.625	6584.43
473.997	6754.37
474.369	6778.32
474.74	6919.56
475.112	7023.52
475.484	7158.65
475.855	7282.04
476.227	7366.33
476.598	7514.35
476.97	7586.89
477.341	7833.21
477.713	7903.72
478.084	7959.76
478.455	8224.39
478.827	8320.43
479.198	8526.08
479.569	8456.92
479.94	8806.29
480.311	8887.87
480.682	9062.56
481.053	9271.59
481.424	9399.5
481.795	9471.81
482.166	9696.44
482.537	9793.16
482.908	10000.84
483.279	10064.11
483.65	10258.91
484.021	10481.96
484.391	10561.73
484.762	10663.65
485.133	10818.44
485.503	10994.94
485.874	11216.17
486.244	11374.14
486.615	11495.04
486.985	11699.1
487.356	11902.03
487.726	11960.11
488.097	12259.99
488.467	12259.31
488.837	12570.49
489.207	12658.85
489.578	12827.21
489.948	12947.2
490.318	13166.63
490.688	13207.76
491.058	13425.83
491.428	13569.11
491.798	13764.81
492.168	14042.31
492.538	14114.4
492.908	14304.45
493.278	14526.82
493.648	14483.43
494.017	14774.5
494.387	14863.08
494.757	14947.15
495.126	15238.22
495.496	15226.69
495.866	15382.17
496.235	15561.14
496.605	15635.04
496.974	15791.87
497.344	15904.41
497.713	16054.46
498.082	16160.68
498.452	16343.27
498.821	16382.37
499.19	16524.28
499.559	16716.14
499.928	16849.92
500.298	16972.63
500.667	17140.54
501.036	17116.36
501.405	17329.23
501.774	17348.44
502.143	17544.82
502.512	17690.81
502.88	17750.92
503.249	17785.27
503.618	17895.32
503.987	18088.31
504.356	18253.73
504.724	18317
505.093	18411.47
505.462	18433.16
505.83	18612.82
506.199	18749.31
506.567	19029.98
506.936	19107.49
507.304	19340.25
507.672	19374.38
508.041	19512.91
508.409	19646.91
508.777	19836.74
509.145	20093.23
509.514	20095.71
509.882	20264.75
510.25	20350.17
510.618	20485.76
510.986	20684.85
511.354	20812.08
511.722	20983.6
512.09	21267.44
512.458	21223.59
512.826	21385.62
513.193	21567.31
513.561	21780.19
513.929	21875.33
514.297	22100.41
514.664	22348.54
515.032	22361.64
515.4	22569.1
515.767	22619.49
516.135	22773.61
516.502	22738.58
516.869	23202.98
517.237	23304.67
517.604	23229.64
517.972	23444.33
518.339	23713.47
518.706	23713.25
519.073	23865.78
519.44	24182.39
519.808	24480.01
520.175	24445.88
520.542	24680.68
520.909	24886.32
521.276	24986.66
521.643	25321.11
522.009	25422.81
522.376	25618.51
522.743	25798.39
523.11	26011.49
523.477	26275.89
523.843	26450.12
524.21	26652.6
524.577	26951.13
524.943	27119.26
525.31	27276.54
525.676	27546.14
526.043	27601.51
526.409	27778.45
526.776	28278.1
527.142	28375.5
527.508	28466.79
527.874	28687.35
528.241	28944.97
528.607	29071.98
528.973	29308.13
529.339	29407.33
529.705	29695.91
530.071	29935.46
530.437	30003.25
530.803	30274.43
531.169	30463.13
531.535	30358.72
531.901	30508.55
532.267	30769.56
532.632	31041.42
532.998	31024.47
533.364	31315.98
533.73	31343.55
534.095	31584.68
534.461	31668.52
534.826	31938.79
535.192	31900.38
535.557	32220.59
535.923	32285
536.288	32372.45
536.653	32505.33
537.019	32677.3
537.384	32731.77
537.749	32977.86
538.114	32979.9
538.479	33101.7
538.845	33360.45
539.21	33308.25
539.575	33506.21
539.94	33598.64
540.305	33758.63
540.67	33753.89
541.034	33956.82
541.399	34081.34
541.764	34053.99
542.129	34338.28
542.494	34352.06
542.858	34553.64
543.223	34659.17
543.587	34858.94
543.952	34894.87
544.316	34966.96
544.681	35007.86
545.045	35277.69
545.41	35288.54
545.774	35375.09
546.138	35519.72
546.503	35617.34
546.867	35695.53
547.231	36044
547.595	35969.2
547.959	36154.05
548.324	36235.18
548.688	36356.53
549.052	36542.97
549.416	36630.42
549.779	36669.74
550.143	36738.89
550.507	37080.58
550.871	37236.28
551.235	37113.57
551.599	37434.24
551.962	37484.18
552.326	37513.11
552.689	37860.45
553.053	37716.04
553.417	37708.13
553.78	38321.45
554.143	38106.31
554.507	38339.53
554.87	38404.84
555.234	38826.52
555.597	38637.83
555.96	38952.85
556.323	39168.21
556.686	39092.28
557.05	39496.11
557.413	39528.2
557.776	39598.93
558.139	40061.97
558.502	40026.94
558.865	40174.96
559.228	40696.75
559.59	40617.89
559.953	40690.65
560.316	41181.26
560.679	41130.19
561.041	41527.02
561.404	41653.79
561.767	41925.2
562.129	41840
562.492	42296.26
562.854	42216.49
563.217	42352.53
563.579	42567.44
563.941	42695.12
564.304	42971.5
564.666	43352.28
565.028	43538.26
565.39	43618.03
565.753	43782.78
566.115	44110.9
566.477	44111.13
566.839	44334.85
567.201	44588.86
567.563	44574.84
567.925	44851.22
568.287	44886.93
568.648	45013.25
569.01	45287.14
569.372	45571.43
569.734	45356.52
570.095	45675.83
570.457	45818.65
570.819	46081.7
571.18	46151.98
571.542	46158.31
571.903	46451.18
572.265	46567.56
572.626	46741.57
572.987	46838.74
573.349	46982.01
573.71	47169.58
574.071	47275.56
574.432	47459.06
574.794	47797.36
575.155	47762.56
575.516	47596.01
575.877	47870.58
576.238	47898.15
576.599	48107.63
576.96	48140.4
577.32	48109.67
577.681	48250.68
578.042	48442.54
578.403	48555.53
578.763	48515.53
579.124	48659.71
579.485	48843.66
579.845	48980.6
580.206	48943.09
580.566	48930.89
580.927	49035.74
581.287	49103.77
581.648	49031
582.008	49274.83
582.368	49162.75
582.728	49244.78
583.089	49292.01
583.449	49212.69
583.809	49356.41
584.169	49421.95
584.529	49243.87
584.889	49729.29
585.249	49384.44
585.609	49397.32
585.969	49537.43
586.329	49464.21
586.688	49529.97
587.048	49409.52
587.408	49405
587.768	49347.83
588.127	49354.61
588.487	49398.9
588.846	49754.14
589.206	49480.93
589.565	49612.9
589.925	49729.29
590.284	49568.61
590.643	49730.64
591.003	49807.48
591.362	49968.6
591.721	49856.29
592.08	49770.19
592.44	49982.39
592.799	49902.84
593.158	49870.3
593.517	49845.21
593.876	49864.2
594.235	49761.6
594.593	49802.73
594.952	49977.41
595.311	49861.26
595.67	49917.76
596.029	50181.93
596.387	50082.95
596.746	50197.07
597.104	49995.72
597.463	50053.57
597.822	50246.33
598.18	50090.86
598.538	50113.68
598.897	50274.36
599.255	50064.64
599.613	50512.54
599.972	50292.66
600.33	50428.25
600.688	50202.49
601.046	50360.46
601.404	50458.53
601.762	50505.54
602.12	50627.12
602.478	50621.92
602.836	50703.95
603.194	50463.05
603.552	50614.91
603.91	50496.5
604.268	50657.4
604.625	50531.98
604.983	50791.4
605.341	50578.53
605.698	50861.91
606.056	50821.91
606.413	50762.03
606.771	50898.07
607.128	50847.45
607.485	50797.51
607.843	50882.02
608.2	51057.39
608.557	51091.96
608.914	50975.35
609.272	51180.55
609.629	51188
609.986	51265.06
610.343	51058.74
610.7	51359.07
611.057	51288.11
611.414	51255.35
611.771	51204.5
612.127	51366.76
612.484	51392.74
612.841	51447.43
613.198	51297.83
613.554	51357.72
613.911	51505.74
614.267	51545.28
614.624	51523.14
614.98	51601.1
615.337	51720.87
615.693	51680.19
616.05	51630.93
616.406	51976.23
616.762	51774.66
617.118	51831.6
617.475	51673.42
617.831	51859.85
618.187	51914.76
618.543	51974.42
618.899	52021.65
619.255	52015.78
619.611	52034.31
619.967	52146.4
620.323	52126.06
620.678	51995.21
621.034	51976.68
621.39	51931.49
621.746	51913.63
622.101	52218.03
622.457	52006.29
622.812	52150.01
623.168	52033.18
623.523	52091.94
623.879	52115.21
624.234	51996.8
624.589	52145.49
624.945	52050.58
625.3	52150.46
625.655	52096.46
626.01	52108.88
626.365	52081.31
626.72	51915.44
627.075	51890.36
627.43	51966.74
627.785	51896.46
628.14	51957.48
628.495	51924.71
628.85	51924.71
629.205	51851.94
629.559	52017.81
629.914	51974.2
630.269	52044.48
630.623	51957.48
630.978	51774.88
631.332	52002.45
631.687	52013.07
632.041	51802.23
632.396	51863.69
632.75	51787.99
633.104	51790.25
633.459	51584.38
633.813	51517.71
634.167	51579.18
634.521	51590.25
634.875	51545.51
635.229	51562.68
635.583	51304.84
635.937	51296.48
636.291	51390.71
636.645	51322.24
636.999	51257.61
637.352	51289.02
637.706	51174.9
638.06	51293.09
638.413	51247.66
638.767	51152.53
639.121	51078.85
639.474	50935.13
639.828	50939.88
640.181	50943.72
640.534	50931.51
640.888	50813.32
641.241	50607
641.594	50702.37
641.947	50765.64
642.301	50666.66
642.654	50706.66
643.007	50600.9
643.36	50691.29
643.713	50500.34
644.066	50625.31
644.419	50462.15
644.771	50200.69
645.124	49953.01
645.477	49901.94
645.83	49692
646.182	49487.71
646.535	49394.15
646.888	49422.85
647.24	49265.8
647.593	49424.89
647.945	49280.94
648.298	49179.24
648.65	49004.33
649.002	49010.66
649.355	49214.5
649.707	48998.23
650.059	49181.96
650.411	49727.7
650.763	49722.28
651.115	50075.72
651.467	49935.16
651.819	49888.83
652.171	49916.4
652.523	49759.12
652.875	49813.13
653.227	49553.25
653.578	49807.7
653.93	49617.42
654.282	49545.56
654.633	49344.44
654.985	49451.33
655.337	49476.18
655.688	49338.79
656.039	49530.19
656.391	49143.76
656.742	49226.7
657.094	49197.77
657.445	49250.88
657.796	49133.14
658.147	49079.59
658.498	49023.32
658.849	49215.63
659.2	49044.11
659.551	48942.64
659.902	49160.94
660.253	49023.54
660.604	48979.7
660.955	48864.9
661.306	49051.11
661.656	48954.16
662.007	48931.11
662.358	48897.67
662.708	48831.91
663.059	48780.38
663.409	48669.65
663.76	48861.29
664.11	48748.75
664.461	48818.58
664.811	48763.66
665.161	48616.09
665.511	48626.49
665.862	48600.95
666.212	48640.27
666.562	48647.96
666.912	48442.77
667.262	48520.5
667.612	48378.81
667.962	48530.9
668.312	48314.63
668.662	48509.43
669.011	48450.22
669.361	48412.94
669.711	48471.24
670.06	48316.22
670.41	48152.6
670.76	48174.75
671.109	48388.08
671.459	48260.85
671.808	48190.34
672.157	48244.35
672.507	48169.1
672.856	48101.98
673.205	48190.8
673.554	48135.66
673.904	48136.79
674.253	48305.82
674.602	48175.88
674.951	47489.8
675.3	47404.15
675.649	47957.13
675.998	47977.69
676.346	47898.83
676.695	48046.84
677.044	47531.6
677.393	47747.64
677.741	47723.69
678.09	47560.3
678.438	47549.46
678.787	47549
679.135	47594.43
679.484	47291.16
679.832	47543.58
680.181	47259.29
680.529	47329.12
680.877	47320.08
681.225	47276.47
681.573	47397.6
681.922	46953.54
682.27	46969.58
682.618	47137.94
682.966	46979.08
683.314	47109.24
683.661	46905.63
684.009	46648.46
684.357	46550.84
684.705	46494.57
685.053	46539.54
685.4	46390.62
685.748	46317.62
686.095	46281.92
686.443	46095.71
686.79	46098.42
687.138	46102.49
687.485	46124.41
687.832	45837.64
688.18	46000.57
688.527	45689.39
688.874	45812.55
689.221	45691.2
689.568	45582.95
689.915	45454.6
690.262	45381.6
690.609	45230.19
690.956	45253.47
691.303	45249.86
691.65	44944.1
691.997	44864.1
692.344	44769.19
692.69	44622.98
693.037	44828.85
693.383	44343.44
693.73	44472.47
694.077	44140.96
694.423	44174.63
694.769	44054.86
695.116	44016.22
695.462	43748.88
695.808	43695.77
696.155	43844.92
696.501	43513.18
696.847	43517.25
697.193	43250.13
697.539	43326.74
697.885	42996.81
698.231	42910.26
698.577	42942.57
698.923	42792.74
699.269	42778.51
699.614	42452.41
699.96	42391.85
700.306	42360.21
700.651	42239.77
700.997	42030.05
701.342	42065.31
701.688	41877.29
702.033	41750.51
702.379	41762.04
702.724	41591.19
703.069	41641.36
703.415	41267.36
703.76	41207.93
704.105	41237.53
704.45	41108.95
704.795	40836.86
705.14	40723.65
705.485	40817.2
705.83	40642.07
706.175	40590.09
706.52	40443.43
706.865	40265.35
707.209	40113.04
707.554	40035.98
707.899	40177.22
708.243	39972.48
708.588	39969.77
708.932	39644.81
709.277	39577.69
709.621	39628.53
709.966	39301.99
710.31	39523.45
710.654	39147.19
710.998	39133.63
711.342	39125.72
711.687	38996.69
712.031	38878.72
712.375	38669.69
712.719	38690.93
713.063	38629.24
713.407	38781.78
713.75	38496.81
714.094	38571.61
714.438	38276.71
714.782	38248.23
715.125	38190.83
715.469	38216.82
715.812	38027.45
716.156	37821.12
716.499	37912.65
716.843	37804.4
717.186	37617.51
717.53	37894.34
717.873	37762.59
718.216	37616.61
718.559	37396.28
718.902	37214.81
719.246	37398.31
719.589	37253.23
719.932	37056.62
720.275	36909.96
720.617	37061.6
720.96	36859.12
721.303	36864.31
721.646	36792.45
721.989	36724.66
722.331	36648.05
722.674	36582.74
723.016	36683.53
723.359	36508.16
723.701	36461.84
724.044	36240.83
724.386	36090.55
724.729	36214.84
725.071	36128.97
725.413	36203.54
725.755	36134.16
726.097	35998.12
726.439	35733.27
726.782	35896.88
727.124	35976.2
727.465	35645.14
727.807	35582.09
728.149	35575.99
728.491	35463.45
728.833	35552.03
729.175	35381.87
729.516	35338.03
729.858	35289.21
730.199	35180.52
730.541	35132.61
730.882	35106.62
731.224	35262.55
731.565	34877.92
731.906	34953.63
732.248	34937.13
732.589	34628.89
732.93	34553.19
733.271	34639.74
733.612	34619.4
733.953	34546.18
734.294	34407.65
734.635	34372.63
734.976	34411.27
735.317	34105.97
735.658	34127.66
735.999	34195.68
736.339	34068.91
736.68	34244.72
737.021	34091.5
737.361	33894.45
737.702	33964.05
738.042	33804.05
738.383	33720.22
738.723	33837.05
739.063	33691.97
739.404	33616.49
739.744	33607.68
740.084	33404.29
740.424	33450.84
740.764	33474.35
741.104	33424.18
741.444	33221.02
741.784	33293.33
742.124	33275.03
742.464	33139.21
742.804	33166.33
743.143	32983.51
743.483	33129.04
743.823	32931.08
744.162	32804.53
744.502	32868.94
744.841	32644.54
745.181	32795.95
745.52	32578.1
745.86	32602.73
746.199	32601.6
746.538	32541.94
746.877	32579.68
747.216	32449.97
747.556	32317.09
747.895	32265.56
748.234	32133.36
748.573	32098.11
748.911	32048.17
749.25	31902.18
749.589	31855.86
749.928	31838.23
750.267	31765.01
750.605	31727.5
750.944	31678.46
751.283	31431.69
751.621	31526.83
751.96	31242.77
752.298	31282.31
752.636	31284.12
