Data from aluminium_surface_pro_back_FLMS001491_00053.txt Node
Date: Wed Feb 08 15:34:15 GMT 2017
User: dcchb
Spectrometer: FLMS00149
Trigger mode: 0
Integration Time (sec): 2.000000E-2
Scans to average: 10
Electric dark correction enabled: true
Nonlinearity correction enabled: false
Boxcar width: 0
XAxis mode: Wavelengths
Number of Pixels in Spectrum: 2048
>>>>>Begin Spectral Data<<<<<
341.393	-22.16
341.776	-22.16
342.16	-22.16
342.543	-54.48
342.927	-59.22
343.31	-75.04
343.693	-63.97
344.077	-56.96
344.46	-57.41
344.843	-68.03
345.226	-37.3
345.61	-32.78
345.993	-24.87
346.376	-7.47
346.759	-1.14
347.142	14.67
347.525	39.53
347.908	73.43
348.291	69.59
348.674	100.32
349.057	127.44
349.44	122.02
349.823	137.38
350.206	181
350.588	213.31
350.971	242.24
351.354	265.74
351.737	270.94
352.119	284.05
352.502	293.54
352.884	316.14
353.267	311.16
353.65	327.21
354.032	321.79
354.414	321.33
354.797	321.11
355.179	353.2
355.562	360.2
355.944	360.43
356.326	354.1
356.709	362.01
357.091	366.53
357.473	376.93
357.855	387.09
358.238	370.37
358.62	350.71
359.002	377.6
359.384	378.51
359.766	384.61
360.148	398.62
360.53	378.28
360.912	373.76
361.294	374.89
361.676	366.76
362.057	363.37
362.439	362.01
362.821	374.21
363.203	369.69
363.584	378.28
363.966	363.59
364.348	379.41
364.729	350.03
365.111	378.51
365.493	390.94
365.874	366.98
366.256	366.08
366.637	376.93
367.019	364.95
367.4	363.14
367.781	357.72
368.163	368.11
368.544	376.93
368.925	372.41
369.306	382.12
369.688	382.35
370.069	356.59
370.45	352.74
370.831	382.35
371.212	351.62
371.593	378.06
371.974	388
372.355	374.21
372.736	382.8
373.117	392.29
373.498	370.82
373.879	377.83
374.26	380.99
374.641	392.74
375.021	406.53
375.402	410.82
375.783	397.26
376.163	412.18
376.544	418.73
376.925	398.62
377.305	413.08
377.686	428.22
378.066	427.32
378.447	445.85
378.827	425.06
379.208	441.78
379.588	417.38
379.968	407.88
380.349	436.13
380.729	423.7
381.109	445.62
381.489	469.13
381.87	447.88
382.25	468.45
382.63	450.37
383.01	460.54
383.39	476.36
383.77	471.61
384.15	461.67
384.53	462.8
384.91	500.31
385.29	496.92
385.67	477.04
386.049	485.17
386.429	510.71
386.809	485.4
387.189	510.93
387.568	519.07
387.948	521.33
388.328	527.66
388.707	509.8
389.087	511.38
389.466	527.88
389.846	539.86
390.225	565.85
390.605	548.67
390.984	559.97
391.363	568.78
391.743	569.01
392.122	600.87
392.501	600.65
392.881	604.49
393.26	604.72
393.639	626.64
394.018	619.18
394.397	607.88
394.776	640.87
395.155	624.6
395.534	639.74
395.913	647.2
396.292	661.66
396.671	676.8
397.05	655.79
397.429	668.67
397.808	696.92
398.186	686.52
398.565	706.41
398.944	699.4
399.323	689.69
399.701	723.13
400.08	738.72
400.458	731.27
400.837	735.79
401.215	747.99
401.594	754.32
401.972	758.38
402.351	752.06
402.729	789.34
403.107	772.39
403.486	804.71
403.864	814.88
404.242	816.46
404.62	836.35
404.999	831.38
405.377	844.03
405.755	830.7
406.133	880.87
406.511	884.71
406.889	894.43
407.267	891.71
407.645	921.32
408.023	937.59
408.401	947.08
408.779	961.99
409.156	965.61
409.534	974.88
409.912	972.39
410.29	1017.59
410.667	1006.29
411.045	1006.51
411.422	1036.12
411.8	1064.36
412.178	1047.19
412.555	1092.84
412.933	1085.83
413.31	1100.52
413.687	1101.2
414.065	1150.24
414.442	1178.26
414.819	1160.86
415.197	1178.03
415.574	1161.31
415.951	1221.87
416.328	1222.55
416.705	1223.91
417.082	1236.79
417.46	1261.65
417.837	1270.46
418.214	1284.25
418.591	1272.04
418.967	1301.19
419.344	1303
419.721	1315.43
420.098	1359.5
420.475	1325.83
420.852	1369.89
421.228	1370.35
421.605	1385.03
421.982	1405.6
422.358	1399.27
422.735	1454.18
423.111	1419.38
423.488	1467.52
423.864	1452.6
424.241	1465.03
424.617	1514.07
424.994	1517.69
425.37	1533.73
425.746	1537.57
426.123	1564.01
426.499	1588.42
426.875	1626.84
427.251	1632.26
427.627	1682.65
428.003	1685.14
428.379	1710
428.756	1739.6
429.132	1742.31
429.507	1764.23
429.883	1790.9
430.259	1838.36
430.635	1851.01
431.011	1863.67
431.387	1886.94
431.763	1928.75
432.138	1938.47
432.514	2006.94
432.89	1992.93
433.265	1997.9
433.641	2030.44
434.016	2067.5
434.392	2102.53
434.767	2141.17
435.143	2149.53
435.518	2164.22
435.894	2214.62
436.269	2246.48
436.644	2259.59
437.02	2278.57
437.395	2291.45
437.77	2320.6
438.145	2328.51
438.52	2359.7
438.895	2384.78
439.271	2377.1
439.646	2450.99
440.021	2449.41
440.395	2488.06
440.77	2474.95
441.145	2490.99
441.52	2544.1
441.895	2531.67
442.27	2549.75
442.645	2602.4
443.019	2618
443.394	2639.92
443.769	2647.15
444.143	2643.53
444.518	2737.54
444.892	2712.91
445.267	2729.86
445.641	2779.12
446.016	2767.6
446.39	2778.67
446.764	2819.57
447.139	2841.72
447.513	2876.75
447.887	2879.23
448.262	2900.02
448.636	2860.02
449.01	2913.58
449.384	2966.91
449.758	3000.81
450.132	3026.35
450.506	3042.39
450.88	3056.85
451.254	3107.93
451.628	3133.46
452.002	3193.35
452.376	3204.42
452.75	3228.15
453.123	3259.56
453.497	3327.13
453.871	3348.82
454.244	3373.68
454.618	3431.99
454.992	3507.24
455.365	3494.36
455.739	3550.85
456.112	3603.28
456.486	3588.37
456.859	3662.49
457.232	3770.51
457.606	3730.28
457.979	3795.59
458.352	3900.9
458.725	3940.45
459.099	3930.5
459.472	4036.04
459.845	4071.29
460.218	4072.87
460.591	4154
460.964	4139.54
461.337	4261.12
461.71	4376.37
462.083	4373.43
462.456	4392.19
462.829	4434.45
463.201	4529.58
463.574	4521.22
463.947	4617.49
464.32	4723.03
464.692	4716.92
465.065	4763.93
465.438	4836.24
465.81	4946.52
466.183	4986.07
466.555	5043.92
466.928	5102.45
467.3	5099.06
467.672	5201.43
468.045	5299.28
468.417	5374.08
468.789	5362.33
469.161	5455.89
469.534	5602.55
469.906	5643.45
470.278	5737.69
470.65	5776.78
471.022	5906.72
471.394	6040.05
471.766	6017.45
472.138	6101.75
472.51	6273.49
472.882	6325.92
473.253	6468.29
473.625	6501.06
473.997	6666.7
474.369	6679.13
474.74	6832.8
475.112	6940.14
475.484	6988.5
475.855	7108.5
476.227	7232.79
476.598	7405.89
476.97	7453.58
477.341	7697.86
477.713	7767.01
478.084	7861.7
478.455	8082.49
478.827	8128.13
479.198	8360.44
479.569	8373.33
479.94	8642.47
480.311	8746.87
480.682	8941.22
481.053	9080.43
481.424	9256.01
481.795	9320.87
482.166	9498.27
482.537	9580.75
482.908	9833.63
483.279	9935.32
483.65	10118.14
484.021	10314.06
484.391	10487.39
484.762	10546.6
485.133	10632.93
485.503	10793.15
485.874	11055.29
486.244	11104.1
486.615	11361.27
486.985	11529.85
487.356	11646.69
487.726	11698.66
488.097	12036.96
488.467	12035.6
488.837	12330.96
489.207	12488.02
489.578	12653.21
489.948	12692.31
490.318	13006.65
490.688	13036.03
491.058	13160.32
491.428	13396.47
491.798	13579.52
492.168	13856.57
492.538	13963.01
492.908	14014.31
493.278	14278.03
493.648	14316.9
494.017	14583.11
494.387	14722.76
494.757	14782.65
495.126	15061.51
495.496	15052.25
495.866	15206.37
496.235	15400.03
496.605	15477.55
496.974	15600.25
497.344	15857.87
497.713	15924.09
498.082	16037.98
498.452	16200.69
498.821	16320.23
499.19	16306.45
499.559	16581.7
499.928	16618.31
500.298	16793.67
500.667	16864.18
501.036	16993.21
501.405	17077.05
501.774	17116.6
502.143	17402.01
502.512	17437.95
502.88	17599.52
503.249	17569.24
503.618	17793.19
503.987	17948.44
504.356	18009.23
504.724	18130.81
505.093	18180.75
505.462	18291.71
505.83	18439.05
506.199	18731.24
506.567	18860.05
506.936	18724.47
507.304	19080.39
507.672	19165.81
508.041	19299.82
508.409	19446.03
508.777	19512.92
509.145	19678.11
509.514	19803.98
509.882	20043.3
510.25	20157.65
510.618	20216.4
510.986	20459.11
511.354	20587.24
511.722	20704.3
512.09	20873.34
512.458	20897.52
512.826	21123.72
513.193	21276.04
513.561	21367.79
513.929	21526.88
514.297	21820.2
514.664	21979.07
515.032	22016.58
515.4	22194.66
515.767	22304.94
516.135	22463.35
516.502	22372.96
516.869	22845.26
517.237	23082.09
517.604	23063.56
517.972	23298.81
518.339	23400.27
518.706	23485.47
519.073	23566.15
519.44	23828.51
519.808	24101.05
520.175	24179.69
520.542	24478.89
520.909	24674.37
521.276	24638.21
521.643	24889.73
522.009	25032.77
522.376	25290.85
522.743	25573.1
523.11	25680.21
523.477	26021.45
523.843	26181.67
524.21	26558.84
524.577	26758.15
524.943	26864.36
525.31	27012.83
525.676	27270.46
526.043	27404.01
526.409	27641.07
526.776	27913.38
527.142	28179.58
527.508	28240.6
527.874	28352.46
528.241	28652.79
528.607	28624.09
528.973	28954.25
529.339	28956.06
529.705	29186.34
530.071	29532.99
530.437	29654.12
530.803	29929.37
531.169	30078.29
531.535	30034
531.901	30203.94
532.267	30413.42
532.632	30458.62
532.998	30834.88
533.364	30954.2
533.73	31022
534.095	31226.51
534.461	31217.47
534.826	31448.65
535.192	31677.57
535.557	31835.08
535.923	31797.57
536.288	31997.11
536.653	32182.19
537.019	32155.52
537.384	32397.1
537.749	32443.2
538.114	32515.29
538.479	32579.47
538.845	32849.52
539.21	32708.28
539.575	33030.53
539.94	33207.25
540.305	33243.86
540.67	33284.53
541.034	33468.71
541.399	33548.48
541.764	33631.19
542.129	33856.72
542.494	34013.1
542.858	34053.1
543.223	34173.78
543.587	34350.27
543.952	34336.48
544.316	34495.58
544.681	34439.08
545.045	34634.33
545.41	34803.82
545.774	34936.02
546.138	34925.85
546.503	35138.5
546.867	35264.82
547.231	35513.4
547.595	35524.25
547.959	35679.5
548.324	35621.42
548.688	35833.39
549.052	35850.79
549.416	36058.92
549.779	36045.37
550.143	36282.42
550.507	36448.07
550.871	36602.41
551.235	36603.77
551.599	36970.99
551.962	36941.16
552.326	37041.95
552.689	37258.22
553.053	37232.68
553.417	37390.42
553.78	37889.61
554.143	37693.23
554.507	37909.95
554.87	37914.92
555.234	38498.63
555.597	38328.02
555.96	38347.9
556.323	38577.73
556.686	38673.55
557.05	39026.08
557.413	39176.58
557.776	39325.73
558.139	39489.34
558.502	39588.32
558.865	39688.43
559.228	39983.79
559.59	40060.18
559.953	40329.77
560.316	40548.98
560.679	40724.79
561.041	40870.55
561.404	41157.55
561.767	41247.94
562.129	41167.94
562.492	41676.18
562.854	41717.53
563.217	41672.34
563.579	41994.14
563.941	42137.41
564.304	42322.71
564.666	42609.04
565.028	42805.64
565.39	42894.9
565.753	43181.45
566.115	43366.76
566.477	43579.18
566.839	43540.54
567.201	44030.69
567.563	43985.95
567.925	44357.46
568.287	44281.76
568.648	44383.9
569.01	44760.39
569.372	44937.56
569.734	44975.53
570.095	45240.15
570.457	45342.52
570.819	45557.88
571.18	45626.58
571.542	45977.53
571.903	45919
572.265	46175.72
572.626	46221.6
572.987	46420.01
573.349	46600.12
573.71	46632.88
574.071	46928.02
574.432	46968.02
574.794	47280.1
575.155	47256.37
575.516	47275.35
575.877	47414.78
576.238	47481.22
576.599	47621.78
576.96	47545.85
577.32	47611.16
577.681	47860.65
578.042	48017.25
578.403	48050.93
578.763	48114.88
579.124	48326.62
579.485	48377.7
579.845	48641.64
580.206	48448.66
580.566	48641.64
580.927	48628.76
581.287	48825.14
581.648	48784.01
582.008	48821.98
582.368	48793.05
582.728	48799.38
583.089	48855.2
583.449	48789.89
583.809	48869.89
584.169	49035.08
584.529	48822.2
584.889	49268.52
585.249	48973.16
585.609	48939.72
585.969	49277.56
586.329	49018.58
586.688	49180.16
587.048	49228.07
587.408	49100.84
587.768	49037.79
588.127	49100.84
588.487	49029.43
588.846	49247.96
589.206	49132.93
589.565	49239.14
589.925	49334.28
590.284	49208.86
590.643	49301.06
591.003	49332.47
591.362	49450.21
591.721	49300.61
592.08	49395.52
592.44	49470.32
592.799	49486.82
593.158	49447.5
593.517	49345.81
593.876	49549.19
594.235	49475.3
594.593	49460.15
594.952	49690.88
595.311	49467.39
595.67	49624.22
596.029	49831.44
596.387	49751.67
596.746	49910.76
597.104	49588.96
597.463	49764.33
597.822	49834.38
598.18	49661.28
598.538	49655.86
598.897	49834.38
599.255	49551
599.613	50127.71
599.972	49782.63
600.33	50014.94
600.688	49844.78
601.046	49901.27
601.404	50003.64
601.762	50048.61
602.12	50041.61
602.478	49984.43
602.836	50097.2
603.194	50009.52
603.552	50023.76
603.91	49979.01
604.268	50256.97
604.625	50167.48
604.983	50258.1
605.341	50237.08
605.698	50468.94
606.056	50547.58
606.413	50371.77
606.771	50492.44
607.128	50538.54
607.485	50346.01
607.843	50364.76
608.2	50598.43
608.557	50629.84
608.914	50554.59
609.272	50754.58
609.629	50763.62
609.986	50921.13
610.343	50640.01
610.7	50860.57
611.057	50809.72
611.414	50757.3
611.771	50731.76
612.127	50942.38
612.484	50941.7
612.841	51047.68
613.198	50865.32
613.554	50962.94
613.911	51247.45
614.267	51122.94
614.624	51178.98
614.98	51202.93
615.337	51427.56
615.693	51367.67
616.05	51290.39
616.406	51531.96
616.762	51397.73
617.118	51428.24
617.475	51479.99
617.831	51476.82
618.187	51539.87
618.543	51566.09
618.899	51670.49
619.255	51641.57
619.611	51601.57
619.967	51734.67
620.323	51748.91
620.678	51687.89
621.034	51631.62
621.39	51625.07
621.746	51578.97
622.101	51963.14
622.457	51742.13
622.812	51768.12
623.168	51808.12
623.523	51785.74
623.879	51909.13
624.234	51663.94
624.589	51790.71
624.945	51890.37
625.3	51858.28
625.655	51913.42
626.01	51832.52
626.365	51910.03
626.72	51802.92
627.075	51791.39
627.43	51795.69
627.785	51673.43
628.14	51767.21
628.495	51762.47
628.85	51759.3
629.205	51691.51
629.559	51813.54
629.914	51635.69
630.269	51579.87
630.623	51537.16
630.978	51483.6
631.332	51585.52
631.687	51649.93
632.041	51366.54
632.396	51396.37
632.75	51355.02
633.104	51315.92
633.459	51179.21
633.813	51233.67
634.167	51133.1
634.521	51048.14
634.875	51238.64
635.229	51141.92
635.583	51027.8
635.937	51022.83
636.291	50950.51
636.645	50844.98
636.999	50821.25
637.352	50953
637.706	50838.88
638.06	50771.31
638.413	50703.74
638.767	50664.42
639.121	50770.63
639.474	50564.08
639.828	50459.9
640.181	50573.12
640.534	50506.68
640.888	50422.84
641.241	50311.43
641.594	50310.53
641.947	50489.96
642.301	50382.16
642.654	50393.01
643.007	50353.92
643.36	50311.66
643.713	50119.8
644.066	50243.64
644.419	50010.87
644.771	49853.36
645.124	49413.38
645.477	49411.57
645.83	49104.68
646.182	48889.1
646.535	48840.96
646.888	48847.97
647.24	48757.8
647.593	48937.91
647.945	48829.66
648.298	48628.99
648.65	48548.99
649.002	48417.47
649.355	48599.16
649.707	48650.46
650.059	48777.01
650.411	49211.35
650.763	49180.39
651.115	49504.9
651.467	49296.77
651.819	49367.05
652.171	49298.12
652.523	49176.55
652.875	49208.41
653.227	48892.03
653.578	49237.11
653.93	49153.72
654.282	48989.88
654.633	48693.17
654.985	48783.79
655.337	48735.88
655.688	48706.5
656.039	48852.71
656.391	48432.16
656.742	48449.56
657.094	48534.53
657.445	48696.56
657.796	48539.27
658.147	48369.79
658.498	48472.38
658.849	48593.51
659.2	48419.28
659.551	48264.25
659.902	48421.31
660.253	48389.45
660.604	48565.71
660.955	48262.67
661.306	48451.82
661.656	48227.64
662.007	48329.56
662.358	48379.28
662.708	48418.6
663.059	48286.85
663.409	47972.06
663.76	48209.79
664.11	48227.64
664.461	48301.99
664.811	48159.85
665.161	48238.94
665.511	48151.94
665.862	48225.16
666.212	48137.7
666.562	48174.76
666.912	48060.64
667.262	48151.04
667.612	48104.26
667.962	48144.48
668.312	48029.23
668.662	48286.85
669.011	48151.26
669.361	47998.05
669.711	48054.99
670.06	47930.48
670.41	47934.54
670.76	47829.69
671.109	47993.07
671.459	48035.11
671.808	47833.98
672.157	47963.7
672.507	47676.02
672.856	47606.64
673.205	47669.01
673.554	47852.74
673.904	47746.75
674.253	47845.51
674.602	47662.69
674.951	47143.61
675.3	46958.98
675.649	47458.17
675.998	47503.82
676.346	47501.79
676.695	47624.27
677.044	47302.02
677.393	47338.18
677.741	47403.49
678.09	47312.19
678.438	47147.67
678.787	47271.51
679.135	47185.64
679.484	46982.25
679.832	47160.1
680.181	46933.89
680.529	46998.75
680.877	46961.24
681.225	46815.25
681.573	46978.86
681.922	46556.5
682.27	46551.98
682.618	46697.06
682.966	46454.36
683.314	46627.01
683.661	46348.37
684.009	46309.5
684.357	46155.16
684.705	46092.79
685.053	46183.86
685.4	45996.52
685.748	45855.05
686.095	45861.83
686.443	45645.57
686.79	45612.12
687.138	45753.13
687.485	45612.8
687.832	45390.66
688.18	45502.97
688.527	45121.74
688.874	45269.3
689.221	45105.47
689.568	45079.48
689.915	44896.43
690.262	44950.67
690.609	44758.81
690.956	44672.48
691.303	44750.9
691.65	44453.96
691.997	44512.04
692.344	44201.76
692.69	44220.97
693.037	44152.27
693.383	43990.02
693.73	43954.54
694.077	43755.22
694.423	43719.97
694.769	43624.15
695.116	43528.78
695.462	43479.29
695.808	43250.37
696.155	43392.29
696.501	42958.86
696.847	42897.39
697.193	42793.44
697.539	42891.29
697.885	42531.3
698.231	42331.53
698.577	42266.45
698.923	42324.97
699.269	42153.91
699.614	41775.38
699.96	41816.51
700.306	41875.04
700.651	41569.29
700.997	41553.7
701.342	41442.51
701.688	41552.79
702.033	41319.58
702.379	41300.37
702.724	41190.09
703.069	41254.04
703.415	40778.8
703.76	40830.78
704.105	40849.53
704.45	40665.36
704.795	40426.27
705.14	40362.31
705.485	40288.42
705.83	40003.68
706.175	40031.93
706.52	40045.94
706.865	39826.96
707.209	39711.03
707.554	39514.65
707.899	39730.69
708.243	39387.2
708.588	39500.87
708.932	39139.97
709.277	39065.63
709.621	38916.7
709.966	38814.78
710.31	38949.47
710.654	38590.84
710.998	38616.15
711.342	38492.76
711.687	38573.66
712.031	38357.62
712.375	38231.97
712.719	38297.51
713.063	38218.42
713.407	38322.37
713.75	37954.92
714.094	38022.94
714.438	37815.71
714.782	37835.15
715.125	37745.89
715.469	37832.89
715.812	37524.42
716.156	37312
716.499	37428.83
716.843	37410.98
717.186	37102.29
717.53	37342.73
717.873	37421.15
718.216	37150.87
718.559	37075.62
718.902	36809.41
719.246	36907.72
719.589	36726.48
719.932	36568.29
720.275	36560.61
720.617	36472.47
720.96	36406.94
721.303	36354.96
721.646	36330.78
721.989	36141.63
722.331	36208.07
722.674	36250.56
723.016	36126.72
723.359	35943
723.701	35897.12
724.044	35555.44
724.386	35574.42
724.729	35772.83
725.071	35632.95
725.413	35620.29
725.755	35512.72
726.097	35352.05
726.439	35209.91
726.782	35254.88
727.124	35399.28
727.465	35081.1
727.807	35058.27
728.149	34965.17
728.491	35007.2
728.833	34865.74
729.175	34734.89
729.516	34782.57
729.858	34853.08
730.199	34639.08
730.541	34647.44
730.882	34602.47
731.224	34706.19
731.565	34454.45
731.906	34521.56
732.248	34479.76
732.589	34352.08
732.93	34112.54
733.271	34162.7
733.612	34173.1
733.953	34196.83
734.294	34065.08
734.635	33928.59
734.976	34071.63
735.317	33755.26
735.658	33745.99
735.999	33778.98
736.339	33706.9
736.68	33717.52
737.021	33623.28
737.361	33400.01
737.702	33551.42
738.042	33331.31
738.383	33379
738.723	33434.14
739.063	33203.86
739.404	33370.63
739.744	33249.51
740.084	32963.64
740.424	33137.87
740.764	32924.77
741.104	33110.3
741.444	32852
741.784	32796.19
742.124	32894.71
742.464	32713.93
742.804	32571.33
743.143	32622.18
743.483	32480.94
743.823	32353.71
744.162	32193.26
744.502	32348.97
744.841	32188.29
745.181	32252.25
745.52	32010.67
745.86	32180.38
746.199	31985.13
746.538	31934.29
746.877	32004.12
747.216	31930.45
747.556	31716.67
747.895	31790.56
748.234	31751.02
748.573	31730.23
748.911	31549.44
749.25	31694.07
749.589	31527.97
749.928	31463.11
750.267	31496.11
750.605	31330.46
750.944	31204.14
751.283	31170.24
751.621	31195.78
751.96	30989.68
752.298	30981.09
752.636	30947.42
752.975	30793.3
