Data from aluminium_surface_pro_back_FLMS001491_00089.txt Node
Date: Wed Feb 08 15:34:40 GMT 2017
User: dcchb
Spectrometer: FLMS00149
Trigger mode: 0
Integration Time (sec): 2.000000E-2
Scans to average: 10
Electric dark correction enabled: true
Nonlinearity correction enabled: false
Boxcar width: 0
XAxis mode: Wavelengths
Number of Pixels in Spectrum: 2048
>>>>>Begin Spectral Data<<<<<
341.393	-21.95
341.776	-21.95
342.16	-21.95
342.543	-46.81
342.927	-68.5
343.31	-79.12
343.693	-75.96
344.077	-55.62
344.46	-69.4
344.843	-71.21
345.226	-40.25
345.61	-35.73
345.993	-14.94
346.376	-0.93
346.759	23.25
347.142	25.06
347.525	24.6
347.908	77.48
348.291	90.36
348.674	82.23
349.057	120.19
349.44	142.79
349.823	153.19
350.206	184.15
350.588	230.25
350.971	235.22
351.354	268.21
351.737	267.99
352.119	259.85
352.502	301.43
352.884	316.35
353.267	315.44
353.65	344.6
354.032	342.11
354.414	339.85
354.797	347.76
355.179	344.37
355.562	372.84
355.944	356.57
356.326	373.07
356.709	372.39
357.091	361.54
357.473	369.23
357.855	378.49
358.238	365.39
358.62	371.94
359.002	375.1
359.384	368.32
359.766	368.55
360.148	385.95
360.53	389.11
360.912	375.1
361.294	381.66
361.676	384.37
362.057	386.4
362.439	385.72
362.821	359.51
363.203	381.2
363.584	381.2
363.966	369
364.348	391.83
364.729	371.04
365.111	355.89
365.493	381.66
365.874	380.53
366.256	356.12
366.637	368.78
367.019	360.87
367.4	377.36
367.781	383.69
368.163	406.29
368.544	351.83
368.925	377.14
369.306	377.81
369.688	386.4
370.069	382.79
370.45	366.74
370.831	382.56
371.212	369.91
371.593	380.07
371.974	401.09
372.355	394.76
372.736	375.56
373.117	380.07
373.498	391.6
373.879	411.71
374.26	388.89
374.641	396.35
375.021	401.77
375.402	415.78
375.783	411.49
376.163	425.05
376.544	440.19
376.925	411.26
377.305	432.95
377.686	430.02
378.066	415.33
378.447	437.47
378.827	436.57
379.208	436.12
379.588	449.68
379.968	441.54
380.349	444.03
380.729	458.49
381.109	456.68
381.489	457.36
381.87	478.38
382.25	460.75
382.63	464.14
383.01	470.02
383.39	485.61
383.77	473.63
384.15	500.3
384.53	516.12
384.91	510.92
385.29	506.63
385.67	515.66
386.049	496.23
386.429	502.78
386.809	500.98
387.189	515.66
387.568	536.68
387.948	535.78
388.328	538.94
388.707	534.19
389.087	564.48
389.466	575.32
389.846	572.16
390.225	566.06
390.605	569.22
390.984	566.96
391.363	584.82
391.743	607.64
392.122	583.23
392.501	600.86
392.881	612.84
393.26	623.23
393.639	637.92
394.018	614.42
394.397	626.85
394.776	630.46
395.155	636.79
395.534	661.42
395.913	662.33
396.292	683.12
396.671	677.47
397.05	677.47
397.429	686.96
397.808	681.08
398.186	708.43
398.565	708.2
398.944	725.83
399.323	729.9
399.701	758.82
400.08	765.38
400.458	747.75
400.837	774.64
401.215	771.02
401.594	769.67
401.972	792.95
402.351	805.37
402.729	778.93
403.107	815.32
403.486	809.44
403.864	834.75
404.242	824.81
404.62	855.54
404.999	853.28
405.377	850.12
405.755	864.13
406.133	910.46
406.511	887.63
406.889	894.19
407.267	925.37
407.645	949.55
408.023	952.49
408.401	966.73
408.779	959.04
409.156	985.93
409.534	992.04
409.912	1038.59
410.29	1023.22
410.667	1060.96
411.045	1055.31
411.422	1060.73
411.8	1067.74
412.178	1083.33
412.555	1116.1
412.933	1126.5
413.31	1146.83
413.687	1164.01
414.065	1183.9
414.442	1180.51
414.819	1210.11
415.197	1204.46
415.574	1238.58
415.951	1258.47
416.328	1262.54
416.705	1267.74
417.082	1234.97
417.46	1261.18
417.837	1299.15
418.214	1335.76
418.591	1326.04
418.967	1354.06
419.344	1357
419.721	1399.93
420.098	1366.04
420.475	1412.14
420.852	1427.73
421.228	1422.53
421.605	1437.22
421.982	1501.63
422.358	1462.76
422.735	1490.55
423.111	1518.35
423.488	1533.49
423.864	1513.15
424.241	1565.35
424.617	1586.37
424.994	1609.87
425.37	1598.35
425.746	1633.15
426.123	1654.62
426.499	1656.65
426.875	1704.33
427.251	1705.24
427.627	1726.25
428.003	1769.87
428.379	1775.74
428.756	1777.78
429.132	1823.2
429.507	1847.83
429.883	1815.07
430.259	1902.29
430.635	1892.13
431.011	1940.03
431.387	1956.76
431.763	2014.38
432.138	2035.85
432.514	2043.53
432.89	2068.84
433.265	2090.54
433.641	2095.96
434.016	2168.5
434.392	2199.46
434.767	2221.16
435.143	2248.05
435.518	2249.18
435.894	2265.45
436.269	2336.86
436.644	2359.01
437.02	2342.74
437.395	2366.24
437.77	2430.64
438.145	2464.54
438.52	2456.18
438.895	2482.84
439.271	2501.6
439.646	2564.88
440.021	2574.82
440.395	2619.79
440.77	2590.41
441.145	2662.95
441.52	2670.41
441.895	2649.62
442.27	2706.34
442.645	2688.49
443.019	2735.95
443.394	2735.49
443.769	2785.21
444.143	2776.62
444.518	2834.25
444.892	2780.69
445.267	2840.35
445.641	2881.03
446.016	2902.95
446.39	2911.99
446.764	2956.96
447.139	2946.33
447.513	2958.76
447.887	2966.67
448.262	3008.25
448.636	3043.06
449.01	3091.87
449.384	3087.12
449.758	3129.16
450.132	3168.93
450.506	3184.29
450.88	3197.4
451.254	3223.62
451.628	3268.13
452.002	3330.73
452.376	3340.22
452.75	3358.53
453.123	3443.72
453.497	3447.34
453.871	3482.37
454.244	3538.86
454.618	3579.99
454.992	3613.21
455.365	3625.87
455.739	3730.5
456.112	3789.25
456.486	3779.08
456.859	3813.2
457.232	3944.05
457.606	3897.72
457.979	3975.46
458.352	4030.15
458.725	4126.64
459.099	4118.51
459.472	4207.54
459.845	4271.95
460.218	4294.32
460.591	4311.5
460.964	4353.98
461.337	4470.59
461.71	4521.21
462.083	4575.44
462.456	4626.74
462.829	4627.65
463.201	4727.08
463.574	4718.04
463.947	4778.83
464.32	4894.31
464.692	4963.68
465.065	5005.72
465.438	5092.27
465.81	5137.46
466.183	5216.78
466.555	5314.18
466.928	5395.99
467.3	5363.45
467.672	5487.74
468.045	5592.59
468.417	5620.39
468.789	5665.13
469.161	5736.77
469.534	5817.9
469.906	5950.78
470.278	6036.65
470.65	6055.86
471.022	6167.04
471.394	6337.88
471.766	6340.82
472.138	6451.33
472.51	6570.87
472.882	6667.82
473.253	6771.55
473.625	6893.58
473.997	6934.48
474.369	7032.78
474.74	7148.48
475.112	7266
475.484	7458.76
475.855	7583.73
476.227	7608.59
476.598	7853.78
476.97	7925.64
477.341	8133.32
477.713	8267.55
478.084	8307.78
478.455	8540.31
478.827	8602.68
479.198	8901.88
479.569	8840.87
479.94	9132.39
480.311	9195.44
480.682	9336.68
481.053	9664.35
481.424	9830.67
481.795	9920.39
482.166	10037.9
482.537	10178.01
482.908	10366.48
483.279	10448.51
483.65	10632.91
484.021	10938.67
484.391	11040.81
484.762	11185.44
485.133	11280.13
485.503	11471.53
485.874	11684.64
486.244	11768.25
486.615	12053.89
486.985	12215.24
487.356	12465.18
487.726	12602.8
488.097	12874.89
488.467	12855.68
488.837	13204.37
489.207	13233.75
489.578	13469
489.948	13593.29
490.318	13855.88
490.688	13877.12
491.058	14157.11
491.428	14342.65
491.798	14468.74
492.168	14773.14
492.538	14832.12
492.908	14910.77
493.278	15163.41
493.648	15130.65
494.017	15536.74
494.387	15545.1
494.757	15688.6
495.126	15991.64
495.496	15939.21
495.866	16090.4
496.235	16253.56
496.605	16460.78
496.974	16475.7
497.344	16630.27
497.713	16720.21
498.082	16874.56
498.452	17153.87
498.821	17248.11
499.19	17256.02
499.559	17481.32
499.928	17705.04
500.298	17768.77
500.667	17909.78
501.036	17908.43
501.405	18114.75
501.774	18135.99
502.143	18392.48
502.512	18342.09
502.88	18623.21
503.249	18670.22
503.618	18838.12
503.987	18969.19
504.356	19094.61
504.724	19120.15
505.093	19383.87
505.462	19355.4
505.83	19554.49
506.199	19855.27
506.567	20077.64
506.936	20024.08
507.304	20241.02
507.672	20217.29
508.041	20424.97
508.409	20467.23
508.777	20828.12
509.145	20946.99
509.514	20966.2
509.882	21168.23
510.25	21266.53
510.618	21465.85
510.986	21611.83
511.354	21890.47
511.722	21993.97
512.09	22261.99
512.458	22217.47
512.826	22404.58
513.193	22576.1
513.561	22667.17
513.929	22852.03
514.297	23124.11
514.664	23229.87
515.032	23375.4
515.4	23641.84
515.767	23659.69
516.135	23930.42
516.502	23800.48
516.869	24375.38
517.237	24396.39
517.604	24329.95
517.972	24693.56
518.339	24911.63
518.706	24915.93
519.073	25057.84
519.44	25346.2
519.808	25531.5
520.175	25654.89
520.542	26003.81
520.909	26176.46
521.276	26133.75
521.643	26490.8
522.009	26760.17
522.376	26927.63
522.743	27038.13
523.11	27368.52
523.477	27693.71
523.843	27748.17
524.21	28125.56
524.577	28249.4
524.943	28529.39
525.31	28601.03
525.676	29055.03
526.043	29158.3
526.409	29259.54
526.776	29544.51
527.142	29743.14
527.508	29866.76
527.874	30223.58
528.241	30402.56
528.607	30522.33
528.973	30751.03
529.339	30875.09
529.705	31154.41
530.071	31458.13
530.437	31557.56
530.803	31815.86
531.169	32050.43
531.535	32061.73
531.901	32151.22
532.267	32244.32
532.632	32500.36
532.998	32695.16
533.364	32911.87
533.73	32918.43
534.095	33247.01
534.461	33471.86
534.826	33594.79
535.192	33744.4
535.557	34087.21
535.923	33901
536.288	34007.44
536.653	34367.43
537.019	34260.99
537.384	34423.47
537.749	34719.96
538.114	34649.46
538.479	34819.62
538.845	35044.47
539.21	34973.06
539.575	35176
539.94	35370.12
540.305	35455.08
540.67	35532.6
541.034	35611.69
541.399	35738.02
541.764	35876.77
542.129	36096.42
542.494	36189.08
542.858	36292.8
543.223	36383.2
543.587	36686.92
543.952	36497.09
544.316	36618.44
544.681	36818.66
545.045	36894.37
545.41	37098.21
545.774	37267.92
546.138	37349.5
546.503	37521.25
546.867	37627.68
547.231	38016.37
547.595	37968.24
547.959	38085.3
548.324	38174.34
548.688	38394.67
549.052	38506.98
549.416	38609.8
549.779	38696.81
550.143	38803.92
550.507	39164.37
550.871	39094.54
551.235	39066.97
551.599	39383.79
551.962	39393.51
552.326	39570.46
552.689	39777
553.053	39557.58
553.417	39648.19
553.78	40178.12
554.143	40070.56
554.507	40201.17
554.87	40363.43
555.234	40713.48
555.597	40741.73
555.96	40798.9
556.323	40958.44
556.686	41141.04
557.05	41435.49
557.413	41432.1
557.776	41495.38
558.139	41777.63
558.502	41923.16
558.865	41985.99
559.228	42467.78
559.59	42434.11
559.953	42535.8
560.316	43034.09
560.679	43140.76
561.041	43391.15
561.404	43562.89
561.767	43845.15
562.129	43762.66
562.492	44150.22
562.854	44163.1
563.217	44188.19
563.579	44484.45
563.941	44839.47
564.304	44995.62
564.666	45193.36
565.028	45272.91
565.39	45427.7
565.753	45663.63
566.115	45795.6
566.477	46028.59
566.839	46117.63
567.201	46477.62
567.563	46484.63
567.925	46730.04
568.287	46756.03
568.648	46954.22
569.01	47149.01
569.372	47466.52
569.734	47407.99
570.095	47633.3
570.457	47809.34
570.819	48000.07
571.18	47963
571.542	48222.43
571.903	48283.45
572.265	48566.38
572.626	48532.93
572.987	48804.79
573.349	48841.85
573.71	49105.12
574.071	49134.05
574.432	49089.3
574.794	49470.31
575.155	49505.79
575.516	49467.37
575.877	49676.63
576.238	49658.55
576.599	49800.92
576.96	49929.28
577.32	49914.37
577.681	50067.13
578.042	50254.92
578.403	50248.59
578.763	50296.73
579.124	50329.04
579.485	50515.48
579.845	50615.82
580.206	50570.62
580.566	50625.76
580.927	50663.05
581.287	50838.41
581.648	50730.62
582.008	50869.59
582.368	50810.39
582.728	50941.23
583.089	50938.29
583.449	50932.42
583.809	50951.85
584.169	51022.58
584.529	50995.47
584.889	51395
585.249	51014.45
585.609	51068.69
585.969	51277.72
586.329	51141.23
586.688	51205.63
587.048	51290.15
587.408	51183.26
587.768	51198.4
588.127	51200.89
588.487	51180.77
588.846	51274.1
589.206	51231.17
589.565	51208.79
589.925	51365.63
590.284	51200.66
590.643	51361.11
591.003	51325.4
591.362	51453.31
591.721	51342.35
592.08	51379.41
592.44	51486.53
592.799	51434.55
593.158	51386.42
593.517	51344.38
593.876	51435.46
594.235	51361.79
594.593	51491.73
594.952	51497.37
595.311	51418.51
595.67	51552.74
596.029	51778.5
596.387	51648.78
596.746	51774.43
597.104	51616.92
597.463	51567.66
597.822	51708.89
598.18	51523.14
598.538	51607.88
598.897	51747.99
599.255	51501.67
599.613	52005.84
599.972	51825.05
600.33	51928.1
600.688	51729.46
601.046	51857.14
601.404	52030.69
601.762	51932.39
602.12	52157.24
602.478	52133.97
602.836	52183.68
603.194	51994.99
603.552	52051.71
603.91	51941.43
604.268	52212.38
604.625	52026.63
604.983	52213.29
605.341	52136.45
605.698	52221.65
606.056	52256.68
606.413	52192.72
606.771	52382.32
607.128	52366.05
607.485	52287.86
607.843	52362.44
608.2	52406.73
608.557	52500.29
608.914	52522.66
609.272	52607.18
609.629	52660.51
609.986	52756.78
610.343	52535.99
610.7	52833.16
611.057	52804.69
611.414	52694.86
611.771	52787.06
612.127	52881.52
612.484	52895.76
612.841	53086.94
613.198	52973.72
613.554	52958.58
613.911	53152.7
614.267	53076.54
614.624	53100.95
614.98	53154.96
615.337	53262.3
615.693	53223.21
616.05	53191.12
616.406	53363.31
616.762	53271.34
617.118	53292.13
617.475	53285.8
617.831	53331.22
618.187	53258.68
618.543	53427.49
618.899	53538.68
619.255	53439.92
619.611	53359.7
619.967	53601.5
620.323	53568.73
620.678	53404.67
621.034	53378.68
621.39	53478.57
621.746	53428.17
622.101	53764.89
622.457	53413.93
622.812	53549.98
623.168	53724.89
623.523	53677.2
623.879	53736.19
624.234	53641.95
624.589	53749.52
624.945	53702.97
625.3	53777.99
625.655	53791.1
626.01	53698.67
626.365	53692.57
626.72	53639.47
627.075	53670.65
627.43	53619.13
627.785	53539.58
628.14	53604.21
628.495	53647.37
628.85	53659.35
629.205	53598.56
629.559	53664.78
629.914	53555.17
630.269	53658.9
630.623	53500.49
630.978	53458.91
631.332	53520.37
631.687	53649.41
632.041	53435.85
632.396	53510.66
632.75	53385.23
633.104	53416.65
633.459	53425.23
633.813	53360.83
634.167	53309.98
634.521	53216.65
634.875	53312.24
635.229	53207.61
635.583	53056.88
635.937	53008.97
636.291	52965.36
636.645	52848.53
636.999	52832.48
637.352	52947.73
637.706	52615.99
638.06	52824.8
638.413	52604.69
638.767	52510.91
639.121	52658.47
639.474	52423.9
639.828	52479.72
640.181	52413.51
640.534	52427.52
640.888	52293.29
641.241	52192.27
641.594	52309.33
641.947	52392.49
642.301	52208.77
642.654	52179.84
643.007	52328.54
643.36	52178.03
643.713	52105.95
644.066	52242.89
644.419	52077.02
644.771	51864.82
645.124	51500.31
645.477	51490.6
645.83	51296.48
646.182	51207.89
646.535	51071.17
646.888	51125.63
647.24	51025.3
647.593	51175.8
647.945	50976.94
648.298	50786.66
648.65	50689.26
649.002	50654.46
649.355	50794.12
649.707	50649.49
650.059	50857.39
650.411	51149.81
650.763	51139.42
651.115	51607.88
651.467	51403.37
651.819	51353.65
652.171	51280.43
652.523	51218.51
652.875	51241.34
653.227	51033.21
653.578	51214.9
653.93	51177.61
654.282	51117.95
654.633	50969.71
654.985	51023.04
655.337	51115.01
655.688	51141.9
656.039	51207.89
656.391	50875.47
656.742	50907.11
657.094	50863.72
657.445	51087.67
657.796	50884.28
658.147	50847.22
658.498	50751.41
658.849	50721.35
659.2	50703.05
659.551	50547.12
659.902	50715.02
660.253	50578.75
660.604	50600.22
660.955	50506.44
661.306	50571.07
661.656	50552.99
662.007	50459.66
662.358	50583.05
662.708	50435.03
663.059	50430.28
663.409	50203.17
663.76	50538.98
664.11	50464.41
664.461	50541.92
664.811	50360.68
665.161	50450.62
665.511	50287.92
665.862	50296.5
666.212	50377.18
666.562	50498.53
666.912	50231.65
667.262	50241.59
667.612	50251.53
667.962	50196.84
668.312	50054.25
668.662	50356.61
669.011	50242.94
669.361	50117.52
669.711	50125.21
670.06	50070.52
670.41	50038.2
670.76	50001.14
671.109	50080.91
671.459	50052.67
671.808	49976.51
672.157	50127.47
672.507	49798.44
672.856	49798.44
673.205	49894.93
673.554	50054.93
673.904	49881.6
674.253	49976.28
674.602	49859.9
674.951	49287.49
675.3	49164.33
675.649	49768.83
675.998	49715.73
676.346	49806.12
676.695	49885.89
677.044	49560.48
677.393	49530.19
677.741	49686.35
678.09	49548.95
678.438	49454.94
678.787	49618.33
679.135	49478.22
679.484	49318
679.832	49448.39
680.181	49230.77
680.529	49364.78
680.877	49280.94
681.225	49042.3
681.573	49362.52
681.922	49017.67
682.27	48866.03
682.618	48932.47
682.966	48789.65
683.314	48938.35
683.661	48791.91
684.009	48592.37
684.357	48553.5
684.705	48380.62
685.053	48423.11
685.4	48367.97
685.748	48333.16
686.095	48248.19
686.443	48011.82
686.79	47959.84
687.138	48152.15
687.485	47922.55
687.832	47818.38
688.18	47853.18
688.527	47567.08
688.874	47684.82
689.221	47593.97
689.568	47480.76
689.915	47377.48
690.262	47319.41
690.609	47188.34
690.956	47140.65
691.303	47022.24
691.65	46936.14
691.997	46855.69
692.344	46588.8
692.69	46606.66
693.037	46638.75
693.383	46277.85
693.73	46291.86
694.077	45945.66
694.423	46150.4
694.769	46038.99
695.116	45831.99
695.462	45815.94
695.808	45704.53
696.155	45690.52
696.501	45417.99
696.847	45370.98
697.193	45133.02
697.539	45268.16
697.885	45027.04
698.231	44799.47
698.577	44800.38
698.923	44726.03
699.269	44566.26
699.614	44356.32
699.96	44285.14
700.306	44213.27
700.651	44035.2
700.997	43909.55
701.342	43917.91
701.688	43788.2
702.033	43726.96
702.379	43578.03
702.724	43439.73
703.069	43676.79
703.415	43086.97
703.76	43186.41
704.105	43114.77
704.45	42982.12
704.795	42789.81
705.14	42782.58
705.485	42720.88
705.83	42644.95
706.175	42460.55
706.52	42415.81
706.865	42366.09
707.209	42214
707.554	42021.01
707.899	42213.33
708.243	41942.82
708.588	41954.8
708.932	41675.71
709.277	41591.19
709.621	41604.98
709.966	41376.74
710.31	41467.58
710.654	41057.65
710.998	41100.81
711.342	41104.43
711.687	41089.51
712.031	40818.11
712.375	40640.71
712.719	40747.6
713.063	40682.52
713.407	40688.17
713.75	40463.54
714.094	40431.23
714.438	40265.81
714.782	40207.28
715.125	40061.74
715.469	40121.63
715.812	39873.5
716.156	39740.4
716.499	39734.97
716.843	39675.54
717.186	39614.98
717.53	39744.01
717.873	39601.19
718.216	39483
718.559	39311.93
718.902	39086.4
719.246	39244.14
719.589	39179.96
719.932	39014.77
720.275	38953.52
720.617	39018.38
720.96	38886.41
721.303	38783.58
721.646	38933.41
721.989	38571.61
722.331	38694.77
722.674	38521.9
723.016	38576.36
723.359	38445.97
723.701	38462.46
724.044	38215.92
724.386	38076.94
724.729	38069.93
725.071	37978.41
725.413	37983.61
725.755	37874
726.097	37772.31
726.439	37619.55
726.782	37658.64
727.124	37748.81
727.465	37480.12
727.807	37522.83
728.149	37436.28
728.491	37317.63
728.833	37303.17
729.175	37208.26
729.516	37166
729.858	37076.51
730.199	37141.14
730.541	36906.57
730.882	36899.79
731.224	36840.58
731.565	36846.91
731.906	36693.24
732.248	36603.76
732.589	36512.01
732.93	36433.36
733.271	36394.5
733.612	36359.02
733.953	36379.13
734.294	36295.06
734.635	36112.24
734.976	36154.5
735.317	36008.52
735.658	36014.84
735.999	35969.2
736.339	35875.41
736.68	35980.95
737.021	35726.04
737.361	35625.7
737.702	35876.54
738.042	35712.25
738.383	35605.59
738.723	35600.17
739.063	35330.79
739.404	35525.59
739.744	35489.89
740.084	35222.32
740.424	35329.89
740.764	35026.17
741.104	35185.49
741.444	34986.85
741.784	35041.54
742.124	34914.53
742.464	34819.62
742.804	34688.1
743.143	34660.76
743.483	34671.38
743.823	34495.79
744.162	34392.06
744.502	34412.85
744.841	34222.35
745.181	34376.24
745.52	34296.92
745.86	34370.59
746.199	34173.99
746.538	34162.46
746.877	34115.46
747.216	34018.74
747.556	33955.46
747.895	33889.02
748.234	33770.61
748.573	33684.06
748.911	33753.89
749.25	33611.07
749.589	33491.97
749.928	33377.4
750.267	33420.79
750.605	33306.67
750.944	33307.34
751.283	33138.99
751.621	33270.06
751.96	33059.22
752.298	33004.98
752.636	33052.89
752.975	32966.34
