Data from aluminium_macbook_case_FLMS001491_054.txt Node
Date: Tue Feb 07 10:43:50 GMT 2017
User: dcchb
Spectrometer: FLMS00149
Trigger mode: 0
Integration Time (sec): 2.000000E-2
Scans to average: 10
Electric dark correction enabled: true
Nonlinearity correction enabled: false
Boxcar width: 0
XAxis mode: Wavelengths
Number of Pixels in Spectrum: 2048
>>>>>Begin Spectral Data<<<<<
341.393	-29.67
341.776	-29.67
342.16	-29.67
342.543	-68.32
342.927	-67.19
343.31	-78.03
343.693	-58.37
344.077	-76.68
344.46	-54.53
344.843	-57.92
345.226	-41.2
345.61	-33.74
345.993	-20.18
346.376	11.68
346.759	-2.33
347.142	34.28
347.525	42.19
347.908	75.18
348.291	81.74
348.674	85.58
349.057	92.36
349.44	125.12
349.823	134.16
350.206	183.88
350.588	252.8
350.971	258.23
351.354	269.3
351.737	286.48
352.119	293.26
352.502	338.9
352.884	319.47
353.267	323.99
353.65	330.99
354.032	359.24
354.414	351.33
354.797	389.98
355.179	373.03
355.562	389.3
355.944	393.82
356.326	383.87
356.709	415.74
357.091	417.55
357.473	406.25
357.855	413.93
358.238	425.45
358.62	408.28
359.002	407.83
359.384	432.69
359.766	401.27
360.148	425.45
360.53	429.52
360.912	400.82
361.294	418.9
361.676	446.47
362.057	433.14
362.439	413.03
362.821	426.81
363.203	424.1
363.584	422.74
363.966	428.39
364.348	427.71
364.729	418.45
365.111	429.07
365.493	431.33
365.874	436.3
366.256	426.58
366.637	417.77
367.019	437.66
367.4	450.31
367.781	438.79
368.163	448.05
368.544	424.78
368.925	428.39
369.306	450.54
369.688	460.26
370.069	450.76
370.45	456.64
370.831	465
371.212	471.56
371.593	447.83
371.974	465.68
372.355	459.8
372.736	465.91
373.117	483.31
373.498	449.86
373.879	475.4
374.26	482.4
374.641	446.7
375.021	456.41
375.402	497.09
375.783	514.49
376.163	538.45
376.544	556.75
376.925	529.86
377.305	526.92
377.686	508.62
378.066	536.64
378.447	523.53
378.827	534.38
379.208	532.12
379.588	543.19
379.968	560.59
380.349	594.04
380.729	573.47
381.109	568.5
381.489	625
381.87	592.46
382.25	594.72
382.63	599.69
383.01	614.15
383.39	638.1
383.77	619.35
384.15	595.17
384.53	650.99
384.91	644.88
385.29	643.98
385.67	657.77
386.049	670.42
386.429	682.85
386.809	679.46
387.189	687.82
387.568	663.87
387.948	703.87
388.328	721.27
388.707	726.69
389.087	720.36
389.466	746.8
389.846	748.61
390.225	760.14
390.605	748.84
390.984	766.91
391.363	795.39
391.743	819.34
392.122	819.12
392.501	803.98
392.881	826.35
393.26	839
393.639	857.76
394.018	864.99
394.397	861.15
394.776	887.14
395.155	872.22
395.534	891.43
395.913	910.19
396.292	896.63
396.671	927.36
397.05	938.21
397.429	953.35
397.808	932.56
398.186	935.72
398.565	966.68
398.944	994.48
399.323	989.51
399.701	1009.17
400.08	1012.33
400.458	1041.03
400.837	1030.86
401.215	1045.1
401.594	1043.97
401.972	1085.1
402.351	1116.06
402.729	1107.24
403.107	1135.72
403.486	1132.55
403.864	1139.33
404.242	1181.37
404.62	1147.02
404.999	1189.28
405.377	1187.69
405.755	1215.94
406.133	1216.39
406.511	1239.9
406.889	1278.31
407.267	1284.87
407.645	1303.85
408.023	1306.11
408.401	1338.88
408.779	1342.72
409.156	1374.81
409.534	1369.16
409.912	1448.25
410.29	1452.09
410.667	1490.96
411.045	1486.44
411.422	1498.2
411.8	1529.15
412.178	1544.75
412.555	1545.2
412.933	1565.99
413.31	1641.24
413.687	1682.15
414.065	1658.42
414.442	1669.49
414.819	1688.7
415.197	1731.41
415.574	1733.9
415.951	1778.19
416.328	1792.2
416.705	1805.76
417.082	1852.99
417.46	1849.82
417.837	1886.43
418.214	1862.25
418.591	1900.9
418.967	1924.17
419.344	1964.4
419.721	1975.02
420.098	1960.78
420.475	2018.41
420.852	2036.49
421.228	2063.38
421.605	2069.25
421.982	2128.24
422.358	2167.33
422.735	2162.36
423.111	2160.55
423.488	2210.27
423.864	2226.54
424.241	2256.59
424.617	2328.23
424.994	2324.39
425.37	2335.01
425.746	2360.77
426.123	2415.46
426.499	2432.18
426.875	2457.72
427.251	2502.24
427.627	2564.83
428.003	2553.99
428.379	2607.32
428.756	2666.75
429.132	2655.23
429.507	2711.72
429.883	2716.92
430.259	2781.33
430.635	2846.41
431.011	2856.35
431.387	2956.91
431.763	3014.99
432.138	3038.04
432.514	3087.98
432.89	3061.09
433.265	3172.5
433.641	3183.8
434.016	3217.02
434.392	3299.05
434.767	3344.47
435.143	3334.76
435.518	3376.56
435.894	3430.12
436.269	3492.27
436.644	3549.44
437.02	3551.25
437.395	3588.54
437.77	3663.56
438.145	3697.91
438.52	3768.87
438.895	3810.9
439.271	3804.35
439.646	3900.62
440.021	3951.46
440.395	3922.99
440.77	3926.61
441.145	3997.56
441.52	4051.12
441.895	4073.49
442.27	4144.45
442.645	4144.45
443.019	4204.34
443.394	4212.93
443.769	4296.99
444.143	4196.2
444.518	4301.06
444.892	4316.88
445.267	4387.61
445.641	4452.69
446.016	4417.67
446.39	4486.37
446.764	4525.91
447.139	4519.58
447.513	4610.2
447.887	4626.93
448.262	4666.02
448.636	4692.01
449.01	4757.09
449.384	4787.15
449.758	4889.07
450.132	4880.71
450.506	4915.96
450.88	4931.1
451.254	5020.14
451.628	5052.68
452.002	5108.72
452.376	5166.35
452.75	5189.4
453.123	5246.35
453.497	5361.37
453.871	5402.95
454.244	5495.38
454.618	5509.16
454.992	5611.08
455.365	5649.27
455.739	5833.45
456.112	5863.96
456.486	5916.16
456.859	5996.16
457.232	6144.4
457.606	6134.46
457.979	6154.8
458.352	6354.79
458.725	6387.56
459.099	6529.02
459.472	6592.07
459.845	6655.35
460.218	6727.89
460.591	6738.51
460.964	6837.04
461.337	7001.55
461.71	7087.88
462.083	7186.86
462.456	7206.97
462.829	7263.47
463.201	7415.1
463.574	7484.7
463.947	7622.1
464.32	7750.46
464.692	7856.22
465.065	7881.3
465.438	8044.69
465.81	8146.16
466.183	8190.9
466.555	8435.64
466.928	8430.89
467.3	8462.53
467.672	8654.17
468.045	8876.76
468.417	8927.6
468.789	8946.13
469.161	9115.62
469.534	9309.74
469.906	9428.38
470.278	9497.98
470.65	9592.22
471.022	9867.01
471.394	9971.19
471.766	10116.95
472.138	10205.54
472.51	10482.37
472.882	10590.84
473.253	10694.56
473.625	10929.81
473.997	11135.23
474.369	11217.71
474.74	11364.6
475.112	11722.56
475.484	11807.98
475.855	12039.61
476.227	12119.16
476.598	12478.25
476.97	12618.81
477.341	12944.45
477.713	13076.87
478.084	13208.62
478.455	13642.06
478.827	13694.03
479.198	14155.72
479.569	14106.23
479.94	14560
480.311	14617.85
480.682	14979.42
481.053	15256.7
481.424	15562.91
481.795	15762.68
482.166	15942.79
482.537	16190.01
482.908	16551.81
483.279	16748.64
483.65	17032.25
484.021	17404.44
484.391	17580.26
484.762	17787.48
485.133	17950.42
485.503	18270.18
485.874	18659.1
486.244	18820.23
486.615	19153.55
486.985	19439.64
487.356	19807.54
487.726	19892.29
488.097	20437.36
488.467	20459.28
488.837	20926.38
489.207	21224.46
489.578	21504.45
489.948	21636.87
490.318	22072.12
490.688	22058.33
491.058	22415.61
491.428	22728.82
491.798	22973.11
492.168	23427.79
492.538	23507.56
492.908	23825.74
493.278	23989.36
493.648	24163.14
494.017	24542.79
494.387	24736.68
494.757	25021.87
495.126	25239.49
495.496	25347.29
495.866	25660.5
496.235	25846.71
496.605	26155.17
496.974	26220.71
497.344	26637.2
497.713	26670.64
498.082	26926.23
498.452	27239.67
498.821	27328.25
499.19	27479.43
499.559	27872.19
499.928	28009.59
500.298	28245.29
500.667	28491.84
501.036	28438.73
501.405	28784.94
501.774	28957.13
502.143	28975.21
502.512	29186.73
502.88	29557.57
503.249	29537.01
503.618	29787.17
503.987	29904.23
504.356	30124.11
504.724	30447.72
505.093	30428.73
505.462	30649.97
505.83	30954.37
506.199	31208.15
506.567	31574.24
506.936	31728.81
507.304	32099.42
507.672	32165.19
508.041	32328.34
508.409	32793.42
508.777	32958.61
509.145	33147.76
509.514	33341.88
509.882	33534.19
510.25	33665.94
510.618	33980.96
510.986	34024.57
511.354	34373.26
511.722	34770.31
512.09	34945
512.458	35026.35
512.826	35473.12
513.193	35729.84
513.561	35911.08
513.929	36102.93
514.297	36310.61
514.664	36713.09
515.032	36751.28
515.4	36981.56
515.767	37106.07
516.135	37465.84
516.502	37129.57
516.869	37949.89
517.237	38158.02
517.604	38108.08
517.972	38564.11
518.339	38925.69
518.706	39036.64
519.073	39309.63
519.44	39548.72
519.808	39922.27
520.175	40018.09
520.542	40628.92
520.909	40703.94
521.276	40868.69
521.643	41395.23
522.009	41688.55
522.376	41983.91
522.743	42279.72
523.11	42629.09
523.477	42932.36
523.843	43166.93
524.21	43584.77
524.577	43910.41
524.943	44079.67
525.31	44336.62
525.676	44747.68
526.043	44890.05
526.409	45029.93
526.776	45573.65
527.142	45639.63
527.508	45896.8
527.874	46345.6
528.241	46462.21
528.607	46475.09
528.973	46951.24
529.339	46899.94
529.705	47455.63
530.071	47608.85
530.437	47822.63
530.803	48180.36
531.169	48362.5
531.535	48284.99
531.901	48636.39
532.267	48884.75
532.632	49141.24
532.998	49355.69
533.364	49437.5
533.73	49520.21
534.095	49796.59
534.461	49947.99
534.826	50173.3
535.192	50430.47
535.557	50632.27
535.923	50674.3
536.288	50855.54
536.653	51077.23
537.019	50976.22
537.384	51119.72
537.749	51207.85
538.114	51377.11
538.479	51467.73
538.845	51658.91
539.21	51678.8
539.575	51834.05
539.94	51942.97
540.305	52096.86
540.67	52054.38
541.034	52152.91
541.399	52334.82
541.764	52333.24
542.129	52480.13
542.494	52541.6
542.858	52717.19
543.223	52878.76
543.587	53001.47
543.952	53046.9
544.316	53175.71
544.681	53199.66
545.045	53432.2
545.41	53531.86
545.774	53690.72
546.138	53730.95
546.503	53746.31
546.867	53876.03
547.231	54173.19
547.595	54202.12
547.959	54267.2
548.324	54371.38
548.688	54442.11
549.052	54576.8
549.416	54603.92
549.779	54680.07
550.143	54801.65
550.507	54988.09
550.871	55063.11
551.235	55052.04
551.599	55379.04
551.962	55311.24
552.326	55510.33
552.689	55542.65
553.053	55510.56
553.417	55634.17
553.78	55972.47
554.143	55797.33
554.507	55922.75
554.87	56055.4
555.234	56241.39
555.597	56116.65
555.96	56280.26
556.323	56359.35
556.686	56470.31
557.05	56609.51
557.413	56677.08
557.776	56843.86
558.139	57010.18
558.502	57057.86
558.865	57097.41
559.228	57321.81
559.59	57425.31
559.953	57470.51
560.316	57782.36
560.679	57743.5
561.041	57883.61
561.404	58094.67
561.767	58215.8
562.129	58138.74
562.492	58395.46
562.854	58472.29
563.217	58469.13
563.579	58597.71
563.941	58741.66
564.304	58819.63
564.666	58956.35
565.028	59016.46
565.39	59147.75
565.753	59306.62
566.115	59397.01
566.477	59489.66
566.839	59560.4
567.201	59697.57
567.563	59722.2
567.925	59832.71
568.287	59915.64
568.648	59933.27
569.01	60024.57
569.372	60142.98
569.734	60059.37
570.095	60245.35
570.457	60341.62
570.819	60389.98
571.18	60423.65
571.542	60567.15
571.903	60522.18
572.265	60660.26
572.626	60730.76
572.987	60791.55
573.349	60873.81
573.71	60924.43
574.071	61003.98
574.432	61109.51
574.794	61327.36
575.155	61227.7
575.516	61227.47
575.877	61405.09
576.238	61369.84
576.599	61529.16
576.96	61478.31
577.32	61527.8
577.681	61577.52
578.042	61688.93
578.403	61631.53
578.763	61738.65
579.124	61774.35
579.485	61873.56
579.845	61853.9
580.206	61838.08
580.566	61821.13
580.927	61880.34
581.287	61978.64
581.648	61901.35
582.008	62008.69
582.368	61962.82
582.728	61993.1
583.089	62004.63
583.449	61957.62
583.809	62039.88
584.169	62016.6
584.529	61951.97
584.889	62123.49
585.249	61985.87
585.609	61868.13
585.969	62034.91
586.329	61949.26
586.688	62019.32
587.048	61966.66
587.408	61983.16
587.768	62010.95
588.127	61985.19
588.487	61988.81
588.846	62119.65
589.206	61972.09
589.565	61946.1
589.925	62066.55
590.284	62085.53
590.643	62109.48
591.003	62150.61
591.362	62172.98
591.721	62175.7
592.08	62148.58
592.44	62173.44
592.799	62147
593.158	62188.12
593.517	62193.77
593.876	62246.43
594.235	62161.91
594.593	62201.46
594.952	62257.28
595.311	62157.84
595.67	62271.51
596.029	62351.74
596.387	62346.09
596.746	62335.24
597.104	62279.42
597.463	62253.43
597.822	62456.82
598.18	62343.15
598.538	62354.67
598.897	62443.94
599.255	62274.68
599.613	62583.37
599.972	62412.98
600.33	62431.28
600.688	62359.19
601.046	62434.22
601.404	62550.6
601.762	62466.54
602.12	62552.41
602.478	62526.65
602.836	62525.29
603.194	62404.16
603.552	62476.93
603.91	62398.74
604.268	62550.38
604.625	62439.87
604.983	62615.68
605.341	62493.65
605.698	62659.07
606.056	62724.16
606.413	62655.91
606.771	62735.23
607.128	62761.44
607.485	62662.24
607.843	62610.49
608.2	62796.24
608.557	62908.56
608.914	62798.73
609.272	62898.16
609.629	62984.71
609.986	63058.84
610.343	62938.84
610.7	63114.65
611.057	63069.01
611.414	63118.95
611.771	63100.42
612.127	63146.74
612.484	63161.66
612.841	63171.83
613.198	63149.46
613.554	63143.35
613.911	63191.94
614.267	63190.13
614.624	63177.48
614.98	63191.94
615.337	63191.94
615.693	63191.94
616.05	63191.94
616.406	63191.94
616.762	63191.94
617.118	63191.94
617.475	63191.94
617.831	63191.94
618.187	63191.94
618.543	63183.13
618.899	63191.94
619.255	63191.94
619.611	63191.94
619.967	63191.94
620.323	63191.94
620.678	63191.94
621.034	63191.04
621.39	63191.94
621.746	63191.94
622.101	63191.94
622.457	63191.94
622.812	63191.94
623.168	63191.94
623.523	63191.94
623.879	63191.94
624.234	63191.94
624.589	63191.94
624.945	63191.94
625.3	63191.94
625.655	63191.94
626.01	63191.94
626.365	63191.94
626.72	63191.94
627.075	63191.94
627.43	63191.94
627.785	63191.94
628.14	63191.94
628.495	63191.94
628.85	63191.94
629.205	63191.94
629.559	63191.94
629.914	63191.94
630.269	63191.94
630.623	63191.94
630.978	63189.68
631.332	63191.94
631.687	63191.94
632.041	63191.94
632.396	63191.94
632.75	63178.83
633.104	63191.26
633.459	63159.17
633.813	63153.98
634.167	63138.61
634.521	63095.67
634.875	63082.11
635.229	62972.96
635.583	62916.24
635.937	62938.39
636.291	62885.73
636.645	62906.98
636.999	62820.42
637.352	62851.16
637.706	62677.15
638.06	62834.66
638.413	62718.05
638.767	62631.05
639.121	62728
639.474	62597.83
639.828	62543.6
640.181	62584.95
640.534	62594.44
640.888	62549.92
641.241	62486.65
641.594	62457.95
641.947	62521.22
642.301	62479.87
642.654	62431.96
643.007	62470.15
643.36	62401.9
643.713	62395.35
644.066	62468.34
644.419	62313.55
644.771	62200.33
645.124	61965.98
645.477	61940.22
645.83	61792.43
646.182	61700.68
646.535	61596.95
646.888	61638.08
647.24	61448.26
647.593	61562.83
647.945	61468.37
648.298	61477.41
648.65	61315.83
649.002	61339.56
649.355	61426.11
649.707	61377.98
650.059	61436.96
650.411	61760.79
650.763	61797.63
651.115	61954.68
651.467	61846.89
651.819	61799.89
652.171	61693
652.523	61731.41
652.875	61698.87
653.227	61601.02
653.578	61705.2
653.93	61634.47
654.282	61552.89
654.633	61488.26
654.985	61502.27
655.337	61464.75
655.688	61368.03
656.039	61477.41
656.391	61215.27
656.742	61303.18
657.094	61265.89
657.445	61375.26
657.796	61258.21
658.147	61248.71
658.498	61179.56
658.849	61293.46
659.2	61128.94
659.551	61191.09
659.902	61244.87
660.253	61186.8
660.604	61197.64
660.955	61086.91
661.306	61128.27
661.656	61097.31
662.007	61080.58
662.358	61160.81
662.708	61209.39
663.059	61214.14
663.409	60930.76
663.76	61192.44
664.11	61163.52
664.461	61141.6
664.811	61111.99
665.161	61155.84
665.511	61079.68
665.862	61056.86
666.212	61081.26
666.562	61061.83
666.912	61030.19
667.262	61005.1
667.612	60936.86
667.962	61004.88
668.312	60950.42
668.662	61101.83
669.011	60921.04
669.361	60905.45
669.711	60916.75
670.06	60923.07
670.41	60856.18
670.76	60804.43
671.109	60862.06
671.459	60777.77
671.808	60788.84
672.157	60835.17
672.507	60638.79
672.856	60669.07
673.205	60681.27
673.554	60763.08
673.904	60603.08
674.253	60685.11
674.602	60545.23
674.951	60180.72
675.3	60046.94
675.649	60455.29
675.998	60372.13
676.346	60379.81
676.695	60347.95
677.044	60178.46
677.393	60302.75
677.741	60309.08
678.09	60211.68
678.438	60144.56
678.787	60236.99
679.135	60226.37
679.484	60042.87
679.832	60192.92
680.181	60005.81
680.529	60179.14
680.877	60047.39
681.225	60037.22
681.573	60183.21
681.922	60039.71
682.27	59939.14
682.618	60006.71
682.966	59921.52
683.314	59983.44
683.661	59860.73
684.009	59776.21
684.357	59718.81
684.705	59709.32
685.053	59726.49
685.4	59673.84
685.748	59618.47
686.095	59583.45
686.443	59454.86
686.79	59457.12
687.138	59453.73
687.485	59513.62
687.832	59327.18
688.18	59386.16
688.527	59191.59
688.874	59197.24
689.221	59154.08
689.568	59069.11
689.915	58954.31
690.262	58960.41
690.609	58884.93
690.956	58879.29
691.303	58805.16
691.65	58686.97
691.997	58640.87
692.344	58454.44
692.69	58421.9
693.037	58458.28
693.383	58204.05
693.73	58323.14
694.077	58140.1
694.423	58115.92
694.769	58020.55
695.116	57843.38
695.462	57855.36
695.808	57679.54
696.155	57702.59
696.501	57491.07
696.847	57576.04
697.193	57357.97
697.539	57394.8
697.885	57246.11
698.231	57085.21
698.577	57127.01
698.923	57065.32
699.269	57060.12
699.614	56755.27
699.96	56780.81
700.306	56745.33
700.651	56672.34
700.997	56520.48
701.342	56547.37
701.688	56529.06
702.033	56401.61
702.379	56415.4
702.724	56353.93
703.069	56415.4
703.415	56146.93
703.76	56179.02
704.105	56106.93
704.45	56091.11
704.795	55932.7
705.14	55898.12
705.485	55877.78
705.83	55718.46
706.175	55735.64
706.52	55622.42
706.865	55613.61
707.209	55619.94
707.554	55432.37
707.899	55561.18
708.243	55372.71
708.588	55360.28
708.932	55108.54
709.277	55063.79
709.621	55072.83
709.966	54831.03
710.31	54935.66
710.654	54700.19
710.998	54789.9
711.342	54774.08
711.687	54747.19
712.031	54597.59
712.375	54459.51
712.719	54473.53
713.063	54431.49
713.407	54486.18
713.75	54275.79
714.094	54177.49
714.438	54097.04
714.782	54115.12
715.125	53973.88
715.469	53956.48
715.812	53888.23
716.156	53627.22
716.499	53741.57
716.843	53731.17
717.186	53545.19
717.53	53641.46
717.873	53514.23
718.216	53361.92
718.559	53251.41
718.902	53074.01
719.246	53078.31
719.589	52965.99
719.932	52918.76
720.275	52841.7
720.617	52822.27
720.96	52690.52
721.303	52621.14
721.646	52533.24
721.989	52379.57
722.331	52424.09
722.674	52325.11
723.016	52367.37
723.359	52252.57
723.701	52235.84
724.044	52039.01
724.386	51919.24
724.729	52028.62
725.071	52016.87
725.413	51941.16
725.755	51914.27
726.097	51804.22
726.439	51737.33
726.782	51653.03
727.124	51838.34
727.465	51688.74
727.807	51648.51
728.149	51547.05
728.491	51577.78
728.833	51543.43
729.175	51517.44
729.516	51320.61
729.858	51292.59
730.199	51392.25
730.541	51208.53
730.882	51216.89
731.224	51339.37
731.565	51042.43
731.906	51115.2
732.248	51032.03
732.589	50988.87
732.93	50824.13
733.271	50830.68
733.612	50825.49
733.953	50831.59
734.294	50597.92
734.635	50506.85
734.976	50704.36
735.317	50488.09
735.658	50487.87
735.999	50384.37
736.339	50328.78
736.68	50313.86
737.021	50104.83
737.361	49996.35
737.702	50173.07
738.042	49956.13
738.383	49866.87
738.723	49922.68
739.063	49719.53
739.404	49789.35
739.744	49687.21
740.084	49470.49
740.424	49620.77
740.764	49306.43
741.104	49493.54
741.444	49330.38
741.784	49115.93
742.124	49225.75
742.464	49011.3
742.804	48899.89
743.143	48909.83
743.483	48812.21
743.823	48560.23
744.162	48739.89
744.502	48599.1
744.841	48395.27
745.181	48618.99
745.52	48179.91
745.86	48350.97
746.199	48110.75
746.538	48048.16
746.877	48049.51
747.216	47967.48
747.556	47868.05
747.895	47870.76
748.234	47663.53
748.573	47505.57
748.911	47671.22
749.25	47522.97
749.589	47391
749.928	47411.11
750.267	47469.87
750.605	47308.52
750.944	47245.92
751.283	47178.12
751.621	47206.82
