Data from aluminium_surface_pro_back_FLMS001491_00046.txt Node
Date: Wed Feb 08 15:34:07 GMT 2017
User: dcchb
Spectrometer: FLMS00149
Trigger mode: 0
Integration Time (sec): 2.000000E-2
Scans to average: 10
Electric dark correction enabled: true
Nonlinearity correction enabled: false
Boxcar width: 0
XAxis mode: Wavelengths
Number of Pixels in Spectrum: 2048
>>>>>Begin Spectral Data<<<<<
341.393	-24.6
341.776	-24.6
342.16	-24.6
342.543	-67.77
342.927	-53.08
343.31	-65.73
343.693	-56.47
344.077	-74.09
344.46	-58.05
344.843	-59.86
345.226	-49.24
345.61	-44.94
345.993	-9.01
346.376	-5.62
346.759	34.6
347.142	34.6
347.525	26.47
347.908	55.17
348.291	59.91
348.674	102.62
349.057	109.63
349.44	122.51
349.823	138.78
350.206	163.87
350.588	205.67
350.971	214.49
351.354	253.35
351.737	259.23
352.119	279.79
352.502	283.18
352.884	295.16
353.267	300.81
353.65	324.99
354.032	340.36
354.414	334.71
354.797	326.57
355.179	320.47
355.562	353.24
355.944	348.95
356.326	335.61
356.709	343.52
357.091	346.01
357.473	379
357.855	369.96
358.238	375.16
358.62	372.9
359.002	346.23
359.384	370.87
359.766	361.15
360.148	372.67
360.53	369.06
360.912	370.19
361.294	367.25
361.676	349.62
362.057	366.8
362.439	355.27
362.821	343.07
363.203	363.63
363.584	364.76
363.966	366.57
364.348	373.13
364.729	343.3
365.111	347.82
365.493	341.49
365.874	341.71
366.256	381.71
366.637	348.72
367.019	367.25
367.4	365.89
367.781	358.66
368.163	375.61
368.544	362.28
368.925	364.76
369.306	374.71
369.688	373.35
370.069	381.04
370.45	359.57
370.831	383.52
371.212	376.29
371.593	385.55
371.974	360.7
372.355	392.79
372.736	369.74
373.117	377.65
373.498	379.91
373.879	401.83
374.26	380.81
374.641	372.45
375.021	357.53
375.402	370.41
375.783	371.09
376.163	414.48
376.544	412.9
376.925	404.99
377.305	416.51
377.686	424.88
378.066	407.48
378.447	406.35
378.827	417.42
379.208	411.54
379.588	442.28
379.968	426.46
380.349	421.49
380.729	429.62
381.109	428.49
381.489	423.29
381.87	458.1
382.25	437.53
382.63	458.77
383.01	457.64
383.39	455.61
383.77	460.58
384.15	452.45
384.53	472.78
384.91	459.68
385.29	470.98
385.67	496.51
386.049	494.7
386.429	493.35
386.809	493.35
387.189	496.06
387.568	512.56
387.948	488.83
388.328	519.79
388.707	521.6
389.087	518.88
389.466	539
389.846	511.2
390.225	548.26
390.605	533.8
390.984	547.13
391.363	546
391.743	558.21
392.122	556.4
392.501	585.55
392.881	576.74
393.26	587.13
393.639	598.43
394.018	601.82
394.397	598.66
394.776	599.56
395.155	603.85
395.534	597.98
395.913	631.2
396.292	640.01
396.671	642.05
397.05	636.85
397.429	659.67
397.808	642.5
398.186	677.98
398.565	685.66
398.944	680.01
399.323	679.56
399.701	703.29
400.08	724.98
400.458	725.21
400.837	726.11
401.215	729.05
401.594	737.64
401.972	726.11
402.351	731.53
402.729	754.13
403.107	768.14
403.486	772.21
403.864	770.4
404.242	780.12
404.62	787.35
404.999	804.3
405.377	847.24
405.755	824.64
406.133	826.22
406.511	825.77
406.889	853.11
407.267	888.14
407.645	890.17
408.023	875.03
408.401	892.89
408.779	886.78
409.156	921.36
409.534	911.64
409.912	939.89
410.29	964.97
410.667	1010.85
411.045	958.87
411.422	974.92
411.8	983.96
412.178	1029.61
412.555	1013.11
412.933	1039.77
413.31	1053.56
413.687	1086.33
414.065	1093.11
414.442	1093.11
414.819	1099.89
415.197	1136.27
415.574	1143.95
415.951	1153.22
416.328	1135.14
416.705	1171.75
417.082	1165.87
417.46	1182.6
417.837	1215.59
418.214	1267.57
418.591	1225.98
418.967	1234.12
419.344	1266.44
419.721	1264.18
420.098	1272.99
420.475	1282.48
420.852	1260.79
421.228	1308.69
421.605	1325.19
421.982	1357.73
422.358	1366.77
422.735	1385.53
423.111	1389.37
423.488	1390.95
423.864	1427.11
424.241	1454.91
424.617	1436.15
424.994	1456.49
425.37	1468.46
425.746	1490.61
426.123	1510.05
426.499	1523.15
426.875	1527.22
427.251	1599.53
427.627	1606.54
428.003	1608.35
428.379	1626.65
428.756	1635.01
429.132	1662.13
429.507	1701.23
429.883	1694.67
430.259	1745.29
430.635	1739.87
431.011	1750.26
431.387	1808.79
431.763	1813.09
432.138	1837.72
432.514	1878.85
432.89	1872.97
433.265	1936.7
433.641	1937.15
434.016	1980.77
434.392	1986.64
434.767	2039.3
435.143	2019.41
435.518	2065.96
435.894	2103.25
436.269	2092.85
436.644	2136.47
437.02	2166.75
437.395	2154.55
437.77	2219.18
438.145	2222.34
438.52	2261.66
438.895	2302.11
439.271	2288.33
439.646	2361.32
440.021	2353.41
440.395	2382.11
440.77	2325.39
441.145	2395.67
441.52	2462.34
441.895	2456.91
442.27	2422.34
442.645	2463.01
443.019	2508.44
443.394	2507.76
443.769	2536.68
444.143	2521.32
444.518	2560.19
444.892	2569.9
445.267	2620.75
445.641	2647.87
446.016	2644.93
446.39	2645.83
446.764	2686.06
447.139	2679.96
447.513	2708.21
447.887	2723.35
448.262	2749.11
448.636	2776.23
449.01	2790.24
449.384	2837.69
449.758	2854.42
450.132	2889.44
450.506	2931.02
450.88	2983.23
451.254	2966.28
451.628	2956.33
452.002	3037.24
452.376	3048.31
452.75	3082.89
453.123	3128.31
453.497	3128.99
453.871	3150.68
454.244	3266.38
454.618	3258.93
454.992	3314.97
455.365	3331.24
455.739	3350.9
456.112	3416.66
456.486	3429.99
456.859	3479.94
457.232	3553.38
457.606	3552.48
457.979	3625.24
458.352	3657.11
458.725	3722.64
459.099	3760.38
459.472	3826.82
459.845	3848.06
460.218	3893.49
460.591	3968.06
460.964	3992.24
461.337	4088.73
461.71	4103.65
462.083	4138.22
462.456	4189.52
462.829	4219.8
463.201	4300.71
463.574	4325.11
463.947	4325.56
464.32	4450.53
464.692	4491.44
465.065	4514.94
465.438	4585.44
465.81	4675.61
466.183	4695.27
466.555	4824.53
466.928	4886.45
467.3	4864.99
467.672	4939.79
468.045	5068.14
468.417	5060.91
468.789	5134.13
469.161	5197.63
469.534	5257.29
469.906	5381.13
470.278	5441.24
470.65	5522.14
471.022	5604.4
471.394	5702.25
471.766	5733.21
472.138	5806.88
472.51	5970.72
472.882	6056.37
473.253	6122.35
473.625	6196.25
473.997	6344.04
474.369	6383.14
474.74	6478.95
475.112	6549.23
475.484	6658.16
475.855	6794.88
476.227	6777.7
476.598	7023.8
476.97	7117.13
477.341	7292.27
477.713	7364.13
478.084	7400.29
478.455	7637.79
478.827	7702.42
479.198	7937.45
479.569	7906.04
479.94	8181.06
480.311	8227.61
480.682	8474.83
481.053	8628.5
481.424	8738.78
481.795	8825.11
482.166	9035.04
482.537	9117.08
482.908	9280.91
483.279	9348.48
483.65	9582.38
484.021	9765.2
484.391	9816.04
484.762	10040.89
485.133	10105.07
485.503	10239.53
485.874	10481.11
486.244	10584.83
486.615	10720.88
486.985	10898.95
487.356	11047.2
487.726	11175.1
488.097	11510.69
488.467	11359.73
488.837	11713.84
489.207	11828.42
489.578	12037.23
489.948	12119.48
490.318	12257.56
490.688	12453.03
491.058	12561.73
491.428	12781.39
491.798	12894.38
492.168	13147.48
492.538	13203.52
492.908	13291.66
493.278	13570.29
493.648	13561.71
494.017	13793.56
494.387	13938.87
494.757	14005.54
495.126	14200.11
495.496	14210.73
495.866	14387.9
496.235	14524.17
496.605	14643.03
496.974	14742.69
497.344	14879.19
497.713	14923.48
498.082	15092.29
498.452	15283.02
498.821	15293.19
499.19	15323.69
499.559	15596.45
499.928	15661.31
500.298	15726.17
500.667	15950.8
501.036	15988.76
501.405	16108.76
501.774	16084.35
502.143	16300.39
502.512	16360.05
502.88	16628.74
503.249	16625.81
503.618	16806.59
503.987	16864.22
504.356	17047.72
504.724	17080.94
505.093	17185.57
505.462	17284.32
505.83	17291.1
506.199	17577.65
506.567	17796.4
506.936	17732.44
507.304	18001.36
507.672	18015.15
508.041	18134.01
508.409	18271.41
508.777	18463.27
509.145	18604.06
509.514	18644.28
509.882	18843.6
510.25	18986.42
510.618	19083.37
510.986	19214.21
511.354	19415.11
511.722	19548.44
512.09	19742.79
512.458	19620.98
512.826	19845.38
513.193	20098.48
513.561	20101.87
513.929	20318.14
514.297	20460.73
514.664	20681.97
515.032	20798.35
515.4	20924.9
515.767	21085.12
516.135	21178.45
516.502	21091.68
516.869	21577.09
517.237	21730.98
517.604	21651.89
517.972	21927.81
518.339	22130.52
518.706	22195.83
519.073	22314.92
519.44	22484.63
519.808	22821.12
520.175	22818.19
520.542	23051.85
520.909	23182.24
521.276	23277.61
521.643	23523.03
522.009	23677.6
522.376	23902.45
522.743	24095.44
523.11	24387.41
523.477	24697.23
523.843	24701.3
524.21	24924.57
524.577	25245.92
524.943	25390.77
525.31	25572.46
525.676	25679.58
526.043	25957.31
526.409	26059.91
526.776	26427.13
527.142	26387.36
527.508	26569.5
527.874	26846.55
528.241	26931.52
528.607	27133.33
528.973	27312.76
529.339	27435.92
529.705	27564.28
530.071	27930.14
530.437	28001.78
530.803	28170.36
531.169	28296.01
531.535	28416.68
531.901	28616
532.267	28768.31
532.632	29051.47
532.998	29061.64
533.364	29239.71
533.73	29345.47
534.095	29603.09
534.461	29687.61
534.826	29804.44
535.192	30107.94
535.557	30162.17
535.923	30354.48
536.288	30363.52
536.653	30576.17
537.019	30575.72
537.384	30717.41
537.749	30856.39
538.114	31013.9
538.479	30932.55
538.845	31219.55
539.21	31104.97
539.575	31369.6
539.94	31383.61
540.305	31690.04
540.67	31513.55
541.034	31810.72
541.399	32014.55
541.764	31958.74
542.129	32072.86
542.494	32015.46
542.858	32356.01
543.223	32296.13
543.587	32499.51
543.952	32475.56
544.316	32631.71
544.681	32654.99
545.045	32768.21
545.41	33045.04
545.774	33041.42
546.138	33131.59
546.503	33141.76
546.867	33230.11
547.231	33522.99
547.595	33700.39
547.959	33785.81
548.324	33811.34
548.688	33956.88
549.052	34324.55
549.416	34035.74
549.779	34260.37
550.143	34319.13
550.507	34668.04
550.871	34665.33
551.235	34702.84
551.599	35096.05
551.962	35102.16
552.326	35346.22
552.689	35530.85
553.053	35389.61
553.417	35567.23
553.78	36015.35
554.143	35653.78
554.507	36179.42
554.87	36158.85
555.234	36572.17
555.597	36381.9
555.96	36531.27
556.323	36779.63
556.686	36709.8
557.05	36994.31
557.413	37017.59
557.776	37258.03
558.139	37461.64
558.502	37536.67
558.865	37834.51
559.228	38087.16
559.59	38063.66
559.953	38208.97
560.316	38605.34
560.679	38711.78
561.041	39078.32
561.404	39064.76
561.767	39234.25
562.129	39267.02
562.492	39553.56
562.854	39535.49
563.217	39571.87
563.579	39859.77
563.941	40024.29
564.304	40094.34
564.666	40645.97
565.028	40510.83
565.39	40865.17
565.753	40939.97
566.115	41262.22
566.477	41356.91
566.839	41385.38
567.201	41833.96
567.563	41896.33
567.925	42082.76
568.287	42098.13
568.648	42231.23
569.01	42627.38
569.372	42925.23
569.734	42780.82
570.095	43095.62
570.457	43127.26
570.819	43373.13
571.18	43360.47
571.542	43639.33
571.903	43761.36
572.265	43928.82
572.626	44007.23
572.987	44175.36
573.349	44316.38
573.71	44447.45
574.071	44563.15
574.432	44641.11
574.794	45027.32
575.155	44984.16
575.516	45063.48
575.877	45119.75
576.238	45283.13
576.599	45510.24
576.96	45380.98
577.32	45474.09
577.681	45651.26
578.042	45825.26
578.403	45876.79
578.763	45951.59
579.124	46210.79
579.485	46149.78
579.845	46458.92
580.206	46427.51
580.566	46452.59
580.927	46462.99
581.287	46767.84
581.648	46551.57
582.008	46788.4
582.368	46678.8
582.728	46786.14
583.089	46705.92
583.449	46716.31
583.809	46902.52
584.169	47045.8
584.529	46873.6
584.889	47243.08
585.249	46990.21
585.609	46938.91
585.969	47228.62
586.329	47068.62
586.688	47239.24
587.048	47104.78
587.408	47151.78
587.768	47088.28
588.127	47088.28
588.487	47123.76
588.846	47393.58
589.206	47135.06
589.565	47206.47
589.925	47351.55
590.284	47155.4
590.643	47314.94
591.003	47359.01
591.362	47447.82
591.721	47356.3
592.08	47361.95
592.44	47524.65
592.799	47374.83
593.158	47344.32
593.517	47425
593.876	47441.94
594.235	47298.45
594.593	47458.89
594.952	47602.84
595.311	47422.51
595.67	47688.72
596.029	47775.72
596.387	47710.41
596.746	47801.94
597.104	47669.06
597.463	47629.51
597.822	47837.41
598.18	47758.32
598.538	47894.81
598.897	48021.14
599.255	47795.38
599.613	48226.33
599.972	47916.73
600.33	48180.91
600.688	47938.65
601.046	48036.73
601.404	48154.47
601.762	48145.88
602.12	48281.02
602.478	48325.54
602.836	48383.39
603.194	48169.84
603.552	48116.96
603.91	48103.4
604.268	48302.49
604.625	48200.57
604.983	48425.87
605.341	48271.75
605.698	48447.34
606.056	48507.91
606.413	48492.31
606.771	48544.06
607.128	48645.08
607.485	48394.91
607.843	48632.87
608.2	48715.13
608.557	48822.93
608.914	48612.31
609.272	48794
609.629	48978.4
609.986	49067.44
610.343	48878.52
610.7	49028.57
611.057	48934.33
611.414	49040.77
611.771	49003.71
612.127	49169.13
612.484	49153.09
612.841	49171.39
613.198	49014.33
613.554	49259.75
613.911	49358.5
614.267	49319.41
614.624	49277.38
614.98	49489.57
615.337	49499.97
615.693	49547.88
616.05	49495.68
616.406	49748.78
616.762	49584.49
617.118	49591.72
617.475	49597.37
617.831	49690.93
618.187	49736.12
618.543	49883.91
618.899	50014.76
619.255	49847.76
619.611	49758.27
619.967	49956.45
620.323	50001.65
620.678	49826.06
621.034	49859.73
621.39	49981.99
621.746	49907.42
622.101	50309.21
622.457	49947.64
622.812	49994.65
623.168	50039.16
623.523	50004.36
623.879	50187.41
624.234	49988.09
624.589	50008.66
624.945	50007.53
625.3	50145.15
625.655	50094.3
626.01	50202.32
626.365	50126.17
626.72	49948.32
627.075	49949.9
627.43	49939.51
627.785	49924.59
628.14	49992.61
628.495	49967.08
628.85	50001.43
629.205	49846.63
629.559	49986.06
629.914	49794.65
630.269	49913.74
630.623	49878.04
630.978	49801.88
631.332	49881.43
631.687	49896.8
632.041	49819.28
632.396	49789.68
632.75	49623.13
633.104	49753.97
633.459	49522.57
633.813	49521.44
634.167	49558.95
634.521	49528.67
634.875	49533.42
635.229	49475.79
635.583	49277.15
635.937	49288.9
636.291	49305.85
636.645	49220.88
636.999	49184.27
637.352	49161.67
637.706	48955.8
638.06	49070.6
638.413	49158.06
638.767	48871.51
639.121	49035.8
639.474	48648.92
639.828	48758.75
640.181	48907.22
640.534	48871.74
640.888	48714
641.241	48576.38
641.594	48644.62
641.947	48734.34
642.301	48664.29
642.654	48596.94
643.007	48618.41
643.36	48622.25
643.713	48428.59
644.066	48545.19
644.419	48335.25
644.771	47983.17
645.124	47680.13
645.477	47673.13
645.83	47508.61
646.182	47153.14
646.535	47186.36
646.888	47221.39
647.24	46998.34
647.593	47187.71
647.945	47082.86
648.298	46863.88
648.65	46843.09
649.002	46531.23
649.355	46829.76
649.707	46616.2
650.059	46802.64
650.411	47265
650.763	47349.97
651.115	47717.19
651.467	47492.34
651.819	47449.63
652.171	47490.76
652.523	47335.05
652.875	47333.47
653.227	47178.9
653.578	47389.06
653.93	47238.56
654.282	46857.55
654.633	46897.1
654.985	47093.25
655.337	47108.39
655.688	46922.41
656.039	47064.33
656.391	46672.02
656.742	46663.43
657.094	46757.89
657.445	46797.44
657.796	46743.88
658.147	46716.09
658.498	46507.96
658.849	46665.69
659.2	46570.56
659.551	46535.53
659.902	46620.27
660.253	46559.71
660.604	46580.5
660.955	46294.86
661.306	46520.16
661.656	46394.74
662.007	46420.5
662.358	46580.72
662.708	46426.15
663.059	46453.5
663.409	46059.38
663.76	46417.34
664.11	46362.43
664.461	46241.98
664.811	46284.46
665.161	46221.41
665.511	46189.1
665.862	46251.24
666.212	46255.31
666.562	46175.99
666.912	46116.78
667.262	46053.96
667.612	46121.53
667.962	46031.81
668.312	45970.12
668.662	46130.34
669.011	46198.36
669.361	46025.48
669.711	45958.59
670.06	46020.97
670.41	45682.22
670.76	45733.97
671.109	46021.64
671.459	45785.72
671.808	45720.18
672.157	45908.88
672.507	45496.69
672.856	45709.56
673.205	45579.85
673.554	45716.57
673.904	45538.27
674.253	45740.75
674.602	45546.18
674.951	45021.9
675.3	44911.62
675.649	45396.8
675.998	45371.72
676.346	45437.25
676.695	45353.64
677.044	45181.44
677.393	45262.57
677.741	45341.89
678.09	45249.69
678.438	45081.78
678.787	45143.47
679.135	45273.87
679.484	45019.64
679.832	45075.68
680.181	44903.03
680.529	45037.26
680.877	44827.32
681.225	44820.77
681.573	44937.6
681.922	44646.09
682.27	44638.4
682.618	44459.65
682.966	44427.11
683.314	44624.17
683.661	44283.61
684.009	44170.62
684.357	44272.08
684.705	44162.48
685.053	44141.01
685.4	44282.25
685.748	43908.48
686.095	43883.17
686.443	43762.04
686.79	43717.52
687.138	43714.81
687.485	43673.46
687.832	43517.75
688.18	43485.44
688.527	43251.55
688.874	43298.32
689.221	43205.9
689.568	43188.5
689.915	42817.21
690.262	42930.65
690.609	42837.55
690.956	42611.56
691.303	42691.11
691.65	42452.02
691.997	42398.01
692.344	42137.68
692.69	41966.16
693.037	42187.62
693.383	41845.26
693.73	41864.46
694.077	41628.31
694.423	41647.52
694.769	41598.71
695.116	41454.76
695.462	41404.14
695.808	41276.01
696.155	41354.2
696.501	40971.83
696.847	40923.92
697.193	40619.3
697.539	40932.96
697.885	40745.62
698.231	40507.66
698.577	40482.13
698.923	40415.69
699.269	40200.55
699.614	40018.19
699.96	39952.65
700.306	39952.88
700.651	39682.37
700.997	39644.64
701.342	39452.1
701.688	39454.13
702.033	39286.45
702.379	39272.22
702.724	39092.33
703.069	39149.96
703.415	38813.92
703.76	38865.67
704.105	38927.59
704.45	38744.32
704.795	38644.89
705.14	38422.97
705.485	38396.98
705.83	38214.16
706.175	38425.46
706.52	38170.78
706.865	37984.34
707.209	38006.94
707.554	37808.53
707.899	37898.24
708.243	37661.86
708.588	37596.55
708.932	37396.11
709.277	37417.35
709.621	37322.21
709.966	37163.34
710.31	37246.28
710.654	36814.43
710.998	36802.68
711.342	36896.01
711.687	36736.24
712.031	36584.83
712.375	36542.12
712.719	36649.23
713.063	36474.78
713.407	36573.08
713.75	36284.05
714.094	36300.77
714.438	36101.45
714.782	36050.61
715.125	35881.34
715.469	36023.71
715.812	35801.35
716.156	35643.84
716.499	35576.95
716.843	35724.74
717.186	35393
717.53	35599.54
717.873	35549.15
718.216	35443.84
718.559	35345.54
718.902	35062.16
719.246	35148.03
719.589	35026.9
719.932	34923.4
720.275	34865.33
720.617	34840.92
720.96	34746.91
721.303	34724.09
721.646	34743.07
721.989	34417.43
722.331	34512.79
722.674	34321.84
723.016	34380.14
723.359	34248.85
723.701	34415.17
724.044	34104.22
724.386	33945.58
724.729	33935.86
725.071	33928.18
725.413	33881.85
725.755	33947.38
726.097	33675.98
726.439	33605.25
726.782	33741.74
727.124	33742.87
727.465	33592.82
727.807	33576.77
728.149	33483.22
728.491	33398.7
728.833	33429.88
729.175	33242.77
729.516	33080.74
729.858	33290.68
730.199	33220.85
730.541	33045.71
730.882	33088.42
731.224	33053.4
731.565	32877.13
731.906	32840.29
732.248	32760.97
732.589	32676.46
732.93	32644.59
733.271	32518.27
733.612	32594.88
733.953	32527.53
734.294	32405.96
734.635	32307.43
734.976	32523.24
735.317	32226.53
735.658	32177.04
735.999	32111.95
736.339	32081.44
736.68	32165.96
737.021	32019.75
737.361	31826.54
737.702	31955.12
738.042	31797.38
738.383	31841.22
738.723	31727.33
739.063	31609.59
739.404	31685.97
739.744	31596.03
740.084	31552.64
740.424	31333.44
740.764	31407.56
741.104	31463.38
741.444	31261.13
741.784	31241.47
742.124	31195.14
742.464	31184.97
742.804	31145.42
743.143	31025.43
743.483	31013.9
743.823	30837.18
744.162	30780.91
744.502	30886
744.841	30587.7
745.181	30700.46
745.52	30552.45
745.86	30664.31
746.199	30525.33
746.538	30498.89
746.877	30530.07
747.216	30366.91
747.556	30314.71
747.895	30341.38
748.234	30155.17
748.573	30162.62
748.911	30165.11
749.25	30083.98
749.589	30035.17
749.928	29992.23
750.267	30040.14
750.605	30023.87
750.944	29843.54
751.283	29750.21
751.621	29857.77
751.96	29547.73
752.298	29669.76
752.636	29532.81
