Data from aluminium_macbook_case_FLMS001491_098.txt Node
Date: Tue Feb 07 10:44:28 GMT 2017
User: dcchb
Spectrometer: FLMS00149
Trigger mode: 0
Integration Time (sec): 2.000000E-2
Scans to average: 10
Electric dark correction enabled: true
Nonlinearity correction enabled: false
Boxcar width: 0
XAxis mode: Wavelengths
Number of Pixels in Spectrum: 2048
>>>>>Begin Spectral Data<<<<<
341.393	-14.15
341.776	-14.15
342.16	-14.15
342.543	-53.7
342.927	-49.86
343.31	-64.09
343.693	-79.69
344.077	-50.76
344.46	-42.85
344.843	-55.06
345.226	-36.98
345.61	-24.1
345.993	-3.76
346.376	-5.34
346.759	15.23
347.142	23.13
347.525	16.81
347.908	48.67
348.291	71.5
348.674	87.31
349.057	99.97
349.44	130.93
349.823	151.95
350.206	181.32
350.588	231.94
350.971	260.64
351.354	289.79
351.737	299.96
352.119	328.44
352.502	310.13
352.884	343.13
353.267	349.23
353.65	336.12
354.032	361.43
354.414	356.91
354.797	364.82
355.179	350.36
355.562	384.93
355.944	376.57
356.326	400.07
356.709	403.69
357.091	400.07
357.473	411.15
357.855	412.05
358.238	405.05
358.62	424.48
359.002	427.87
359.384	421.99
359.766	417.7
360.148	415.22
360.53	405.5
360.912	389.68
361.294	424.71
361.676	406.4
362.057	428.77
362.439	437.81
362.821	420.41
363.203	415.67
363.584	411.15
363.966	413.63
364.348	433.52
364.729	426.29
365.111	442.78
365.493	431.71
365.874	444.14
366.256	434.2
366.637	410.47
367.019	427.87
367.4	447.08
367.781	435.1
368.163	455.67
368.544	439.85
368.925	436.91
369.306	417.7
369.688	433.07
370.069	439.4
370.45	433.29
370.831	454.31
371.212	459.28
371.593	480.07
371.974	466.51
372.355	443.46
372.736	470.35
373.117	478.04
373.498	478.49
373.879	469.68
374.26	493.86
374.641	443.01
375.021	458.38
375.402	468.32
375.783	489.79
376.163	530.47
376.544	530.92
376.925	497.7
377.305	471.94
377.686	527.08
378.066	490.92
378.447	506.51
378.827	544.93
379.208	525.27
379.588	529.79
379.968	528.66
380.349	537.47
380.729	536.12
381.109	553.97
381.489	567.53
381.87	568.43
382.25	564.82
382.63	574.98
383.01	590.13
383.39	584.02
383.77	580.63
384.15	593.74
384.53	625.38
384.91	625.83
385.29	621.76
385.67	632.61
386.049	629.9
386.429	638.26
386.809	660.63
387.189	680.97
387.568	668.09
387.948	666.96
388.328	685.26
388.707	675.32
389.087	711.48
389.466	716.45
389.846	697.24
390.225	754.64
390.605	744.02
390.984	761.87
391.363	720.97
391.743	749.22
392.122	775.43
392.501	773.4
392.881	783.57
393.26	790.12
393.639	808.65
394.018	794.64
394.397	795.09
394.776	835.99
395.155	860.63
395.534	856.11
395.913	847.07
396.292	881.87
396.671	868.99
397.05	873.28
397.429	884.36
397.808	904.92
398.186	906.95
398.565	932.26
398.944	915.31
399.323	955.09
399.701	947.63
400.08	927.74
400.458	970
400.837	984.01
401.215	969.55
401.594	980.17
401.972	1012.94
402.351	1018.14
402.729	1040.06
403.107	1027.63
403.486	1053.62
403.864	1072.15
404.242	1077.34
404.62	1095.2
404.999	1110.79
405.377	1137.23
405.755	1143.33
406.133	1156.89
406.511	1173.61
406.889	1184.23
407.267	1220.84
407.645	1220.62
408.023	1239.37
408.401	1247.28
408.779	1257
409.156	1304.23
409.534	1291.58
409.912	1316.89
410.29	1379.94
410.667	1377.45
411.045	1394.17
411.422	1405.02
411.8	1433.04
412.178	1434.17
412.555	1481.63
412.933	1494.28
413.31	1509.42
413.687	1542.42
414.065	1540.61
414.442	1542.64
414.819	1583.09
415.197	1618.35
415.574	1627.39
415.951	1653.83
416.328	1654.28
416.705	1690.21
417.082	1696.09
417.46	1698.35
417.837	1715.75
418.214	1752.58
418.591	1767.5
418.967	1784.9
419.344	1789.87
419.721	1856.99
420.098	1855.86
420.475	1849.3
420.852	1907.61
421.228	1902.63
421.605	1947.38
421.982	1969.52
422.358	1976.76
422.735	2008.39
423.111	2013.59
423.488	2053.82
423.864	2078.9
424.241	2092.01
424.617	2129.07
424.994	2140.59
425.37	2153.02
425.746	2201.83
426.123	2228.05
426.499	2208.84
426.875	2255.84
427.251	2348.05
427.627	2350.53
428.003	2371.1
428.379	2391.43
428.756	2447.7
429.132	2459.23
429.507	2510.53
429.883	2542.84
430.259	2592.11
430.635	2606.12
431.011	2630.52
431.387	2713.91
431.763	2746.45
432.138	2768.37
432.514	2799.79
432.89	2830.07
433.265	2904.64
433.641	2940.57
434.016	2927.47
434.392	3010.4
434.767	3060.12
435.143	3058.76
435.518	3101.7
435.894	3164.52
436.269	3178.31
436.644	3191.41
437.02	3281.81
437.395	3288.59
437.77	3319.09
438.145	3364.29
438.52	3393.44
438.895	3481.8
439.271	3443.61
439.646	3579.88
440.021	3557.73
440.395	3618.97
440.77	3598.18
441.145	3679.08
441.52	3717.28
441.895	3706.43
442.27	3788.69
442.645	3741.91
443.019	3846.54
443.394	3809.02
443.769	3899.64
444.143	3849.48
444.518	3931.51
444.892	3927.89
445.267	3992.97
445.641	4053.31
446.016	4051.73
446.39	4072.97
446.764	4132.41
447.139	4124.27
447.513	4167.88
447.887	4232.52
448.262	4230.03
448.636	4244.94
449.01	4324.72
449.384	4363.13
449.758	4399.74
450.132	4430.48
450.506	4503.24
450.88	4510.02
451.254	4556.35
451.628	4616.91
452.002	4682.9
452.376	4694.88
452.75	4777.36
453.123	4838.15
453.497	4857.58
453.871	4923.12
454.244	4994.3
454.618	5003.79
454.992	5119.5
455.365	5146.39
455.739	5263.22
456.112	5307.74
456.486	5355.88
456.859	5436.1
457.232	5529.88
457.606	5520.62
457.979	5630.45
458.352	5696.66
458.725	5804.23
459.099	5840.84
459.472	6015.07
459.845	6020.94
460.218	6086.93
460.591	6125.35
460.964	6213.25
461.337	6314.27
461.71	6462.74
462.083	6523.08
462.456	6505.45
462.829	6555.62
463.201	6699.8
463.574	6766.69
463.947	6866.8
464.32	6980.01
464.692	7056.85
465.065	7149.05
465.438	7210.97
465.81	7351.08
466.183	7466.1
466.555	7608.47
466.928	7594.24
467.3	7654.8
467.672	7852.76
468.045	7981.57
468.417	8036.71
468.789	8121.45
469.161	8258.62
469.534	8304.05
469.906	8578.62
470.278	8626.07
470.65	8727.09
471.022	8885.95
471.394	9008.66
471.766	9146.51
472.138	9190.58
472.51	9439.84
472.882	9623.33
473.253	9685.93
473.625	9850.22
473.997	9979.94
474.369	10114.4
474.74	10284.79
475.112	10433.71
475.484	10616.08
475.855	10840.7
476.227	10926.8
476.598	11267.59
476.97	11303.97
477.341	11603.4
477.713	11722.49
478.084	11917.29
478.455	12277.28
478.827	12300.33
479.198	12745.51
479.569	12750.71
479.94	13148.67
480.311	13203.35
480.682	13513.85
481.053	13759.72
481.424	14017.34
481.795	14183.21
482.166	14339.14
482.537	14608.97
482.908	14917.88
483.279	15031.1
483.65	15273.81
484.021	15701.37
484.391	15790.4
484.762	15988.59
485.133	16100.9
485.503	16360.33
485.874	16825.63
486.244	17058.17
486.615	17302.23
486.985	17482.34
487.356	17886.39
487.726	18006.16
488.097	18379.71
488.467	18485.93
488.837	18847.72
489.207	19122.29
489.578	19397.09
489.948	19509.18
490.318	19941.71
490.688	19848.15
491.058	20167.01
491.428	20498.08
491.798	20692.87
492.168	20990.49
492.538	21199.53
492.908	21362.46
493.278	21676.8
493.648	21561.55
494.017	22030.69
494.387	22177.58
494.757	22393.62
495.126	22718.58
495.496	22862.08
495.866	22911.35
496.235	23145.46
496.605	23483.54
496.974	23706.13
497.344	23766.24
497.713	24026.57
498.082	24309.28
498.452	24526.9
498.821	24622.71
499.19	24743.61
499.559	25061.12
499.928	25288.46
500.298	25433.54
500.667	25539.3
501.036	25631.73
501.405	25798.5
501.774	25976.8
502.143	26211.15
502.512	26290.47
502.88	26620.4
503.249	26626.73
503.618	26752.15
503.987	26859.27
504.356	27159.82
504.724	27330.89
505.093	27360.5
505.462	27505.12
505.83	27768.62
506.199	28011.78
506.567	28458.09
506.936	28444.53
507.304	28684.98
507.672	29005.42
508.041	29040.68
508.409	29383.04
508.777	29570.38
509.145	29979.64
509.514	29910.48
509.882	30280.87
510.25	30364.94
510.618	30667.53
510.986	30736.45
511.354	31095.54
511.722	31237
512.09	31612.13
512.458	31690.32
512.826	31847.16
513.193	32012.35
513.561	32205.79
513.929	32478.55
514.297	32714.7
514.664	32885.77
515.032	33036.28
515.4	33302.49
515.767	33452.31
516.135	33738.86
516.502	33474.68
516.869	34192.63
517.237	34344.72
517.604	34389.69
517.972	34655.44
518.339	34990.13
518.706	35057.24
519.073	35356.9
519.44	35693.38
519.808	36096.31
520.175	36102.41
520.542	36560.93
520.909	36840.25
521.276	36961.15
521.643	37389.16
522.009	37579.66
522.376	37934.45
522.743	38140.32
523.11	38546.87
523.477	38910.02
523.843	39224.14
524.21	39524.24
524.577	39594.07
524.943	39888.75
525.31	39981.63
525.676	40512.24
526.043	40743.42
526.409	40846.02
526.776	41252.33
527.142	41377.53
527.508	41688.48
527.874	41947.46
528.241	42188.58
528.607	42318.75
528.973	42604.16
529.339	42636.7
529.705	43147.65
530.071	43370.24
530.437	43518.71
530.803	43773.85
531.169	44199.6
531.535	44212.93
531.901	44470.78
532.267	44652.24
532.632	44838.91
532.998	45000.71
533.364	45329.06
533.73	45517.31
534.095	45868.71
534.461	46108.02
534.826	46171.3
535.192	46370.39
535.557	46716.6
535.923	46703.04
536.288	46787.33
536.653	47079.75
537.019	46998.17
537.384	47232.52
537.749	47381.89
538.114	47569.46
538.479	47652.84
538.845	47870.69
539.21	47786.85
539.575	48085.15
539.94	47991.14
540.305	48278.82
540.67	48229.33
541.034	48536.44
541.399	48668.41
541.764	48735.53
542.129	48993.82
542.494	49002.41
542.858	49111.56
543.223	49246.7
543.587	49514.04
543.952	49509.07
544.316	49680.36
544.681	49710.19
545.045	49849.62
545.41	50048.49
545.774	50102.5
546.138	50152.89
546.503	50231.08
546.867	50312.66
547.231	50689.37
547.595	50781.35
547.959	50911.06
548.324	50948.58
548.688	51144.05
549.052	51232.41
549.416	51308.57
549.779	51432.4
550.143	51449.13
550.507	51793.07
550.871	51860.87
551.235	51798.27
551.599	52213.85
551.962	52114.65
552.326	52184.7
552.689	52429.89
553.053	52348.76
553.417	52452.72
553.78	52777
554.143	52673.5
554.507	52842.09
554.87	52953.72
555.234	53218.12
555.597	53114.85
555.96	53261.51
556.323	53466.48
556.686	53469.19
557.05	53651.1
557.413	53758.9
557.776	53865.79
558.139	54034.14
558.502	54148.27
558.865	54246.34
559.228	54451.76
559.59	54525.66
559.953	54537.18
560.316	54851.07
560.679	54855.59
561.041	55137.17
561.404	55198.18
561.767	55422.81
562.129	55318.63
562.492	55644.05
562.854	55635.68
563.217	55669.58
563.579	55809.92
563.941	55972.4
564.304	56111.38
564.666	56267.53
565.028	56313.18
565.39	56376
565.753	56502.33
566.115	56608.54
566.477	56770.8
566.839	56846.5
567.201	57004.24
567.563	56974.41
567.925	57129.2
568.287	57173.5
568.648	57269.99
569.01	57430.67
569.372	57543.43
569.734	57495.07
570.095	57648.06
570.457	57686.48
570.819	57804.67
571.18	57767.83
571.542	57915.85
571.903	57988.62
572.265	58087.37
572.626	58193.13
572.987	58246.69
573.349	58284.88
573.71	58352.67
574.071	58462.95
574.432	58433.58
574.794	58728.26
575.155	58710.63
575.516	58609.39
575.877	58733.68
576.238	58710.18
576.599	58847.8
576.96	58881.25
577.32	58891.87
577.681	59005.99
578.042	59029.49
578.403	59048.7
578.763	59102.26
579.124	59155.59
579.485	59246.66
579.845	59292.99
580.206	59260.45
580.566	59271.97
580.927	59303.38
581.287	59414.12
581.648	59291.63
582.008	59453.21
582.368	59352.65
582.728	59372.99
583.089	59460.22
583.449	59429.03
583.809	59429.03
584.169	59459.76
584.529	59428.35
584.889	59563.94
585.249	59404.17
585.609	59410.95
585.969	59555.58
586.329	59493.21
586.688	59525.75
587.048	59469.26
587.408	59461.12
587.768	59521.68
588.127	59492.31
588.487	59487.79
588.846	59573.21
589.206	59391.52
589.565	59417.96
589.925	59535.47
590.284	59508.58
590.643	59541.12
591.003	59591.96
591.362	59619.31
591.721	59557.39
592.08	59545.19
592.44	59617.73
592.799	59639.87
593.158	59657.73
593.517	59613.21
593.876	59674.67
594.235	59585.41
594.593	59687.1
594.952	59707.44
595.311	59581.34
595.67	59631.96
596.029	59795.57
596.387	59849.81
596.746	59762.58
597.104	59659.08
597.463	59680.55
597.822	59809.81
598.18	59688.91
598.538	59652.53
598.897	59878.74
599.255	59633.32
599.613	60020.2
599.972	59827.89
600.33	59883.93
600.688	59718.97
601.046	59872.41
601.404	59981.33
601.762	59928.9
602.12	60057.71
602.478	60078.28
602.836	60047.09
603.194	59947.44
603.552	60001.67
603.91	60012.07
604.268	60116.47
604.625	59939.75
604.983	60100.65
605.341	59995.12
605.698	60070.14
606.056	60176.58
606.413	60120.09
606.771	60217.03
607.128	60205.96
607.485	60109.46
607.843	60133.87
608.2	60277.14
608.557	60301.1
608.914	60267.65
609.272	60354.43
609.629	60348.55
609.986	60416.58
610.343	60388.33
610.7	60527.53
611.057	60559.4
611.414	60477.82
611.771	60461.55
612.127	60586.51
612.484	60603.24
612.841	60680.98
613.198	60622.9
613.554	60614.76
613.911	60704.48
614.267	60739.05
614.624	60609.56
614.98	60700.86
615.337	60807.3
615.693	60739.73
616.05	60667.19
616.406	60913.29
616.762	60822.44
617.118	60785.83
617.475	60902.89
617.831	60920.74
618.187	60925.94
618.543	60994.64
618.899	61043
619.255	60983.34
619.611	61016.79
619.967	61080.06
620.323	61100.17
620.678	61040.06
621.034	60900.86
621.39	60961.87
621.746	60916
622.101	61115.31
622.457	60943.34
622.812	60999.61
623.168	61024.47
623.523	60966.17
623.879	61094.75
624.234	60888.2
624.589	61026.73
624.945	61060.4
625.3	61007.75
625.655	60964.13
626.01	61023.11
626.365	61011.36
626.72	60902.21
627.075	60935.88
627.43	60952.15
627.785	60835.1
628.14	60918.03
628.495	60908.99
628.85	60938.37
629.205	60803.01
629.559	60886.39
629.914	60760.3
630.269	60813.4
630.623	60793.97
630.978	60759.62
631.332	60843.91
631.687	60848.43
632.041	60698.83
632.396	60767.3
632.75	60664.7
633.104	60694.76
633.459	60541.54
633.813	60552.84
634.167	60619.06
634.521	60505.16
634.875	60583.35
635.229	60560.75
635.583	60473.75
635.937	60491.38
636.291	60443.92
636.645	60457.03
636.999	60341.77
637.352	60407.99
637.706	60303.58
638.06	60339.74
638.413	60376.58
638.767	60244.6
639.121	60259.52
639.474	60100.43
639.828	60113.53
640.181	60115.79
640.534	60052.97
640.888	59963.71
641.241	59857.72
641.594	59890.26
641.947	59947.66
642.301	59895.23
642.654	59896.14
643.007	59825.4
643.36	59775.91
643.713	59767.78
644.066	59842.35
644.419	59651.85
644.771	59507.67
645.124	59290.05
645.477	59264.74
645.83	59063.62
646.182	58972.77
646.535	58882.83
646.888	58927.12
647.24	58719.9
647.593	58863.62
647.945	58795.37
648.298	58628.15
648.65	58619.79
649.002	58501.15
649.355	58748.37
649.707	58639.22
650.059	58662.05
650.411	58962.15
650.763	59020.68
651.115	59206.66
651.467	59158.3
651.819	59134.12
652.171	59099.32
652.523	59107.46
652.875	59027.69
653.227	58911.3
653.578	59046.44
653.93	58959.44
654.282	58869.5
654.633	58810.29
654.985	58916.73
655.337	58851.19
655.688	58911.3
656.039	58927.8
656.391	58710.18
656.742	58775.94
657.094	58780.91
657.445	58879.89
657.796	58818.43
658.147	58712.21
658.498	58766.45
658.849	58813.45
659.2	58652.1
659.551	58566.68
659.902	58722.38
660.253	58631.09
660.604	58586.34
660.955	58431.99
661.306	58509.73
661.656	58464.54
662.007	58508.15
662.358	58438.55
662.708	58437.64
663.059	58429.51
663.409	58222.06
663.76	58382.05
664.11	58404.88
664.461	58323.75
664.811	58306.35
665.161	58333.24
665.511	58239.01
665.862	58288.72
666.212	58357.87
666.562	58326.69
666.912	58177.99
667.262	58212.34
667.612	58199.46
667.962	58206.24
668.312	58221.6
668.662	58252.79
669.011	58166.92
669.361	58092.34
669.711	58119.91
670.06	58058.9
670.41	58023.19
670.76	57971.44
671.109	58047.37
671.459	58003.98
671.808	58003.76
672.157	57978.67
672.507	57819.81
672.856	57847.83
673.205	57900.26
673.554	57860.71
673.904	57828.39
674.253	57947.04
674.602	57903.65
674.951	57547.05
675.3	57380.04
675.649	57825.23
675.998	57785.91
676.346	57802.41
676.695	57863.42
677.044	57634.73
677.393	57710.66
677.741	57770.32
678.09	57661.85
678.438	57659.36
678.787	57637.67
679.135	57654.39
679.484	57389.54
679.832	57538.46
680.181	57366.03
680.529	57444
680.877	57373.27
681.225	57366.94
681.573	57468.4
681.922	57258.47
682.27	57128.07
682.618	57215.53
682.966	57112.93
683.314	57064.57
683.661	57078.13
684.009	56853.05
684.357	56795.2
684.705	56754.98
685.053	56714.98
685.4	56789.1
685.748	56612.83
686.095	56611.25
686.443	56436.34
686.79	56388.43
687.138	56452.39
687.485	56448.54
687.832	56264.82
688.18	56359.05
688.527	56228.89
688.874	56133.75
689.221	56022.11
689.568	55998.16
689.915	55929.69
690.262	55915.68
690.609	55835.45
690.956	55705.06
691.303	55748.22
691.65	55528.12
691.997	55535.35
692.344	55375.8
692.69	55476.82
693.037	55421.68
693.383	55158.18
693.73	55242.25
694.077	55056.94
694.423	55121.57
694.769	55079.54
695.116	55003.38
695.462	54943.5
695.808	54867.12
696.155	54967.23
696.501	54676.16
696.847	54634.81
697.193	54485.66
697.539	54549.38
697.885	54345.55
698.231	54365.66
698.577	54305.55
698.923	54169.28
699.269	53988.72
699.614	53772.46
699.96	53835.51
700.306	53850.65
700.651	53714.6
700.997	53586.7
701.342	53577.89
701.688	53514.61
702.033	53397.1
702.379	53372.69
702.724	53310.1
703.069	53301.73
703.415	52938.35
703.76	52892.25
704.105	52931.8
704.45	52858.81
704.795	52673.28
705.14	52454.98
705.485	52499.04
705.83	52406.16
706.175	52376.79
706.52	52263.57
706.865	52100.41
707.209	52030.13
707.554	51794.2
707.899	51863.35
708.243	51752.4
708.588	51701.55
708.932	51423.14
709.277	51424.04
709.621	51404.61
709.966	51143.6
710.31	51277.15
710.654	51043.71
710.998	51070.38
711.342	50982.93
711.687	50938.63
712.031	50671.29
712.375	50651.63
712.719	50758.98
713.063	50586.33
713.407	50775.7
713.75	50496.84
714.094	50523.95
714.438	50282.83
714.782	50448.93
715.125	50180.69
715.469	50227.69
715.812	49995.38
716.156	49894.37
716.499	50025.89
716.843	49922.61
717.186	49700.47
717.53	49826.35
717.873	49807.14
718.216	49664.09
718.559	49479.91
718.902	49347.04
719.246	49476.52
719.589	49346.13
719.932	49284.66
720.275	49203.99
720.617	49068.17
720.96	48941.4
721.303	49070.88
721.646	48986.82
721.989	48798.58
722.331	48911.34
722.674	48712.7
723.016	48751.35
723.359	48657.56
723.701	48643.1
724.044	48296.89
724.386	48236.1
724.729	48402.43
725.071	48212.38
725.413	48158.59
725.755	48100.29
726.097	47958.37
726.439	47729
726.782	47689.23
727.124	47925.15
727.465	47604.26
727.807	47527.42
728.149	47464.15
728.491	47314.77
728.833	47401.55
729.175	47175.34
729.516	46966.08
729.858	46898.74
730.199	46968.57
730.541	46933.77
730.882	46800.44
731.224	46891.06
731.565	46495.81
731.906	46587.56
732.248	46602.93
732.589	46247.46
732.93	46151.41
733.271	46303.27
733.612	46369.94
733.953	46379.2
734.294	45957.07
734.635	45891.53
734.976	45954.13
735.317	45629.62
735.658	45736.28
735.999	45666.91
736.339	45517.31
736.68	45738.54
737.021	45478.44
737.361	45371.77
737.702	45537.19
738.042	45320.25
738.383	45331.1
738.723	45343.75
739.063	45115.28
739.404	45169.07
739.744	45053.59
740.084	44934.27
740.424	44913.71
740.764	44967.94
741.104	45017.66
741.444	44706.25
741.784	44677.33
742.124	44589.87
742.464	44627.39
742.804	44513.04
743.143	44471.91
743.483	44507.16
743.823	44160.51
744.162	44190.56
744.502	44280.95
744.841	44097.46
745.181	44195.31
745.52	43939.72
745.86	44112.82
746.199	43967.29
746.538	43814.75
746.877	43969.32
747.216	43851.59
747.556	43843.23
747.895	43711.93
748.234	43493.86
748.573	43464.03
748.911	43411.82
749.25	43302.45
749.589	43019.29
749.928	43166.18
750.267	43048.67
750.605	42950.82
750.944	42742.92
751.283	42676.02
751.621	42769.36
751.96	42472.41
752.298	42376.15
