Data from aluminium_surface_pro_back_FLMS001491_00011.txt Node
Date: Wed Feb 08 15:33:40 GMT 2017
User: dcchb
Spectrometer: FLMS00149
Trigger mode: 0
Integration Time (sec): 2.000000E-2
Scans to average: 10
Electric dark correction enabled: true
Nonlinearity correction enabled: false
Boxcar width: 0
XAxis mode: Wavelengths
Number of Pixels in Spectrum: 2048
>>>>>Begin Spectral Data<<<<<
341.393	1.92
341.776	1.92
342.16	1.92
342.543	-67.46
342.927	-69.26
343.31	-45.76
343.693	-66.55
344.077	-61.13
344.46	-56.16
344.843	-63.84
345.226	-42.15
345.61	-33.33
345.993	-1.69
346.376	3.95
346.759	5.76
347.142	5.99
347.525	23.84
347.908	34.01
348.291	90.73
348.674	97.06
349.057	109.26
349.44	132.54
349.823	146.55
350.206	168.92
350.588	215.7
350.971	232.65
351.354	240.11
351.737	257.51
352.119	257.28
352.502	289.37
352.884	307.9
353.267	302.48
353.65	305.64
354.032	321.69
354.414	336.6
354.797	352.65
355.179	339.31
355.562	336.83
355.944	340.89
356.326	347.9
356.709	352.87
357.091	359.88
357.473	366.88
357.855	373.21
358.238	363.72
358.62	367.56
359.002	375.7
359.384	374.57
359.766	370.5
360.148	360.56
360.53	375.92
360.912	362.14
361.294	370.95
361.676	375.24
362.057	371.18
362.439	351.06
362.821	376.37
363.203	346.77
363.584	372.98
363.966	391.29
364.348	334.57
364.729	372.08
365.111	369.14
365.493	380.67
365.874	371.63
366.256	368.92
366.637	383.15
367.019	349.26
367.4	371.85
367.781	363.49
368.163	374.57
368.544	384.96
368.925	396.49
369.306	383.61
369.688	378.86
370.069	389.93
370.45	393.32
370.831	364.4
371.212	370.05
371.593	383.38
371.974	362.82
372.355	388.8
372.736	381.57
373.117	372.98
373.498	394.23
373.879	371.63
374.26	368.92
374.641	375.92
375.021	377.73
375.402	384.96
375.783	404.85
376.163	421.57
376.544	417.73
376.925	423.15
377.305	411.85
377.686	400.55
378.066	413.44
378.447	417.5
378.827	438.29
379.208	411.85
379.588	401.46
379.968	425.86
380.349	436.49
380.729	445.98
381.109	470.61
381.489	451.85
381.87	460.21
382.25	457.05
382.63	436.71
383.01	481.23
383.39	459.99
383.77	450.04
384.15	456.6
384.53	480.55
384.91	460.44
385.29	465.86
385.67	488.01
386.049	480.55
386.429	493.89
386.809	489.37
387.189	528.23
387.568	503.38
387.948	522.36
388.328	519.2
388.707	529.59
389.087	519.2
389.466	531.62
389.846	538.86
390.225	540.89
390.605	551.96
390.984	557.61
391.363	568.01
391.743	576.14
392.122	581.11
392.501	573.43
392.881	596.48
393.26	605.29
393.639	614.11
394.018	616.37
394.397	625.41
394.776	606.65
395.155	622.47
395.534	642.13
395.913	629.25
396.292	660.89
396.671	654.56
397.05	646.88
397.429	663.15
397.808	689.13
398.186	666.54
398.565	682.13
398.944	690.72
399.323	699.53
399.701	713.77
400.08	712.64
400.458	742.24
400.837	727.78
401.215	755.35
401.594	752.41
401.972	735.46
402.351	749.47
402.729	764.16
403.107	780.88
403.486	766.42
403.864	824.5
404.242	821.79
404.62	812.75
404.999	845.51
405.377	815.91
405.755	846.19
406.133	841.45
406.511	872.63
406.889	867.89
407.267	907.43
407.645	895.46
408.023	891.39
408.401	957.15
408.779	952.63
409.156	950.6
409.534	966.64
409.912	1009.13
410.29	1010.26
410.667	1004.83
411.045	1031.05
411.422	1025.4
411.8	1043.93
412.178	1064.27
412.555	1067.43
412.933	1079.63
413.31	1083.7
413.687	1114.66
414.065	1133.64
414.442	1130.03
414.819	1165.51
415.197	1171.61
415.574	1176.13
415.951	1188.56
416.328	1223.58
416.705	1190.59
417.082	1207.09
417.46	1227.65
417.837	1257.48
418.214	1264.26
418.591	1252.51
418.967	1264.94
419.344	1292.06
419.721	1319.63
420.098	1329.12
420.475	1333.19
420.852	1351.49
421.228	1376.8
421.605	1336.12
421.982	1398.27
422.358	1410.92
422.735	1419.06
423.111	1452.5
423.488	1436.91
423.864	1463.58
424.241	1487.53
424.617	1516.91
424.994	1508.32
425.37	1520.52
425.746	1554.87
426.123	1582.9
426.499	1558.72
426.875	1602.78
427.251	1642.33
427.627	1674.87
428.003	1651.82
428.379	1713.06
428.756	1702.22
429.132	1743.12
429.507	1752.16
429.883	1775.66
430.259	1792.38
430.635	1805.94
431.011	1830.35
431.387	1881.65
431.763	1924.81
432.138	1895.43
432.514	1911.25
432.89	1947.18
433.265	1988.31
433.641	2034.86
434.016	2057.91
434.392	2053.39
434.767	2127.29
435.143	2120.28
435.518	2110.57
435.894	2124.35
436.269	2204.57
436.644	2227.17
437.02	2253.39
437.395	2244.57
437.77	2293.61
438.145	2308.98
438.52	2360.73
438.895	2358.47
439.271	2384.68
439.646	2416.09
440.021	2445.7
440.395	2462.87
440.77	2454.51
441.145	2483.44
441.52	2520.95
441.895	2510.1
442.27	2537.45
442.645	2575.86
443.019	2620.38
443.394	2620.16
443.769	2614.96
444.143	2605.02
444.518	2639.82
444.892	2659.93
445.267	2702.19
445.641	2698.12
446.016	2752.58
446.39	2759.36
446.764	2771.11
447.139	2777.22
447.513	2835.07
447.887	2831.45
448.262	2855.63
448.636	2883.2
449.01	2902.64
449.384	2952.13
449.758	2964.33
450.132	2984.89
450.506	3019.02
450.88	3023.08
451.254	3044.1
451.628	3087.49
452.002	3105.34
452.376	3191.89
452.75	3172.23
453.123	3202.97
453.497	3260.14
453.871	3256.98
454.244	3340.14
454.618	3352.57
454.992	3414.94
455.365	3466.46
455.739	3490.42
456.112	3606.57
456.486	3603.41
456.859	3652.22
457.232	3681.6
457.606	3694.71
457.979	3717.76
458.352	3818.32
458.725	3873.91
459.099	3892.44
459.472	3929.95
459.845	4023.74
460.218	4078.65
460.591	4104.41
460.964	4176.95
461.337	4196.61
461.71	4303.28
462.083	4322.94
462.456	4330.17
462.829	4379.43
463.201	4412.88
463.574	4444.06
463.947	4572.65
464.32	4608.81
464.692	4661.23
465.065	4714.57
465.438	4838.4
465.81	4875.92
466.183	4905.29
466.555	5054.22
466.928	5037.95
467.3	5058.74
467.672	5150.71
468.045	5288.34
468.417	5282.69
468.789	5349.58
469.161	5386.64
469.534	5488.78
469.906	5587.76
470.278	5687.2
470.65	5705.5
471.022	5779.17
471.394	5960.18
471.766	5981.88
472.138	5997.02
472.51	6186.84
472.882	6215.77
473.253	6299.61
473.625	6396.33
473.997	6587.51
474.369	6630
474.74	6674.06
475.112	6846.26
475.484	6898.24
475.855	7088.06
476.227	7086.93
476.598	7294.16
476.97	7403.76
477.341	7596.07
477.713	7662.28
478.084	7762.17
478.455	7943.41
478.827	8077.41
479.198	8274.02
479.569	8308.14
479.94	8568.25
480.311	8566.67
480.682	8824.97
481.053	9006.2
481.424	9176.59
481.795	9227.67
482.166	9370.49
482.537	9435.35
482.908	9713.08
483.279	9764.15
483.65	9980.19
484.021	10178.38
484.391	10305.15
484.762	10394.87
485.133	10567.74
485.503	10607.52
485.874	10920.28
486.244	11010.9
486.615	11211.34
486.985	11301.74
487.356	11550.32
487.726	11600.71
488.097	11984.43
488.467	11937.2
488.837	12192.11
489.207	12410.18
489.578	12545.55
489.948	12608.14
490.318	12801.58
490.688	12934.69
491.058	13112.08
491.428	13246.32
491.798	13481.57
492.168	13826.42
492.538	13853.31
492.908	13948.9
493.278	14163.58
493.648	14152.06
494.017	14363.8
494.387	14446.51
494.757	14600.41
495.126	14802.89
495.496	14838.82
495.866	14976.67
496.235	15151.13
496.605	15281.52
496.974	15372.59
497.344	15502.08
497.713	15604.67
498.082	15721.96
498.452	15965.34
498.821	16009.64
499.19	16194.04
499.559	16228.84
499.928	16389.74
500.298	16603.74
500.667	16679.45
501.036	16629.28
501.405	16948.82
501.774	16952.89
502.143	17171.19
502.512	17181.58
502.88	17387.68
503.249	17389.71
503.618	17538.18
503.987	17617.05
504.356	17773.88
504.724	17849.81
505.093	18026.31
505.462	18115.57
505.83	18319.63
506.199	18426.3
506.567	18670.81
506.936	18567.76
507.304	18822.44
507.672	18887.3
508.041	18984.02
508.409	19183.56
508.777	19314.86
509.145	19502.88
509.514	19569.99
509.882	19671.91
510.25	19792.13
510.618	19949.42
510.986	20006.82
511.354	20285.91
511.722	20469.63
512.09	20647.03
512.458	20616.97
512.826	20786.69
513.193	20914.14
513.561	20982.16
513.929	21245.88
514.297	21401.58
514.664	21588.47
515.032	21630.28
515.4	21867.33
515.767	22046.09
516.135	22286.08
516.502	22061.91
516.869	22533.31
517.237	22732.62
517.604	22639.97
517.972	22885.84
518.339	23034.99
518.706	23025.27
519.073	23338.26
519.44	23446.95
519.808	23741.41
520.175	23828.86
520.542	24182.3
520.909	24209.87
521.276	24301.39
521.643	24578
522.009	24756.98
522.376	24999
522.743	25140.02
523.11	25465.88
523.477	25680.57
523.843	25787.68
524.21	26080.33
524.577	26239.65
524.943	26350.61
525.31	26652.07
525.676	26901.1
526.043	27104.49
526.409	27224.26
526.776	27596
527.142	27656.33
527.508	27915.99
527.874	28119.37
528.241	28224.23
528.607	28331.12
528.973	28633.26
529.339	28747.15
529.705	29130.42
530.071	29241.15
530.437	29390.3
530.803	29509.62
531.169	29720.69
531.535	29746.22
531.901	29818.99
532.267	30040.23
532.632	30272.76
532.998	30445.64
533.364	30535.36
533.73	30778.29
534.095	31073.65
534.461	31037.94
534.826	31203.13
535.192	31433.86
535.557	31599.06
535.923	31573.97
536.288	31698.94
536.653	31907.75
537.019	31952.72
537.384	32104.58
537.749	32226.84
538.114	32393.39
538.479	32398.81
538.845	32661.85
539.21	32552.93
539.575	32743.43
539.94	32818.46
540.305	32882.41
540.67	32961.05
541.034	33067.49
541.399	33292.57
541.764	33403.75
542.129	33702.05
542.494	33678.78
542.858	33710.87
543.223	33869.05
543.587	34033.34
543.952	33919
544.316	34210.51
544.681	34097.75
545.045	34390.17
545.41	34530.5
545.774	34521.69
546.138	34580.45
546.503	34907.67
546.867	35004.16
547.231	35057.27
547.595	35168.23
547.959	35278.06
548.324	35468.11
548.688	35588.56
549.052	35720.3
549.416	35817.7
549.779	35786.52
550.143	35944.03
550.507	36333.39
550.871	36341.08
551.235	36292.72
551.599	36619.04
551.962	36793.04
552.326	36834.62
552.689	37023.09
553.053	36967.5
553.417	37097.44
553.78	37500.14
554.143	37364.55
554.507	37541.5
554.87	37786.92
555.234	38088.15
555.597	37940.58
555.96	38223.74
556.323	38331.76
556.686	38329.05
557.05	38783.95
557.413	38718.87
557.776	38883.61
558.139	39049.93
558.502	39162.93
558.865	39300.32
559.228	39625.96
559.59	39697.15
559.953	39877.48
560.316	40416.23
560.679	40179.85
561.041	40533.28
561.404	40619.84
561.767	40955.19
562.129	41007.17
562.492	41426.59
562.854	41428.4
563.217	41406.48
563.579	41661.39
563.941	41796.3
564.304	42127.82
564.666	42393.35
565.028	42351.77
565.39	42546.56
565.753	42777.75
566.115	42643.74
566.477	42898.65
566.839	43046.66
567.201	43366.43
567.563	43548.35
567.925	43866.53
568.287	43788.11
568.648	43941.56
569.01	44406.63
569.372	44476.91
569.734	44541.09
570.095	44791.93
570.457	45064.69
570.819	45109.44
571.18	45157.57
571.542	45492.02
571.903	45481.4
572.265	45552.81
572.626	45843.65
572.987	45849.75
573.349	46084.1
573.71	46283.87
574.071	46430.53
574.432	46534.48
574.794	46886.11
575.155	46791.2
575.516	46702.39
575.877	46981.48
576.238	46912.78
576.599	47092.21
576.96	47280.68
577.32	47235.48
577.681	47421.92
578.042	47550.73
578.403	47542.59
578.763	47659.2
579.124	47760.67
579.485	47933.99
579.845	48070.26
580.206	48092.63
580.566	47992.98
580.927	48025.52
581.287	48302.35
581.648	48149.36
582.008	48350.93
582.368	48282.91
582.728	48306.87
583.089	48387.99
583.449	48447.88
583.809	48359.07
584.169	48626.63
584.529	48427.54
584.889	48736.01
585.249	48414.66
585.609	48545.5
585.969	48656.23
586.329	48427.99
586.688	48533.98
587.048	48594.32
587.408	48459.86
587.768	48518.39
588.127	48433.87
588.487	48429.35
588.846	48754.99
589.206	48547.99
589.565	48565.62
589.925	48822.78
590.284	48673.64
590.643	48809.45
591.003	48732.39
591.362	48820.98
591.721	48851.03
592.08	48833.63
592.44	48856.68
592.799	48772.16
593.158	48685.84
593.517	48796.12
593.876	48897.13
594.235	48779.62
594.593	48823.91
594.952	48937.13
595.311	48818.04
595.67	48919.73
596.029	49070.91
596.387	49026.39
596.746	49023.23
597.104	48998.37
597.463	49029.56
597.822	49234.52
598.18	48964.25
598.538	48973.06
598.897	49333.96
599.255	48916.79
599.613	49501.18
599.972	49153.62
600.33	49466.38
600.688	49257.8
601.046	49411.7
601.404	49559.04
601.762	49431.81
602.12	49586.38
602.478	49622.99
602.836	49672.25
603.194	49495.31
603.552	49586.15
603.91	49549.09
604.268	49705.92
604.625	49700.05
604.983	49905.02
605.341	49703.66
605.698	49992.24
606.056	49933.04
606.413	49956.31
606.771	50095.07
607.128	50034.05
607.485	50013.94
607.843	49959.93
608.2	50196.31
608.557	50312.24
608.914	50147.49
609.272	50367.15
609.629	50355.85
609.986	50391.78
610.343	50272.92
610.7	50507.71
611.057	50440.59
611.414	50426.58
611.771	50513.36
612.127	50561.95
612.484	50668.16
612.841	50650.31
613.198	50617.99
613.554	50603.3
613.911	50767.59
614.267	50755.84
614.624	50782.28
614.98	50879
615.337	50904.76
615.693	50884.2
616.05	50914.48
616.406	51036.06
616.762	50972.78
617.118	50942.95
617.475	50932.79
617.831	50973.46
618.187	51008.26
618.543	51036.06
618.899	51239.9
619.255	51268.37
619.611	51153.8
619.967	51316.05
620.323	51384.3
620.678	51241.25
621.034	51219.11
621.39	51206.68
621.746	51249.61
622.101	51519.66
622.457	51254.36
622.812	51332.77
623.168	51418.65
623.523	51386.11
623.879	51537.51
624.234	51268.14
624.589	51461.36
624.945	51479.44
625.3	51511.75
625.655	51415.94
626.01	51447.12
626.365	51517.18
626.72	51392.43
627.075	51437.63
627.43	51443.05
627.785	51313.34
628.14	51368.93
628.495	51352.66
628.85	51375.71
629.205	51198.77
629.559	51374.36
629.914	51210.07
630.269	51274.92
630.623	51170.29
630.978	51180.91
631.332	51330.97
631.687	51286
632.041	51180.24
632.396	51160.58
632.75	51075.61
633.104	51082.61
633.459	51045.32
633.813	50950.86
634.167	50914.93
634.521	50876.52
634.875	50917.64
635.229	50928.49
635.583	50737.31
635.937	50737.31
636.291	50774.82
636.645	50700.7
636.999	50773.69
637.352	50708.38
637.706	50479.46
638.06	50606.01
638.413	50487.15
638.767	50402.63
639.121	50457.54
639.474	50254.16
639.828	50338.45
640.181	50283.08
640.534	50226.36
640.888	50158.79
641.241	50087.38
641.594	50075.63
641.947	50272.69
642.301	50008.06
642.654	50067.27
643.007	50151.56
643.36	50011
643.713	49863.66
644.066	50058.01
644.419	49799.93
644.771	49525.36
645.124	49234.98
645.477	49213.51
645.83	48970.58
646.182	48786.4
646.535	48689
646.888	48831.6
647.24	48553.19
647.593	48651.04
647.945	48594.54
648.298	48374.21
648.65	48344.38
649.002	48234.78
649.355	48403.13
649.707	48235.68
650.059	48495.79
650.411	48900.3
650.763	48845.38
651.115	49179.61
651.467	48938.71
651.819	48978.71
652.171	48885.16
652.523	48926.96
652.875	48848.55
653.227	48701.88
653.578	49081.08
653.93	48838.83
654.282	48794.99
654.633	48619.17
654.985	48644.71
655.337	48526.29
655.688	48606.07
656.039	48697.14
656.391	48234.1
656.742	48367.65
657.094	48460.76
657.445	48540.08
657.796	48468.67
658.147	48376.69
658.498	48328.79
658.849	48447.2
659.2	48437.26
659.551	48189.13
659.902	48338.05
660.253	48293.08
660.604	48397.94
660.955	48130.15
661.306	48216.7
661.656	48184.38
662.007	48047.21
662.358	48067.1
662.708	48056.48
663.059	47995.46
663.409	47890.83
663.76	48190.94
664.11	48030.26
664.461	48191.16
664.811	48115.46
665.161	48128.57
665.511	47918.63
665.862	47956.37
666.212	48034.78
666.562	47967.44
666.912	47890.38
667.262	47793.21
667.612	47693.55
667.962	47776.48
668.312	47751.17
668.662	47757.05
669.011	47746.65
669.361	47567.45
669.711	47545.3
670.06	47544.63
670.41	47392.77
670.76	47410.62
671.109	47445.19
671.459	47383.95
671.808	47276.16
672.157	47507.34
672.507	47164.07
672.856	47165.65
673.205	47331.3
673.554	47294.69
673.904	47234.35
674.253	47394.57
674.602	47328.59
674.951	46640.92
675.3	46577.42
675.649	47047.92
675.998	47000.91
676.346	47196.39
676.695	47188.93
677.044	46838.43
677.393	47005.66
677.741	46994.58
678.09	46776.96
678.438	46890.63
678.787	46951.65
679.135	46838.43
679.484	46659.45
679.832	46842.05
680.181	46584.42
680.529	46631.88
680.877	46555.5
681.225	46479.79
681.573	46722.5
681.922	46338.33
682.27	46269.18
682.618	46209.97
682.966	46151.67
683.314	46126.36
683.661	45946.7
684.009	45810.66
684.357	45660.83
684.705	45724.79
685.053	45773.37
685.4	45619.25
685.748	45546.03
686.095	45436.88
686.443	45315.08
686.79	45233.73
687.138	45416.09
687.485	45316.21
687.832	45250.9
688.18	45227.4
688.527	44934.07
688.874	44843.91
689.221	44777.92
689.568	44859.27
689.915	44642.55
690.262	44456.35
690.609	44388.1
690.956	44181.55
691.303	44268.1
691.65	44071.95
691.997	44038.28
692.344	43805.97
692.69	43687.78
693.037	43664.5
693.383	43384.06
693.73	43547.67
694.077	43226.1
694.423	43360.78
694.769	43134.8
695.116	43020.22
695.462	42853.22
695.808	42697.07
696.155	42910.85
696.501	42605.32
696.847	42604.87
697.193	42276.29
697.539	42474.7
697.885	42152.45
698.231	42067.93
698.577	42065.45
698.923	41999.69
699.269	41762.4
699.614	41557.44
699.96	41615.06
700.306	41496.87
700.651	41342.75
700.997	41347.95
701.342	41261.4
701.688	40997.91
702.033	40918.13
702.379	40903.67
702.724	40787.52
703.069	40942.77
703.415	40497.35
703.76	40528.31
704.105	40565.6
704.45	40305.95
704.795	40135.55
705.14	40091.26
705.485	40075.44
705.83	39855.79
706.175	39885.84
706.52	39827.31
706.865	39609.92
707.209	39584.16
707.554	39319.76
707.899	39442.47
708.243	39379.42
708.588	39189.14
708.932	38964.06
709.277	38879.54
709.621	38945.08
709.966	38731.07
710.31	38817.85
710.654	38501.93
710.998	38546.44
711.342	38422.38
711.687	38501.02
712.031	38286.79
712.375	38132.44
712.719	38347.81
713.063	38189.84
713.407	38212.89
713.75	38072.56
714.094	38049.28
714.438	37840.47
714.782	37931.09
715.125	37719.8
715.469	37737.65
715.812	37442.29
716.156	37412.91
716.499	37413.59
716.843	37324.78
717.186	37073.49
717.53	37333.59
717.873	37169.98
718.216	37089.53
718.559	36924.11
718.902	36664.46
719.246	36712.82
719.589	36718.47
719.932	36396.22
720.275	36438.02
720.617	36511.02
720.96	36375.2
721.303	36378.37
721.646	36190.35
721.989	36190.35
722.331	36271.25
722.674	36046.62
723.016	36129.11
723.359	35937.93
723.701	35900.19
724.044	35800.75
724.386	35456.36
724.729	35726.63
725.071	35555.34
725.413	35507.2
725.755	35433.98
726.097	35309.47
726.439	35118.96
726.782	35038.51
727.124	35266.53
727.465	35033.54
727.807	35029.25
728.149	34899.53
728.491	34812.98
728.833	34818.63
729.175	34697.28
729.516	34677.17
729.858	34536.61
730.199	34444.41
730.541	34431.98
730.882	34448.7
731.224	34369.83
731.565	34170.74
731.906	34306.78
732.248	34208.48
732.589	33950.86
732.93	33919.45
733.271	34014.81
733.612	34024.53
733.953	33913.35
734.294	33907.92
734.635	33883.06
734.976	33804.42
735.317	33552.9
735.658	33766.46
735.999	33560.36
736.339	33461.38
736.68	33739.11
737.021	33531.66
737.361	33394.04
737.702	33662.28
738.042	33262.29
738.383	33339.12
738.723	33370.53
739.063	33217.32
739.404	33203.76
739.744	33003.09
740.084	32975.29
740.424	32896.88
740.764	32758.35
741.104	32886.93
741.444	32632.7
741.784	32524.68
742.124	32594.96
742.464	32580.05
742.804	32530.56
743.143	32352.26
743.483	32578.24
743.823	32187.52
744.162	32232.26
744.502	32394.97
744.841	32158.36
745.181	32225.25
745.52	32169.66
745.86	32165.37
746.199	32107.07
746.538	31989.1
746.877	31971.48
747.216	31912.49
747.556	31757.7
747.895	31856.45
748.234	31604.48
748.573	31508.66
748.911	31626.63
749.25	31633.18
749.589	31438.38
749.928	31463.01
750.267	31418.04
750.605	31295.56
750.944	31186.19
751.283	31178.95
751.621	31133.08
751.96	30882.69
752.298	31000.65
752.636	31062.12
