Data from black_plastic_tray_FLMS001491_067.txt Node
Date: Tue Feb 07 10:40:22 GMT 2017
User: dcchb
Spectrometer: FLMS00149
Trigger mode: 0
Integration Time (sec): 2.000000E-2
Scans to average: 10
Electric dark correction enabled: true
Nonlinearity correction enabled: false
Boxcar width: 0
XAxis mode: Wavelengths
Number of Pixels in Spectrum: 2048
>>>>>Begin Spectral Data<<<<<
341.393	-0.79
341.776	-0.79
342.16	-0.79
342.543	-48.02
342.927	-44.18
343.31	-58.19
343.693	-65.87
344.077	-56.16
344.46	-52.99
344.843	-66.1
345.226	-35.37
345.61	-34.69
345.993	-21.58
346.376	-3.95
346.759	7.8
347.142	17.51
347.525	22.49
347.908	63.84
348.291	80.79
348.674	94.35
349.057	108.13
349.44	121.47
349.823	155.59
350.206	156.04
350.588	187.45
350.971	196.49
351.354	207.34
351.737	224.06
352.119	246.21
352.502	255.25
352.884	253.89
353.267	254.8
353.65	285.3
354.032	301.35
354.414	291.86
354.797	310.84
355.179	297.05
355.562	319.88
355.944	325.3
356.326	326.88
356.709	308.35
357.091	345.41
357.473	318.3
357.855	337.28
358.238	312.2
358.62	321.91
359.002	325.08
359.384	332.99
359.766	333.44
360.148	313.78
360.53	346.77
360.912	327.79
361.294	319.65
361.676	313.33
362.057	323.49
362.439	321.01
362.821	336.83
363.203	351.52
363.584	323.95
363.966	308.35
364.348	341.35
364.729	313.78
365.111	312.65
365.493	327.56
365.874	307.45
366.256	303.83
366.637	312.65
367.019	314.68
367.4	302.93
367.781	299.31
368.163	304.96
368.544	308.35
368.925	295.02
369.306	290.5
369.688	313.33
370.069	327.79
370.45	315.36
370.831	309.71
371.212	308.35
371.593	311.07
371.974	307.68
372.355	306.09
372.736	296.83
373.117	327.11
373.498	326.21
373.879	334.79
374.26	311.07
374.641	299.99
375.021	311.52
375.402	283.95
375.783	308.81
376.163	337.96
376.544	322.14
376.925	328.24
377.305	316.26
377.686	308.81
378.066	319.2
378.447	318.52
378.827	335.02
379.208	347.22
379.588	307.45
379.968	342.48
380.349	333.44
380.729	339.54
381.109	323.49
381.489	336.38
381.87	322.14
382.25	334.12
382.63	340.67
383.01	337.28
383.39	335.7
383.77	345.87
384.15	352.42
384.53	343.83
384.91	332.99
385.29	328.69
385.67	340.89
386.049	363.72
386.429	347.22
386.809	344.06
387.189	335.47
387.568	354
387.948	352.42
388.328	366.43
388.707	361.01
389.087	366.66
389.466	364.85
389.846	390.39
390.225	369.59
390.605	368.24
390.984	363.72
391.363	395.81
391.743	364.17
392.122	381.35
392.501	373.66
392.881	387
393.26	399.88
393.639	389.93
394.018	385.87
394.397	400.1
394.776	389.71
395.155	405.53
395.534	387.67
395.913	424.51
396.292	403.94
396.671	395.81
397.05	403.49
397.429	383.61
397.808	404.4
398.186	401.91
398.565	410.72
398.944	390.39
399.323	434
399.701	420.44
400.08	432.64
400.458	420.89
400.837	434
401.215	409.37
401.594	417.73
401.972	420.89
402.351	436.49
402.729	436.94
403.107	439.2
403.486	436.03
403.864	447.78
404.242	431.74
404.62	453.21
404.999	456.6
405.377	452.3
405.755	434.45
406.133	451.63
406.511	465.86
406.889	460.67
407.267	452.53
407.645	458.41
408.023	477.61
408.401	473.55
408.779	486.43
409.156	494.56
409.534	469.48
409.912	485.52
410.29	495.02
410.667	491.4
411.045	498.4
411.422	519.2
411.8	499.99
412.178	491.4
412.555	513.32
412.933	516.71
413.31	502.92
413.687	527.78
414.065	529.14
414.442	495.92
414.819	538.86
415.197	536.14
415.574	543.38
415.951	563.04
416.328	525.07
416.705	538.18
417.082	551.96
417.46	572.08
417.837	564.62
418.214	575.01
418.591	559.65
418.967	566.2
419.344	601.45
419.721	589.25
420.098	593.09
420.475	577.95
420.852	588.57
421.228	600.78
421.605	624.5
421.982	601.68
422.358	615.92
422.735	618.18
423.111	611.4
423.488	618.63
423.864	623.37
424.241	619.08
424.617	642.58
424.994	643.94
425.37	646.65
425.746	642.81
426.123	650.72
426.499	655.46
426.875	670.6
427.251	676.03
427.627	672.41
428.003	688.23
428.379	681.9
428.756	689.81
429.132	684.16
429.507	702.92
429.883	691.62
430.259	717.38
430.635	708.12
431.011	721.45
431.387	742.92
431.763	735.46
432.138	729.36
432.514	740.43
432.89	752.18
433.265	769.13
433.641	786.53
434.016	783.14
434.392	800.54
434.767	808
435.143	779.98
435.518	813.65
435.894	800.32
436.269	829.02
436.644	819.53
437.02	808
437.395	822.24
437.77	838.28
438.145	863.37
438.52	861.33
438.895	856.81
439.271	871.95
439.646	890.26
440.021	897.49
440.395	915.57
440.77	898.39
441.145	883.71
441.52	927.55
441.895	902.24
442.27	927.77
442.645	938.17
443.019	942.24
443.394	947.43
443.769	928.9
444.143	922.12
444.518	951.73
444.892	949.69
445.267	968.68
445.641	951.05
446.016	980.65
446.39	939.98
446.764	960.31
447.139	975
447.513	975.45
447.887	978.62
448.262	1000.31
448.636	996.02
449.01	985.85
449.384	1016.81
449.758	1023.14
450.132	1022.68
450.506	1048.9
450.88	1050.71
451.254	1038.05
451.628	1052.97
452.002	1039.41
452.376	1078.28
452.75	1080.54
453.123	1062.68
453.497	1077.6
453.871	1079.63
454.244	1130.7
454.618	1146.07
454.992	1151.95
455.365	1159.18
455.739	1150.59
456.112	1186.3
456.486	1213.19
456.859	1212.06
457.232	1233.98
457.606	1244.15
457.979	1232.17
458.352	1250.02
458.725	1280.53
459.099	1250.7
459.472	1286.41
459.845	1286.86
460.218	1295.45
460.591	1339.29
460.964	1312.17
461.337	1345.84
461.71	1356.69
462.083	1377.25
462.456	1409.57
462.829	1399.62
463.201	1426.06
463.574	1406.18
463.947	1462.22
464.32	1460.41
464.692	1467.42
465.065	1496.12
465.438	1492.73
465.81	1528.89
466.183	1529.34
466.555	1559.17
466.928	1557.81
467.3	1583.35
467.672	1593.97
468.045	1621.77
468.417	1630.35
468.789	1622.67
469.161	1682.33
469.534	1692.95
469.906	1727.3
470.278	1702.67
470.65	1750.58
471.022	1762.78
471.394	1756
471.766	1808.2
472.138	1828.99
472.51	1861.31
472.882	1882.32
473.253	1887.97
473.625	1917.58
473.997	1966.61
474.369	1953.73
474.74	2001.87
475.112	2035.77
475.484	2063.11
475.855	2072.83
476.227	2120.96
476.598	2139.27
476.97	2146.72
477.341	2195.31
477.713	2227.63
478.084	2299.04
478.455	2281.63
478.827	2324.35
479.198	2398.92
479.569	2383.78
479.94	2419.26
480.311	2439.6
480.682	2475.98
481.053	2576.32
481.424	2594.17
481.795	2644.34
482.166	2669.65
482.537	2678.23
482.908	2755.07
483.279	2748.06
483.65	2802.3
484.021	2843.88
484.391	2879.81
484.762	2943.54
485.133	2916.87
485.503	2989.64
485.874	3031.22
486.244	3041.84
486.615	3098.79
486.985	3179.69
487.356	3205.9
487.726	3253.81
488.097	3275.51
488.467	3299.01
488.837	3355.96
489.207	3433.47
489.578	3458.55
489.948	3488.61
490.318	3541.94
490.688	3511.89
491.058	3591.88
491.428	3634.14
491.798	3686.57
492.168	3728.6
492.538	3764.76
492.908	3820.35
493.278	3842.05
493.648	3841.82
494.017	3879.33
494.387	3930.18
494.757	3916.62
495.126	4036.84
495.496	4035.26
495.866	4020.35
496.235	4075.94
496.605	4099.89
496.974	4162.26
497.344	4176.5
497.713	4214.24
498.082	4233
498.452	4282.03
498.821	4282.94
499.19	4318.42
499.559	4364.74
499.928	4363.61
500.298	4387.57
500.667	4460.11
501.036	4475.93
501.405	4439.77
501.774	4472.09
502.143	4546.66
502.512	4565.42
502.88	4562.48
503.249	4607.22
503.618	4633.89
503.987	4654.23
504.356	4699.42
504.724	4700.55
505.093	4762.47
505.462	4737.84
505.83	4800.89
506.199	4830.95
506.567	4897.84
506.936	4871.85
507.304	4894.9
507.672	5027.78
508.041	4995.46
508.409	5053.99
508.777	5096.48
509.145	5112.52
509.514	5126.53
509.882	5110.26
510.25	5201.56
510.618	5188.68
510.986	5212.18
511.354	5299.86
511.722	5319.07
512.09	5397.49
512.458	5408.78
512.826	5408.56
513.193	5437.03
513.561	5457.14
513.929	5524.04
514.297	5573.98
514.664	5639.29
515.032	5660.98
515.4	5734.43
515.767	5738.49
516.135	5776.91
516.502	5751.37
516.869	5828.21
517.237	5833.63
517.604	5825.72
517.972	5954.98
518.339	6008.99
518.706	5996.57
519.073	6039.95
519.44	6055.32
519.808	6114.53
520.175	6198.37
520.542	6221.87
520.909	6230.46
521.276	6307.52
521.643	6332.15
522.009	6370.34
522.376	6386.84
522.743	6500.28
523.11	6552.71
523.477	6599.26
523.843	6572.37
524.21	6707.96
524.577	6731.91
524.943	6770.78
525.31	6798.35
525.676	6879.25
526.043	6893.72
526.409	6976.2
526.776	7039.48
527.142	7029.53
527.508	7055.97
527.874	7088.29
528.241	7164.9
528.607	7155.86
528.973	7220.94
529.339	7257.1
529.705	7375.29
530.071	7428.84
530.437	7438.34
530.803	7449.86
531.169	7492.57
531.535	7487.83
531.901	7521.95
532.267	7573.47
532.632	7644.88
532.998	7674.49
533.364	7673.58
533.73	7685.79
534.095	7766.24
534.461	7837.87
534.826	7874.48
535.192	7859.57
535.557	7925.55
535.923	7895.05
536.288	7944.54
536.653	7984.99
537.019	7949.96
537.384	7975.04
537.749	8092.78
538.114	8152.67
538.479	8187.47
538.845	8147.24
539.21	8203.29
539.575	8193.12
539.94	8246.9
540.305	8270.18
540.67	8338.2
541.034	8317.86
541.399	8379.33
541.764	8358.99
542.129	8423.85
542.494	8373.45
542.858	8477.86
543.223	8465.2
543.587	8521.47
543.952	8543.84
544.316	8612.77
544.681	8621.13
545.045	8641.47
545.41	8642.37
545.774	8703.39
546.138	8716.49
546.503	8763.72
546.867	8699.32
547.231	8861.8
547.595	8804.18
547.959	8909.48
548.324	8871.74
548.688	8876.26
549.052	8958.52
549.416	8937.51
549.779	8917.84
550.143	8993.55
550.507	9075.13
550.871	9076.48
551.235	9124.17
551.599	9171.17
551.962	9166.43
552.326	9209.14
552.689	9287.33
553.053	9296.59
553.417	9289.59
553.78	9409.58
554.143	9411.39
554.507	9507.43
554.87	9482.35
555.234	9596.92
555.597	9558.96
555.96	9612.06
556.323	9594.44
556.686	9652.06
557.05	9756.92
557.413	9738.39
557.776	9772.06
558.139	9849.12
558.502	9934.99
558.865	9876.46
559.228	9949.68
559.59	10034.43
559.953	10055.89
560.316	10139.51
560.679	10065.84
561.041	10182.9
561.404	10236.68
561.767	10220.64
562.129	10291.37
562.492	10378.6
562.854	10332.04
563.217	10396.9
563.579	10426.51
563.941	10464.92
564.304	10484.13
564.666	10601.42
565.028	10613.85
565.39	10626.05
565.753	10607.52
566.115	10700.4
566.477	10797.57
566.839	10761.41
567.201	10803.22
567.563	10884.8
567.925	10956.66
568.287	10962.08
568.648	11009.77
569.01	10976.55
569.372	11029.43
569.734	11009.32
570.095	11092.7
570.457	11244.11
570.819	11224.45
571.18	11219.93
571.542	11305.13
571.903	11292.47
572.265	11304.67
572.626	11280.72
572.987	11368.63
573.349	11445.24
573.71	11374.96
574.071	11451.34
574.432	11472.13
574.794	11590.54
575.155	11539.02
575.516	11493.14
575.877	11552.8
576.238	11546.7
576.599	11605.46
576.96	11628.28
577.32	11657.21
577.681	11649.52
578.042	11749.41
578.403	11729.52
578.763	11743.53
579.124	11778.11
579.485	11786.92
579.845	11829.18
580.206	11761.39
580.566	11736.75
580.927	11782.63
581.287	11843.87
581.648	11793.93
582.008	11870.08
582.368	11942.17
582.728	11934.26
583.089	11855.17
583.449	11821.5
583.809	11890.2
584.169	11927.93
584.529	11936.3
584.889	11990.76
585.249	11835.51
585.609	11864.89
585.969	11972.23
586.329	11969.52
586.688	11997.54
587.048	12003.19
587.408	11904.88
587.768	11941.27
588.127	11911.66
588.487	11950.99
588.846	12026.92
589.206	11935.39
589.565	11905.56
589.925	11994.15
590.284	11949.4
590.643	12030.31
591.003	12016.97
591.362	12073.47
591.721	11951.66
592.08	12035.5
592.44	12160.7
592.799	12071.89
593.158	12003.19
593.517	12028.27
593.876	12119.12
594.235	12067.82
594.593	12144.2
594.952	12103.52
595.311	12039.57
595.67	12163.63
596.029	12146.46
596.387	12148.04
596.746	12202.5
597.104	12148.72
597.463	12164.09
597.822	12162.73
598.18	12111.43
598.538	12164.31
598.897	12163.18
599.255	12029.4
599.613	12234.82
599.972	12188.27
600.33	12219.9
600.688	12155.73
601.046	12244.08
601.404	12293.58
601.762	12226.91
602.12	12341.48
602.478	12249.06
602.836	12236.85
603.194	12270.75
603.552	12334.25
603.91	12266.01
604.268	12402.95
604.625	12248.38
604.983	12331.09
605.341	12251.32
605.698	12401.14
606.056	12389.62
606.413	12424.42
606.771	12426.45
607.128	12346.68
607.485	12287.7
607.843	12286.12
608.2	12438.43
608.557	12341.03
608.914	12366.12
609.272	12390.75
609.629	12444.31
609.986	12408.6
610.343	12443.4
610.7	12487.92
611.057	12437.53
611.414	12387.36
611.771	12487.24
612.127	12494.02
612.484	12483.85
612.841	12499.67
613.198	12495.38
613.554	12541.7
613.911	12645.88
614.267	12561.14
614.624	12490.18
614.98	12553.91
615.337	12581.7
615.693	12566.79
616.05	12525.89
616.406	12712.55
616.762	12571.99
617.118	12563.17
617.475	12583.06
617.831	12668.25
618.187	12628.71
618.543	12613.79
618.899	12764.52
619.255	12745.09
619.611	12683.85
619.967	12761.81
620.323	12802.71
620.678	12612.89
621.034	12643.4
621.39	12699.89
621.746	12738.08
622.101	12814.92
622.457	12774.01
622.812	12763.39
623.168	12743.05
623.523	12724.07
623.879	12863.05
624.234	12725.88
624.589	12741.25
624.945	12689.27
625.3	12750.74
625.655	12793
626.01	12731.53
626.365	12807.01
626.72	12747.8
627.075	12728.59
627.43	12786.22
627.785	12730.17
628.14	12715.03
628.495	12744.18
628.85	12711.19
629.205	12739.89
629.559	12703.51
629.914	12621.93
630.269	12704.41
630.623	12548.03
630.978	12580.12
631.332	12631.42
631.687	12676.62
632.041	12628.48
632.396	12694.02
632.75	12644.07
633.104	12623.51
633.459	12552.33
633.813	12552.33
634.167	12546.9
634.521	12509.16
634.875	12540.12
635.229	12445.44
635.583	12433.23
635.937	12386.23
636.291	12387.58
636.645	12436.85
636.999	12392.1
637.352	12424.19
637.706	12350.3
638.06	12398.21
638.413	12371.31
638.767	12334.93
639.121	12368.38
639.474	12286.12
639.828	12299.45
640.181	12282.5
640.534	12252.45
640.888	12134.48
641.241	12202.5
641.594	12218.1
641.947	12230.53
642.301	12122.51
642.654	12254.71
643.007	12176.74
643.36	12115.5
643.713	12080.47
644.066	12092.45
644.419	12078.44
644.771	11985.79
645.124	11922.96
645.477	11908.73
645.83	11704.44
646.182	11739.92
646.535	11663.99
646.888	11731.78
647.24	11659.24
647.593	11707.15
647.945	11626.47
648.298	11532.24
648.65	11607.04
649.002	11559.58
649.355	11559.13
649.707	11552.58
650.059	11654.04
650.411	11821.72
650.763	11808.16
651.115	11978.33
651.467	11866.24
651.819	11906.47
652.171	11830.76
652.523	11797.09
652.875	11762.06
653.227	11722.97
653.578	11761.84
653.93	11808.62
654.282	11678.68
654.633	11745.11
654.985	11676.87
655.337	11673.25
655.688	11673.93
656.039	11767.94
656.391	11662.41
656.742	11629.19
657.094	11673.7
657.445	11691.33
657.796	11610.2
658.147	11706.92
658.498	11694.49
658.849	11674.61
659.2	11639.35
659.551	11677.32
659.902	11607.27
660.253	11592.12
660.604	11611.79
660.955	11522.75
661.306	11534.27
661.656	11504.9
662.007	11547.38
662.358	11551
662.708	11570.2
663.059	11542.86
663.409	11406.14
663.76	11537.21
664.11	11551.45
664.461	11539.24
664.811	11570.66
665.161	11544.67
665.511	11495.86
665.862	11502.41
666.212	11513.03
666.562	11541.73
666.912	11503.31
667.262	11390.55
667.612	11398.23
667.962	11461.28
668.312	11344.9
668.662	11475.97
669.011	11332.7
669.361	11401.17
669.711	11334.28
670.06	11328.18
670.41	11261.51
670.76	11249.53
671.109	11315.75
671.459	11337.67
671.808	11243.21
672.157	11193.27
672.507	11178.58
672.856	11185.36
673.205	11184.45
673.554	11293.38
673.904	11247.27
674.253	11301.74
674.602	11213.83
674.951	11152.36
675.3	11012.93
675.649	11146.49
675.998	11145.13
676.346	11178.58
676.695	11257.9
677.044	11185.13
677.393	11209.08
677.741	11099.93
678.09	11145.13
678.438	11069.43
678.787	11099.26
679.135	11077.56
679.484	11014.51
679.832	11070.1
680.181	11057
680.529	11024.91
680.877	11069.43
681.225	11031.69
681.573	11123.89
681.922	10933.38
682.27	10927.74
682.618	10935.87
682.966	10906.49
683.314	10907.85
683.661	10945.36
684.009	10850.68
684.357	10838.47
684.705	10889.09
685.053	10907.17
685.4	10831.69
685.748	10753.05
686.095	10784.91
686.443	10648.19
686.79	10644.58
687.138	10613.39
687.485	10696.55
687.832	10675.31
688.18	10661.98
688.527	10570.46
688.874	10610.91
689.221	10632.15
689.568	10561.19
689.915	10544.47
690.262	10580.63
690.609	10535.66
690.956	10485.71
691.303	10483.91
691.65	10437.58
691.997	10373.4
692.344	10324.59
692.69	10341.99
693.037	10317.13
693.383	10287.3
693.73	10283.91
694.077	10208.66
694.423	10266.96
694.769	10194.87
695.116	10275.1
695.462	10183.35
695.808	10099.06
696.155	10163.91
696.501	10044.37
696.847	10092.5
697.193	10031.26
697.539	10063.58
697.885	10021.54
698.231	9921.43
698.577	9915.33
698.923	9998.04
699.269	9930.25
699.614	9883.02
699.96	9816.58
700.306	9797.14
700.651	9835.11
700.997	9696.81
701.342	9708.11
701.688	9720.99
702.033	9622.01
702.379	9638.73
702.724	9675.79
703.069	9575.45
703.415	9574.55
703.76	9592.18
704.105	9578.39
704.45	9598.73
704.795	9504.27
705.14	9427.89
705.485	9390.15
705.83	9392.41
706.175	9360.32
706.52	9345.86
706.865	9272.86
707.209	9291.85
707.554	9274.22
707.899	9284.16
708.243	9198.52
708.588	9169.14
708.932	9201.23
709.277	9210.04
709.621	9225.86
709.966	9151.74
710.31	9195.35
710.654	9067.45
710.998	9126.2
711.342	9139.31
711.687	9054.56
712.031	8947.9
712.375	8925.3
712.719	9006.88
713.063	8933.44
713.407	8939.31
713.75	8859.77
714.094	8871.29
714.438	8843.04
714.782	8846.66
715.125	8833.55
715.469	8859.09
715.812	8826.32
716.156	8711.52
716.499	8728.25
716.843	8690.28
717.186	8629.26
717.53	8819.54
717.873	8749.49
718.216	8696.16
718.559	8657.29
718.902	8655.25
719.246	8660
719.589	8628.81
719.932	8510.4
720.275	8598.98
720.617	8516.5
720.96	8561.7
721.303	8500.91
721.646	8537.06
721.989	8470.85
722.331	8508.36
722.674	8475.14
723.016	8449.83
723.359	8343.4
723.701	8408.03
724.044	8368.93
724.386	8385.43
724.729	8326.22
725.071	8333.45
725.413	8309.5
725.755	8301.82
726.097	8224.53
726.439	8202.16
726.782	8232.21
727.124	8226.34
727.465	8223.4
727.807	8246.68
728.149	8256.39
728.491	8185.43
728.833	8214.13
729.175	8137.98
729.516	8117.87
729.858	8173.23
730.199	8164.87
730.541	8164.19
730.882	8129.16
731.224	8135.72
731.565	8073.12
731.906	8103.85
732.248	8055.04
732.589	7978.89
732.93	8033.35
733.271	8010.3
733.612	8018.43
733.953	7969.39
734.294	7978.66
734.635	7955.61
734.976	7975.04
735.317	7955.61
735.658	7980.69
735.999	7989.96
736.339	7908.61
736.68	7957.42
737.021	7865.44
737.361	7896.18
737.702	7899.79
738.042	7850.53
738.383	7830.64
738.723	7862.73
739.063	7775.5
739.404	7836.74
739.744	7800.81
740.084	7741.15
740.424	7762.17
740.764	7742.73
741.104	7800.81
741.444	7713.13
741.784	7715.16
742.124	7688.05
742.464	7703.19
742.804	7711.55
743.143	7696.41
743.483	7665
743.823	7674.49
744.162	7631.78
744.502	7664.77
744.841	7627.26
745.181	7629.06
745.52	7635.62
745.86	7585.45
746.199	7572.8
746.538	7561.04
746.877	7618.22
747.216	7512.68
747.556	7534.38
747.895	7530.31
748.234	7530.99
748.573	7548.39
748.911	7458.67
749.25	7527.6
749.589	7458.22
749.928	7531.67
750.267	7459.35
750.605	7421.16
750.944	7422.06
751.283	7399.69
751.621	7423.19
751.96	7334.84
752.298	7333.03
752.636	7377.09
752.975	7297.77
753.313	7275.18
753.651	7323.99
753.989	7302.97
754.327	7264.33
754.666	7120.83
755.004	7196.76
755.342	7210.09
755.679	7249.87
756.017	7161.51
756.355	7146.82
756.693	7121.51
757.031	7122.41
757.368	7087.16
757.706	7112.69
758.044	7089.19
758.381	7086.71
758.719	7047.16
759.056	7043.77
759.394	7040.38
759.731	6981.85
760.068	6933.72
760.405	6896.2
760.743	6935.52
761.08	6910.44
761.417	6876.09
761.754	6911.57
762.091	6832.7
762.428	6853.27
762.765	6802.65
