Data from black_plastic_tray_FLMS001491_057.txt Node
Date: Tue Feb 07 10:40:10 GMT 2017
User: dcchb
Spectrometer: FLMS00149
Trigger mode: 0
Integration Time (sec): 2.000000E-2
Scans to average: 10
Electric dark correction enabled: true
Nonlinearity correction enabled: false
Boxcar width: 0
XAxis mode: Wavelengths
Number of Pixels in Spectrum: 2048
>>>>>Begin Spectral Data<<<<<
341.393	-21.24
341.776	-21.24
342.16	-21.24
342.543	-68.25
342.927	-61.69
343.31	-89.94
343.693	-72.09
344.077	-70.28
344.46	-56.95
344.843	-29.6
345.226	-44.97
345.61	-28.25
345.993	-34.12
346.376	-8.59
346.759	8.36
347.142	28.25
347.525	49.94
347.908	68.02
348.291	90.62
348.674	86.33
349.057	103.27
349.44	125.87
349.823	154.57
350.206	154.57
350.588	186.89
350.971	217.4
351.354	210.16
351.737	218.75
352.119	232.99
352.502	251.29
352.884	272.08
353.267	267.56
353.65	272.08
354.032	294.91
354.414	299.2
354.797	306.21
355.179	292.87
355.562	305.98
355.944	332.87
356.326	314.57
356.709	310.5
357.091	337.39
357.473	318.64
357.855	334.91
358.238	319.54
358.62	346.43
359.002	323.16
359.384	315.92
359.766	322.25
360.148	315.25
360.53	309.82
360.912	334.91
361.294	331.74
361.676	308.47
362.057	312.76
362.439	321.12
362.821	322.25
363.203	302.59
363.584	328.8
363.966	315.02
364.348	326.77
364.729	312.31
365.111	323.61
365.493	309.6
365.874	308.24
366.256	314.57
366.637	320.22
367.019	306.66
367.4	295.59
367.781	282.48
368.163	319.77
368.544	288.13
368.925	327
369.306	344.4
369.688	305.75
370.069	322.25
370.45	304.62
370.831	313.89
371.212	314.34
371.593	324.74
371.974	311.4
372.355	312.76
372.736	311.63
373.117	310.27
373.498	315.02
373.879	305.53
374.26	312.76
374.641	319.09
375.021	324.74
375.402	303.95
375.783	319.54
376.163	330.16
376.544	337.17
376.925	326.55
377.305	326.09
377.686	320.22
378.066	324.51
378.447	340.1
378.827	341.23
379.208	349.37
379.588	337.39
379.968	337.84
380.349	360.89
380.729	353.21
381.109	315.47
381.489	337.39
381.87	333.1
382.25	319.31
382.63	377.17
383.01	340.33
383.39	349.6
383.77	359.99
384.15	329.03
384.53	357.05
384.91	346.88
385.29	341.01
385.67	353.89
386.049	375.81
386.429	379.88
386.809	360.67
387.189	364.51
387.568	381.91
387.948	357.96
388.328	385.75
388.707	382.59
389.087	405.41
389.466	383.04
389.846	367
390.225	401.57
390.605	369.03
390.984	382.36
391.363	394.11
391.743	404.06
392.122	405.87
392.501	387.33
392.881	399.31
393.26	421.23
393.639	409.71
394.018	399.99
394.397	414.9
394.776	417.62
395.155	423.49
395.534	419.42
395.913	413.32
396.292	432.08
396.671	432.08
397.05	416.49
397.429	438.86
397.808	415.36
398.186	423.27
398.565	450.38
398.944	428.46
399.323	434.34
399.701	431.85
400.08	433.66
400.458	441.12
400.837	442.02
401.215	442.7
401.594	442.93
401.972	466.2
402.351	464.39
402.729	446.99
403.107	446.32
403.486	457.39
403.864	475.47
404.242	454.45
404.62	454.68
404.999	484.51
405.377	480.44
405.755	478.18
406.133	483.15
406.511	480.44
406.889	499.65
407.267	504.85
407.645	502.81
408.023	510.27
408.401	511.4
408.779	526.09
409.156	518.63
409.534	530.16
409.912	503.94
410.29	557.05
410.667	537.39
411.045	553.21
411.422	550.49
411.8	543.94
412.178	563.6
412.555	559.53
412.933	565.86
413.31	583.49
413.687	580.55
414.065	578.06
414.442	589.82
414.819	559.53
415.197	594.11
415.574	577.16
415.951	593.2
416.328	598.63
416.705	594.56
417.082	593.66
417.46	621.23
417.837	633.43
418.214	614.67
418.591	663.03
418.967	649.02
419.344	648.12
419.721	619.42
420.098	650.6
420.475	659.87
420.852	655.35
421.228	656.93
421.605	673.43
421.982	668.23
422.358	694.22
422.735	700.55
423.111	675.01
423.488	687.67
423.864	693.32
424.241	708.46
424.617	707.78
424.994	723.82
425.37	721.34
425.746	731.28
426.123	748.45
426.499	733.77
426.875	770.83
427.251	753.65
427.627	757.95
428.003	782.13
428.379	778.06
428.756	797.27
429.132	798.85
429.507	808.57
429.883	807.21
430.259	839.53
430.635	822.8
431.011	840.66
431.387	853.76
431.763	878.85
432.138	888.11
432.514	853.31
432.89	879.3
433.265	873.88
433.641	931.27
434.016	892.18
434.392	904.16
434.767	918.17
435.143	921.33
435.518	916.36
435.894	942.12
436.269	956.81
436.644	972.18
437.02	980.31
437.395	964.04
437.77	1004.04
438.145	976.7
438.52	1035.9
438.895	990.48
439.271	1042.23
439.646	1036.58
440.021	1054.89
440.395	1052.63
440.77	1039.07
441.145	1085.17
441.52	1084.49
441.895	1075.9
442.27	1056.92
442.645	1071.16
443.019	1072.06
443.394	1078.16
443.769	1105.96
444.143	1107.77
444.518	1150.93
444.892	1129.69
445.267	1117.48
445.641	1146.18
446.016	1146.41
446.39	1138.5
446.764	1176.47
447.139	1147.54
447.513	1201.32
447.887	1192.96
448.262	1193.41
448.636	1204.49
449.01	1211.95
449.384	1232.96
449.758	1218.73
450.132	1247.65
450.506	1235.9
450.88	1225.96
451.254	1244.04
451.628	1244.26
452.002	1276.8
452.376	1306.18
452.75	1283.13
453.123	1311.83
453.497	1329
453.871	1319.51
454.244	1398.83
454.618	1366.97
454.992	1400.64
455.365	1372.85
455.739	1437.25
456.112	1441.09
456.486	1437.02
456.859	1465.72
457.232	1462.11
457.606	1458.27
457.979	1477.25
458.352	1521.77
458.725	1552.28
459.099	1548.43
459.472	1558.38
459.845	1573.07
460.218	1591.14
460.591	1593.4
460.964	1594.99
461.337	1645.83
461.71	1660.75
462.083	1700.97
462.456	1674.76
462.829	1709.33
463.201	1713.63
463.574	1705.94
463.947	1776.45
464.32	1783.68
464.692	1819.61
465.065	1838.6
465.438	1839.73
465.81	1860.29
466.183	1878.59
466.555	1906.84
466.928	1912.27
467.3	1899.84
467.672	1939.38
468.045	2017.57
468.417	2016.9
468.789	2041.75
469.161	2060.74
469.534	2089.44
469.906	2126.5
470.278	2121.75
470.65	2155.88
471.022	2194.97
471.394	2197
471.766	2251.24
472.138	2229.32
472.51	2305.93
472.882	2307.06
473.253	2356.77
473.625	2369.2
473.997	2437
474.369	2460.73
474.74	2494.17
475.112	2512.48
475.484	2518.35
475.855	2601.06
476.227	2629.54
476.598	2682.87
476.97	2712.02
477.341	2732.36
477.713	2843.99
478.084	2819.59
478.455	2903.43
478.827	2870.43
479.198	3016.19
479.569	2993.59
479.94	3040.82
480.311	3036.3
480.682	3132.57
481.053	3192.46
481.424	3240.59
481.795	3265.9
482.166	3304.55
482.537	3388.39
482.908	3440.14
483.279	3502.73
483.65	3537.31
484.021	3582.5
484.391	3675.38
484.762	3671.77
485.133	3723.52
485.503	3775.95
485.874	3835.15
486.244	3867.92
486.615	3966.22
486.985	3973.45
487.356	4043.74
487.726	4068.37
488.097	4133.68
488.467	4164.18
488.837	4253.22
489.207	4269.49
489.578	4377.29
489.948	4397.17
490.318	4487.11
490.688	4485.31
491.058	4524.4
491.428	4551.97
491.798	4603.04
492.168	4701.8
492.538	4715.36
492.908	4754.45
493.278	4857.73
493.648	4888.23
494.017	4906.76
494.387	4965.07
494.757	4985.63
495.126	5069.25
495.496	5090.94
495.866	5109.47
496.235	5177.49
496.605	5231.27
496.974	5221.56
497.344	5310.82
497.713	5323.93
498.082	5363.7
498.452	5439.63
498.821	5434.89
499.19	5441.44
499.559	5528.67
499.928	5553.53
500.298	5614.54
500.667	5680.53
501.036	5642.79
501.405	5710.58
501.774	5688.66
502.143	5811.37
502.512	5831.94
502.88	5850.47
503.249	5865.38
503.618	5914.19
503.987	5948.32
504.356	6005.04
504.724	5969.79
505.093	6087.52
505.462	6136.34
505.83	6144.02
506.199	6208.88
506.567	6283.68
506.936	6206.16
507.304	6364.58
507.672	6294.98
508.041	6422.2
508.409	6435.99
508.777	6486.16
509.145	6573.16
509.514	6553.27
509.882	6635.31
510.25	6651.58
510.618	6690.22
510.986	6674.63
511.354	6767.96
511.722	6864
512.09	6973.15
512.458	6900.16
512.826	6960.72
513.193	7024
513.561	7005.69
513.929	7133.6
514.297	7156.2
514.664	7286.14
515.032	7216.76
515.4	7334.27
515.767	7413.14
516.135	7331.33
516.502	7390.99
516.869	7561.38
517.237	7476.41
517.604	7515.51
517.972	7653.58
518.339	7723.41
518.706	7677.99
519.073	7739.46
519.44	7823.3
519.808	7907.81
520.175	7920.92
520.542	8025.78
520.909	8084.76
521.276	8037.53
521.643	8201.14
522.009	8245.43
522.376	8274.36
522.743	8311.87
523.11	8392.1
523.477	8508.7
523.843	8483.39
524.21	8612.88
524.577	8723.16
524.943	8678.64
525.31	8774.01
525.676	8888.58
526.043	8871.18
526.409	8960.44
526.776	9096.48
527.142	9115.24
527.508	9173.54
527.874	9174.67
528.241	9198.18
528.607	9275.24
528.973	9383.03
529.339	9404.5
529.705	9452.41
530.071	9554.33
530.437	9658.96
530.803	9653.53
531.169	9698.5
531.535	9675.9
531.901	9730.59
532.267	9776.69
532.632	9858.95
532.998	9922
533.364	9962
533.73	10044.93
534.095	10112.28
534.461	10126.97
534.826	10161.54
535.192	10201.31
535.557	10262.56
535.923	10251.93
536.288	10266.17
536.653	10378.48
537.019	10392.5
537.384	10448.76
537.749	10478.37
538.114	10564.69
538.479	10511.81
538.845	10652.83
539.21	10592.72
539.575	10736.67
539.94	10662.54
540.305	10771.69
540.67	10788.87
541.034	10707.74
541.399	10864.8
541.764	10876.32
542.129	10967.4
542.494	10953.38
542.858	11034.74
543.223	11036.55
543.587	11081.74
543.952	10987.73
544.316	11034.06
544.681	11128.97
545.045	11189.31
545.41	11244
545.774	11284.22
546.138	11374.16
546.503	11298.91
546.867	11316.76
547.231	11478.12
547.595	11489.19
547.959	11528.06
548.324	11483.99
548.688	11537.55
549.052	11588.85
549.416	11613.71
549.779	11661.84
550.143	11658.68
550.507	11733.02
550.871	11844.43
551.235	11826.13
551.599	11935.05
551.962	11938.67
552.326	11960.14
552.689	12001.72
553.053	11979.8
553.417	12079.91
553.78	12216.4
554.143	12197.65
554.507	12256.63
554.87	12323.74
555.234	12406.91
555.597	12360.35
555.96	12431.99
556.323	12552.89
556.686	12465.21
557.05	12620.01
557.413	12605.77
557.776	12646.9
558.139	12746.11
558.502	12722.83
558.865	12922.6
559.228	12886.21
559.59	12946.1
559.953	12956.27
560.316	13137.51
560.679	13094.57
561.041	13142.71
561.404	13189.26
561.767	13269.71
562.129	13290.05
562.492	13456.82
562.854	13433.55
563.217	13474
563.579	13548.34
563.941	13631.51
564.304	13643.03
564.666	13711.73
565.028	13763.25
565.39	13770.03
565.753	13867.66
566.115	13910.59
566.477	14031.72
566.839	13925.51
567.201	14112.62
567.563	14148.33
567.925	14109.23
568.287	14229.23
568.648	14239.4
569.01	14341.09
569.372	14414.76
569.734	14495.66
570.095	14607.07
570.457	14640.07
570.819	14655.66
571.18	14689.33
571.542	14776.79
571.903	14706.05
572.265	14759.39
572.626	14738.37
572.987	14771.36
573.349	14822.21
573.71	14903.56
574.071	14970.45
574.432	15003
574.794	15084.8
575.155	15159.83
575.516	15018.81
575.877	15145.14
576.238	15105.14
576.599	15225.14
576.96	15178.36
577.32	15212.03
577.681	15383.1
578.042	15312.37
578.403	15474.17
578.763	15344.23
579.124	15439.59
579.485	15507.61
579.845	15475.07
580.206	15486.15
580.566	15501.97
580.927	15491.8
581.287	15491.12
581.648	15441.18
582.008	15622.87
582.368	15583.32
582.728	15546.71
583.089	15486.15
583.449	15636.2
583.809	15625.58
584.169	15499.71
584.529	15503.1
584.889	15662.19
585.249	15642.75
585.609	15575.41
585.969	15599.82
586.329	15612.24
586.688	15640.27
587.048	15619.7
587.408	15526.37
587.768	15569.53
588.127	15666.03
588.487	15581.74
588.846	15634.39
589.206	15456.32
589.565	15549.2
589.925	15605.92
590.284	15619.93
590.643	15663.99
591.003	15687.05
591.362	15717.1
591.721	15678.46
592.08	15660.15
592.44	15742.64
592.799	15769.08
593.158	15715.97
593.517	15718.91
593.876	15793.48
594.235	15679.36
594.593	15778.34
594.952	15685.92
595.311	15639.81
595.67	15651.79
596.029	15817.21
596.387	15729.08
596.746	15793.71
597.104	15851.33
597.463	15803.88
597.822	15791.68
598.18	15713.49
598.538	15680.49
598.897	15829.41
599.255	15781.28
599.613	15995.96
599.972	15809.98
600.33	15857.89
600.688	15903.08
601.046	15922.52
601.404	16041.39
601.762	15975.63
602.12	16046.13
602.478	15936.08
602.836	16038.9
603.194	15960.94
603.552	15981.95
603.91	15992.57
604.268	15985.79
604.625	15921.84
604.983	16014.27
605.341	15941.5
605.698	15979.92
606.056	15967.49
606.413	15994.61
606.771	15922.97
607.128	16061.95
607.485	15959.81
607.843	16032.57
608.2	16066.7
608.557	16194.6
608.914	16135.17
609.272	16175.39
609.629	16199.12
609.986	16214.04
610.343	16202.96
610.7	16318.67
611.057	16195.96
611.414	16207.71
611.771	16275.5
612.127	16319.57
612.484	16314.6
612.841	16366.12
613.198	16335.39
613.554	16386.24
613.911	16495.16
614.267	16520.47
614.624	16357.99
614.98	16400.47
615.337	16518.89
615.693	16468.95
616.05	16440.02
616.406	16553.01
616.762	16592.11
617.118	16592.33
617.475	16506.23
617.831	16597.3
618.187	16498.55
618.543	16517.76
618.899	16800.01
619.255	16675.49
619.611	16572.9
619.967	16726.11
620.323	16691.31
620.678	16583.74
621.034	16651.31
621.39	16684.08
621.746	16587.81
622.101	16793
622.457	16680.01
622.812	16622.16
623.168	16757.75
623.523	16662.84
623.879	16752.78
624.234	16606.34
624.589	16740.12
624.945	16762.5
625.3	16749.62
625.655	16666.91
626.01	16745.55
626.365	16859.44
626.72	16669.62
627.075	16639.79
627.43	16767.92
627.785	16713.91
628.14	16764.76
628.495	16720.46
628.85	16758.66
629.205	16792.33
629.559	16849.73
629.914	16710.75
630.269	16642.27
630.623	16641.37
630.978	16518.44
631.332	16644.08
631.687	16654.03
632.041	16677.53
632.396	16649.05
632.75	16630.3
633.104	16538.32
633.459	16499.91
633.813	16505.55
634.167	16567.7
634.521	16416.29
634.875	16417.65
635.229	16536.29
635.583	16337.2
635.937	16275.96
636.291	16135.62
636.645	16275.73
636.999	16190.76
637.352	16236.86
637.706	16155.06
638.06	16184.43
638.413	16195.73
638.767	16193.7
639.121	16160.03
639.474	16138.78
639.828	16048.84
640.181	16114.83
640.534	16095.17
640.888	16095.4
641.241	15873.03
641.594	16031.67
641.947	16017.21
642.301	16031.67
642.654	15858.79
643.007	15937.43
643.36	15959.81
643.713	15843.43
644.066	15954.16
644.419	15775.4
644.771	15773.37
645.124	15592.36
645.477	15544.9
645.83	15464.9
646.182	15334.74
646.535	15252.25
646.888	15343.33
647.24	15259.71
647.593	15359.37
647.945	15332.48
648.298	15244.12
648.65	15183.78
649.002	15195.98
649.355	15199.83
649.707	15125.48
650.059	15247.96
650.411	15477.33
650.763	15491.34
651.115	15595.07
651.467	15604.56
651.819	15554.85
652.171	15452.25
652.523	15446.37
652.875	15461.97
653.227	15368.18
653.578	15535.18
653.93	15524.11
654.282	15252.25
654.633	15330.22
654.985	15351.91
655.337	15395.75
655.688	15395.3
656.039	15367.51
656.391	15199.83
656.742	15247.51
657.094	15304.46
657.445	15388.07
657.796	15365.02
658.147	15285.93
658.498	15209.32
658.849	15354.62
659.2	15231.46
659.551	15203.89
659.902	15244.8
660.253	15267.4
660.604	15276.21
660.955	15166.61
661.306	15225.59
661.656	15116.66
662.007	15134.29
662.358	15140.62
662.708	15226.72
663.059	15117.57
663.409	14959.61
663.76	15101.3
664.11	15143.33
664.461	15148.98
664.811	15114.86
665.161	15085.48
665.511	15054.07
665.862	15056.78
666.212	15050.68
666.562	15115.08
666.912	15063.33
667.262	15001.64
667.612	14988.98
667.962	15029.89
668.312	15050
668.662	14912.15
669.011	15017.23
669.361	14990.79
669.711	14995.99
670.06	14841.19
670.41	14872.15
670.76	14838.93
671.109	14983.79
671.459	14918.7
671.808	14821.76
672.157	14870.12
672.507	14711.03
672.856	14848.88
673.205	14824.02
673.554	14839.16
673.904	14865.15
674.253	14807.75
674.602	14716.22
674.951	14524.14
675.3	14484.59
675.649	14708.77
675.998	14666.28
676.346	14770.23
676.695	14691.14
677.044	14657.24
677.393	14682.78
677.741	14708.99
678.09	14604.59
678.438	14507.42
678.787	14616.34
679.135	14631.03
679.484	14498.15
679.832	14592.38
680.181	14559.84
680.529	14585.83
680.877	14532.95
681.225	14473.07
681.573	14529.79
681.922	14391.49
682.27	14354.42
682.618	14285.95
682.966	14396.46
683.314	14356.91
683.661	14399.85
684.009	14282.11
684.357	14229.68
684.705	14122.57
685.053	14301.77
685.4	14288.66
685.748	14173.41
686.095	14159.18
686.443	14057.03
686.79	14038.73
687.138	14065.39
687.485	14023.59
687.832	13921.67
688.18	13990.59
688.527	13966.41
688.874	13838.28
689.221	13894.78
689.568	13855
689.915	13805.51
690.262	13895
690.609	13786.3
690.956	13755.8
691.303	13670.6
691.65	13628.57
691.997	13490.49
692.344	13476.93
692.69	13490.04
693.037	13470.15
693.383	13408.69
693.73	13476.93
694.077	13415.01
694.423	13454.11
694.769	13376.15
695.116	13321.23
695.462	13324.85
695.808	13246.43
696.155	13374.34
696.501	13237.84
696.847	13184.29
697.193	13079.66
697.539	13207.11
697.885	13142.93
698.231	12939.32
698.577	13007.12
698.923	12922.37
699.269	12997.17
699.614	12870.17
699.96	12808.02
700.306	12783.62
700.651	12681.25
700.997	12651.87
701.342	12762.6
701.688	12644.64
702.033	12640.8
702.379	12693.45
702.724	12563.96
703.069	12670.85
703.415	12489.16
703.76	12576.62
704.105	12523.29
704.45	12492.55
704.795	12391.54
705.14	12398.32
705.485	12340.69
705.83	12269.28
706.175	12304.08
706.52	12274.93
706.865	12244.65
707.209	12177.76
707.554	12029.51
707.899	12196.52
708.243	12127.14
708.588	12147.7
708.932	12132.79
709.277	12085.56
709.621	12099.34
709.966	11982.06
710.31	12043.3
710.654	11929.86
710.998	11935.51
711.342	11901.61
711.687	11862.06
712.031	11817.32
712.375	11707.49
712.719	11695.29
713.063	11641.73
713.407	11710.2
713.75	11592.69
714.094	11598.57
714.438	11597.21
714.782	11602.18
715.125	11560.83
715.469	11550.66
715.812	11573.03
716.156	11521.28
716.499	11532.35
716.843	11530.54
717.186	11414.39
717.53	11485.57
717.873	11413.71
718.216	11424.33
718.559	11454.16
718.902	11313.37
719.246	11432.47
719.589	11343.2
719.932	11270.44
720.275	11257.11
720.617	11227.5
720.96	11177.56
721.303	11143.21
721.646	11180.95
721.989	11080.84
722.331	11153.15
722.674	11102.76
723.016	11123.78
723.359	11066.6
723.701	11032.7
724.044	11009.2
724.386	11043.33
724.729	10978.92
725.071	10998.81
725.413	10953.16
725.755	10947.51
726.097	10860.05
726.439	10853.95
726.782	10867.51
727.124	10879.04
727.465	10837.68
727.807	10874.74
728.149	10768.08
728.491	10873.16
728.833	10834.52
729.175	10723.79
729.516	10706.61
729.858	10698.02
730.199	10726.95
730.541	10750
730.882	10694.18
731.224	10725.59
731.565	10637.69
731.906	10653.51
732.248	10619.83
732.589	10577.8
732.93	10525.6
733.271	10571.25
733.612	10534.41
733.953	10578.48
734.294	10552.04
734.635	10524.47
734.976	10584.58
735.317	10521.31
735.658	10480.85
735.999	10390.01
736.339	10354.53
736.68	10397.47
737.021	10312.27
737.361	10303.91
737.702	10351.82
738.042	10308.43
738.383	10328.54
738.723	10338.71
739.063	10316.79
739.404	10274.53
739.744	10243.8
740.084	10247.19
740.424	10223.46
740.764	10285.15
741.104	10263.23
741.444	10125.38
741.784	10144.59
742.124	10160.64
742.464	10117.02
742.804	10088.32
743.143	10071.37
743.483	10158.6
743.823	10132.61
744.162	10051.04
744.502	10105.95
744.841	10094.65
745.181	10096.46
745.52	10046.97
745.86	10054.65
746.199	10019.62
746.538	9966.07
746.877	9980.98
747.216	9882.23
747.556	9833.41
747.895	9787.31
748.234	9883.36
748.573	9835.9
748.911	9866.86
749.25	9829.8
749.589	9784.15
749.928	9733.76
750.267	9781.66
750.605	9742.79
750.944	9770.59
751.283	9725.85
751.621	9677.03
751.96	9726.52
752.298	9681.55
752.636	9736.47
752.975	9591.39
753.313	9609.92
753.651	9674.77
753.989	9620.09
754.327	9542.35
754.666	9475.01
755.004	9493.76
755.342	9504.16
755.679	9430.03
756.017	9406.98
756.355	9350.26
756.693	9334.22
757.031	9366.31
757.368	9308.46
757.706	9352.3
758.044	9338.29
