Data from black_metal_pc_casing_FLMS001491_00007.txt Node
Date: Wed Feb 08 14:31:51 GMT 2017
User: dcchb
Spectrometer: FLMS00149
Trigger mode: 0
Integration Time (sec): 2.000000E-2
Scans to average: 10
Electric dark correction enabled: true
Nonlinearity correction enabled: false
Boxcar width: 0
XAxis mode: Wavelengths
Number of Pixels in Spectrum: 2048
>>>>>Begin Spectral Data<<<<<
341.393	-5.07
341.776	-5.07
342.16	-5.07
342.543	-49.59
342.927	-50.94
343.31	-62.92
343.693	-60.89
344.077	-80.32
344.46	-56.82
344.843	-64.96
345.226	-47.33
345.61	-43.71
345.993	-19.99
346.376	-5.75
346.759	20.92
347.142	50.3
347.525	61.37
347.908	45.32
348.291	73.35
348.674	83.74
349.057	107.69
349.44	136.39
349.823	138.65
350.206	153.34
350.588	188.82
350.971	206.9
351.354	227.01
351.737	243.06
352.119	252.32
352.502	255.49
352.884	272.44
353.267	268.14
353.65	283.51
354.032	292.1
354.414	293.68
354.797	276.28
355.179	288.48
355.562	289.61
355.944	314.92
356.326	334.58
356.709	321.02
357.091	337.07
357.473	346.33
357.855	308.59
358.238	339.78
358.62	332.77
359.002	315.6
359.384	336.39
359.766	327.8
360.148	330.51
360.53	333.45
360.912	322.38
361.294	322.83
361.676	346.33
362.057	308.37
362.439	341.59
362.821	333.9
363.203	328.25
363.584	320.12
363.966	314.24
364.348	326.67
364.729	297.07
365.111	307.24
365.493	335.49
365.874	326.45
366.256	316.73
366.637	299.33
367.019	316.05
367.4	318.08
367.781	320.34
368.163	309.72
368.544	293.45
368.925	314.92
369.306	312.89
369.688	309.27
370.069	315.83
370.45	296.16
370.831	305.88
371.212	328.03
371.593	309.27
371.974	319.89
372.355	299.55
372.736	304.53
373.117	310.18
373.498	308.59
373.879	307.24
374.26	326.45
374.641	305.66
375.021	319.21
375.402	313.34
375.783	322.38
376.163	312.21
376.544	317.41
376.925	322.15
377.305	333.23
377.686	328.71
378.066	314.24
378.447	321.93
378.827	313.79
379.208	328.93
379.588	317.41
379.968	349.04
380.349	343.62
380.729	328.71
381.109	321.7
381.489	333.9
381.87	335.03
382.25	353.56
382.63	342.72
383.01	342.04
383.39	343.85
383.77	357.63
384.15	354.02
384.53	360.12
384.91	344.52
385.29	360.12
385.67	363.28
386.049	356.73
386.429	349.72
386.809	362.6
387.189	354.92
387.568	354.69
387.948	335.03
388.328	380.23
388.707	351.98
389.087	374.35
389.466	368.25
389.846	358.31
390.225	360.8
390.605	356.5
390.984	347.46
391.363	357.86
391.743	378.65
392.122	373.45
392.501	382.72
392.881	367.12
393.26	376.61
393.639	385.88
394.018	387.91
394.397	396.05
394.776	365.32
395.155	404.41
395.534	394.69
395.913	400.57
396.292	378.87
396.671	385.2
397.05	386.11
397.429	399.66
397.808	386.33
398.186	413.22
398.565	412.77
398.944	383.85
399.323	408.7
399.701	421.13
400.08	403.73
400.458	422.49
400.837	438.99
401.215	429.27
401.594	422.71
401.972	419.1
402.351	418.2
402.729	428.59
403.107	427.91
403.486	453.22
403.864	421.36
404.242	434.92
404.62	432.43
404.999	451.64
405.377	429.04
405.755	437.63
406.133	453.67
406.511	428.59
406.889	447.12
407.267	461.36
407.645	461.13
408.023	452.77
408.401	459.32
408.779	471.3
409.156	461.36
409.534	489.38
409.912	484.86
410.29	469.72
410.667	475.37
411.045	481.92
411.422	488.02
411.8	476.72
412.178	491.41
412.555	516.05
412.933	506.78
413.31	533.45
413.687	508.14
414.065	527.8
414.442	518.76
414.819	519.44
415.197	542.94
415.574	528.47
415.951	547.46
416.328	526.89
416.705	534.58
417.082	529.6
417.46	565.54
417.837	521.02
418.214	537.97
418.591	549.49
418.967	568.7
419.344	534.12
419.721	566.67
420.098	539.32
420.475	568.7
420.852	574.58
421.228	574.8
421.605	579.09
421.982	568.02
422.358	601.47
422.735	587.91
423.111	615.25
423.488	581.58
423.864	619.09
424.241	620.22
424.617	606.89
424.994	613.22
425.37	629.04
425.746	640.79
426.123	613.9
426.499	628.59
426.875	633.56
427.251	642.6
427.627	644.4
428.003	655.48
428.379	647.34
428.756	674.23
429.132	657.96
429.507	693.67
429.883	671.3
430.259	694.57
430.635	681.69
431.011	695.48
431.387	693.22
431.763	712.42
432.138	718.75
432.514	708.36
432.89	730.96
433.265	732.76
433.641	749.26
434.016	739.09
434.392	765.98
434.767	767.11
435.143	784.29
435.518	775.47
435.894	784.74
436.269	783.16
436.644	809.37
437.02	791.52
437.395	798.52
437.77	812.54
438.145	830.16
438.52	827.22
438.895	824.29
439.271	822.03
439.646	833.1
440.021	825.87
440.395	854.57
440.77	848.24
441.145	828.58
441.52	874.23
441.895	856.38
442.27	878.75
442.645	878.07
443.019	921.91
443.394	883.72
443.769	875.58
444.143	909.93
444.518	928.69
444.892	904.51
445.267	914.45
445.641	918.07
446.016	914
446.39	916.49
446.764	949.93
447.139	925.75
447.513	935.7
447.887	924.4
448.262	943.61
448.636	927.56
449.01	956.26
449.384	958.75
449.758	952.19
450.132	979.08
450.506	989.48
450.88	980.67
451.254	983.6
451.628	1005.75
452.002	1007.78
452.376	1038.97
452.75	1031.29
453.123	1012.53
453.497	1056.82
453.871	1049.37
454.244	1056.37
454.618	1077.84
454.992	1102.7
455.365	1108.35
455.739	1096.82
456.112	1137.95
456.486	1134.33
456.859	1146.76
457.232	1165.52
457.606	1169.14
457.979	1210.26
458.352	1185.86
458.725	1210.94
459.099	1212.75
459.472	1225.41
459.845	1205.07
460.218	1249.36
460.591	1264.5
460.964	1236.48
461.337	1293.43
461.71	1283.48
462.083	1290.94
462.456	1309.02
462.829	1307.89
463.201	1310.83
463.574	1375.01
463.947	1375.01
464.32	1400.77
464.692	1400.09
465.065	1401.9
465.438	1400.32
465.81	1437.38
466.183	1430.82
466.555	1459.52
466.928	1488.22
467.3	1496.36
467.672	1514.44
468.045	1530.93
468.417	1553.98
468.789	1540.2
469.161	1567.32
469.534	1604.83
469.906	1610.93
470.278	1636.47
470.65	1607.54
471.022	1652.06
471.394	1685.96
471.766	1693.64
472.138	1741.32
472.51	1722.57
472.882	1791.94
473.253	1798.27
473.625	1822
473.997	1843.92
474.369	1861.32
474.74	1891.6
475.112	1924.82
475.484	1950.81
475.855	1977.7
476.227	1972.73
476.598	2018.83
476.97	2040.75
477.341	2078.94
477.713	2073.52
478.084	2136.34
478.455	2175.44
478.827	2193.52
479.198	2212.05
479.569	2236.23
479.94	2304.93
480.311	2329.78
480.682	2334.53
481.053	2386.28
481.424	2447.52
481.795	2449.78
482.166	2493.62
482.537	2523.22
482.908	2577.23
483.279	2586.27
483.65	2612.49
484.021	2642.09
484.391	2704.69
484.762	2713.5
485.133	2748.76
485.503	2775.2
485.874	2857.45
486.244	2847.74
486.615	2904.23
486.985	2931.8
487.356	2976.55
487.726	3016.32
488.097	3107.62
488.467	3066.49
488.837	3113.49
489.207	3178.8
489.578	3217.44
489.948	3289.98
490.318	3284.79
490.688	3324.56
491.058	3356.42
491.428	3402.98
491.798	3442.97
492.168	3461.05
492.538	3478
492.908	3517.55
493.278	3584.21
493.648	3573.82
494.017	3664.89
494.387	3647.49
494.757	3692.46
495.126	3706.02
495.496	3755.06
495.866	3765.9
496.235	3820.14
496.605	3808.39
496.974	3845.45
497.344	3908.5
497.713	3971.55
498.082	3941.04
498.452	3988.04
498.821	4002.28
499.19	4030.76
499.559	4077.53
499.928	4094.03
500.298	4109.62
500.667	4126.57
501.036	4134.71
501.405	4194.14
501.774	4202.05
502.143	4190.75
502.512	4249.96
502.88	4298.55
503.249	4272.56
503.618	4330.86
503.987	4354.59
504.356	4388.94
504.724	4434.36
505.093	4450.63
505.462	4501.03
505.83	4500.35
506.199	4526.79
506.567	4614.7
506.936	4580.8
507.304	4640.68
507.672	4664.86
508.041	4697.4
508.409	4687.24
508.777	4713.9
509.145	4755.26
509.514	4800
509.882	4780.57
510.25	4808.59
510.618	4877.06
510.986	4855.82
511.354	4914.35
511.722	4997.51
512.09	5017.85
512.458	5034.8
512.826	5108.69
513.193	5058.3
513.561	5106.43
513.929	5157.05
514.297	5182.59
514.664	5237.73
515.032	5301.23
515.4	5294.9
515.767	5349.14
516.135	5347.33
516.502	5369.93
516.869	5458.74
517.237	5447.22
517.604	5468.68
517.972	5515.24
518.339	5579.19
518.706	5582.13
519.073	5615.12
519.44	5657.38
519.808	5694.21
520.175	5718.62
520.542	5782.35
520.909	5830.48
521.276	5870.03
521.643	5972.17
522.009	5999.97
522.376	5983.25
522.743	6011.49
523.11	6067.31
523.477	6122.68
523.843	6143.92
524.21	6249
524.577	6294.2
524.943	6320.64
525.31	6342.56
525.676	6451.71
526.043	6438.83
526.409	6498.94
526.776	6445.16
527.142	6518.83
527.508	6558.15
527.874	6672.49
528.241	6661.19
528.607	6718.37
528.973	6781.19
529.339	6743.9
529.705	6870.45
530.071	6892.15
530.437	6874.75
530.803	6971.24
531.169	7022.32
531.535	6942.54
531.901	7073.84
532.267	7098.7
532.632	7127.85
532.998	7127.17
533.364	7177.34
533.73	7255.3
534.095	7315.87
534.461	7266.83
534.826	7369.2
535.192	7384.79
535.557	7424.56
535.923	7473.83
536.288	7466.6
536.653	7518.8
537.019	7481.74
537.384	7547.5
537.749	7542.75
538.114	7588.85
538.479	7635.86
538.845	7668.63
539.21	7705.69
539.575	7662.75
539.94	7676.31
540.305	7726.48
540.67	7731.45
541.034	7742.3
541.399	7806.93
541.764	7864.78
542.129	7844.21
542.494	7883.31
542.858	7948.39
543.223	7943.2
543.587	8027.03
543.952	7983.42
544.316	8052.8
544.681	8062.97
545.045	8078.33
545.41	8095.28
545.774	8170.31
546.138	8117.88
546.503	8223.87
546.867	8222.51
547.231	8205.34
547.595	8269.97
547.959	8292.79
548.324	8340.25
548.688	8295.5
549.052	8391.32
549.416	8374.6
549.779	8375.5
550.143	8416.85
550.507	8494.82
550.871	8477.64
551.235	8521.03
551.599	8582.5
551.962	8550.64
552.326	8659.11
552.689	8705.66
553.053	8606.45
553.417	8714.47
553.78	8748.6
554.143	8841.25
554.507	8779.78
554.87	8880.12
555.234	8890.97
555.597	8940.01
555.96	8919.89
556.323	8937.07
556.686	8989.5
557.05	9011.42
557.413	9060.68
557.776	9119.89
558.139	9183.39
558.502	9184.52
558.865	9171.86
559.228	9251.18
559.59	9324.63
559.953	9314.01
560.316	9384.06
560.679	9422.93
561.041	9481.69
561.404	9532.31
561.767	9578.63
562.129	9569.37
562.492	9635.81
562.854	9656.37
563.217	9672.19
563.579	9765.97
563.941	9807.78
564.304	9824.5
564.666	9854.11
565.028	9902.01
565.39	9871.28
565.753	10006.87
566.115	10058.85
566.477	10027.89
566.839	10097.49
567.201	10144.95
567.563	10143.14
567.925	10217.94
568.287	10242.57
568.648	10251.83
569.01	10304.94
569.372	10384.94
569.734	10369.8
570.095	10527.31
570.457	10449.57
570.819	10536.35
571.18	10539.74
571.542	10624.93
571.903	10575.67
572.265	10664.25
572.626	10685.5
572.987	10716
573.349	10744.93
573.71	10740.64
574.071	10768.21
574.432	10860.63
574.794	10827.64
575.155	10853.4
575.516	10830.58
575.877	10940.63
576.238	10892.5
576.599	10975.43
576.96	10921.65
577.32	11028.99
577.681	10982.89
578.042	11107.63
578.403	11029.89
578.763	11065.82
579.124	11080.74
579.485	11168.2
579.845	11235.09
580.206	11115.99
580.566	11164.58
580.927	11204.13
581.287	11269.66
581.648	11158.25
582.008	11212.71
582.368	11183.11
582.728	11241.64
583.089	11181.08
583.449	11182.43
583.809	11231.47
584.169	11233.5
584.529	11243.45
584.889	11283.9
585.249	11214.3
585.609	11223.56
585.969	11317.12
586.329	11235.54
586.688	11340.17
587.048	11267.4
587.408	11275.31
587.768	11308.08
588.127	11237.35
588.487	11226.5
588.846	11398.02
589.206	11347.17
589.565	11303.33
589.925	11343.11
590.284	11310.34
590.643	11292.71
591.003	11372.03
591.362	11358.25
591.721	11345.59
592.08	11331.81
592.44	11353.95
592.799	11348.08
593.158	11327.06
593.517	11345.37
593.876	11362.77
594.235	11291.58
594.593	11437.11
594.952	11307.4
595.311	11306.5
595.67	11343.11
596.029	11409.32
596.387	11472.37
596.746	11463.78
597.104	11360.73
597.463	11406.38
597.822	11464.46
598.18	11393.95
598.538	11423.78
598.897	11484.57
599.255	11347.63
599.613	11529.77
599.972	11482.76
600.33	11527.73
600.688	11461.29
601.046	11546.26
601.404	11551.46
601.762	11520.95
602.12	11600.05
602.478	11542.87
602.836	11643.89
603.194	11535.19
603.552	11524.8
603.91	11514.63
604.268	11555.98
604.625	11618.8
604.983	11568.41
605.341	11517.11
605.698	11614.51
606.056	11667.39
606.413	11638.01
606.771	11728.41
607.128	11668.75
607.485	11661.06
607.843	11652.7
608.2	11784.45
608.557	11773.6
608.914	11771.34
609.272	11752.36
609.629	11784.22
609.986	11847.5
610.343	11743.1
610.7	11943.77
611.057	11925.92
611.414	11877.78
611.771	11869.65
612.127	11957.33
612.484	11915.75
612.841	11962.3
613.198	11885.01
613.554	11904.22
613.911	11943.32
614.267	11967.04
614.624	12008.85
614.98	11929.3
615.337	12020.6
615.693	11998.23
616.05	11986.7
616.406	12036.42
616.762	12038
617.118	12045.46
617.475	11984.22
617.831	12089.07
618.187	12100.37
618.543	12105.12
618.899	12143.76
619.255	12175.17
619.611	12109.64
619.967	12173.59
620.323	12211.33
620.678	12207.26
621.034	12093.82
621.39	12119.81
621.746	12093.82
622.101	12246.36
622.457	12126.14
622.812	12150.77
623.168	12161.84
623.523	12231.44
623.879	12173.82
624.234	12143.54
624.589	12161.16
624.945	12160.26
625.3	12202.07
625.655	12136.31
626.01	12263.08
626.365	12214.72
626.72	12186.93
627.075	12080.94
627.43	12183.76
627.785	12121.84
628.14	12144.89
628.495	12143.54
628.85	12139.69
629.205	12104.89
629.559	12199.13
629.914	12167.72
630.269	12100.15
630.623	12088.4
630.978	12116.42
631.332	12184.67
631.687	12189.19
632.041	12133.82
632.396	12053.82
632.75	12024.67
633.104	12057.44
633.459	11931.56
633.813	12015.86
634.167	11979.47
634.521	11976.31
634.875	11987.61
635.229	11958
635.583	11975.41
635.937	11885.24
636.291	11924.33
636.645	11975.63
636.999	11857.67
637.352	11934.73
637.706	11861.51
638.06	11937.21
638.413	11863.32
638.767	11841.85
639.121	11746.71
639.474	11717.33
639.828	11779.03
640.181	11797.11
640.534	11842.98
640.888	11711.91
641.241	11652.93
641.594	11711.68
641.947	11764.11
642.301	11619.26
642.654	11653.83
643.007	11729.76
643.36	11701.51
643.713	11709.42
644.066	11700.38
644.419	11531.8
644.771	11556.43
645.124	11470.56
645.477	11350.11
645.83	11335.42
646.182	11298.36
646.535	11238.48
646.888	11288.64
647.24	11155.99
647.593	11272.6
647.945	11167.97
648.298	11149.66
648.65	11147.63
649.002	11066.95
649.355	11201.87
649.707	11152.6
650.059	11202.77
650.411	11330.45
650.763	11326.38
651.115	11380.62
651.467	11362.09
651.819	11310.11
652.171	11351.47
652.523	11364.12
652.875	11282.32
653.227	11380.62
653.578	11309.66
653.93	11319.15
654.282	11259.04
654.633	11230.79
654.985	11227.4
655.337	11276.44
655.688	11224.24
656.039	11358.92
656.391	11104.24
656.742	11203.22
657.094	11221.3
657.445	11248.19
657.796	11249.32
658.147	11218.59
658.498	11164.81
658.849	11161.64
659.2	11169.55
659.551	11139.72
659.902	11127.29
660.253	11156.67
660.604	11151.7
660.955	11072.6
661.306	11189.66
661.656	11155.77
662.007	11137.46
662.358	11188.31
662.708	11177.23
663.059	11154.41
663.409	11107.41
663.76	11222.43
664.11	11049.78
664.461	11079.38
664.811	11120.96
665.161	11113.73
665.511	11132.94
665.862	11057.01
666.212	11155.31
666.562	11104.92
666.912	11051.81
667.262	11107.41
667.612	11042.55
667.962	11071.25
668.312	11058.59
668.662	11151.02
669.011	11097.69
669.361	11061.08
669.711	11051.36
670.06	11016.79
670.41	11022.44
670.76	11013.4
671.109	11046.16
671.459	11028.54
671.808	10951.03
672.157	10953.96
672.507	10866.96
672.856	10927.07
673.205	10933.85
673.554	10913.51
673.904	10915.09
674.253	10967.07
674.602	11027.41
674.951	10817.47
675.3	10795.78
675.649	10976.56
675.998	10907.86
676.346	10802.55
676.695	10908.99
677.044	10766.17
677.393	10846.17
677.741	10910.12
678.09	10915.77
678.438	10781.76
678.787	10803.46
679.135	10804.59
679.484	10723.91
679.832	10851.82
680.181	10822.67
680.529	10780.86
680.877	10762.56
681.225	10676.46
681.573	10746.74
681.922	10749.45
682.27	10688.21
682.618	10674.2
682.966	10653.86
683.314	10640.07
683.661	10621.32
684.009	10581.54
684.357	10490.92
684.705	10535.22
685.053	10515.78
685.4	10554.65
685.748	10389.91
686.095	10525.27
686.443	10510.59
686.79	10507.42
687.138	10440.98
687.485	10501.09
687.832	10375.45
688.18	10407.54
688.527	10364.37
688.874	10276.69
689.221	10292.06
689.568	10265.17
689.915	10309.91
690.262	10238.28
690.609	10191.27
690.956	10203.93
691.303	10150.82
691.65	10073.53
691.997	10106.98
692.344	10124.38
692.69	10145.17
693.037	10009.81
693.383	9952.63
693.73	10005.29
694.077	9948.11
694.423	9882.81
694.769	9959.87
695.116	9946.53
695.462	9913.54
695.808	9860.66
696.155	9911.96
696.501	9800.32
696.847	9825.63
697.193	9733.88
697.539	9806.2
697.885	9697.05
698.231	9666.54
698.577	9699.99
698.923	9728.46
699.269	9593.77
699.614	9619.54
699.96	9543.15
700.306	9591.51
700.651	9517.62
700.997	9483.27
701.342	9469.03
701.688	9472.65
702.033	9371.86
702.379	9410.73
702.724	9271.07
703.069	9423.61
703.415	9288.24
703.76	9281.46
704.105	9291.41
704.45	9301.8
704.795	9284.4
705.14	9286.66
705.485	9235.36
705.83	9157.85
706.175	9175.48
706.52	9115.14
706.865	9074.69
707.209	9043.05
707.554	9028.14
707.899	9060.68
708.243	9039.66
708.588	9044.18
708.932	8957.18
709.277	8894.13
709.621	8990.85
709.966	8907.46
710.31	8876.73
710.654	8820.01
710.998	8825.66
711.342	8842.83
711.687	8825.88
712.031	8787.24
712.375	8788.37
712.719	8744.98
713.063	8681.48
713.407	8806.22
713.75	8771.87
714.094	8649.84
714.438	8667.02
714.782	8656.62
715.125	8635.61
715.469	8657.53
715.812	8659.11
716.156	8587.25
716.499	8550.86
716.843	8573.91
717.186	8596.51
717.53	8603.74
717.873	8522.16
718.216	8588.38
718.559	8437.87
718.902	8439.68
719.246	8486.23
719.589	8441.94
719.932	8396.97
720.275	8421.6
720.617	8392.67
720.96	8386.57
721.303	8327.37
721.646	8399.91
721.989	8277.88
722.331	8356.07
722.674	8342.28
723.016	8332.11
723.359	8322.85
723.701	8229.52
724.044	8247.14
724.386	8131.66
724.729	8212.11
725.071	8236.75
725.413	8228.84
725.755	8240.81
726.097	8152.23
726.439	8169.18
726.782	8143.64
727.124	8191.55
727.465	8119.01
727.807	8105.68
728.149	8124.66
728.491	8136.41
728.833	8068.84
729.175	8047.83
729.516	8036.75
729.858	8035.4
730.199	8016.41
730.541	8052.8
730.882	8007.37
731.224	8096.41
731.565	8003.98
731.906	7989.07
732.248	7992.91
732.589	7956.98
732.93	7875.17
733.271	7933.7
733.612	7895.51
733.953	7976.41
734.294	7895.06
734.635	7853.48
734.976	7901.39
735.317	7842.18
735.658	7859.81
735.999	7885.8
736.339	7810.77
736.68	7854.84
737.021	7808.51
737.361	7817.77
737.702	7793.59
738.042	7788.62
738.383	7761.28
738.723	7833.59
739.063	7740.49
739.404	7692.81
739.744	7746.82
740.084	7701.17
740.424	7723.31
740.764	7704.78
741.104	7708.4
741.444	7620.27
741.784	7588.4
742.124	7723.31
742.464	7605.8
742.804	7585.46
743.143	7630.21
743.483	7624.11
743.823	7542.3
744.162	7509.53
744.502	7561.51
744.841	7490.33
745.181	7535.97
745.52	7507.73
745.86	7489.65
746.199	7494.39
746.538	7473.15
746.877	7485.81
747.216	7491.46
747.556	7466.15
747.895	7482.19
748.234	7415.53
748.573	7385.24
748.911	7418.24
749.25	7392.7
749.589	7407.39
749.928	7369.42
750.267	7372.36
750.605	7311.12
750.944	7302.31
751.283	7273.38
751.621	7258.24
751.96	7239.48
752.298	7240.61
752.636	7241.74
752.975	7259.15
753.313	7162.65
753.651	7240.61
753.989	7240.84
754.327	7195.64
754.666	7152.71
755.004	7171.69
755.342	7172.37
755.679	7111.8
756.017	7123.1
756.355	7088.08
756.693	7070.45
757.031	7050.79
757.368	7013.28
757.706	6990.68
758.044	7056.66
758.381	7015.76
758.719	6964.92
759.056	6988.42
759.394	6976.21
759.731	6885.14
760.068	6831.81
760.405	6890.57
760.743	6824.58
761.08	6813.73
761.417	6820.06
761.754	6780.97
762.091	6832.26
762.428	6744.36
762.765	6749.55
763.102	6715.2
