Data from black_plastic_tray_FLMS001491_007.txt Node
Date: Tue Feb 07 10:39:10 GMT 2017
User: dcchb
Spectrometer: FLMS00149
Trigger mode: 0
Integration Time (sec): 2.000000E-2
Scans to average: 10
Electric dark correction enabled: true
Nonlinearity correction enabled: false
Boxcar width: 0
XAxis mode: Wavelengths
Number of Pixels in Spectrum: 2048
>>>>>Begin Spectral Data<<<<<
341.393	-24.41
341.776	-24.41
342.16	-24.41
342.543	-67.79
342.927	-66.21
343.31	-66.89
343.693	-70.05
344.077	-75.25
344.46	-58.3
344.843	-29.6
345.226	-50.39
345.61	-28.25
345.993	-26.21
346.376	-12.2
346.759	21.02
347.142	18.08
347.525	36.16
347.908	65.08
348.291	75.03
348.674	78.87
349.057	122.93
349.44	131.3
349.823	141.47
350.206	163.16
350.588	192.76
350.971	192.54
351.354	222.82
351.737	235.7
352.119	242.25
352.502	253.55
352.884	248.13
353.267	252.87
353.65	281.57
354.032	286.32
354.414	283.16
354.797	290.84
355.179	311.4
355.562	324.96
355.944	309.14
356.326	337.39
356.709	303.72
357.091	321.57
357.473	341.23
357.855	309.37
358.238	326.09
358.62	335.81
359.002	310.95
359.384	313.66
359.766	297.39
360.148	308.69
360.53	315.92
360.912	312.31
361.294	336.49
361.676	327
362.057	324.51
362.439	327
362.821	287.9
363.203	317.05
363.584	311.63
363.966	309.82
364.348	315.7
364.729	314.79
365.111	317.73
365.493	313.89
365.874	297.62
366.256	294
366.637	319.09
367.019	291.97
367.4	294.46
367.781	291.29
368.163	284.74
368.544	304.62
368.925	308.24
369.306	287
369.688	307.56
370.069	308.92
370.45	302.36
370.831	292.87
371.212	290.84
371.593	302.59
371.974	297.85
372.355	296.72
372.736	305.53
373.117	303.27
373.498	329.26
373.879	316.83
374.26	302.36
374.641	297.17
375.021	315.7
375.402	321.57
375.783	282.48
376.163	331.97
376.544	306.43
376.925	310.27
377.305	314.34
377.686	303.27
378.066	337.39
378.447	324.29
378.827	320.9
379.208	301.69
379.588	318.18
379.968	328.8
380.349	316.38
380.729	321.35
381.109	314.34
381.489	337.62
381.87	333.1
382.25	327.67
382.63	337.62
383.01	335.81
383.39	330.61
383.77	347.34
384.15	342.82
384.53	353.89
384.91	360.44
385.29	342.36
385.67	359.31
386.049	352.99
386.429	349.37
386.809	357.05
387.189	347.56
387.568	343.95
387.948	376.71
388.328	337.84
388.707	354.11
389.087	357.96
389.466	365.19
389.846	362.93
390.225	368.8
390.605	359.54
390.984	371.06
391.363	361.57
391.743	385.75
392.122	358.18
392.501	374.45
392.881	377.17
393.26	385.07
393.639	369.26
394.018	391.4
394.397	381.68
394.776	390.27
395.155	367.9
395.534	382.36
395.913	381.46
396.292	388.01
396.671	411.97
397.05	404.28
397.429	401.57
397.808	429.59
398.186	408.8
398.565	408.12
398.944	402.93
399.323	407.67
399.701	402.7
400.08	418.07
400.458	396.15
400.837	429.14
401.215	427.56
401.594	420.1
401.972	428.69
402.351	430.5
402.729	427.33
403.107	425.98
403.486	424.85
403.864	426.88
404.242	437.73
404.62	422.36
404.999	454.9
405.377	439.99
405.755	446.54
406.133	452.87
406.511	467.78
406.889	455.36
407.267	459.2
407.645	466.65
408.023	458.74
408.401	465.3
408.779	450.84
409.156	481.12
409.534	487.22
409.912	489.93
410.29	495.35
410.667	475.69
411.045	479.08
411.422	468.24
411.8	491.96
412.178	532.87
412.555	505.75
412.933	524.96
413.31	504.85
413.687	524.28
414.065	500.1
414.442	523.15
414.819	524.51
415.197	543.04
415.574	532.87
415.951	524.05
416.328	530.83
416.705	534.9
417.082	539.65
417.46	527.22
417.837	565.18
418.214	574.67
418.591	570.61
418.967	579.19
419.344	601.11
419.721	573.09
420.098	569.93
420.475	572.64
420.852	581.23
421.228	598.85
421.605	607.44
421.982	597.95
422.358	602.02
422.735	595.92
423.111	618.06
423.488	600.66
423.864	600.89
424.241	625.07
424.617	625.52
424.994	638.85
425.37	623.03
425.746	620.55
426.123	640.89
426.499	631.17
426.875	657.16
427.251	653.09
427.627	651.51
428.003	659.19
428.379	697.16
428.756	685.63
429.132	668.91
429.507	695.57
429.883	714.56
430.259	711.39
430.635	698.29
431.011	717.95
431.387	721.56
431.763	732.18
432.138	766.08
432.514	718.4
432.89	748.91
433.265	737.61
433.641	786.65
434.016	784.16
434.392	783.93
434.767	775.57
435.143	793.2
435.518	830.26
435.894	773.31
436.269	817.38
436.644	821.9
437.02	816.93
437.395	817.38
437.77	828.68
438.145	853.76
438.52	842.01
438.895	856.93
439.271	872.52
439.646	896.02
440.021	877.27
440.395	862.12
440.77	865.06
441.145	903.03
441.52	903.48
441.895	890.82
442.27	913.87
442.645	895.12
443.019	900.99
443.394	937.38
443.769	938.96
444.143	954.55
444.518	942.57
444.892	948.9
445.267	938.51
445.641	980.31
446.016	953.2
446.39	957.49
446.764	966.08
447.139	963.82
447.513	990.93
447.887	986.87
448.262	999.75
448.636	970.37
449.01	1012.63
449.384	1012.85
449.758	996.36
450.132	1045.4
450.506	1017.83
450.88	1032.97
451.254	1037.94
451.628	1067.09
452.002	1053.53
452.376	1053.31
452.75	1067.32
453.123	1090.14
453.497	1079.97
453.871	1097.15
454.244	1110.25
454.618	1136.24
454.992	1131.95
455.365	1144.6
455.739	1150.25
456.112	1159.74
456.486	1172.17
456.859	1185.73
457.232	1208.1
457.606	1230.25
457.979	1227.31
458.352	1218.27
458.725	1270.02
459.099	1256.46
459.472	1284.71
459.845	1270.02
460.218	1291.49
460.591	1317.48
460.964	1293.75
461.337	1324.71
461.71	1346.41
462.083	1373.52
462.456	1370.13
462.829	1385.5
463.201	1412.84
463.574	1395.67
463.947	1423.24
464.32	1451.04
464.692	1483.35
465.065	1487.19
465.438	1492.84
465.81	1526.06
466.183	1503.24
466.555	1545.5
466.928	1574.65
467.3	1564.93
467.672	1570.58
468.045	1618.94
468.417	1623.23
468.789	1630.47
469.161	1655.78
469.534	1677.92
469.906	1703.46
470.278	1722.21
470.65	1737.58
471.022	1762.89
471.394	1797.47
471.766	1832.49
472.138	1779.61
472.51	1888.09
472.882	1895.09
473.253	1894.41
473.625	1910.23
473.997	1939.61
474.369	1939.61
474.74	2001.98
475.112	2053.51
475.484	2053.05
475.855	2070.68
476.227	2094.86
476.598	2148.19
476.97	2151.58
477.341	2193.16
477.713	2222.77
478.084	2250.11
478.455	2296.44
478.827	2316.32
479.198	2369.88
479.569	2396.1
479.94	2450.56
480.311	2474.96
480.682	2505.92
481.053	2533.49
481.424	2561.29
481.795	2648.97
482.166	2639.25
482.537	2690.55
482.908	2727.16
483.279	2732.13
483.65	2801.73
484.021	2883.09
484.391	2905.46
484.762	2943.43
485.133	2947.72
485.503	2989.53
485.874	3043.08
486.244	3047.15
486.615	3093.93
486.985	3147.94
487.356	3214.83
487.726	3187.03
488.097	3245.11
488.467	3329.4
488.837	3354.04
489.207	3347.03
489.578	3432.23
489.948	3467.25
490.318	3536.18
490.688	3530.75
491.058	3573.24
491.428	3582.5
491.798	3664.08
492.168	3758.55
492.538	3742.5
492.908	3797.19
493.278	3853.46
493.648	3828.15
494.017	3867.69
494.387	3917.64
494.757	3949.27
495.126	3977.3
495.496	3998.54
495.866	4022.95
496.235	3999.44
496.605	4110.85
496.974	4173.22
497.344	4177.29
497.713	4218.87
498.082	4173.68
498.452	4270.4
498.821	4276.5
499.19	4287.12
499.559	4371.18
499.928	4347
500.298	4398.98
500.667	4497.96
501.036	4445.76
501.405	4488.92
501.774	4493.67
502.143	4521.46
502.512	4575.7
502.88	4627.22
503.249	4629.71
503.618	4697.73
503.987	4682.81
504.356	4706.32
504.724	4716.49
505.093	4701.12
505.462	4796.48
505.83	4787.22
506.199	4851.85
506.567	4891.62
506.936	4875.58
507.304	5004.61
507.672	4993.32
508.041	4989.25
508.409	5029.25
508.777	5085.74
509.145	5122.8
509.514	5137.49
509.882	5144.95
510.25	5176.59
510.618	5216.59
510.986	5222.24
511.354	5300.43
511.722	5331.39
512.09	5407.77
512.458	5453.64
512.826	5428.33
513.193	5488.9
513.561	5485.73
513.929	5565.28
514.297	5630.36
514.664	5614.99
515.032	5679.17
515.4	5722.79
515.767	5720.53
516.135	5737.48
516.502	5736.57
516.869	5871.26
517.237	5869.9
517.604	5855.89
517.972	5914.87
518.339	5909.45
518.706	5954.65
519.073	5957.81
519.44	6050.01
519.808	6128.2
520.175	6084.59
520.542	6193.28
520.909	6269.89
521.276	6280.29
521.643	6329.33
522.009	6347.4
522.376	6366.39
522.743	6446.84
523.11	6486.16
523.477	6571.35
523.843	6660.39
524.21	6683.21
524.577	6690.22
524.943	6768.86
525.31	6792.14
525.676	6852.25
526.043	6916.2
526.409	6974.05
526.776	7001.62
527.142	7018.57
527.508	7082.3
527.874	7156.42
528.241	7171.11
528.607	7189.87
528.973	7244.33
529.339	7235.06
529.705	7362.52
530.071	7282.29
530.437	7442.74
530.803	7462.85
531.169	7491.33
531.535	7577.88
531.901	7558.9
532.267	7632.79
532.632	7649.97
532.998	7767.03
533.364	7724.99
533.73	7787.59
534.095	7861.49
534.461	7852.22
534.826	7915.05
535.192	7894.26
535.557	7987.36
535.923	7954.82
536.288	8036.17
536.653	8169.28
537.019	8036.62
537.384	8111.2
537.749	8158.43
538.114	8183.29
538.479	8208.82
538.845	8213.12
539.21	8199.33
539.575	8294.92
539.94	8246.34
540.305	8363.62
540.67	8332.21
541.034	8313.68
541.399	8419.67
541.764	8462.38
542.129	8485.65
542.494	8461.02
542.858	8523.17
543.223	8545.99
543.587	8538.08
543.952	8568.81
544.316	8638.87
544.681	8726.78
545.045	8679.09
545.41	8741.92
545.774	8742.82
546.138	8775.14
546.503	8775.36
546.867	8834.12
547.231	8833.89
547.595	8919.77
547.959	8960.44
548.324	9012.42
548.688	9010.61
549.052	9024.4
549.416	9059.65
549.779	9031.63
550.143	9104.17
550.507	9068.91
550.871	9180.1
551.235	9173.32
551.599	9183.26
551.962	9225.52
552.326	9282.69
552.689	9336.93
553.053	9279.76
553.417	9296.93
553.78	9411.05
554.143	9428.23
554.507	9465.97
554.87	9496.7
555.234	9583.02
555.597	9454.89
555.96	9632.06
556.323	9662.57
556.686	9687.43
557.05	9754.55
557.413	9754.55
557.776	9807.88
558.139	9814.66
558.502	9927.2
558.865	9914.99
559.228	9970.81
559.59	10002
559.953	10045.16
560.316	10116.8
560.679	10127.19
561.041	10243.8
561.404	10203.8
561.767	10329.67
562.129	10292.38
562.492	10424.13
562.854	10313.63
563.217	10357.92
563.579	10406.73
563.941	10500.29
564.304	10536.67
564.666	10583
565.028	10618.93
565.39	10538.71
565.753	10651.7
566.115	10665.48
566.477	10693.05
566.839	10770.34
567.201	10784.58
567.563	10818.02
567.925	10945.25
568.287	10955.64
568.648	10973.27
569.01	11080.61
569.372	11085.13
569.734	11037.9
570.095	11184.11
570.457	11247.39
570.819	11304.79
571.18	11212.36
571.542	11377.1
571.903	11376.88
572.265	11387.05
572.626	11439.25
572.987	11417.78
573.349	11462.07
573.71	11501.62
574.071	11554.5
574.432	11551.11
574.794	11638.79
575.155	11628.85
575.516	11587.72
575.877	11658.45
576.238	11674.04
576.599	11710.65
576.96	11760.37
577.32	11635.63
577.681	11720.37
578.042	11763.76
578.403	11789.07
578.763	11805.57
579.124	11872.91
579.485	11777.32
579.845	11894.15
580.206	11928.05
580.566	11861.16
580.927	11821.84
581.287	11965.34
581.648	11882.63
582.008	11969.63
582.368	11923.75
582.728	12017.09
583.089	11989.06
583.449	11971.21
583.809	11990.87
584.169	12020.47
584.529	11994.26
584.889	12139.12
585.249	12020.93
585.609	12001.72
585.969	12036.07
586.329	12081.26
586.688	12055.05
587.048	12148.61
587.408	12074.26
587.768	12041.72
588.127	12037.2
588.487	12018.89
588.846	12127.59
589.206	11953.36
589.565	11909.97
589.925	12035.39
590.284	11898.44
590.643	12019.8
591.003	12042.17
591.362	12046.69
591.721	11994.71
592.08	12040.59
592.44	11990.19
592.799	11989.74
593.158	11952.68
593.517	12019.8
593.876	12105.44
594.235	12064.99
594.593	12076.52
594.952	12059.8
595.311	12063.19
595.67	12061.38
596.029	12169.85
596.387	12180.7
596.746	12184.54
597.104	12174.37
597.463	12147.48
597.822	12143.41
598.18	12153.13
598.538	12173.69
598.897	12209.4
599.255	12233.8
599.613	12304.08
599.972	12257.53
600.33	12263.18
600.688	12199.45
601.046	12360.58
601.404	12325.33
601.762	12301.6
602.12	12365.55
602.478	12306.34
602.836	12305.21
603.194	12276.29
603.552	12261.15
603.91	12199.68
604.268	12331.43
604.625	12276.97
604.983	12307.92
605.341	12222.73
605.698	12334.59
606.056	12324.2
606.413	12330.52
606.771	12236.97
607.128	12341.14
607.485	12202.39
607.843	12250.3
608.2	12391.09
608.557	12437.41
608.914	12390.63
609.272	12486.23
609.629	12491.42
609.986	12477.41
610.343	12457.98
610.7	12543.4
611.057	12527.81
611.414	12565.55
611.771	12528.26
612.127	12630.63
612.484	12586.79
612.841	12696.39
613.198	12676.5
613.554	12607.35
613.911	12657.75
614.267	12739.33
614.624	12655.49
614.98	12719.89
615.337	12803.51
615.693	12684.64
616.05	12704.52
616.406	12817.74
616.762	12772.32
617.118	12683.73
617.475	12639.89
617.831	12767.12
618.187	12699.1
618.543	12786.56
618.899	12814.8
619.255	12871.53
619.611	12808.48
619.967	12829.27
620.323	12836.72
620.678	12885.54
621.034	12795.37
621.39	12788.59
621.746	12721.25
622.101	12833.56
622.457	12754.24
622.812	12760.12
623.168	12787.46
623.523	12789.95
623.879	12876.95
624.234	12770.06
624.589	12827.23
624.945	12902.71
625.3	12898.42
625.655	12865.42
626.01	12819.55
626.365	12863.16
626.72	12825.65
627.075	12806.22
627.43	12894.35
627.785	12875.59
628.14	12896.38
628.495	12804.41
628.85	12825.88
629.205	12780.91
629.559	12905.65
629.914	12818.42
630.269	12784.3
630.623	12744.07
630.978	12876.95
631.332	12868.36
631.687	12870.4
632.041	12739.78
632.396	12790.85
632.75	12722.38
633.104	12725.54
633.459	12625.88
633.813	12638.31
634.167	12659.55
634.521	12637.41
634.875	12643.96
635.229	12586.34
635.583	12522.38
635.937	12568.94
636.291	12532.1
636.645	12485.55
636.999	12475.38
637.352	12458.43
637.706	12319.9
638.06	12472.67
638.413	12414.36
638.767	12389.96
639.121	12403.74
639.474	12331.2
639.828	12337.98
640.181	12338.43
640.534	12340.24
640.888	12330.3
641.241	12287.59
641.594	12350.41
641.947	12345.44
642.301	12279.68
642.654	12310.41
643.007	12352.22
643.36	12216.4
643.713	12228.38
644.066	12228.38
644.419	12170.75
644.771	12087.37
645.124	12137.53
645.477	12058.67
645.83	11968.5
646.182	11864.32
646.535	11862.74
646.888	11861.16
647.24	11803.08
647.593	11844.66
647.945	11712.91
648.298	11729.86
648.65	11710.88
649.002	11626.59
649.355	11701.16
649.707	11748.62
650.059	11749.97
650.411	11912.68
650.763	11887.15
651.115	12012.34
651.467	11890.99
651.819	11920.14
652.171	11938.67
652.523	11879.91
652.875	11841.95
653.227	11794.94
653.578	11897.54
653.93	11860.25
654.282	11757.66
654.633	11792.91
654.985	11798.79
655.337	11753.82
655.688	11783.19
656.039	11775.06
656.391	11801.72
656.742	11724.89
657.094	11720.14
657.445	11763.53
657.796	11757.88
658.147	11741.61
658.498	11784.77
658.849	11778
659.2	11739.8
659.551	11725.34
659.902	11840.14
660.253	11870.2
660.604	11789.52
660.955	11703.65
661.306	11739.35
661.656	11648.73
662.007	11662.29
662.358	11601.73
662.708	11629.07
663.059	11663.2
663.409	11594.95
663.76	11684.44
664.11	11659.35
664.461	11747.04
664.811	11632.91
665.161	11614.38
665.511	11554.5
665.862	11547.49
666.212	11594.27
666.562	11639.69
666.912	11596.98
667.262	11501.84
667.612	11527.15
667.962	11596.31
668.312	11508.85
668.662	11528.28
669.011	11539.81
669.361	11548.85
669.711	11507.27
670.06	11516.76
670.41	11485.57
670.76	11384.11
671.109	11519.25
671.459	11448.51
671.808	11432.69
672.157	11429.53
672.507	11385.92
672.856	11394.73
673.205	11403.99
673.554	11467.27
673.904	11456.65
674.253	11474.73
674.602	11377.1
674.951	11316.99
675.3	11246.71
675.649	11384.79
675.998	11378.91
676.346	11440.83
676.695	11448.29
677.044	11337.78
677.393	11291.68
677.741	11388.63
678.09	11342.98
678.438	11230.21
678.787	11261.4
679.135	11250.33
679.484	11185.92
679.832	11292.13
680.181	11197.22
680.529	11230.89
680.877	11207.16
681.225	11223.21
681.573	11248.97
681.922	11189.08
682.27	11107.28
682.618	11154.96
682.966	11035.87
683.314	11134.17
683.661	11106.15
684.009	10965.36
684.357	10995.64
684.705	10994.97
685.053	10961.97
685.4	10906.83
685.748	10910.67
686.095	10945.7
686.443	10797.23
686.79	10817.79
687.138	10814.63
687.485	10795.2
687.832	10697.8
688.18	10752.94
688.527	10635.2
688.874	10678.36
689.221	10654.64
689.568	10658.25
689.915	10631.36
690.262	10686.72
690.609	10647.4
690.956	10571.7
691.303	10526.73
691.65	10488.76
691.997	10451.02
692.344	10429.1
692.69	10443.79
693.037	10447.86
693.383	10350.24
693.73	10416
694.077	10355.66
694.423	10330.8
694.769	10352.27
695.116	10330.8
695.462	10302.78
695.808	10286.96
696.155	10220.3
696.501	10245.61
696.847	10218.26
697.193	10164.7
697.539	10067.53
697.885	10048.1
698.231	10072.05
698.577	10029.57
698.923	10072.05
699.269	9954.99
699.614	9987.99
699.96	9849.68
700.306	9881.1
700.651	9884.03
700.997	9829.57
701.342	9821.44
701.688	9757.94
702.033	9787.31
702.379	9726.3
702.724	9651.72
703.069	9689.69
703.415	9656.02
703.76	9644.72
704.105	9658.28
704.45	9533.76
704.795	9458.73
705.14	9463.25
705.485	9505.96
705.83	9438.85
706.175	9453.31
706.52	9442.46
706.865	9394.1
707.209	9357.95
707.554	9339.42
707.899	9353.2
708.243	9318.17
708.588	9258.74
708.932	9230.94
709.277	9306.42
709.621	9217.16
709.966	9208.12
710.31	9215.58
710.654	9105.75
710.998	9145.75
711.342	9193.66
711.687	9191.4
712.031	9091.51
712.375	9103.26
712.719	9119.99
713.063	9110.49
713.407	9128.35
713.75	9031.17
714.094	9051.74
714.438	9010.38
714.782	9028.01
715.125	9000.89
715.469	8955.92
715.812	8912.31
716.156	8868.69
716.499	8846.55
716.843	8885.64
717.186	8839.54
717.53	8884.96
717.873	8884.74
718.216	8834.34
718.559	8775.81
718.902	8742.14
719.246	8775.14
719.589	8713.44
719.932	8698.98
720.275	8618.98
720.617	8640.68
720.96	8629.15
721.303	8605.2
721.646	8643.84
721.989	8576.5
722.331	8578.31
722.674	8569.94
723.016	8538.31
723.359	8608.59
723.701	8567.68
724.044	8482.04
724.386	8436.84
724.729	8496.73
725.071	8430.51
725.413	8455.82
725.755	8439.33
726.097	8374.24
726.439	8414.47
726.782	8354.58
727.124	8376.73
727.465	8373.34
727.807	8323.17
728.149	8346
728.491	8305.54
728.833	8312.32
729.175	8234.36
729.516	8282.04
729.858	8240.91
730.199	8228.26
730.541	8272.1
730.882	8213.12
731.224	8308.03
731.565	8234.13
731.906	8212.21
732.248	8194.59
732.589	8169.28
732.93	8167.47
733.271	8153.46
733.612	8205.66
733.953	8213.8
734.294	8050.18
734.635	8099.9
734.976	8125.89
735.317	8090.41
735.658	8101.03
735.999	8097.87
736.339	8053.57
736.68	8048.15
737.021	8115.49
737.361	7962.28
737.702	8051.99
738.042	8010.64
738.383	8035.72
738.723	8053.35
739.063	7922.5
739.404	7960.47
739.744	7953.24
740.084	7893.35
740.424	7868.27
740.764	7862.84
741.104	7922.28
741.444	7824.2
741.784	7829.17
742.124	7883.18
742.464	7787.14
742.804	7781.04
743.143	7745.56
743.483	7808.61
743.823	7750.08
744.162	7712.79
744.502	7687.93
744.841	7720.93
745.181	7753.24
745.52	7772.45
745.86	7738.33
746.199	7673.02
746.538	7653.58
746.877	7662.4
747.216	7618.56
747.556	7610.87
747.895	7622.85
748.234	7648.16
748.573	7606.13
748.911	7563.87
749.25	7581.95
749.589	7522.74
749.928	7565.45
750.267	7531.33
750.605	7481.61
750.944	7517.77
751.283	7471.22
751.621	7463.98
751.96	7490.88
752.298	7393.48
752.636	7475.74
752.975	7387.83
753.313	7413.82
753.651	7443.19
753.989	7373.37
754.327	7345.8
754.666	7335.17
755.004	7313.93
755.342	7312.58
755.679	7228.96
756.017	7148.51
756.355	7226.25
756.693	7209.53
757.031	7167.5
757.368	7205.91
757.706	7175.86
758.044	7088.18
758.381	7114.62
758.719	7112.13
759.056	7067.38
759.394	7118.23
759.731	7058.8
760.068	7048.85
760.405	6981.51
760.743	7006.82
761.08	6942.64
761.417	6967.5
761.754	6946.48
762.091	6853.61
762.428	6961.85
762.765	6886.37
