Data from black_plastic_tray_FLMS001491_073.txt Node
Date: Tue Feb 07 10:40:34 GMT 2017
User: dcchb
Spectrometer: FLMS00149
Trigger mode: 0
Integration Time (sec): 2.000000E-2
Scans to average: 10
Electric dark correction enabled: true
Nonlinearity correction enabled: false
Boxcar width: 0
XAxis mode: Wavelengths
Number of Pixels in Spectrum: 2048
>>>>>Begin Spectral Data<<<<<
341.393	-16.82
341.776	-16.82
342.16	-16.82
342.543	-56.37
342.927	-58.63
343.31	-85.07
343.693	-45.52
344.077	-60.44
344.46	-56.14
344.843	-48.01
345.226	-51.62
345.61	-41.23
345.993	-11.4
346.376	-6.43
346.759	6.68
347.142	18.43
347.525	32.89
347.908	48.71
348.291	88.03
348.674	89.16
349.057	121.93
349.44	116.28
349.823	144.53
350.206	142.27
350.588	192.44
350.971	194.02
351.354	195.15
351.737	224.53
352.119	230.4
352.502	243.06
352.884	257.52
353.267	266.79
353.65	268.14
354.032	285.09
354.414	285.54
354.797	271.53
355.179	293.68
355.562	294.58
355.944	327.58
356.326	342.94
356.709	318.08
357.091	304.3
357.473	339.78
357.855	330.97
358.238	346.78
358.62	337.97
359.002	321.47
359.384	338.2
359.766	337.07
360.148	337.97
360.53	338.65
360.912	329.38
361.294	344.75
361.676	310.63
362.057	306.11
362.439	330.74
362.821	335.49
363.203	330.97
363.584	309.5
363.966	319.44
364.348	312.66
364.729	322.15
365.111	325.32
365.493	315.15
365.874	322.15
366.256	310.18
366.637	313.57
367.019	348.37
367.4	314.92
367.781	328.48
368.163	306.79
368.544	312.89
368.925	302.27
369.306	334.81
369.688	301.36
370.069	314.92
370.45	307.92
370.831	286
371.212	301.36
371.593	307.24
371.974	311.31
372.355	299.78
372.736	313.34
373.117	322.15
373.498	324.41
373.879	332.77
374.26	318.99
374.641	314.7
375.021	309.72
375.402	322.15
375.783	339.55
376.163	347.01
376.544	358.31
376.925	328.25
377.305	346.56
377.686	349.27
378.066	327.8
378.447	329.38
378.827	336.39
379.208	335.26
379.588	319.89
379.968	346.78
380.349	324.86
380.729	338.2
381.109	311.98
381.489	355.6
381.87	346.33
382.25	372.77
382.63	338.42
383.01	357.18
383.39	361.02
383.77	371.87
384.15	368.7
384.53	356.28
384.91	374.13
385.29	375.94
385.67	378.65
386.049	388.14
386.429	360.12
386.809	392.66
387.189	375.26
387.568	373.9
387.948	386.33
388.328	399.44
388.707	377.29
389.087	393.79
389.466	369.16
389.846	371.42
390.225	403.05
390.605	404.18
390.984	406.22
391.363	375.03
391.743	386.33
392.122	418.87
392.501	419.1
392.881	410.51
393.26	426.1
393.639	400.79
394.018	405.09
394.397	413.9
394.776	406.22
395.155	420.68
395.534	409.16
395.913	434.92
396.292	415.26
396.671	437.63
397.05	418.2
397.429	447.12
397.808	442.38
398.186	429.27
398.565	449.83
398.944	461.13
399.323	436.05
399.701	463.17
400.08	482.83
400.458	453.67
400.837	458.42
401.215	446.67
401.594	445.09
401.972	470.17
402.351	454.13
402.729	473.56
403.107	459.1
403.486	484.18
403.864	467.01
404.242	477.4
404.62	461.36
404.999	486.22
405.377	481.7
405.755	493.22
406.133	496.84
406.511	497.29
406.889	502.94
407.267	491.87
407.645	504.75
408.023	516.27
408.401	516.95
408.779	508.36
409.156	529.83
409.534	515.59
409.912	542.71
410.29	539.1
410.667	543.84
411.045	566.67
411.422	551.98
411.8	556.04
412.178	573.22
412.555	567.8
412.933	585.87
413.31	585.87
413.687	588.59
414.065	564.63
414.442	568.25
414.819	570.51
415.197	596.27
415.574	610.96
415.951	612.54
416.328	618.42
416.705	610.28
417.082	638.53
417.46	622.26
417.837	638.53
418.214	628.59
418.591	661.8
418.967	627.91
419.344	647.12
419.721	633.78
420.098	662.48
420.475	659.54
420.852	665.19
421.228	656.16
421.605	657.06
421.982	679.21
422.358	673.33
422.735	696.83
423.111	697.74
423.488	710.84
423.864	680.34
424.241	712.2
424.617	692.76
424.994	720.56
425.37	743.61
425.746	726.89
426.123	729.15
426.499	741.58
426.875	743.61
427.251	737.73
427.627	769.6
428.003	790.39
428.379	796.04
428.756	796.94
429.132	791.52
429.507	817.05
429.883	810.5
430.259	820.67
430.635	845.98
431.011	832.42
431.387	835.13
431.763	855.47
432.138	867
432.514	854.57
432.89	888.47
433.265	897.5
433.641	906.32
434.016	917.17
434.392	916.04
434.767	946.09
435.143	944.51
435.518	943.15
435.894	958.07
436.269	928.46
436.644	982.02
437.02	987.67
437.395	1009.37
437.77	1013.89
438.145	984.73
438.52	1010.27
438.895	1037.16
439.271	1022.02
439.646	1061.57
440.021	1052.53
440.395	1052.3
440.77	1032.64
441.145	1075.13
441.52	1065.41
441.895	1058.18
442.27	1076.71
442.645	1077.39
443.019	1085.52
443.394	1093.43
443.769	1108.12
444.143	1088.01
444.518	1109.25
444.892	1127.56
445.267	1129.14
445.641	1133.88
446.016	1139.98
446.39	1131.4
446.764	1141.11
447.139	1149.93
447.513	1153.09
447.887	1168.46
448.262	1150.15
448.636	1184.5
449.01	1228.8
449.384	1216.14
449.758	1226.08
450.132	1277.83
450.506	1260.21
450.88	1233.99
451.254	1250.26
451.628	1259.53
452.002	1293.88
452.376	1270.6
452.75	1293.88
453.123	1298.4
453.497	1327.32
453.871	1329.36
454.244	1351.96
454.618	1329.58
454.992	1387.89
455.365	1371.16
455.739	1383.82
456.112	1416.14
456.486	1419.3
456.859	1432.86
457.232	1464.5
457.606	1467.43
457.979	1494.1
458.352	1510.6
458.725	1525.96
459.099	1536.36
459.472	1569.13
459.845	1563.02
460.218	1586.98
460.591	1627.43
460.964	1595.79
461.337	1659.52
461.71	1669.69
462.083	1703.13
462.456	1681.44
462.829	1697.48
463.201	1723.02
463.574	1725.73
463.947	1772.06
464.32	1754.21
464.692	1796.69
465.065	1818.84
465.438	1831.27
465.81	1877.59
466.183	1864.94
466.555	1906.74
466.928	1923.24
467.3	1909.23
467.672	1950.81
468.045	1998.94
468.417	1997.59
468.789	2007.98
469.161	2011.83
469.534	2069.68
469.906	2100.86
470.278	2125.27
470.65	2126.17
471.022	2209.79
471.394	2210.46
471.766	2236.68
472.138	2249.33
472.51	2309.9
472.882	2334.75
473.253	2348.54
473.625	2374.75
473.997	2425.15
474.369	2450.01
474.74	2508.76
475.112	2515.99
475.484	2541.3
475.855	2588.53
476.227	2626.05
476.598	2699.27
476.97	2689.77
477.341	2752.15
477.713	2792.82
478.084	2812.26
478.455	2868.53
478.827	2911.01
479.198	2970.22
479.569	2974.06
479.94	3070.33
480.311	3061.29
480.682	3145.58
481.053	3239.14
481.424	3263.77
481.795	3255.63
482.166	3329.98
482.537	3368.63
482.908	3438.23
483.279	3490.43
483.65	3536.53
484.021	3562.52
484.391	3646.13
484.762	3683.19
485.133	3690.2
485.503	3729.07
485.874	3862.4
486.244	3870.99
486.615	3986.91
486.985	3986.46
487.356	4016.29
487.726	4097.65
488.097	4148.72
488.467	4114.82
488.837	4248.15
489.207	4283.86
489.578	4359.56
489.948	4395.49
490.318	4438.65
490.688	4446.79
491.058	4542.15
491.428	4580.57
491.798	4584.41
492.168	4696.27
492.538	4753.45
492.908	4783.28
493.278	4834.35
493.648	4872.77
494.017	4949.6
494.387	4953.9
494.757	4959.09
495.126	5018.3
495.496	5047.23
495.866	5122.93
496.235	5137.85
496.605	5200.22
496.974	5250.38
497.344	5252.19
497.713	5342.81
498.082	5338.07
498.452	5403.83
498.821	5416.71
499.19	5472.98
499.559	5497.16
499.928	5538.96
500.298	5538.29
500.667	5633.43
501.036	5614.67
501.405	5702.12
501.774	5712.75
502.143	5759.3
502.512	5806.98
502.88	5837.04
503.249	5884.49
503.618	5901.44
503.987	5931.27
504.356	5943.02
504.724	5996.81
505.093	6015.11
505.462	6043.13
505.83	6109.35
506.199	6105.96
506.567	6225.05
506.936	6227.76
507.304	6285.61
507.672	6313.18
508.041	6397.25
508.409	6381.88
508.777	6441.54
509.145	6541.88
509.514	6543.68
509.882	6592.5
510.25	6579.62
510.618	6615.32
510.986	6645.15
511.354	6735.09
511.722	6823.22
512.09	6860.51
512.458	6845.6
512.826	6924.46
513.193	6969.44
513.561	6948.19
513.929	7056.89
514.297	7088.53
514.664	7178.24
515.032	7214.63
515.4	7283.1
515.767	7302.31
516.135	7376.43
516.502	7301.4
516.869	7465.92
517.237	7451
517.604	7452.36
517.972	7543.66
518.339	7647.84
518.706	7647.38
519.073	7656.87
519.44	7764.22
519.808	7888.06
520.175	7872.01
520.542	7999.92
520.909	7979.8
521.276	7979.8
521.643	8101.38
522.009	8189.52
522.376	8192.45
522.743	8261.38
523.11	8316.97
523.477	8453.24
523.843	8467.7
524.21	8568.72
524.577	8548.15
524.943	8606.23
525.31	8728.26
525.676	8796.05
526.043	8820.46
526.409	8890.29
526.776	8999.66
527.142	9033.56
527.508	9066.1
527.874	9060.23
528.241	9160.79
528.607	9168.25
528.973	9369.6
529.339	9362.14
529.705	9377.51
530.071	9462.7
530.437	9498.63
530.803	9591.97
531.169	9661.12
531.535	9555.81
531.901	9678.06
532.267	9760.55
532.632	9765.07
532.998	9829.93
533.364	9881.22
533.73	9998.06
534.095	10015.91
534.461	10047.32
534.826	10130.93
535.192	10195.57
535.557	10267.65
535.923	10234.66
536.288	10266.07
536.653	10291.61
537.019	10371.38
537.384	10351.95
537.749	10502.22
538.114	10480.08
538.479	10488.66
538.845	10555.33
539.21	10475.56
539.575	10622.67
539.94	10610.92
540.305	10706.96
540.67	10758.49
541.034	10747.64
541.399	10851.59
541.764	10818.83
542.129	10891.59
542.494	10881.65
542.858	10901.76
543.223	10942.66
543.587	11029.44
543.952	10958.48
544.316	11058.14
544.681	11098.82
545.045	11138.37
545.41	11186.05
545.774	11192.83
546.138	11256.33
546.503	11327.74
546.867	11359.83
547.231	11438.24
547.595	11354.4
547.959	11455.87
548.324	11407.51
548.688	11495.42
549.052	11581.74
549.416	11577.9
549.779	11567.28
550.143	11572.25
550.507	11675.3
550.871	11760.72
551.235	11724.79
551.599	11809.31
551.962	11853.37
552.326	11945.12
552.689	11947.38
553.053	11923.2
553.417	11996.87
553.78	12190.77
554.143	12089.07
554.507	12094.72
554.87	12253.82
555.234	12325.68
555.597	12325.9
555.96	12349.63
556.323	12388.73
556.686	12428.95
557.05	12547.14
557.413	12530.65
557.776	12571.32
558.139	12646.8
558.502	12708.04
558.865	12787.36
559.228	12828.72
559.59	12895.61
559.953	12890.86
560.316	13076.39
560.679	13001.37
561.041	13145.09
561.404	13139.67
561.767	13174.47
562.129	13133.57
562.492	13350.28
562.854	13359.78
563.217	13419.44
563.579	13410.4
563.941	13530.39
564.304	13599.77
564.666	13660.11
565.028	13600.45
565.39	13711.18
565.753	13765.41
566.115	13811.74
566.477	13962.25
566.839	13952.53
567.201	14141.22
567.563	14052.41
567.925	14095.8
568.287	14112.52
568.648	14245.4
569.01	14258.74
569.372	14397.71
569.734	14364.72
570.095	14516.81
570.457	14508.9
570.819	14526.98
571.18	14435.45
571.542	14592.06
571.903	14588.22
572.265	14718.61
572.626	14750.93
572.987	14751.6
573.349	14776.69
573.71	14882.22
574.071	14913.18
574.432	14897.36
574.794	14969.45
575.155	15024.14
575.516	15026.17
575.877	15022.33
576.238	15060.07
576.599	15143.91
576.96	15172.61
577.32	15187.75
577.681	15186.85
578.042	15193.63
578.403	15277.24
578.763	15384.36
579.124	15382.1
579.485	15406.95
579.845	15447.4
580.206	15310.91
580.566	15422.55
580.927	15374.64
581.287	15479.95
581.648	15368.31
582.008	15486.73
582.368	15440.85
582.728	15560.17
583.089	15482.21
583.449	15491.92
583.809	15514.07
584.169	15505.26
584.529	15546.84
584.889	15618.25
585.249	15498.02
585.609	15531.24
585.969	15570.34
586.329	15503.67
586.688	15628.42
587.048	15541.19
587.408	15517.69
587.768	15571.7
588.127	15616.44
588.487	15450.12
588.846	15633.84
589.206	15450.79
589.565	15508.19
589.925	15538.48
590.284	15536.89
590.643	15487.18
591.003	15572.37
591.362	15576.89
591.721	15528.53
592.08	15588.19
592.44	15759.71
592.799	15688.3
593.158	15621.64
593.517	15755.19
593.876	15678.13
594.235	15731.24
594.593	15734.63
594.952	15666.16
595.311	15661.41
595.67	15644.46
596.029	15733.95
596.387	15747.96
596.746	15742.54
597.104	15711.8
597.463	15735.31
597.822	15802.88
598.18	15731.24
598.538	15768.3
598.897	15787.06
599.255	15628.64
599.613	15946.83
599.972	15748.64
600.33	15791.8
600.688	15744.8
601.046	15823.67
601.404	15858.02
601.762	15865.47
602.12	15981.18
602.478	15933.72
602.836	15902.53
603.194	15864.12
603.552	15965.36
603.91	15866.15
604.268	15950.44
604.625	15926.26
604.983	15911.8
605.341	15912.25
605.698	15855.08
606.056	16003.1
606.413	16002.19
606.771	15962.42
607.128	16053.72
607.485	15958.35
607.843	15985.02
608.2	16104.34
608.557	16170.78
608.914	16141.85
609.272	16132.58
609.629	16149.98
609.986	16265.01
610.343	16085.58
610.7	16211.45
611.057	16190.66
611.414	16117.9
611.771	16226.14
612.127	16309.98
612.484	16329.64
612.841	16457.77
613.198	16308.4
613.554	16340.49
613.911	16456.87
614.267	16274.73
614.624	16385.23
614.98	16251.23
615.337	16439.69
615.693	16379.13
616.05	16461.39
616.406	16554.04
616.762	16428.85
617.118	16341.39
617.475	16455.51
617.831	16453.48
618.187	16573.48
618.543	16559.47
618.899	16705.22
619.255	16626.13
619.611	16627.94
619.967	16705
620.323	16701.16
620.678	16542.97
621.034	16528.96
621.39	16574.83
621.746	16560.37
622.101	16696.19
622.457	16518.34
622.812	16712.23
623.168	16700.03
623.523	16736.41
623.879	16634.04
624.234	16584.78
624.589	16610.54
624.945	16669.07
625.3	16642.18
625.655	16553.36
626.01	16697.54
626.365	16605.57
626.72	16671.55
627.075	16684.89
627.43	16633.81
627.785	16600.82
628.14	16646.24
628.495	16728.95
628.85	16698.9
629.205	16539.81
629.559	16714.72
629.914	16483.54
630.269	16640.82
630.623	16501.16
630.978	16500.03
631.332	16585.45
631.687	16525.12
632.041	16538.22
632.396	16560.14
632.75	16484.21
633.104	16526.02
633.459	16458
633.813	16469.07
634.167	16370.54
634.521	16359.47
634.875	16325.35
635.229	16343.65
635.583	16214.84
635.937	16245.58
636.291	16087.84
636.645	16202.86
636.999	16110.89
637.352	16179.14
637.706	16028.18
638.06	16109.53
638.413	16074.28
638.767	16093.26
639.121	16132.58
639.474	16005.36
639.828	16079.25
640.181	16039.71
640.534	16114.05
640.888	15971.46
641.241	15894.62
641.594	15868.18
641.947	15943.89
642.301	15917.22
642.654	15844.91
643.007	15841.97
643.36	15928.07
643.713	15861.4
644.066	15911.8
644.419	15865.02
644.771	15741.41
645.124	15585.48
645.477	15545.93
645.83	15477.46
646.182	15275.88
646.535	15302.55
646.888	15343.23
647.24	15166.28
647.593	15312.04
647.945	15228.2
648.298	15214.19
648.65	15105.27
649.002	15087.87
649.355	15097.81
649.707	15056.68
650.059	15210.35
650.411	15303.68
650.763	15308.2
651.115	15554.29
651.467	15457.8
651.819	15513.84
652.171	15417.57
652.523	15471.36
652.875	15411.47
653.227	15400.17
653.578	15423.22
653.93	15415.09
654.282	15348.88
654.633	15238.37
654.985	15273.85
655.337	15316.56
655.688	15368.31
656.039	15303.45
656.391	15121.99
656.742	15178.49
657.094	15219.61
657.445	15218.71
657.796	15280.4
658.147	15130.12
658.498	15243.12
658.849	15330.57
659.2	15296.67
659.551	15193.17
659.902	15238.14
660.253	15200.41
660.604	15138.26
660.955	15084.02
661.306	15185.26
661.656	15049.9
662.007	15154.08
662.358	15140.29
662.708	15090.8
663.059	15035.66
663.409	14987.3
663.76	15142.33
664.11	15004.93
664.461	15120.86
664.811	15067.75
665.161	15023.23
665.511	15011.71
665.862	15051.71
666.212	15015.1
666.562	14984.82
666.912	14910.02
667.262	14957.93
667.612	14876.57
667.962	14985.27
668.312	14887.42
668.662	15026.4
669.011	15014.87
669.361	14925.84
669.711	14865.95
670.06	14843.13
670.41	14820.08
670.76	14848.78
671.109	14849.91
671.459	14910.7
671.808	14850.13
672.157	14839.51
672.507	14752.96
672.856	14739.63
673.205	14802.9
673.554	14797.48
673.904	14749.34
674.253	14815.1
674.602	14798.83
674.951	14498.28
675.3	14451.27
675.649	14633.87
675.998	14642.23
676.346	14758.61
676.695	14709.34
677.044	14559.07
677.393	14682.45
677.741	14667.09
678.09	14618.73
678.438	14603.36
678.787	14570.37
679.135	14575.56
679.484	14454.21
679.832	14588.9
680.181	14428.9
680.529	14484.72
680.877	14442.01
681.225	14414.66
681.573	14519.07
681.922	14413.99
682.27	14295.12
682.618	14387.55
682.966	14328.56
683.314	14358.39
683.661	14358.62
684.009	14222.35
684.357	14244.5
684.705	14234.1
685.053	14236.14
685.4	14246.08
685.748	14192.07
686.095	14110.26
686.443	14088.57
686.79	14076.14
687.138	14094.45
687.485	14098.06
687.832	14016.93
688.18	14011.51
688.527	13929.93
688.874	13915.69
689.221	13856.71
689.568	13904.17
689.915	13818.97
690.262	13862.59
690.609	13774
690.956	13685.87
691.303	13658.75
691.65	13546.21
691.997	13540.79
692.344	13520.68
692.69	13533.78
693.037	13512.09
693.383	13373.11
693.73	13526.55
694.077	13456.95
694.423	13462.82
694.769	13488.36
695.116	13397.51
695.462	13339.21
695.808	13280.68
696.155	13283.62
696.501	13154.81
696.847	13222.83
697.193	13097.41
697.539	13132.66
697.885	13113.68
698.231	13127.24
698.577	13028.03
698.923	12946
699.269	12947.81
699.614	12846.12
699.96	12829.62
700.306	12859
700.651	12736.06
700.997	12653.35
701.342	12694.26
701.688	12686.12
702.033	12618.55
702.379	12704.88
702.724	12611.77
703.069	12604.09
703.415	12535.84
703.76	12492.68
704.105	12486.35
704.45	12463.75
704.795	12414.04
705.14	12372.46
705.485	12361.38
705.83	12347.6
706.175	12351.44
706.52	12234.61
706.865	12184.44
707.209	12219.92
707.554	12217.21
707.899	12159.81
708.243	12084.33
708.588	12165.91
708.932	12081.62
709.277	12022.41
709.621	12031.22
709.966	12002.52
710.31	11994.84
710.654	11896.54
710.998	11901.96
711.342	11860.61
711.687	11830.32
712.031	11771.57
712.375	11779.48
712.719	11773.15
713.063	11757.11
713.407	11782.19
713.75	11606.15
714.094	11654.96
714.438	11629.43
714.782	11628.97
715.125	11561.41
715.469	11621.97
715.812	11486.15
716.156	11429.43
716.499	11400.28
716.843	11418.81
717.186	11493.84
717.53	11478.47
717.873	11494.29
718.216	11384.91
718.559	11432.14
718.902	11315.31
719.246	11381.97
719.589	11363.44
719.932	11248.19
720.275	11265.82
720.617	11317.12
720.96	11191.47
721.303	11202.09
721.646	11257.46
721.989	11192.38
722.331	11200.74
722.674	11176.56
723.016	11177.23
723.359	11098.82
723.701	11136.33
724.044	11118.03
724.386	11034.64
724.729	11015.88
725.071	10966.84
725.413	10949.67
725.755	10960.06
726.097	10925.04
726.439	10907.18
726.782	10923.68
727.124	10923.91
727.465	10796.68
727.807	10803.23
728.149	10858.15
728.491	10882.55
728.833	10818.6
729.175	10841.2
729.516	10714.2
729.858	10756.68
730.199	10760.3
730.541	10736.12
730.882	10718.04
731.224	10701.99
731.565	10618.83
731.906	10606.63
732.248	10593.29
732.589	10564.37
732.93	10521.21
733.271	10630.36
733.612	10563.47
733.953	10504.94
734.294	10547.19
734.635	10507.87
734.976	10585.16
735.317	10455.45
735.658	10462.22
735.999	10458.38
736.339	10485.05
736.68	10391.27
737.021	10418.84
737.361	10286.18
737.702	10385.62
738.042	10320.31
738.383	10306.3
738.723	10307.88
739.063	10311.27
739.404	10298.61
739.744	10298.16
740.084	10254.32
740.424	10255.9
740.764	10261.33
741.104	10294.32
741.444	10199.41
741.784	10074.21
742.124	10142.46
742.464	10117.38
742.804	10151.5
743.143	10142.46
743.483	10059.07
743.823	10063.14
744.162	10117.15
744.502	10092.07
744.841	10040.32
745.181	10018.85
745.52	10016.36
745.86	10006.19
746.199	9974.78
746.538	9941.33
746.877	9958.96
747.216	9927.55
747.556	9911.5
747.895	9903.6
748.234	9868.34
748.573	9837.16
748.911	9857.27
749.25	9794.45
749.589	9767.78
749.928	9859.3
750.267	9904.73
750.605	9808
750.944	9746.54
751.283	9734.11
751.621	9766.42
751.96	9779.98
752.298	9679.87
752.636	9695.69
752.975	9591.29
753.313	9569.59
753.651	9649.14
753.989	9514.23
754.327	9547.9
754.666	9527.11
755.004	9595.13
755.342	9583.6
755.679	9453.21
756.017	9329.15
756.355	9330.5
756.693	9383.84
757.031	9288.92
757.368	9316.04
757.706	9304.97
