Data from black_plastic_tray_FLMS001491_029.txt Node
Date: Tue Feb 07 10:39:32 GMT 2017
User: dcchb
Spectrometer: FLMS00149
Trigger mode: 0
Integration Time (sec): 2.000000E-2
Scans to average: 10
Electric dark correction enabled: true
Nonlinearity correction enabled: false
Boxcar width: 0
XAxis mode: Wavelengths
Number of Pixels in Spectrum: 2048
>>>>>Begin Spectral Data<<<<<
341.393	-21.48
341.776	-21.48
342.16	-21.48
342.543	-65.32
342.927	-65.78
343.31	-76.62
343.693	-70.29
344.077	-63.06
344.46	-43.63
344.843	-43.63
345.226	-49.73
345.61	-21.93
345.993	-29.84
346.376	2.25
346.759	-1.82
347.142	39.08
347.525	40.21
347.908	41.11
348.291	76.59
348.674	86.09
349.057	115.24
349.44	134.45
349.823	147.78
350.206	157.72
350.588	183.26
350.971	202.24
351.354	230.04
351.737	201.34
352.119	235.69
352.502	257.83
352.884	249.7
353.267	258.28
353.65	258.06
354.032	283.59
354.414	295.57
354.797	297.15
355.179	318.62
355.562	313.2
355.944	312.97
356.326	333.31
356.709	312.52
357.091	321.79
357.473	326.08
357.855	311.62
358.238	322.69
358.62	341.9
359.002	332.86
359.384	301.9
359.766	337.83
360.148	331.05
360.53	338.28
360.912	327.66
361.294	326.53
361.676	329.69
362.057	316.36
362.439	307.55
362.821	335.34
363.203	322.69
363.584	321.79
363.966	329.69
364.348	304.84
364.729	319.07
365.111	312.29
365.493	326.76
365.874	315.23
366.256	311.16
366.637	311.16
367.019	317.94
367.4	313.42
367.781	308
368.163	298.96
368.544	292.63
368.925	310.49
369.306	318.17
369.688	310.71
370.069	299.41
370.45	317.04
370.831	293.09
371.212	310.94
371.593	305.29
371.974	306.87
372.355	326.76
372.736	305.06
373.117	312.52
373.498	297.83
373.879	296.93
374.26	315.01
374.641	305.06
375.021	328.56
375.402	318.4
375.783	340.09
376.163	348.68
376.544	308
376.925	345.97
377.305	342.58
377.686	334.44
378.066	341.9
378.447	340.32
378.827	333.99
379.208	332.86
379.588	343.48
379.968	353.2
380.349	324.95
380.729	319.3
381.109	331.28
381.489	334.44
381.87	342.35
382.25	329.69
382.63	349.81
383.01	342.8
383.39	354.1
383.77	346.64
384.15	361.11
384.53	349.81
384.91	343.71
385.29	364.95
385.67	354.78
386.049	380.09
386.429	356.81
386.809	351.84
387.189	384.83
387.568	360.43
387.948	353.65
388.328	354.33
388.707	357.94
389.087	380.09
389.466	373.31
389.846	408.79
390.225	394.78
390.605	376.47
390.984	358.17
391.363	387.09
391.743	374.44
392.122	399.75
392.501	382.35
392.881	384.16
393.26	376.93
393.639	404.95
394.018	396.13
394.397	417.6
394.776	401.11
395.155	403.59
395.534	412.18
395.913	408.34
396.292	407.43
396.671	420.77
397.05	405.4
397.429	420.77
397.808	434.1
398.186	446.08
398.565	437.94
398.944	423.25
399.323	433.65
399.701	447.66
400.08	435.68
400.458	432.29
400.837	458.28
401.215	437.49
401.594	464.15
401.972	457.15
402.351	451.5
402.729	456.25
403.107	455.12
403.486	466.87
403.864	448.56
404.242	458.96
404.62	450.6
404.999	462.57
405.377	467.32
405.755	465.96
406.133	475.45
406.511	484.72
406.889	478.39
407.267	475.23
407.645	491.72
408.023	485.85
408.401	490.37
408.779	491.05
409.156	516.13
409.534	533.53
409.912	520.65
410.29	531.95
410.667	519.97
411.045	525.17
411.422	545.06
411.8	559.29
412.178	520.88
412.555	570.82
412.933	543.02
413.31	554.77
413.687	553.64
414.065	559.29
414.442	575.79
414.819	592.51
415.197	582.12
415.574	592.06
415.951	597.03
416.328	601.55
416.705	583.93
417.082	610.59
417.46	579.18
417.837	586.19
418.214	620.99
418.591	627.09
418.967	619.86
419.344	628.9
419.721	619.4
420.098	624.38
420.475	647.65
420.852	636.13
421.228	644.26
421.605	643.36
421.982	639.29
422.358	658.27
422.735	671.61
423.111	648.78
423.488	688.33
423.864	679.52
424.241	655.11
424.617	665.96
424.994	687.2
425.37	700.31
425.746	698.27
426.123	708.44
426.499	728.78
426.875	712.96
427.251	735.79
427.627	742.11
428.003	728.78
428.379	746.41
428.756	731.72
429.132	749.12
429.507	759.06
429.883	768.33
430.259	759.06
430.635	775.33
431.011	788.67
431.387	807.87
431.763	814.43
432.138	835.22
432.514	839.51
432.89	848.33
433.265	855.33
433.641	863.47
434.016	855.1
434.392	882.45
434.767	880.19
435.143	904.37
435.518	899.85
435.894	909.34
436.269	930.36
436.644	923.8
437.02	938.49
437.395	931.26
437.77	924.93
438.145	957.47
438.52	939.85
438.895	968.77
439.271	963.8
439.646	969.23
440.021	1007.42
440.395	998.15
440.77	985.5
441.145	1003.58
441.52	1009.68
441.895	1025.72
442.27	1026.17
442.645	1021.2
443.019	1059.17
443.394	1027.98
443.769	1037.25
444.143	1054.87
444.518	1083.8
444.892	1067.3
445.267	1077.02
445.641	1085.38
446.016	1071.6
446.39	1071.82
446.764	1109.34
447.139	1102.56
447.513	1105.27
447.887	1118.37
448.262	1114.53
448.636	1129.67
449.01	1153.63
449.384	1157.92
449.758	1163.35
450.132	1160.41
450.506	1162.67
450.88	1185.49
451.254	1178.03
451.628	1215.1
452.002	1169.67
452.376	1230.24
452.75	1221.2
453.123	1214.87
453.497	1249.44
453.871	1240.63
454.244	1278.6
454.618	1262.78
454.992	1321.31
455.365	1277.69
455.739	1326.73
456.112	1357.92
456.486	1356.79
456.859	1344.81
457.232	1385.03
457.606	1400.4
457.979	1389.78
458.352	1392.72
458.725	1430
459.099	1437.01
459.472	1487.18
459.845	1465.48
460.218	1476.33
460.591	1487.86
460.964	1510.91
461.337	1539.15
461.71	1552.94
462.083	1592.03
462.456	1612.82
462.829	1576.89
463.201	1600.4
463.574	1621.86
463.947	1624.8
464.32	1674.29
464.692	1691.01
465.065	1667.96
465.438	1704.12
465.81	1726.04
466.183	1740.96
466.555	1771.01
466.928	1829.99
467.3	1779.37
467.672	1837
468.045	1872.03
468.417	1879.94
468.789	1901.86
469.161	1924.46
469.534	1953.15
469.906	1964.91
470.278	1968.75
470.65	2027.28
471.022	2041.29
471.394	2071.34
471.766	2073.38
472.138	2123.55
472.51	2113.83
472.882	2186.82
473.253	2207.84
473.625	2216.65
473.997	2278.34
474.369	2273.82
474.74	2301.62
475.112	2321.96
475.484	2327.83
475.855	2399.24
476.227	2419.13
476.598	2489.86
476.97	2493.48
477.341	2580.48
477.713	2594.49
478.084	2620.03
478.455	2677.66
478.827	2696.19
479.198	2778.9
479.569	2782.06
479.94	2852.57
480.311	2854.37
480.682	2944.77
481.053	2987.25
481.424	3029.51
481.795	3087.36
482.166	3094.59
482.537	3142.73
482.908	3199.68
483.279	3215.27
483.65	3277.19
484.021	3363.74
484.391	3375.94
484.762	3379.33
485.133	3427.24
485.503	3508.37
485.874	3550.18
486.244	3587.46
486.615	3631.75
486.985	3683.73
487.356	3740.9
487.726	3784.07
488.097	3862.26
488.467	3885.31
488.837	3907.45
489.207	3972.99
489.578	3989.94
489.948	4084.85
490.318	4116.04
490.688	4134.57
491.058	4163.49
491.428	4223.38
491.798	4292.3
492.168	4384.73
492.538	4365.52
492.908	4402.81
493.278	4419.76
493.648	4472.41
494.017	4544.73
494.387	4568
494.757	4622.92
495.126	4660.65
495.496	4635.8
495.866	4725.96
496.235	4777.94
496.605	4825.17
496.974	4775.68
497.344	4967.76
497.713	4892.51
498.082	4955.34
498.452	4976.13
498.821	5006.63
499.19	4984.94
499.559	5152.84
499.928	5184.71
500.298	5147.42
500.667	5197.14
501.036	5197.59
501.405	5249.11
501.774	5259.51
502.143	5309.45
502.512	5322.56
502.88	5373.63
503.249	5326.85
503.618	5424.25
503.987	5454.53
504.356	5503.57
504.724	5588.77
505.093	5564.81
505.462	5573.4
505.83	5675.99
506.199	5671.25
506.567	5746.28
506.936	5747.18
507.304	5791.92
507.672	5864.46
508.041	5864.92
508.409	5922.99
508.777	5931.81
509.145	6019.71
509.514	6039.83
509.882	6085.93
510.25	6044.12
510.618	6150.33
510.986	6154.85
511.354	6218.13
511.722	6270.33
512.09	6351.23
512.458	6319.14
512.826	6383.77
513.193	6398.24
513.561	6473.49
513.929	6452.47
514.297	6542.64
514.664	6621.28
515.032	6611.79
515.4	6713.71
515.767	6678.23
516.135	6696.31
516.502	6711.9
516.869	6856.53
517.237	6909.18
517.604	6840.03
517.972	7026.02
518.339	6945.57
518.706	7047.03
519.073	7070.08
519.44	7206.8
519.808	7206.12
520.175	7188.5
520.542	7334.03
520.909	7337.87
521.276	7389.85
521.643	7451.54
522.009	7520.47
522.376	7574.93
522.743	7607.7
523.11	7751.19
523.477	7704.19
523.843	7786.22
524.21	7844.07
524.577	7902.83
524.943	7965.88
525.31	8025.31
525.676	8069.38
526.043	8107.12
526.409	8147.12
526.776	8268.02
527.142	8289.94
527.508	8374.23
527.874	8388.24
528.241	8396.38
528.607	8475.7
528.973	8590.04
529.339	8498.29
529.705	8683.83
530.071	8746.2
530.437	8825.97
530.803	8794.33
531.169	8835.46
531.535	8834.78
531.901	8921.56
532.267	8956.59
532.632	9032.52
532.998	9088.56
533.364	9114.55
533.73	9201.55
534.095	9187.99
534.461	9266.63
534.826	9322.68
535.192	9322.23
535.557	9412.62
535.923	9370.36
536.288	9518.38
536.653	9468.66
537.019	9489.91
537.384	9533.29
537.749	9579.85
538.114	9605.16
538.479	9633.86
538.845	9686.51
539.21	9725.38
539.575	9782.78
539.94	9708.21
540.305	9787.07
540.67	9794.98
541.034	9894.41
541.399	9887.64
541.764	9900.06
542.129	9948.42
542.494	10006.95
542.858	10006.28
543.223	10023.9
543.587	10101.19
543.952	10009.21
544.316	10164.46
544.681	10129.21
545.045	10209.43
545.41	10324.01
545.774	10271.13
546.138	10283.78
546.503	10340.5
546.867	10308.64
547.231	10409.43
547.595	10448.98
547.959	10571.69
548.324	10492.37
548.688	10542.31
549.052	10635.86
549.416	10578.24
549.779	10576.43
550.143	10681.29
550.507	10750.21
550.871	10772.36
551.235	10744.34
551.599	10788.4
551.962	10862.98
552.326	10906.59
552.689	10986.14
553.053	10919.25
553.417	11018.68
553.78	11122.63
554.143	11122.41
554.507	11065.01
554.87	11213.93
555.234	11328.28
555.597	11262.29
555.96	11237.88
556.323	11378.22
556.686	11364.21
557.05	11455.28
557.413	11392
557.776	11488.95
558.139	11556.29
558.502	11533.24
558.865	11639.45
559.228	11755.61
559.59	11736.63
559.953	11772.33
560.316	11895.04
560.679	11929.62
561.041	11930.52
561.404	11902.72
561.767	12037.86
562.129	12098.65
562.492	12222.49
562.854	12229.04
563.217	12167.35
563.579	12322.37
563.941	12435.59
564.304	12375.71
564.666	12362.6
565.028	12443.27
565.39	12452.09
565.753	12516.94
566.115	12552.42
566.477	12672.2
566.839	12774.11
567.201	12793.1
567.563	12789.48
567.925	12944.05
568.287	12885.07
568.648	12952.64
569.01	13059.76
569.372	13056.14
569.734	13045.97
570.095	13093.65
570.457	13161.67
570.819	13219.3
571.18	13202.12
571.542	13257.26
571.903	13300.2
572.265	13360.76
572.626	13446.19
572.987	13452.97
573.349	13487.31
573.71	13522.79
574.071	13552.62
574.432	13558.27
574.794	13628.33
575.155	13672.39
575.516	13542.23
575.877	13618.38
576.238	13587.43
576.599	13686.18
576.96	13735.9
577.32	13751.49
577.681	13793.97
578.042	13941.54
578.403	13822
578.763	13958.04
579.124	13966.85
579.485	13996.45
579.845	14050.01
580.206	14010.69
580.566	13951.94
580.927	13930.69
581.287	13922.56
581.648	14002.33
582.008	14030.35
582.368	14114.19
582.728	14137.92
583.089	14134.08
583.449	14043.46
583.809	14087.53
584.169	14139.5
584.529	14050.24
584.889	14205.04
585.249	14124.13
585.609	13991.93
585.969	14090.24
586.329	14070.35
586.688	14083.91
587.048	14120.07
587.408	14073.06
587.768	14137.47
588.127	14101.99
588.487	14123.46
588.846	14188.77
589.206	13966.4
589.565	13964.82
589.925	14169.1
590.284	14142.66
590.643	14044.59
591.003	14182.21
591.362	14171.82
591.721	14153.29
592.08	14130.91
592.44	14234.41
592.799	14253.85
593.158	14171.14
593.517	14215.88
593.876	14268.31
594.235	14269.22
594.593	14158.71
594.952	14194.19
595.311	14148.09
595.67	14132.5
596.029	14194.19
596.387	14243.68
596.746	14298.82
597.104	14196.9
597.463	14207.3
597.822	14179.95
598.18	14170.23
598.538	14229.22
598.897	14299.5
599.255	14109.45
599.613	14335.43
599.972	14268.09
600.33	14260.85
600.688	14349.89
601.046	14318.03
601.404	14403
601.762	14372.72
602.12	14397.12
602.478	14460.62
602.836	14393.96
603.194	14417.91
603.552	14446.39
603.91	14391.25
604.268	14408.65
604.625	14397.57
604.983	14416.56
605.341	14363.45
605.698	14432.83
606.056	14437.35
606.413	14348.54
606.771	14480.51
607.128	14499.49
607.485	14454.52
607.843	14454.3
608.2	14535.87
608.557	14595.08
608.914	14560.51
609.272	14548.3
609.629	14568.19
609.986	14581.52
610.343	14483.67
610.7	14601.86
611.057	14596.44
611.414	14684.8
611.771	14717.11
612.127	14741.29
612.484	14713.95
612.841	14765.02
613.198	14721.63
613.554	14774.96
613.911	14841.86
614.267	14788.52
614.624	14776.09
614.98	14853.83
615.337	14890.44
615.693	14812.03
616.05	14840.73
616.406	14823.32
616.762	14828.75
617.118	14885.47
617.475	14857.9
617.831	14997.11
618.187	14845.92
618.543	14933.38
618.899	14999.59
619.255	15002.3
619.611	15000.04
619.967	14993.04
620.323	15058.57
620.678	14984.68
621.034	14926.15
621.39	14987.39
621.746	14842.76
622.101	15038.01
622.457	14942.42
622.812	15026.03
623.168	15110.55
623.523	15054.05
623.879	15089.98
624.234	14972.7
624.589	15024.9
624.945	15042.08
625.3	15023.77
625.655	15055.41
626.01	15033.71
626.365	15012.25
626.72	14959.14
627.075	15033.04
627.43	15014.73
627.785	14974.96
628.14	14987.61
628.495	15048.86
628.85	15031.23
629.205	15038.23
629.559	15135.18
629.914	14936.99
630.269	14969.99
630.623	14929.76
630.978	14906.26
631.332	15004.11
631.687	14980.38
632.041	14963.43
632.396	14897.22
632.75	14792.14
633.104	14958.46
633.459	14791.01
633.813	14815.42
634.167	14780.16
634.521	14702.2
634.875	14764.8
635.229	14735.42
635.583	14629.88
635.937	14666.27
636.291	14581.3
636.645	14644.57
636.999	14504.69
637.352	14560.28
637.706	14485.93
638.06	14577
638.413	14474.18
638.767	14446.84
639.121	14523.45
639.474	14417.46
639.828	14440.74
640.181	14462.88
640.534	14453.39
640.888	14384.01
641.241	14404.35
641.594	14327.29
641.947	14405.48
642.301	14351.7
642.654	14372.72
643.007	14323.9
643.36	14309.89
643.713	14232.15
644.066	14332.49
644.419	14270.35
644.771	14146.05
645.124	14075.55
645.477	14060.41
645.83	13855.67
646.182	13831.03
646.535	13822
646.888	13777.25
647.24	13685.5
647.593	13744.71
647.945	13717.82
648.298	13644.82
648.65	13640.31
649.002	13627.65
649.355	13642.34
649.707	13611.38
650.059	13688.67
650.411	13879.85
650.763	13897.02
651.115	14020.86
651.467	13934.31
651.819	13995.78
652.171	13888.43
652.523	13864.03
652.875	13894.76
653.227	13844.59
653.578	13974.31
653.93	13852.95
654.282	13869
654.633	13770.92
654.985	13815.89
655.337	13801.88
655.688	13803.46
656.039	13831.26
656.391	13667.2
656.742	13756.46
657.094	13737.48
657.445	13716.46
657.796	13780.19
658.147	13771.38
658.498	13732.73
658.849	13713.75
659.2	13728.89
659.551	13702.68
659.902	13676.69
660.253	13724.37
660.604	13667.88
660.955	13636.92
661.306	13784.71
661.656	13568.44
662.007	13599.4
662.358	13560.08
662.708	13597.14
663.059	13496.58
663.409	13508.11
663.76	13524.38
664.11	13595.33
664.461	13658.16
664.811	13612.28
665.161	13643.69
665.511	13584.71
665.862	13559.63
666.212	13541.55
666.562	13554.21
666.912	13507.65
667.262	13455
667.612	13504.04
667.962	13559.18
668.312	13399.63
668.662	13519.86
669.011	13449.12
669.361	13445.73
669.711	13400.99
670.06	13332.74
670.41	13385.4
670.76	13333.87
671.109	13332.74
671.459	13335.45
671.808	13300.43
672.157	13325.96
672.507	13248.9
672.856	13318.73
673.205	13216.36
673.554	13342.46
673.904	13304.72
674.253	13334.32
674.602	13277.6
674.951	13089.81
675.3	12996.93
675.649	13301.56
675.998	13304.04
676.346	13323.25
676.695	13412.06
677.044	13194.89
677.393	13292.97
677.741	13155.35
678.09	13178.85
678.438	13131.84
678.787	13112.64
679.135	13172.52
679.484	13073.77
679.832	13131.17
680.181	13045.97
680.529	13121.45
680.877	13045.97
681.225	13090.04
681.573	13030.38
681.922	13029.47
682.27	12901.79
682.618	12953.32
682.966	13001.68
683.314	12986.99
683.661	12885.3
684.009	12896.6
684.357	12881
684.705	12835.81
685.053	12891.17
685.4	12869.93
685.748	12783.38
686.095	12688.01
686.443	12626.09
686.79	12638.98
687.138	12645.98
687.485	12662.03
687.832	12596.94
688.18	12666.32
688.527	12500.45
688.874	12503.16
689.221	12485.99
689.568	12429.94
689.915	12516.27
690.262	12419.09
690.609	12368.93
690.956	12295.26
691.303	12208.03
691.65	12217.07
691.997	12227.01
692.344	12120.8
692.69	12113.79
693.037	12187.24
693.383	12024.3
693.73	12128.93
694.077	12038.54
694.423	12069.73
694.769	12051.87
695.116	11939.56
695.462	11928.49
695.808	11914.47
696.155	11973.91
696.501	11822.95
696.847	11864.31
697.193	11729.17
697.539	11853.91
697.885	11694.82
698.231	11616.63
698.577	11631.54
698.923	11645.1
699.269	11562.85
699.614	11491.44
699.96	11497.31
700.306	11394.49
700.651	11441.27
700.997	11350.65
701.342	11377.77
701.688	11412.34
702.033	11306.81
702.379	11318.56
702.724	11366.69
703.069	11320.82
703.415	11203.53
703.76	11190.43
704.105	11197.88
704.45	11179.58
704.795	11103.42
705.14	11063.2
705.485	11060.26
705.83	11002.86
706.175	10964.9
706.52	10992.01
706.865	10934.61
707.209	10970.32
707.554	10943.2
707.899	10913.6
708.243	10865.01
708.588	10891
708.932	10799.93
709.277	10823.43
709.621	10795.86
709.966	10714.96
710.31	10787.72
710.654	10687.84
710.998	10697.11
711.342	10675.19
711.687	10659.82
712.031	10610.1
712.375	10522.65
712.719	10559.93
713.063	10501.18
713.407	10581.85
713.75	10500.05
714.094	10498.92
714.438	10430.67
714.782	10404.01
715.125	10381.86
715.469	10466.6
715.812	10319.04
716.156	10234.75
716.499	10240.17
716.843	10292.37
717.186	10283.56
717.53	10268.42
717.873	10303.67
718.216	10244.01
718.559	10259.15
718.902	10101.64
719.246	10222.77
719.589	10144.35
719.932	10083.34
720.275	10168.98
720.617	10149.1
720.96	10165.82
721.303	10037.24
721.646	10024.36
721.989	10032.26
722.331	10080.62
722.674	10043.79
723.016	9971.7
723.359	9946.17
723.701	9993.85
724.044	9942.55
724.386	9888.77
724.729	9845.38
725.071	9905.71
725.413	9801.54
725.755	9874.08
726.097	9729
726.439	9765.83
726.782	9760.86
727.124	9758.6
727.465	9782.78
727.807	9697.13
728.149	9766.06
728.491	9761.09
728.833	9748.43
729.175	9665.95
729.516	9657.13
729.858	9631.6
730.199	9617.59
730.541	9616.68
730.882	9591.6
731.224	9593.41
731.565	9489
731.906	9524.03
732.248	9492.62
732.589	9466.86
732.93	9425.05
733.271	9495.33
733.612	9465.73
733.953	9469.79
734.294	9447.42
734.635	9366.07
734.976	9401.77
735.317	9385.73
735.658	9361.55
735.999	9369.91
736.339	9277.48
736.68	9312.74
737.021	9284.94
737.361	9226.86
737.702	9309.35
738.042	9262.57
738.383	9252.62
738.723	9200.65
739.063	9221.44
739.404	9177.15
739.744	9175.11
740.084	9171.5
740.424	9182.8
740.764	9136.69
741.104	9117.94
741.444	9085.62
741.784	9084.27
742.124	9088.56
742.464	9034.32
742.804	9055.57
743.143	8989.35
743.483	9021.22
743.823	9003.59
744.162	8992.97
744.502	9053.99
744.841	8967.66
745.181	9006.75
745.52	8957.04
745.86	9014.66
746.199	8900.99
746.538	8870.94
746.877	8920.66
747.216	8932.18
747.556	8821
747.895	8833.65
748.234	8778.74
748.573	8909.13
748.911	8879.98
749.25	8792.75
749.589	8785.52
749.928	8725.18
750.267	8781.68
750.605	8741.9
750.944	8793.65
751.283	8660.32
751.621	8737.61
751.96	8708.91
752.298	8747.33
752.636	8648.35
752.975	8630.27
753.313	8608.35
753.651	8625.97
753.989	8573.77
754.327	8544.17
754.666	8578.52
755.004	8570.61
755.342	8559.76
755.679	8516.82
756.017	8474.57
756.355	8367.22
756.693	8350.73
757.031	8374.91
757.368	8354.12
757.706	8334.23
758.044	8297.17
758.381	8289.03
758.719	8293.55
759.056	8264.63
759.394	8241.13
759.731	8121.81
760.068	8183.73
