Data from black_metal_pc_casing_FLMS001491_00099.txt Node
Date: Wed Feb 08 14:33:48 GMT 2017
User: dcchb
Spectrometer: FLMS00149
Trigger mode: 0
Integration Time (sec): 2.000000E-2
Scans to average: 10
Electric dark correction enabled: true
Nonlinearity correction enabled: false
Boxcar width: 0
XAxis mode: Wavelengths
Number of Pixels in Spectrum: 2048
>>>>>Begin Spectral Data<<<<<
341.393	-8.05
341.776	-8.05
342.16	-8.05
342.543	-57.77
342.927	-55.73
343.31	-58.22
343.693	-65.9
344.077	-63.87
344.46	-58.22
344.843	-43.53
345.226	-28.84
345.61	-56.86
345.993	-32.23
346.376	-3.3
346.759	-8.73
347.142	14.55
347.525	51.38
347.908	83.25
348.291	83.92
348.674	93.87
349.057	92.74
349.44	143.58
349.823	166.86
350.206	163.47
350.588	197.59
350.971	196.24
351.354	224.26
351.737	243.69
352.119	264.48
352.502	264.94
352.884	257.25
353.267	267.87
353.65	297.25
354.032	285.73
354.414	304.26
354.797	321.21
355.179	298.16
355.562	294.09
355.944	325.05
356.326	322.56
356.709	317.59
357.091	326.86
357.473	339.06
357.855	332.73
358.238	339.28
358.62	325.73
359.002	343.8
359.384	329.57
359.766	323.47
360.148	317.36
360.53	326.86
360.912	328.21
361.294	350.36
361.676	339.28
362.057	340.19
362.439	303.81
362.821	319.85
363.203	327.31
363.584	330.25
363.966	309
364.348	319.85
364.729	334.54
365.111	291.6
365.493	315.56
365.874	308.55
366.256	330.25
366.637	310.81
367.019	328.44
367.4	303.13
367.781	309.46
368.163	306.07
368.544	321.66
368.925	304.71
369.306	313.07
369.688	309.23
370.069	316.69
370.45	310.81
370.831	325.95
371.212	307.42
371.593	327.08
371.974	324.37
372.355	307.87
372.736	321.21
373.117	332.96
373.498	323.92
373.879	328.44
374.26	306.74
374.641	311.71
375.021	352.84
375.402	328.21
375.783	338.61
376.163	331.83
376.544	333.41
376.925	332.73
377.305	334.31
377.686	330.25
378.066	348.78
378.447	327.53
378.827	323.69
379.208	351.71
379.588	342
379.968	337.25
380.349	342.9
380.729	355.78
381.109	321.43
381.489	350.36
381.87	338.38
382.25	347.65
382.63	341.32
383.01	356.69
383.39	347.65
383.77	353.75
384.15	345.61
384.53	380.87
384.91	364.14
385.29	353.07
385.67	369.11
386.049	362.11
386.429	369.57
386.809	392.84
387.189	381.32
387.568	379.06
387.948	387.42
388.328	376.12
388.707	387.19
389.087	373.18
389.466	375.67
389.846	414.76
390.225	381.32
390.605	389.23
390.984	392.84
391.363	407.98
391.743	420.41
392.122	398.49
392.501	396.23
392.881	404.82
393.26	420.86
393.639	430.13
394.018	398.72
394.397	426.97
394.776	434.2
395.155	411.15
395.534	404.82
395.913	419.06
396.292	458.38
396.671	427.87
397.05	415.89
397.429	436.46
397.808	445.27
398.186	439.85
398.565	436.23
398.944	444.82
399.323	460.86
399.701	473.29
400.08	453.86
400.458	436.91
400.837	486.85
401.215	459.06
401.594	462.22
401.972	474.65
402.351	471.26
402.729	469.45
403.107	452.95
403.486	481.2
403.864	484.14
404.242	496.57
404.62	469
404.999	499.96
405.377	489.11
405.755	510.58
406.133	516
406.511	523.91
406.889	499.28
407.267	491.82
407.645	526.85
408.023	514.87
408.401	538.38
408.779	517.13
409.156	524.36
409.534	520.52
409.912	551.03
410.29	535.66
410.667	533.86
411.045	563.69
411.422	555.1
411.8	569.11
412.178	589.22
412.555	585.15
412.933	598.94
413.31	608.43
413.687	596.45
414.065	585.83
414.442	590.13
414.819	611.14
415.197	600.75
415.574	597.36
415.951	615.89
416.328	624.48
416.705	632.84
417.082	631.25
417.46	633.74
417.837	645.27
418.214	646.85
418.591	632.84
418.967	642.1
419.344	674.87
419.721	653.17
420.098	669.9
420.475	663.8
420.852	687.75
421.228	695.66
421.605	690.91
421.982	664.47
422.358	693.85
422.735	685.94
423.111	717.58
423.488	709.22
423.864	728.2
424.241	730.24
424.617	725.26
424.994	740.18
425.37	740.86
425.746	744.7
426.123	750.57
426.499	750.12
426.875	754.87
427.251	772.04
427.627	790.57
428.003	796.9
428.379	806.62
428.756	804.81
429.132	813.85
429.507	811.81
429.883	820.85
430.259	832.83
430.635	843.9
431.011	847.07
431.387	873.06
431.763	839.38
432.138	881.64
432.514	879.16
432.89	888.42
433.265	911.93
433.641	915.54
434.016	916.22
434.392	913.51
434.767	966.16
435.143	933.62
435.518	965.26
435.894	965.26
436.269	978.14
436.644	986.5
437.02	1002.77
437.395	995.99
437.77	1008.65
438.145	1031.7
438.52	1021.07
438.895	1013.39
439.271	1024.24
439.646	1062.2
440.021	1060.4
440.395	1078.25
440.77	1084.12
441.145	1095.42
441.52	1095.2
441.895	1095.88
442.27	1106.72
442.645	1116.21
443.019	1132.26
443.394	1123.9
443.769	1144.24
444.143	1145.82
444.518	1161.41
444.892	1134.07
445.267	1147.63
445.641	1152.37
446.016	1166.16
446.39	1173.39
446.764	1195.76
447.139	1199.83
447.513	1171.81
447.887	1202.31
448.262	1210.45
448.636	1202.54
449.01	1226.49
449.384	1256.32
449.758	1246.83
450.132	1273.72
450.506	1256.55
450.88	1268.07
451.254	1278.47
451.628	1274.18
452.002	1313.95
452.376	1274.18
452.75	1312.59
453.123	1309.65
453.497	1328.86
453.871	1358.69
454.244	1379.94
454.618	1369.99
454.992	1402.99
455.365	1382.87
455.739	1425.36
456.112	1427.62
456.486	1444.34
456.859	1450.89
457.232	1471.46
457.606	1485.02
457.979	1508.75
458.352	1522.53
458.725	1554.62
459.099	1567.5
459.472	1572.25
459.845	1600.04
460.218	1642.3
460.591	1637.78
460.964	1627.16
461.337	1663.09
461.71	1686.82
462.083	1701.73
462.456	1696.99
462.829	1722.53
463.201	1752.36
463.574	1765.69
463.947	1783.31
464.32	1817.66
464.692	1841.84
465.065	1856.99
465.438	1848.62
465.81	1886.59
466.183	1915.06
466.555	1909.19
466.928	1943.08
467.3	1970.2
467.672	1976.53
468.045	1996.64
468.417	2023.76
468.789	2030.31
469.161	2083.65
469.534	2074.15
469.906	2136.3
470.278	2150.08
470.65	2202.51
471.022	2254.04
471.394	2222.4
471.766	2256.75
472.138	2296.3
472.51	2338.33
472.882	2340.59
473.253	2434.37
473.625	2452.22
473.997	2485.9
474.369	2498.32
474.74	2499.91
475.112	2561.37
475.484	2599.34
475.855	2606.12
476.227	2656.51
476.598	2716.62
476.97	2737.64
477.341	2789.39
477.713	2838.65
478.084	2861.7
478.455	2875.94
478.827	2934.7
479.198	3004.07
479.569	3042.26
479.94	3129.04
480.311	3152.77
480.682	3207.91
481.053	3316.38
481.424	3266.67
481.795	3338.75
482.166	3398.64
482.537	3414.91
482.908	3516.15
483.279	3513.21
483.65	3596.6
484.021	3637.05
484.391	3652.64
484.762	3719.99
485.133	3797.95
485.503	3843.6
485.874	3870.27
486.244	3934.22
486.615	4019.19
486.985	4052.18
487.356	4133.76
487.726	4173.99
488.097	4171.27
488.467	4206.08
488.837	4338.73
489.207	4392.51
489.578	4441.1
489.948	4462.11
490.318	4537.82
490.688	4534.65
491.058	4619.85
491.428	4674.09
491.798	4705.95
492.168	4759.06
492.538	4806.96
492.908	4850.13
493.278	4898.04
493.648	4957.92
494.017	5009.44
494.387	5023.46
494.757	5099.39
495.126	5145.94
495.496	5170.8
495.866	5216.9
496.235	5244.01
496.605	5322.43
496.974	5334.41
497.344	5357.01
497.713	5401.07
498.082	5439.49
498.452	5497.57
498.821	5546.61
499.19	5627.06
499.559	5624.57
499.928	5701.18
500.298	5683.1
500.667	5735.53
501.036	5787.5
501.405	5778.69
501.774	5843.09
502.143	5908.4
502.512	5933.71
502.88	5924
503.249	5994.96
503.618	6020.27
503.987	6046.48
504.356	6107.95
504.724	6143.43
505.093	6162.18
505.462	6195.18
505.83	6215.06
506.199	6242.41
506.567	6372.8
506.936	6379.13
507.304	6442.85
507.672	6483.98
508.041	6529.63
508.409	6538.22
508.777	6585
509.145	6628.61
509.514	6723.3
509.882	6722.62
510.25	6729.63
510.618	6802.62
510.986	6782.28
511.354	6956.96
511.722	6938.43
512.09	6963.52
512.458	7027.7
512.826	7065.44
513.193	7120.8
513.561	7171.42
513.929	7221.82
514.297	7270.63
514.664	7293
515.032	7302.94
515.4	7407.57
515.767	7490.06
516.135	7427.23
516.502	7446.67
516.869	7677.85
517.237	7656.83
517.604	7669.71
517.972	7780.45
518.339	7805.76
518.706	7828.81
519.073	7871.06
519.44	7953.32
519.808	8038.97
520.175	8057.27
520.542	8131.62
520.909	8233.54
521.276	8235.35
521.643	8262.92
522.009	8357.38
522.376	8386.98
522.743	8508.34
523.11	8573.19
523.477	8572.97
523.843	8693.64
524.21	8716.69
524.577	8829.01
524.943	8902.68
525.31	8947.65
525.676	9022.9
526.043	9068.32
526.409	9156.68
526.776	9204.81
527.142	9276.9
527.508	9280.07
527.874	9346.28
528.241	9428.99
528.607	9481.19
528.973	9536.33
529.339	9573.62
529.705	9682.32
530.071	9739.94
530.437	9813.39
530.803	9851.13
531.169	9961.18
531.535	9881.18
531.901	9987.17
532.267	9973.38
532.632	10106.71
532.998	10154.17
533.364	10206.37
533.73	10128.18
534.095	10226.48
534.461	10363.43
534.826	10354.84
535.192	10436.65
535.557	10466.25
535.923	10572.46
536.288	10552.35
536.653	10619.92
537.019	10612.91
537.384	10594.61
537.749	10660.14
538.114	10698.33
538.479	10743.53
538.845	10828.05
539.21	10860.59
539.575	10917.31
539.94	10900.14
540.305	10926.35
540.67	11005.45
541.034	11079.34
541.399	11118.66
541.764	11054.03
542.129	11143.75
542.494	11162.05
542.858	11242.95
543.223	11293.8
543.587	11326.57
543.952	11342.84
544.316	11368.37
544.681	11483.62
545.045	11425.55
545.41	11536.28
545.774	11588.48
546.138	11596.16
546.503	11628.93
546.867	11629.38
547.231	11763.84
547.595	11782.15
547.959	11813.79
548.324	11797.06
548.688	11857.4
549.052	11963.39
549.416	11880.68
549.779	11966.55
550.143	11995.48
550.507	12107.34
550.871	12144.4
551.235	12149.37
551.599	12209.48
551.962	12237.96
552.326	12275.92
552.689	12357.95
553.053	12337.39
553.417	12395.01
553.78	12498.29
554.143	12426.65
554.507	12543.03
554.87	12663.03
555.234	12713.42
555.597	12669.13
555.96	12693.99
556.323	12812.18
556.686	12823.93
557.05	12942.12
557.413	12968.33
557.776	12955
558.139	13012.17
558.502	13019.18
558.865	13088.33
559.228	13210.81
559.59	13296.91
559.953	13229.12
560.316	13424.36
560.679	13429.11
561.041	13495.78
561.404	13681.31
561.767	13717.46
562.129	13654.19
562.492	13853.51
562.854	13799.27
563.217	13822.32
563.579	13884.01
563.941	13957.01
564.304	14012.6
564.666	14108.41
565.028	14155.64
565.39	14185.25
565.753	14244.23
566.115	14394.73
566.477	14393.15
566.839	14309.31
567.201	14521.06
567.563	14479.48
567.925	14620.04
568.287	14748.85
568.648	14673.37
569.01	14796.08
569.372	14841.05
569.734	14781.17
570.095	14938.68
570.457	15003.08
570.819	15038.79
571.18	15046.92
571.542	15173.7
571.903	15186.13
572.265	15234.49
572.626	15371.21
572.987	15320.13
573.349	15293.69
573.71	15345.44
574.071	15453.24
574.432	15577.98
574.794	15594.25
575.155	15622.5
575.516	15491.65
575.877	15579.56
576.238	15690.52
576.599	15662.05
576.96	15705.21
577.32	15714.93
577.681	15766.68
578.042	15774.36
578.403	15782.49
578.763	15920.12
579.124	15921.25
579.485	15933.9
579.845	16006.44
580.206	15979.78
580.566	15977.07
580.927	15991.3
581.287	16096.38
581.648	15950.85
582.008	16104.29
582.368	16039.89
582.728	16100.23
583.089	16077.18
583.449	16082.83
583.809	16106.1
584.169	16098.87
584.529	16047.57
584.889	16253.22
585.249	16029.49
585.609	16060.91
585.969	16144.74
586.329	16170.73
586.688	16182.03
587.048	16108.14
587.408	16092.77
587.768	16123.05
588.127	16084.86
588.487	16149.49
588.846	16309.03
589.206	16145.65
589.565	16233.33
589.925	16213.44
590.284	16113.11
590.643	16155.37
591.003	16170.51
591.362	16208.02
591.721	16357.62
592.08	16227.91
592.44	16366.21
592.799	16416.15
593.158	16344.74
593.517	16215.48
593.876	16289.37
594.235	16361.46
594.593	16262.26
594.952	16343.61
595.311	16266.1
595.67	16313.1
596.029	16431.52
596.387	16503.38
596.746	16436.04
597.104	16290.96
597.463	16341.58
597.822	16422.93
598.18	16389.26
598.538	16384.96
598.897	16459.31
599.255	16437.62
599.613	16609.14
599.972	16555.58
600.33	16518.97
600.688	16444.62
601.046	16555.36
601.404	16631.29
601.762	16530.5
602.12	16612.98
602.478	16618.63
602.836	16638.29
603.194	16509.48
603.552	16542.25
603.91	16600.55
604.268	16554.68
604.625	16583.6
604.983	16760.32
605.341	16600.78
605.698	16658.18
606.056	16826.08
606.413	16670.83
606.771	16756.03
607.128	16812.75
607.485	16787.44
607.843	16777.95
608.2	16810.49
608.557	16928
608.914	16838.29
609.272	16940.43
609.629	16917.15
609.986	16986.98
610.343	16792.86
610.7	17058.85
611.057	16935.68
611.414	17016.13
611.771	17055.23
612.127	17106.08
612.484	17052.07
612.841	17092.74
613.198	17012.52
613.554	17067.66
613.911	17133.42
614.267	17141.33
614.624	17144.27
614.98	17184.94
615.337	17242.12
615.693	17232.4
616.05	17179.29
616.406	17287.31
616.762	17318.73
617.118	17149.69
617.475	17304.04
617.831	17336.13
618.187	17358.05
618.543	17331.83
618.899	17357.59
619.255	17371.38
619.611	17385.84
619.967	17459.06
620.323	17436.69
620.678	17422
621.034	17374.54
621.39	17408.21
621.746	17435.56
622.101	17473.98
622.457	17464.71
622.812	17483.92
623.168	17555.78
623.523	17429.23
623.879	17559.62
624.234	17374.09
624.589	17566.18
624.945	17568.66
625.3	17486.18
625.655	17397.37
626.01	17488.44
626.365	17538.83
626.72	17509
627.075	17504.94
627.43	17466.97
627.785	17497.7
628.14	17479.63
628.495	17530.02
628.85	17506.07
629.205	17496.57
629.559	17487.99
629.914	17360.98
630.269	17406.63
630.623	17273.75
630.978	17408.44
631.332	17401.44
631.687	17352.17
632.041	17412.96
632.396	17356.46
632.75	17285.05
633.104	17342
633.459	17234.21
633.813	17280.31
634.167	17253.64
634.521	17247.99
634.875	17310.59
635.229	17184.72
635.583	17101.56
635.937	17160.76
636.291	17175.9
636.645	17178.62
636.999	17095.91
637.352	17139.52
637.706	17032.41
638.06	17116.47
638.413	17104.72
638.767	17038.28
639.121	16946.31
639.474	16882.13
639.828	16887.32
640.181	16952.18
640.534	16957.15
640.888	16828.12
641.241	16824.28
641.594	16871.28
641.947	16870.38
642.301	16788.12
642.654	16824.5
643.007	16829.25
643.36	16836.25
643.713	16821.56
644.066	16761.9
644.419	16780.89
644.771	16604.62
645.124	16431.07
645.477	16373.67
645.83	16322.59
646.182	16298.87
646.535	16143.39
646.888	16199.21
647.24	16159.43
647.593	16171.41
647.945	16178.64
648.298	16060.23
648.65	16114.46
649.002	16070.62
649.355	16070.17
649.707	16139.55
650.059	16094.58
650.411	16304.97
650.763	16299.32
651.115	16470.84
651.467	16433.32
651.819	16403.27
652.171	16351.52
652.523	16424.96
652.875	16336.38
653.227	16388.35
653.578	16310.62
653.93	16295.48
654.282	16238.53
654.633	16144.29
654.985	16280.11
655.337	16141.13
655.688	16254.8
656.039	16285.08
656.391	16177.29
656.742	16180.9
657.094	16207.57
657.445	16233.56
657.796	16156.04
658.147	16156.72
658.498	16166.67
658.849	16193.78
659.2	16178.19
659.551	16154.24
659.902	16170.96
660.253	16172.54
660.604	16103.62
660.955	16067.68
661.306	16077.85
661.656	16030.62
662.007	15993.11
662.358	16019.55
662.708	16046.22
663.059	16040.11
663.409	15932.55
663.76	16017.29
664.11	15968.03
664.461	15925.32
664.811	16036.05
665.161	15982.72
665.511	15916.5
665.862	15845.77
666.212	15962.6
666.562	16031.98
666.912	15988.14
667.262	15947.01
667.612	15889.61
667.962	15961.02
668.312	15882.6
668.662	15987.69
669.011	15942.04
669.361	15902.72
669.711	15872.21
670.06	15907.46
670.41	15869.72
670.76	15779.1
671.109	15873.79
671.459	15823.85
671.808	15790.63
672.157	15919.67
672.507	15704.76
672.856	15756.28
673.205	15824.53
673.554	15840.57
673.904	15722.38
674.253	15730.07
674.602	15810.29
674.951	15556.51
675.3	15446.46
675.649	15620.92
675.998	15660.46
676.346	15726.22
676.695	15704.53
677.044	15544.31
677.393	15654.59
677.741	15527.59
678.09	15553.12
678.438	15508.83
678.787	15631.54
679.135	15535.72
679.484	15435.84
679.832	15473.35
680.181	15365.33
680.529	15452.79
680.877	15407.82
681.225	15356.29
681.573	15516.06
681.922	15315.84
682.27	15331.66
682.618	15408.49
682.966	15299.34
683.314	15288.72
683.661	15228.16
684.009	15164.88
684.357	15191.55
684.705	15134.6
685.053	15175.05
685.4	15157.88
685.748	15028.62
686.095	15025.45
686.443	15036.98
686.79	15023.19
687.138	15021.38
687.485	14999.92
687.832	14908.62
688.18	14935.06
688.527	14870.65
688.874	14867.49
689.221	14778
689.568	14765.12
689.915	14750.66
690.262	14772.58
690.609	14603.77
690.956	14702.52
691.303	14648.29
691.65	14568.06
691.997	14550.21
692.344	14443.09
692.69	14450.1
693.037	14489.87
693.383	14248.98
693.73	14372.59
694.077	14290.1
694.423	14293.95
694.769	14225.7
695.116	14243.33
695.462	14175.76
695.808	14072.03
696.155	14160.62
696.501	13979.83
696.847	13964.24
697.193	13906.84
697.539	13907.74
697.885	13830.23
698.231	13824.35
698.577	13783.9
698.923	13809.44
699.269	13737.12
699.614	13763.34
699.96	13637.24
700.306	13628.65
700.651	13658.71
700.997	13630.69
701.342	13563.34
701.688	13547.3
702.033	13541.2
702.379	13516.57
702.724	13411.94
703.069	13528.54
703.415	13285.16
703.76	13250.36
704.105	13306.63
704.45	13265.5
704.795	13258.27
705.14	13189.12
705.485	13200.42
705.83	13108.67
706.175	13069.57
706.52	13100.31
706.865	12997.71
707.209	12987.09
707.554	12975.11
707.899	12976.92
708.243	12884.94
708.588	12934.66
708.932	12846.07
709.277	12804.04
709.621	12825.96
709.966	12753.42
710.31	12734.89
710.654	12659.64
710.998	12628
711.342	12704.16
711.687	12675.46
712.031	12589.36
712.375	12597.49
712.719	12554.33
713.063	12571.05
713.407	12593.2
713.75	12457.38
714.094	12497.16
714.438	12508.46
714.782	12536.93
715.125	12464.39
715.469	12432.75
715.812	12388.91
716.156	12281.12
716.499	12303.72
716.843	12247.9
717.186	12187.11
717.53	12247.9
717.873	12209.03
718.216	12192.76
718.559	12076.83
718.902	12064.4
719.246	12116.38
719.589	12156.38
719.932	12060.78
720.275	12043.61
720.617	12060.11
720.96	11990.96
721.303	11924.52
721.646	11921.35
721.989	11859.43
722.331	11994.35
722.674	11892.88
723.016	11921.35
723.359	11945.76
723.701	11891.52
724.044	11774.01
724.386	11743.05
724.729	11841.13
725.071	11794.8
725.413	11710.96
725.755	11759.1
726.097	11676.84
726.439	11632.32
726.782	11609.27
727.124	11676.61
727.465	11633.23
727.807	11611.08
728.149	11569.95
728.491	11596.84
728.833	11614.02
729.175	11553.23
729.516	11569.95
729.858	11560.68
730.199	11465.09
730.541	11500.35
730.882	11461.25
731.224	11447.92
731.565	11437.07
731.906	11370.41
732.248	11435.49
732.589	11469.61
732.93	11331.76
733.271	11381.71
733.612	11401.82
733.953	11347.13
734.294	11286.34
734.635	11266.46
734.976	11258.55
735.317	11254.48
735.658	11190.3
735.999	11236.17
736.339	11203.18
736.68	11241.82
737.021	11155.27
737.361	11133.8
737.702	11139.68
738.042	11127.48
738.383	11120.24
738.723	11136.06
739.063	11120.24
739.404	11066.01
739.744	11012.45
740.084	10982.39
740.424	11035.95
740.764	10983.75
741.104	11029.85
741.444	10951.66
741.784	10967.48
742.124	10917.54
742.464	10914.6
742.804	10865.56
743.143	10880.02
743.483	10846.13
743.823	10871.44
744.162	10816.52
744.502	10872.57
744.841	10767.03
745.181	10785.34
745.52	10746.24
745.86	10804.32
746.199	10704.89
746.538	10687.71
746.877	10705.79
747.216	10716.87
747.556	10629.41
747.895	10717.32
748.234	10601.61
748.573	10632.57
748.911	10560.94
749.25	10588.73
749.589	10540.6
749.928	10566.13
750.267	10605.23
750.605	10508.73
750.944	10508.51
751.283	10468.51
751.621	10421.73
751.96	10395.52
752.298	10377.66
752.636	10373.15
752.975	10253.6
753.313	10316.88
753.651	10303.99
753.989	10191.23
754.327	10266.93
754.666	10149.2
755.004	10225.8
755.342	10199.82
755.679	10134.96
756.017	10151.23
756.355	10146.26
756.693	10106.26
