Data from black_metal_pc_casing_FLMS001491_00026.txt Node
Date: Wed Feb 08 14:32:15 GMT 2017
User: dcchb
Spectrometer: FLMS00149
Trigger mode: 0
Integration Time (sec): 2.000000E-2
Scans to average: 10
Electric dark correction enabled: true
Nonlinearity correction enabled: false
Boxcar width: 0
XAxis mode: Wavelengths
Number of Pixels in Spectrum: 2048
>>>>>Begin Spectral Data<<<<<
341.393	-10.9
341.776	-10.9
342.16	-10.9
342.543	-60.62
342.927	-45.48
343.31	-57.46
343.693	-86.83
344.077	-66.72
344.46	-68.76
344.843	-42.77
345.226	-28.76
345.61	-49.77
345.993	-13.39
346.376	-0.06
346.759	16.21
347.142	27.29
347.525	37.46
347.908	48.3
348.291	80.85
348.674	92.37
349.057	112.03
349.44	120.39
349.823	124.69
350.206	160.39
350.588	185.48
350.971	198.58
351.354	210.79
351.737	244.23
352.119	236.55
352.502	253.27
352.884	268.19
353.267	275.64
353.65	316.09
354.032	309.31
354.414	306.6
354.797	300.95
355.179	312.03
355.562	319.71
355.944	325.58
356.326	304.79
356.709	333.04
357.091	333.04
357.473	329.65
357.855	330.33
358.238	332.14
358.62	321.07
359.002	324.23
359.384	336.66
359.766	336.66
360.148	322.87
360.53	337.79
360.912	330.1
361.294	329.65
361.676	306.83
362.057	325.58
362.439	331.91
362.821	335.75
363.203	336.21
363.584	307.96
363.966	326.94
364.348	321.29
364.729	315.64
365.111	318.13
365.493	305.02
365.874	302.53
366.256	325.13
366.637	316.09
367.019	299.37
367.4	322.65
367.781	320.61
368.163	322.65
368.544	336.43
368.925	314.51
369.306	329.88
369.688	300.27
370.069	316.77
370.45	315.64
370.831	322.87
371.212	307.96
371.593	331.23
371.974	312.48
372.355	330.78
372.736	324.68
373.117	326.49
373.498	304.12
373.879	334.62
374.26	315.64
374.641	322.19
375.021	314.96
375.402	330.56
375.783	324.45
376.163	336.88
376.544	322.65
376.925	340.73
377.305	313.16
377.686	317.9
378.066	319.71
378.447	334.17
378.827	328.52
379.208	333.72
379.588	326.71
379.968	338.92
380.349	355.41
380.729	340.27
381.109	338.01
381.489	327.39
381.87	345.92
382.25	353.15
382.63	346.83
383.01	361.74
383.39	343.44
383.77	346.38
384.15	354.06
384.53	340.73
384.91	329.43
385.29	368.97
385.67	352.93
386.049	352.48
386.429	353.38
386.809	346.15
387.189	353.83
387.568	368.07
387.948	375.53
388.328	362.65
388.707	345.47
389.087	356.77
389.466	382.08
389.846	382.53
390.225	372.82
390.605	376.88
390.984	397
391.363	380.72
391.743	400.38
392.122	392.48
392.501	395.64
392.881	406.03
393.26	408.97
393.639	394.74
394.018	384.79
394.397	415.53
394.776	412.59
395.155	421.4
395.534	397.9
395.913	402.64
396.292	422.76
396.671	415.75
397.05	409.65
397.429	413.49
397.808	416.43
398.186	427.73
398.565	427.05
398.944	393.61
399.323	425.92
399.701	424.79
400.08	421.85
400.458	437.67
400.837	422.31
401.215	426.6
401.594	436.99
401.972	428.63
402.351	450.33
402.729	451.91
403.107	471.34
403.486	448.52
403.864	426.37
404.242	443.55
404.62	440.38
404.999	456.43
405.377	469.99
405.755	447.39
406.133	438.8
406.511	461.63
406.889	479.7
407.267	477.67
407.645	483.77
408.023	507.73
408.401	502.98
408.779	483.32
409.156	484.45
409.534	491.68
409.912	502.98
410.29	475.64
410.667	503.43
411.045	495.98
411.422	509.76
411.8	513.15
412.178	548.18
412.555	540.95
412.933	536.65
413.31	541.4
413.687	529.65
414.065	544.11
414.442	561.96
414.819	540.04
415.197	552.25
415.574	568.74
415.951	559.25
416.328	565.13
416.705	556.09
417.082	548.86
417.46	574.84
417.837	568.29
418.214	572.13
418.591	568.06
418.967	595.86
419.344	585.69
419.721	606.93
420.098	591.11
420.475	591.11
420.852	594.05
421.228	612.13
421.605	607.61
421.982	624.79
422.358	623.66
422.735	598.35
423.111	632.92
423.488	649.19
423.864	652.81
424.241	636.31
424.617	629.08
424.994	634.73
425.37	657.33
425.746	665.24
426.123	659.59
426.499	657.1
426.875	667.72
427.251	688.51
427.627	692.13
428.003	670.89
428.379	696.42
428.756	704.78
429.132	704.56
429.507	699.13
429.883	705.01
430.259	723.31
430.635	724.44
431.011	731.68
431.387	732.81
431.763	766.48
432.138	749.3
432.514	781.84
432.89	762.86
433.265	771.22
433.641	756.08
434.016	783.88
434.392	795.63
434.767	812.13
435.143	818
435.518	849.86
435.894	840.15
436.269	829.98
436.644	841.96
437.02	854.38
437.395	831.11
437.77	870.66
438.145	857.32
438.52	883.08
438.895	875.63
439.271	873.82
439.646	912.69
440.021	926.25
440.395	914.5
440.77	907.49
441.145	920.82
441.52	929.64
441.895	932.57
442.27	930.99
442.645	941.16
443.019	950.65
443.394	919.69
443.769	955.17
444.143	921.28
444.518	973.03
444.892	973.48
445.267	987.49
445.641	965.79
446.016	977.09
446.39	1004.21
446.764	1003.98
447.139	991.33
447.513	1020.48
447.887	1007.37
448.262	1018
448.636	1008.05
449.01	1019.58
449.384	1029.29
449.758	1040.37
450.132	1071.1
450.506	1055.73
450.88	1046.7
451.254	1099.8
451.628	1048.28
452.002	1097.99
452.376	1094.83
452.75	1115.17
453.123	1091.44
453.497	1142.06
453.871	1127.82
454.244	1148.61
454.618	1167.14
454.992	1159.69
455.365	1174.15
455.739	1176.18
456.112	1201.72
456.486	1182.96
456.859	1227.48
457.232	1250.76
457.606	1265.22
457.979	1265.9
458.352	1264.32
458.725	1281.72
459.099	1313.13
459.472	1337.76
459.845	1321.49
460.218	1365.33
460.591	1364.2
460.964	1375.5
461.337	1370.75
461.71	1405.56
462.083	1427.02
462.456	1414.6
462.829	1437.19
463.201	1426.8
463.574	1452.56
463.947	1473.13
464.32	1504.31
464.692	1509.96
465.065	1523.52
465.438	1539.34
465.81	1544.08
466.183	1576.17
466.555	1597.42
466.928	1611.65
467.3	1609.84
467.672	1640.13
468.045	1662.95
468.417	1679
468.789	1669.05
469.161	1696.62
469.534	1712.67
469.906	1754.02
470.278	1753.34
470.65	1803.06
471.022	1810.29
471.394	1846.67
471.766	1862.72
472.138	1888.71
472.51	1932.55
472.882	1943.62
473.253	1972.77
473.625	1987.69
473.997	2019.33
474.369	2036.05
474.74	2063.17
475.112	2099.78
475.484	2094.8
475.855	2129.61
476.227	2183.84
476.598	2211.18
476.97	2236.95
477.341	2280.11
477.713	2306.32
478.084	2362.14
478.455	2355.59
478.827	2356.72
479.198	2463.16
479.569	2471.29
479.94	2523.04
480.311	2543.61
480.682	2580.89
481.053	2620.21
481.424	2633.32
481.795	2649.14
482.166	2743.83
482.537	2788.8
482.908	2825.41
483.279	2844.84
483.65	2899.98
484.021	2938.4
484.391	2979.07
484.762	3018.62
485.133	2999.19
485.503	3083.48
485.874	3143.36
486.244	3162.12
486.615	3228.11
486.985	3236.02
487.356	3309.24
487.726	3335.22
488.097	3403.92
488.467	3400.76
488.837	3474.2
489.207	3521.43
489.578	3547.87
489.948	3596.01
490.318	3669.9
490.688	3660.64
491.058	3729.34
491.428	3745.83
491.798	3787.64
492.168	3859.05
492.538	3851.82
492.908	3919.84
493.278	3971.36
493.648	3962.1
494.017	4032.61
494.387	4055.43
494.757	4085.94
495.126	4099.95
495.496	4117.8
495.866	4183.11
496.235	4201.41
496.605	4271.92
496.974	4262.43
497.344	4292.49
497.713	4313.05
498.082	4403.9
498.452	4431.92
498.821	4427.4
499.19	4463.78
499.559	4492.25
499.928	4582.2
500.298	4582.2
500.667	4570.22
501.036	4602.31
501.405	4657
501.774	4642.76
502.143	4753.72
502.512	4697.9
502.88	4697.9
503.249	4793.26
503.618	4788.74
503.987	4810.44
504.356	4902.41
504.724	4916.2
505.093	4907.84
505.462	4995.52
505.83	5005.69
506.199	5022.41
506.567	5088.62
506.936	5121.39
507.304	5158.23
507.672	5160.03
508.041	5174.04
508.409	5196.42
508.777	5268.96
509.145	5325
509.514	5328.16
509.882	5385.11
510.25	5425.11
510.618	5456.52
510.986	5412
511.354	5510.31
511.722	5536.3
512.09	5604.54
512.458	5570.87
512.826	5658.78
513.193	5635.95
513.561	5621.26
513.929	5749.17
514.297	5818.1
514.664	5860.81
515.032	5828.26
515.4	5915.27
515.767	5906
516.135	6002.95
516.502	5941.03
516.869	6069.16
517.237	6058.77
517.604	6082.5
517.972	6193
518.339	6196.84
518.706	6242.72
519.073	6217.18
519.44	6330.62
519.808	6384.86
520.175	6376.5
520.542	6400.91
520.909	6478.64
521.276	6499.21
521.643	6562.03
522.009	6620.11
522.376	6646.77
522.743	6637.28
523.11	6785.98
523.477	6840.67
523.843	6863.27
524.21	6945.75
524.577	6997.5
524.943	6978.97
525.31	7103.49
525.676	7139.87
526.043	7164.27
526.409	7145.97
526.776	7289.24
527.142	7327.66
527.508	7327.43
527.874	7386.87
528.241	7396.36
528.607	7520.65
528.973	7505.73
529.339	7498.5
529.705	7592.06
530.071	7704.37
530.437	7747.08
530.803	7734.88
531.169	7794.31
531.535	7768.55
531.901	7813.75
532.267	7876.35
532.632	8018.49
532.998	7978.72
533.364	8015.78
533.73	8019.85
534.095	8114.31
534.461	8182.1
534.826	8196.79
535.192	8281.76
535.557	8272.72
535.923	8272.49
536.288	8361.98
536.653	8369.44
537.019	8384.13
537.384	8462.32
537.749	8390.91
538.114	8439.04
538.479	8478.14
538.845	8488.53
539.21	8549.55
539.575	8524.01
539.94	8594.52
540.305	8693.05
540.67	8657.12
541.034	8689.66
541.399	8734.18
541.764	8758.81
542.129	8789.54
542.494	8825.7
542.858	8802.42
543.223	8854.4
543.587	8977.79
543.952	8910.44
544.316	8972.81
544.681	9020.05
545.045	8966.71
545.41	9074.73
545.774	9091.23
546.138	9114.73
546.503	9149.76
546.867	9167.39
547.231	9234.05
547.595	9211.9
547.959	9220.94
548.324	9229.08
548.688	9253.49
549.052	9314.95
549.416	9342.3
549.779	9342.75
550.143	9420.94
550.507	9482.63
550.871	9507.94
551.235	9559.92
551.599	9608.73
551.962	9646.92
552.326	9639.24
552.689	9703.19
553.053	9557.21
553.417	9700.03
553.78	9866.8
554.143	9780.93
554.507	9839.01
554.87	9877.2
555.234	10049.62
555.597	9891.21
555.96	9975.73
556.323	9981.38
556.686	10021.6
557.05	10100.69
557.413	10107.25
557.776	10152.44
558.139	10237.87
558.502	10257.3
558.865	10274.02
559.228	10349.5
559.59	10320.8
559.953	10420.01
560.316	10453
560.679	10462.72
561.041	10586.33
561.404	10551.08
561.767	10669.27
562.129	10673.34
562.492	10792.88
562.854	10747.01
563.217	10697.97
563.579	10834.01
563.941	10974.34
564.304	10939.99
564.666	10978.19
565.028	11055.92
565.39	11062.25
565.753	11139.09
566.115	11196.94
566.477	11247.33
566.839	11223.38
567.201	11264.51
567.563	11310.83
567.925	11414.11
568.287	11422.69
568.648	11468.34
569.01	11502.69
569.372	11562.35
569.734	11503.14
570.095	11634.44
570.457	11681.22
570.819	11681.67
571.18	11727.09
571.542	11805.06
571.903	11754.44
572.265	11888.9
572.626	11877.82
572.987	11856.81
573.349	11940.42
573.71	12006.18
574.071	12013.41
574.432	12075.56
574.794	12160.98
575.155	12130.25
575.516	12150.13
575.877	12146.74
576.238	12124.14
576.599	12184.48
576.96	12158.95
577.32	12269.68
577.681	12341.09
578.042	12428.54
578.403	12288.66
578.763	12296.8
579.124	12393.06
579.485	12418.83
579.845	12401.2
580.206	12463.12
580.566	12411.14
580.927	12384.25
581.287	12453.18
581.648	12387.64
582.008	12598.03
582.368	12529.56
582.728	12510.8
583.089	12523.46
583.449	12517.81
583.809	12505.83
584.169	12566.84
584.529	12483.01
584.889	12647.07
585.249	12448.2
585.609	12522.55
585.969	12547.86
586.329	12598.26
586.688	12581.99
587.048	12521.65
587.408	12571.59
587.768	12536.79
588.127	12585.6
588.487	12582.44
588.846	12632.38
589.206	12474.42
589.565	12497.47
589.925	12614.98
590.284	12513.74
590.643	12549.22
591.003	12685.94
591.362	12605.04
591.721	12564.81
592.08	12619.5
592.44	12657.46
592.799	12540.18
593.158	12571.82
593.517	12588.99
593.876	12709.21
594.235	12632.15
594.593	12590.35
594.952	12694.52
595.311	12680.06
595.67	12668.76
596.029	12759.38
596.387	12729.78
596.746	12767.07
597.104	12691.81
597.463	12653.85
597.822	12778.36
598.18	12660.63
598.538	12738.59
598.897	12772.72
599.255	12639.39
599.613	12869.66
599.972	12737.46
600.33	12814.75
600.688	12739.95
601.046	12786.5
601.404	12859.27
601.762	12781.3
602.12	12904.46
602.478	12913.73
602.836	12866.05
603.194	12938.59
603.552	12934.29
603.91	12846.61
604.268	12974.29
604.625	12834.41
604.983	12913.95
605.341	12868.98
605.698	12928.64
606.056	12993.27
606.413	12993.5
606.771	12997.57
607.128	12996.44
607.485	12948.98
607.843	13014.97
608.2	13007.74
608.557	13077.79
608.914	13080.73
609.272	13135.42
609.629	13112.37
609.986	13181.29
610.343	13089.77
610.7	13244.79
611.057	13181.97
611.414	13145.81
611.771	13198.92
612.127	13208.41
612.484	13221.06
612.841	13303.77
613.198	13209.77
613.554	13228.52
613.911	13367.73
614.267	13254.74
614.624	13307.62
614.98	13266.26
615.337	13391.68
615.693	13385.81
616.05	13350.78
616.406	13359.37
616.762	13376.31
617.118	13345.13
617.475	13384
617.831	13475.3
618.187	13457.89
618.543	13558.68
618.899	13595.07
619.255	13507.61
619.611	13507.84
619.967	13490.21
620.323	13525.01
620.678	13457.89
621.034	13420.83
621.39	13529.53
621.746	13437.78
622.101	13648.85
622.457	13489.08
622.812	13557.1
623.168	13501.74
623.523	13522.53
623.879	13577.21
624.234	13491.11
624.589	13485.92
624.945	13524.11
625.3	13555.75
625.655	13610.21
626.01	13513.26
626.365	13606.37
626.72	13573.15
627.075	13566.37
627.43	13525.92
627.785	13476.43
628.14	13515.97
628.495	13487.05
628.85	13574.28
629.205	13513.49
629.559	13543.09
629.914	13469.87
630.269	13410.21
630.623	13450.21
630.978	13429.65
631.332	13396.43
631.687	13430.55
632.041	13381.74
632.396	13433.04
632.75	13406.14
633.104	13411.34
633.459	13342.64
633.813	13388.29
634.167	13294.28
634.521	13319.14
634.875	13285.92
635.229	13338.58
635.583	13233.27
635.937	13319.37
636.291	13316.88
636.645	13261.97
636.999	13259.71
637.352	13256.32
637.706	13139.26
638.06	13227.62
638.413	13200.05
638.767	13087.28
639.121	13182.87
639.474	13093.38
639.828	13117.56
640.181	13105.81
640.534	13106.72
640.888	13029.21
641.241	13001.86
641.594	13095.64
641.947	13024.46
642.301	13009.09
642.654	13010.67
643.007	13074.63
643.36	12892.94
643.713	12986.49
644.066	13010.45
644.419	12964.57
644.771	12747.4
645.124	12671.93
645.477	12717.8
645.83	12607.75
646.182	12575.43
646.535	12523.23
646.888	12560.29
647.24	12437.36
647.593	12562.55
647.945	12400.97
648.298	12358.94
648.65	12385.61
649.002	12365.49
649.355	12457.02
649.707	12484.59
650.059	12487.07
650.411	12567.07
650.763	12572.95
651.115	12782.66
651.467	12667.18
651.819	12656.11
652.171	12615.66
652.523	12557.58
652.875	12576.56
653.227	12556.68
653.578	12730.23
653.93	12599.84
654.282	12565.94
654.633	12449.11
654.985	12577.69
655.337	12588.77
655.688	12513.51
656.039	12560.97
656.391	12405.04
656.742	12502.67
657.094	12503.8
657.445	12440.07
657.796	12491.14
658.147	12528.88
658.498	12475.1
658.849	12455.44
659.2	12462.89
659.551	12390.35
659.902	12417.7
660.253	12401.43
660.604	12445.49
660.955	12328.66
661.306	12397.58
661.656	12421.76
662.007	12324.14
662.358	12357.81
662.708	12384.02
663.059	12370.24
663.409	12396.45
663.76	12401.65
664.11	12417.7
664.461	12363.69
664.811	12433.06
665.161	12338.6
665.511	12359.84
665.862	12326.85
666.212	12337.7
666.562	12293.18
666.912	12293.18
667.262	12297.47
667.612	12346.29
667.962	12307.19
668.312	12193.75
668.662	12320.75
669.011	12248.66
669.361	12303.35
669.711	12276
670.06	12266.51
670.41	12210.24
670.76	12215.89
671.109	12283.01
671.459	12219.51
671.808	12167.99
672.157	12287.53
672.507	12171.37
672.856	12170.7
673.205	12183.58
673.554	12206.85
673.904	12206.4
674.253	12216.57
674.602	12191.26
674.951	11920.76
675.3	11989.23
675.649	12200.53
675.998	12130.25
676.346	12102.68
676.695	12117.14
677.044	12071.94
677.393	12068.55
677.741	12125.73
678.09	12063.58
678.438	12062.23
678.787	12078.27
679.135	12029.91
679.484	11973.64
679.832	12027.88
680.181	11897.94
680.529	12003.47
680.877	11867.43
681.225	11931.83
681.573	11971.83
681.922	11875.11
682.27	11824.72
682.618	11824.94
682.966	11868.33
683.314	11851.84
683.661	11810.71
684.009	11757.15
684.357	11669.24
684.705	11733.19
685.053	11694.1
685.4	11692.52
685.748	11618.62
686.095	11662.69
686.443	11599.41
686.79	11546.76
687.138	11626.98
687.485	11657.49
687.832	11505.86
688.18	11545.18
688.527	11506.31
688.874	11512.18
689.221	11407.33
689.568	11438.06
689.915	11351.28
690.262	11404.16
690.609	11342.24
690.956	11238.74
691.303	11230.38
691.65	11219.76
691.997	11295.69
692.344	11196.03
692.69	11148.58
693.037	11124.17
693.383	11005.3
693.73	11160.33
694.077	11055.25
694.423	11111.29
694.769	10978.86
695.116	10985.42
695.462	11013.89
695.808	10972.99
696.155	10978.19
696.501	10855.03
696.847	10838.3
697.193	10780
697.539	10879.43
697.885	10794.46
698.231	10716.27
698.577	10721.24
698.923	10736.84
699.269	10673.34
699.614	10596.5
699.96	10614.58
700.306	10613.45
700.651	10551.98
700.997	10563.51
701.342	10520.12
701.688	10505.88
702.033	10423.17
702.379	10445.32
702.724	10373.46
703.069	10464.75
703.415	10334.36
703.76	10333.46
704.105	10359.9
704.45	10294.59
704.795	10273.57
705.14	10193.8
705.485	10229.51
705.83	10181.14
706.175	10142.73
706.52	10130.75
706.865	9993.13
707.209	10099.79
707.554	10007.82
707.899	10089.17
708.243	10054.82
708.588	10021.15
708.932	9963.52
709.277	9928.04
709.621	9915.61
709.966	9850.08
710.31	9922.17
710.654	9763.08
710.998	9804.88
711.342	9807.6
711.687	9837.65
712.031	9765.34
712.375	9747.94
712.719	9729.86
713.063	9691.21
713.407	9719.91
713.75	9689.41
714.094	9676.07
714.438	9624.78
714.782	9706.58
715.125	9637.88
715.469	9644.44
715.812	9513.37
716.156	9556.75
716.499	9525.79
716.843	9559.01
717.186	9461.84
717.53	9472.46
717.873	9474.27
718.216	9487.15
718.559	9425.91
718.902	9438.34
719.246	9398.34
719.589	9376.87
719.932	9349.08
720.275	9321.28
720.617	9302.52
720.96	9300.72
721.303	9275.63
721.646	9284.22
721.989	9239.47
722.331	9201.28
722.674	9213.71
723.016	9209.64
723.359	9208.29
723.701	9209.64
724.044	9169.87
724.386	9157.89
724.729	9145.69
725.071	9115.41
725.413	9150.89
725.755	9100.95
726.097	9054.85
726.439	9033.83
726.782	8978.24
727.124	9078.57
727.465	8961.52
727.807	8982.76
728.149	8936.21
728.491	8932.36
728.833	8956.32
729.175	8902.31
729.516	8860.28
729.858	8899.14
730.199	8948.63
730.541	8838.36
730.882	8871.57
731.224	8850.11
731.565	8777.34
731.906	8800.16
732.248	8869.31
732.589	8802.88
732.93	8822.31
733.271	8792.25
733.612	8771.01
733.953	8859.15
734.294	8772.59
734.635	8731.01
734.976	8752.48
735.317	8774.63
735.658	8667.06
735.999	8708.87
736.339	8674.52
736.68	8728.53
737.021	8612.15
737.361	8628.87
737.702	8662.77
738.042	8622.54
738.383	8638.13
738.723	8588.87
739.063	8580.73
739.404	8596.1
739.744	8532.15
740.084	8527.18
740.424	8569.44
740.764	8502.32
741.104	8512.71
741.444	8431.81
741.784	8458.48
742.124	8475.65
742.464	8472.72
742.804	8404.24
743.143	8399.27
743.483	8427.74
743.823	8353.17
744.162	8394.53
744.502	8382.32
744.841	8326.28
745.181	8371.7
745.52	8286.96
745.86	8351.81
746.199	8298.48
746.538	8304.36
746.877	8292.83
747.216	8354.53
747.556	8324.24
747.895	8220.52
748.234	8186.62
748.573	8226.39
748.911	8244.25
749.25	8175.32
749.589	8181.65
749.928	8176.45
750.267	8177.58
750.605	8209.67
750.944	8068.43
751.283	8114.76
751.621	8107.3
751.96	8013.29
752.298	8004.25
752.636	8050.81
752.975	8008.09
753.313	7952.28
753.651	8041.99
753.989	7947.76
754.327	7983.46
754.666	7897.81
755.004	7863.47
755.342	7906.4
755.679	7908.89
756.017	7800.87
756.355	7929.23
756.693	7807.42
757.031	7811.49
757.368	7808.33
757.706	7716.12
758.044	7721.55
758.381	7773.52
758.719	7712.06
759.056	7682.45
759.394	7634.77
759.731	7619.63
760.068	7632.51
760.405	7564.49
760.743	7586.41
761.08	7545.06
761.417	7545.06
