Data from black_plastic_tray_FLMS001491_003.txt Node
Date: Tue Feb 07 10:39:09 GMT 2017
User: dcchb
Spectrometer: FLMS00149
Trigger mode: 0
Integration Time (sec): 2.000000E-2
Scans to average: 10
Electric dark correction enabled: true
Nonlinearity correction enabled: false
Boxcar width: 0
XAxis mode: Wavelengths
Number of Pixels in Spectrum: 2048
>>>>>Begin Spectral Data<<<<<
341.393	-4.94
341.776	-4.94
342.16	-4.94
342.543	-42.68
342.927	-58.95
343.31	-51.5
343.693	-61.21
344.077	-55.79
344.46	-61.67
344.843	-66.86
345.226	-35.23
345.61	-26.86
345.993	-18.73
346.376	-27.99
346.759	-12.85
347.142	37.77
347.525	40.93
347.908	73.92
348.291	67.37
348.674	92.23
349.057	106.47
349.44	139.01
349.823	158.67
350.206	162.74
350.588	188.5
350.971	199.35
351.354	224.43
351.737	227.14
352.119	245.67
352.502	245.67
352.884	265.78
353.267	271.66
353.65	287.93
354.032	279.12
354.414	282.51
354.797	303.98
355.179	323.41
355.562	289.96
355.944	306.46
356.326	305.33
356.709	319.57
357.091	304.65
357.473	320.25
357.855	338.1
358.238	345.56
358.62	350.3
359.002	338.55
359.384	346.91
359.766	332.22
360.148	340.81
360.53	315.5
360.912	327.48
361.294	319.57
361.676	357.53
362.057	330.87
362.439	308.27
362.821	327.93
363.203	313.24
363.584	327.03
363.966	324.09
364.348	306.91
364.729	327.93
365.111	319.12
365.493	299.91
365.874	301.26
366.256	322.05
366.637	300.13
367.019	314.14
367.4	313.92
367.781	318.44
368.163	312.56
368.544	303.07
368.925	319.12
369.306	314.6
369.688	317.53
370.069	296.29
370.45	316.86
370.831	290.87
371.212	313.69
371.593	336.06
371.974	286.12
372.355	314.6
372.736	298.1
373.117	328.38
373.498	316.63
373.879	308.72
374.26	292.68
374.641	315.5
375.021	327.25
375.402	321.38
375.783	311.66
376.163	326.8
376.544	320.92
376.925	302.17
377.305	322.28
377.686	330.42
378.066	328.38
378.447	342.17
378.827	342.39
379.208	340.13
379.588	329.06
379.968	322.73
380.349	351.21
380.729	332.9
381.109	320.7
381.489	339.45
381.87	340.36
382.25	330.87
382.63	333.8
383.01	348.95
383.39	316.63
383.77	343.52
384.15	355.73
384.53	349.17
384.91	355.5
385.29	343.75
385.67	342.39
386.049	357.76
386.429	366.8
386.809	370.87
387.189	355.27
387.568	342.39
387.948	355.5
388.328	345.78
388.707	361.6
389.087	370.64
389.466	381.49
389.846	357.31
390.225	395.05
390.605	375.16
390.984	382.84
391.363	374.93
391.743	384.65
392.122	386.91
392.501	387.59
392.881	379.45
393.26	369.28
393.639	388.72
394.018	394.37
394.397	388.04
394.776	389.4
395.155	404.76
395.534	393.69
395.913	401.6
396.292	409.28
396.671	414.25
397.05	416.29
397.429	407.25
397.808	407.02
398.186	415.38
398.565	415.16
398.944	410.19
399.323	443.41
399.701	432.56
400.08	420.13
400.458	415.61
400.837	416.97
401.215	431.66
401.594	425.55
401.972	428.94
402.351	438.66
402.729	435.72
403.107	447.02
403.486	433.69
403.864	429.85
404.242	416.97
404.62	446.34
404.999	430.3
405.377	457.42
405.755	419.45
406.133	454.03
406.511	444.08
406.889	462.84
407.267	480.69
407.645	465.33
408.023	476.85
408.401	454.93
408.779	483.63
409.156	477.3
409.534	496.74
409.912	458.55
410.29	466.46
410.667	510.75
411.045	499.45
411.422	494.25
411.8	520.01
412.178	524.99
412.555	515.72
412.933	536.29
413.31	505.1
413.687	517.08
414.065	532.9
414.442	528.38
414.819	529.73
415.197	534.03
415.574	550.3
415.951	538.09
416.328	544.42
416.705	542.61
417.082	542.84
417.46	562.5
417.837	552.33
418.214	574.02
418.591	589.62
418.967	559.34
419.344	581.71
419.721	597.53
420.098	589.39
420.475	593.46
420.852	577.19
421.228	571.09
421.605	599.11
421.982	625.77
422.358	595.72
422.735	618.77
423.111	603.63
423.488	615.61
423.864	651.76
424.241	630.07
424.617	638.88
424.994	647.92
425.37	645.89
425.746	651.99
426.123	644.08
426.499	660.58
426.875	684.98
427.251	676.17
427.627	672.78
428.003	678.88
428.379	689.73
428.756	686.79
429.132	669.16
429.507	702.38
429.883	687.92
430.259	708.71
430.635	738.99
431.011	738.09
431.387	744.64
431.763	750.07
432.138	761.36
432.514	766.11
432.89	732.21
433.265	740.8
433.641	787.13
434.016	779.44
434.392	794.58
434.767	802.72
435.143	807.46
435.518	797.52
435.894	820.57
436.269	797.3
436.644	813.34
437.02	830.97
437.395	830.74
437.77	854.02
438.145	851.98
438.52	876.84
438.895	855.82
439.271	858.08
439.646	887.24
440.021	885.43
440.395	874.58
440.77	894.47
441.145	879.1
441.52	893.11
441.895	901.7
442.27	920.68
442.645	941.25
443.019	950.06
443.394	943.05
443.769	930.17
444.143	936.5
444.518	978.08
444.892	949.83
445.267	953.9
445.641	916.39
446.016	976.05
446.39	990.74
446.764	965.65
447.139	968.36
447.513	991.19
447.887	958.87
448.262	993.45
448.636	974.01
449.01	1023.05
449.384	1012.21
449.758	1025.76
450.132	1050.17
450.506	1047.91
450.88	1033.22
451.254	1028.02
451.628	1016.5
452.002	1077.51
452.376	1077.29
452.75	1089.27
453.123	1078.42
453.497	1105.08
453.871	1121.35
454.244	1125.2
454.618	1150.28
454.992	1129.26
455.365	1151.86
455.739	1180.34
456.112	1160.45
456.486	1181.92
456.859	1185.76
457.232	1218.75
457.606	1218.08
457.979	1228.92
458.352	1252.65
458.725	1268.02
459.099	1274.12
459.472	1294.68
459.845	1294.01
460.218	1329.94
460.591	1312.31
460.964	1324.06
461.337	1334
461.71	1397.51
462.083	1366.55
462.456	1397.51
462.829	1394.12
463.201	1403.83
463.574	1430.73
463.947	1446.32
464.32	1450.61
464.692	1483.83
465.065	1503.04
465.438	1497.16
465.81	1523.83
466.183	1552.53
466.555	1559.08
466.928	1556.15
467.3	1562.7
467.672	1590.27
468.045	1627.56
468.417	1624.84
468.789	1639.53
469.161	1654.22
469.534	1689.7
469.906	1682.7
470.278	1697.84
470.65	1755.46
471.022	1770.38
471.394	1821
471.766	1783.48
472.138	1830.94
472.51	1852.18
472.882	1898.28
473.253	1895.57
473.625	1928.79
473.997	1975.12
474.369	1976.93
474.74	1996.13
475.112	2013.53
475.484	2068.67
475.855	2083.82
476.227	2109.13
476.598	2135.57
476.97	2147.09
477.341	2198.16
477.713	2239.52
478.084	2252.62
478.455	2328.55
478.827	2364.26
479.198	2388.44
479.569	2403.58
479.94	2419.63
480.311	2446.74
480.682	2483.35
481.053	2538.49
481.424	2605.84
481.795	2608.32
482.166	2689.45
482.537	2687.19
482.908	2733.74
483.279	2792.95
483.65	2821.42
484.021	2873.85
484.391	2903.91
484.762	2927.63
485.133	2971.48
485.503	3003.11
485.874	3061.87
486.244	3070.68
486.615	3147.97
486.985	3163.56
487.356	3215.31
487.726	3237.68
488.097	3273.16
488.467	3295.08
488.837	3356.78
489.207	3407.62
489.578	3451.46
489.948	3481.97
490.318	3488.52
490.688	3526.49
491.058	3604.91
491.428	3612.36
491.798	3694.62
492.168	3717.22
492.538	3746.37
492.908	3791.79
493.278	3869.53
493.648	3843.09
494.017	3884.9
494.387	3922.64
494.757	3912.69
495.126	3968.96
495.496	4043.09
495.866	4008.51
496.235	4074.5
496.605	4081.28
496.974	4140.48
497.344	4145.91
497.713	4214.83
498.082	4229.75
498.452	4244.66
498.821	4318.33
499.19	4336.41
499.559	4320.14
499.928	4381.61
500.298	4424.32
500.667	4441.95
501.036	4458.44
501.405	4488.27
501.774	4501.83
502.143	4547.93
502.512	4583.86
502.88	4620.25
503.249	4603.07
503.618	4638.1
503.987	4747.25
504.356	4646.23
504.724	4704.99
505.093	4757.19
505.462	4787.02
505.83	4786.8
506.199	4869.5
506.567	4901.59
506.936	4934.81
507.304	4981.82
507.672	4963.29
508.041	5008.94
508.409	5037.18
508.777	5081.02
509.145	5126.45
509.514	5085.09
509.882	5188.59
510.25	5154.02
510.618	5208.03
510.986	5206.9
511.354	5307.23
511.722	5339.77
512.09	5445.53
512.458	5394.69
512.826	5460
513.193	5483.5
513.561	5512.2
513.929	5573.44
514.297	5637.85
514.664	5642.82
515.032	5656.83
515.4	5692.53
515.767	5722.36
516.135	5776.83
516.502	5744.96
516.869	5847.11
517.237	5849.59
517.604	5850.04
517.972	5936.37
518.339	5968.01
518.706	5971.62
519.073	6034.22
519.44	6056.14
519.808	6110.15
520.175	6165.06
520.542	6219.53
520.909	6281.67
521.276	6297.04
521.643	6335.45
522.009	6397.37
522.376	6450.93
522.743	6439.41
523.11	6583.36
523.477	6603.47
523.843	6645.05
524.21	6746.97
524.577	6740.42
524.943	6814.54
525.31	6777.03
525.676	6896.12
526.043	6923.24
526.409	6971.82
526.776	7026.96
527.142	7054.31
527.508	7039.62
527.874	7124.81
528.241	7161.42
528.607	7267.18
528.973	7270.8
529.339	7278.25
529.705	7391.92
530.071	7383.11
530.437	7391.02
530.803	7477.12
531.169	7488.64
531.535	7500.85
531.901	7551.24
532.267	7582.43
532.632	7699.49
532.998	7705.81
533.364	7737.23
533.73	7770.67
534.095	7876.43
534.461	7873.04
534.826	7878.69
535.192	7974.73
535.557	8002.3
535.923	7979.93
536.288	8043.88
536.653	8111.91
537.019	8101.28
537.384	8146.71
537.749	8152.36
538.114	8194.62
538.479	8248.85
538.845	8203.2
539.21	8270.55
539.575	8236.87
539.94	8312.8
540.305	8288.17
540.67	8330.66
541.034	8350.77
541.399	8378.57
541.764	8445.91
542.129	8453.14
542.494	8511.89
542.858	8525.68
543.223	8523.65
543.587	8640.93
543.952	8594.38
544.316	8648.16
544.681	8751.44
545.045	8735.17
545.41	8769.06
545.774	8724.77
546.138	8732.91
546.503	8806.8
546.867	8865.78
547.231	8947.82
547.595	8884.31
547.959	8949.4
548.324	8954.6
548.688	8975.16
549.052	9014.25
549.416	9089.28
549.779	9007.48
550.143	9027.14
550.507	9115.04
550.871	9090.86
551.235	9103.29
551.599	9202.05
551.962	9162.05
552.326	9237.75
552.689	9329.05
553.053	9266.23
553.417	9335.38
553.78	9438.2
554.143	9433.23
554.507	9527.01
554.87	9528.14
555.234	9564.97
555.597	9547.35
555.96	9640.23
556.323	9675.03
556.686	9683.16
557.05	9715.93
557.413	9814.23
557.776	9816.72
558.139	9846.55
558.502	9847.68
558.865	9941.01
559.228	9950.05
559.59	10029.14
559.953	10061.23
560.316	10157.95
560.679	10119.76
561.041	10204.96
561.404	10226.43
561.767	10303.49
562.129	10232.98
562.492	10384.61
562.854	10356.59
563.217	10376.25
563.579	10428
563.941	10443.82
564.304	10546.64
564.666	10512.29
565.028	10541.22
565.39	10644.95
565.753	10694.44
566.115	10659.41
566.477	10759.75
566.839	10820.76
567.201	10816.24
567.563	10862.57
567.925	11007.42
568.287	11031.83
568.648	10963.81
569.01	11028.21
569.372	11113.86
569.734	11027.08
570.095	11216.68
570.457	11312.95
570.819	11270.69
571.18	11244.7
571.542	11417.81
571.903	11389.33
572.265	11407.86
572.626	11468.2
572.987	11462.33
573.349	11527.86
573.71	11543.45
574.071	11435.66
574.432	11540.29
574.794	11645.82
575.155	11632.49
575.516	11568.54
575.877	11581.87
576.238	11687.18
576.599	11682.21
576.96	11736.44
577.32	11727.18
577.681	11792.49
578.042	11765.82
578.403	11811.7
578.763	11817.8
579.124	11846.27
579.485	11920.84
579.845	11876.33
580.206	11838.14
580.566	11866.38
580.927	11906.61
581.287	11933.27
581.648	11909.32
582.008	11968.75
582.368	11962.65
582.728	12064.34
583.089	12038.13
583.449	12015.98
583.809	12095.98
584.169	12097.11
584.529	12100.5
584.889	12189.76
585.249	12080.61
585.609	11986.83
585.969	12067.73
586.329	12074.51
586.688	12086.72
587.048	12022.99
587.408	12062.08
587.768	12067.06
588.127	12008.98
588.487	12020.96
588.846	12047.85
589.206	11946.38
589.565	11928.08
589.925	12046.27
590.284	11981.41
590.643	11964.69
591.003	11915.65
591.362	12107.05
591.721	12040.62
592.08	11939.6
592.44	12069.54
592.799	12104.57
593.158	12060.73
593.517	12057.11
593.876	12097.11
594.235	12083.33
594.593	12155.41
594.952	12037.45
595.311	12040.39
595.67	12022.31
596.029	12126.49
596.387	12169.43
596.746	12212.14
597.104	12091.46
597.463	12141.18
597.822	12198.13
598.18	12146.6
598.538	12220.05
598.897	12244
599.255	12144.57
599.613	12346.6
599.972	12273.38
600.33	12306.37
600.688	12202.65
601.046	12248.07
601.404	12345.47
601.762	12261.4
602.12	12369.19
602.478	12349.99
602.836	12383.66
603.194	12234.51
603.552	12359.48
603.91	12295.52
604.268	12331
604.625	12248.52
604.983	12411.45
605.341	12265.47
605.698	12274.28
606.056	12322.19
606.413	12258.69
606.771	12415.07
607.128	12298.91
607.485	12319.03
607.843	12346.14
608.2	12400.83
608.557	12444.9
608.914	12444.22
609.272	12500.94
609.629	12554.05
609.986	12489.42
610.343	12470.89
610.7	12630.2
611.057	12583.43
611.414	12606.93
611.771	12539.13
612.127	12641.5
612.484	12631.56
612.841	12622.97
613.198	12645.8
613.554	12579.81
613.911	12752.24
614.267	12709.52
614.624	12730.09
614.98	12703.88
615.337	12806.92
615.693	12775.74
616.05	12685.8
616.406	12760.82
616.762	12742.97
617.118	12708.85
617.475	12701.62
617.831	12712.69
618.187	12777.09
618.543	12809.63
618.899	12842.85
619.255	12860.48
619.611	12870.2
619.967	12883.76
620.323	12830.43
620.678	12829.97
621.034	12833.59
621.39	12794.27
621.746	12761.95
622.101	12974.38
622.457	12834.49
622.812	12776.87
623.168	12803.76
623.523	12851.89
623.879	12857.32
624.234	12769.64
624.589	12863.42
624.945	12805.34
625.3	12849.63
625.655	12813.02
626.01	12870.42
626.365	12907.03
626.72	12860.48
627.075	12843.98
627.43	12803.08
627.785	12867.94
628.14	12876.07
628.495	12896.64
628.85	12867.26
629.205	12914.72
629.559	12919.46
629.914	12827.71
630.269	12841.95
630.623	12836.98
630.978	12823.19
631.332	12844.44
631.687	12909.29
632.041	12796.98
632.396	12751.33
632.75	12719.02
633.104	12665.23
633.459	12652.8
633.813	12644.44
634.167	12625.91
634.521	12611.9
634.875	12724.67
635.229	12577.1
635.583	12554.27
635.937	12479.47
636.291	12486.71
636.645	12595.86
636.999	12511.34
637.352	12533.94
637.706	12429.98
638.06	12459.14
638.413	12382.98
638.767	12414.84
639.121	12387.05
639.474	12354.28
639.828	12461.4
640.181	12366.03
640.534	12441.51
640.888	12320.16
641.241	12253.49
641.594	12284.68
641.947	12344.34
642.301	12325.58
642.654	12269.54
643.007	12301.4
643.36	12272.7
643.713	12242.87
644.066	12295.98
644.419	12216.88
644.771	12066.15
645.124	12058.47
645.477	12176.21
645.83	11971.24
646.182	11838.14
646.535	11795.42
646.888	11895.31
647.24	11803.11
647.593	11832.26
647.945	11845.14
648.298	11751.36
648.65	11671.13
649.002	11739.61
649.355	11710.23
649.707	11731.7
650.059	11736.67
650.411	11820.73
650.763	11872.48
651.115	12037.45
651.467	11964.69
651.819	11960.17
652.171	11949.09
652.523	11887.85
652.875	11858.25
653.227	11807.4
653.578	11911.35
653.93	11895.76
654.282	11849.66
654.633	11817.34
654.985	11821.19
655.337	11806.27
655.688	11819.6
656.039	11799.49
656.391	11772.83
656.742	11672.49
657.094	11749.1
657.445	11796.1
657.796	11821.19
658.147	11812.15
658.498	11804.46
658.849	11844.24
659.2	11746.61
659.551	11839.49
659.902	11838.36
660.253	11860.28
660.604	11801.3
660.955	11839.72
661.306	11746.84
661.656	11745.48
662.007	11728.08
662.358	11700.74
662.708	11586.39
663.059	11672.26
663.409	11559.72
663.76	11622.55
664.11	11673.17
664.461	11663.45
664.811	11626.39
665.161	11665.71
665.511	11566.5
665.862	11550.01
666.212	11592.04
666.562	11564.24
666.912	11555.66
667.262	11595.2
667.612	11584.58
667.962	11596.11
668.312	11533.74
668.662	11522.66
669.011	11549.78
669.361	11495.77
669.711	11499.61
670.06	11479.27
670.41	11489.67
670.76	11412.61
671.109	11491.03
671.459	11506.39
671.808	11440.41
672.157	11377.36
672.507	11361.09
672.856	11437.92
673.205	11370.12
673.554	11465.72
673.904	11415.1
674.253	11410.12
674.602	11500.29
674.951	11341.88
675.3	11212.16
675.649	11298.71
675.998	11390.69
676.346	11318.83
676.695	11443.8
677.044	11344.14
677.393	11291.71
677.741	11336.45
678.09	11290.58
678.438	11301.88
678.787	11270.47
679.135	11336.91
679.484	11183.46
679.832	11255.78
680.181	11210.13
680.529	11243.57
680.877	11226.63
681.225	11185.72
681.573	11219.17
681.922	11159.51
682.27	11117.02
682.618	11142.11
682.966	11084.26
683.314	11054.43
683.661	11034.54
684.009	11031.83
684.357	11039.96
684.705	11077.93
685.053	11036.35
685.4	10989.57
685.748	10966.52
686.095	10831.83
686.443	10837.94
686.79	10834.55
687.138	10839.29
687.485	10790.7
687.832	10759.07
688.18	10733.98
688.527	10702.12
688.874	10737.6
689.221	10718.16
689.568	10626.19
689.915	10634.55
690.262	10685.4
690.609	10576.47
690.956	10640.2
691.303	10519.75
691.65	10563.14
691.997	10426.19
692.344	10413.54
692.69	10364.28
693.037	10418.74
693.383	10351.39
693.73	10425.06
694.077	10482.46
694.423	10419.87
694.769	10346.42
695.116	10334.67
695.462	10294.22
695.808	10298.74
696.155	10239.98
696.501	10158.41
696.847	10293.77
697.193	10081.8
697.539	10153.66
697.885	10130.84
698.231	10002.25
698.577	10035.92
698.923	10068.92
699.269	9954.12
699.614	9928.35
699.96	9854.46
700.306	9892.88
700.651	9764.74
700.997	9841.58
701.342	9766.1
701.688	9794.35
702.033	9818.53
702.379	9688.59
702.724	9743.73
703.069	9746.89
703.415	9587.12
703.76	9570.85
704.105	9629.15
704.45	9593.67
704.795	9502.38
705.14	9471.42
705.485	9496.73
705.83	9465.32
706.175	9502.6
706.52	9368.6
706.865	9371.08
707.209	9465.77
707.554	9393.23
707.899	9321.37
708.243	9325.66
708.588	9294.7
708.932	9207.92
709.277	9241.37
709.621	9217.64
709.966	9261.71
710.31	9257.86
710.654	9196.17
710.998	9147.36
711.342	9156.85
711.687	9175.38
712.031	9100.81
712.375	9127.02
712.719	9092.44
713.063	9094.48
713.407	9148.49
713.75	9031.43
714.094	9034.37
714.438	9074.59
714.782	9067.36
715.125	8939.91
715.469	8981.71
715.812	8972.22
716.156	8925.22
716.499	8899
716.843	8906.01
717.186	8849.97
717.53	8847.03
717.873	8887.93
718.216	8884.77
718.559	8791.89
718.902	8822.4
719.246	8825.33
719.589	8722.74
719.932	8758.44
720.275	8713.02
720.617	8681.16
720.96	8666.02
721.303	8604.77
721.646	8613.81
721.989	8563.42
722.331	8559.8
722.674	8536.98
723.016	8563.87
723.359	8547.15
723.701	8562.51
724.044	8536.53
724.386	8487.49
724.729	8484.78
725.071	8481.39
725.413	8458.34
725.755	8468.28
726.097	8417.66
726.439	8403.2
726.782	8319.81
727.124	8448.85
727.465	8370.43
727.807	8355.06
728.149	8381.5
728.491	8333.82
728.833	8293.14
729.175	8291.56
729.516	8369.75
729.858	8264.22
730.199	8260.38
730.541	8287.95
730.882	8265.35
731.224	8260.15
731.565	8275.06
731.906	8262.64
732.248	8207.95
732.589	8202.52
732.93	8142.19
733.271	8210.43
733.612	8145.58
733.953	8158.68
734.294	8120.04
734.635	8101.28
734.976	8167.05
735.317	8077.78
735.658	8065.13
735.999	8133.37
736.339	8128.4
736.68	8048.4
737.021	8037.33
737.361	7917.79
737.702	8055.18
738.042	8041.17
738.383	7969.99
738.723	7934.28
739.063	7943.32
739.404	7947.62
739.744	7885.92
740.084	7863.78
740.424	7940.16
740.764	7861.52
741.104	7948.52
741.444	7885.92
741.784	7908.29
742.124	7790.78
742.464	7871.91
742.804	7762.08
743.143	7774.97
743.483	7826.72
743.823	7732.03
744.162	7731.12
744.502	7744.46
744.841	7666.49
745.181	7771.8
745.52	7710.56
745.86	7768.86
746.199	7717.79
746.538	7658.58
746.877	7682.99
747.216	7714.85
747.556	7611.81
747.895	7610.68
748.234	7620.39
748.573	7557.34
748.911	7579.72
749.25	7570.45
749.589	7496.1
749.928	7553.95
750.267	7516.67
750.605	7538.59
750.944	7527.29
751.283	7478.25
751.621	7529.1
751.96	7391.7
752.298	7476.67
752.636	7455.88
752.975	7407.97
753.313	7347.63
753.651	7398.25
753.989	7344.69
754.327	7338.82
754.666	7292.94
755.004	7323.68
755.342	7328.42
755.679	7324.36
756.017	7230.12
756.355	7304.24
756.693	7160.52
757.031	7203
757.368	7179.27
757.706	7136.79
758.044	7159.39
758.381	7163
758.719	7101.99
759.056	7107.86
759.394	7074.42
759.731	7067.41
760.068	7014.76
760.405	7006.17
760.743	6986.51
761.08	7001.88
761.417	6890.47
761.754	6986.96
762.091	6965.04
762.428	6937.25
