Data from black_plastic_tray_FLMS001491_055.txt Node
Date: Tue Feb 07 10:40:09 GMT 2017
User: dcchb
Spectrometer: FLMS00149
Trigger mode: 0
Integration Time (sec): 2.000000E-2
Scans to average: 10
Electric dark correction enabled: true
Nonlinearity correction enabled: false
Boxcar width: 0
XAxis mode: Wavelengths
Number of Pixels in Spectrum: 2048
>>>>>Begin Spectral Data<<<<<
341.393	19.34
341.776	19.34
342.16	19.34
342.543	-53.66
342.927	-59.31
343.31	-63.15
343.693	-58.63
344.077	-77.84
344.46	-52.53
344.843	-48.91
345.226	-50.94
345.61	-28.12
345.993	-13.88
346.376	-1.45
346.759	17.75
347.142	34.02
347.525	60.46
347.908	44.87
348.291	47.81
348.674	91.88
349.057	98.66
349.44	125.55
349.823	155.38
350.206	173.68
350.588	169.16
350.971	211.42
351.354	203.96
351.737	241.02
352.119	253.68
352.502	254.13
352.884	264.75
353.267	269.27
353.65	268.37
354.032	297.52
354.414	275.6
354.797	312.66
355.179	315.83
355.562	314.24
355.944	314.7
356.326	322.83
356.709	325.77
357.091	311.31
357.473	336.84
357.855	321.93
358.238	310.4
358.62	328.71
359.002	329.84
359.384	330.06
359.766	325.54
360.148	317.86
360.53	345.65
360.912	342.72
361.294	348.37
361.676	334.81
362.057	337.97
362.439	321.25
362.821	331.42
363.203	305.2
363.584	321.7
363.966	334.36
364.348	299.1
364.729	312.66
365.111	319.44
365.493	331.19
365.874	326.45
366.256	331.64
366.637	319.21
367.019	319.21
367.4	329.38
367.781	303.62
368.163	330.97
368.544	314.92
368.925	324.41
369.306	344.52
369.688	322.6
370.069	342.72
370.45	315.83
370.831	324.19
371.212	311.76
371.593	319.89
371.974	326.45
372.355	323.51
372.736	333.45
373.117	336.84
373.498	314.24
373.879	325.99
374.26	309.05
374.641	321.02
375.021	298.65
375.402	312.89
375.783	303.4
376.163	336.16
376.544	346.33
376.925	340.01
377.305	323.73
377.686	336.39
378.066	330.06
378.447	327.58
378.827	353.79
379.208	338.42
379.588	339.33
379.968	326.45
380.349	331.42
380.729	347.24
381.109	356.73
381.489	330.06
381.87	347.46
382.25	345.65
382.63	338.42
383.01	359.89
383.39	356.95
383.77	365.54
384.15	354.47
384.53	343.62
384.91	367.12
385.29	354.02
385.67	362.38
386.049	362.6
386.429	368.93
386.809	377.29
387.189	369.16
387.568	396.73
387.948	366.22
388.328	381.81
388.707	379.1
389.087	380
389.466	349.04
389.846	416.39
390.225	389.5
390.605	375.03
390.984	398.53
391.363	414.81
391.743	402.38
392.122	391.98
392.501	400.12
392.881	399.44
393.26	394.02
393.639	393.34
394.018	435.6
394.397	421.81
394.776	419.1
395.155	398.76
395.534	417.52
395.913	421.13
396.292	423.39
396.671	407.8
397.05	429.49
397.429	427.01
397.808	446.9
398.186	431.08
398.565	443.05
398.944	451.41
399.323	454.13
399.701	448.02
400.08	432.88
400.458	443.73
400.837	462.26
401.215	460.91
401.594	467.23
401.972	468.36
402.351	465.65
402.729	456.84
403.107	460.23
403.486	471.75
403.864	463.17
404.242	486.22
404.62	481.7
404.999	496.61
405.377	491.19
405.755	505.88
406.133	499.32
406.511	499.77
406.889	502.49
407.267	494.13
407.645	525.31
408.023	520.79
408.401	535.25
408.779	523.5
409.156	533.67
409.534	531.19
409.912	534.35
410.29	542.71
410.667	574.35
411.045	550.17
411.422	548.81
411.8	558.53
412.178	554.69
412.555	577.51
412.933	567.34
413.31	574.58
413.687	583.61
414.065	588.81
414.442	565.54
414.819	588.59
415.197	608.7
415.574	624.07
415.951	602.37
416.328	610.05
416.705	624.74
417.082	607.12
417.46	620.45
417.837	619.77
418.214	622.48
418.591	662.26
418.967	644.4
419.344	648.7
419.721	661.13
420.098	642.82
420.475	639.21
420.852	681.01
421.228	685.08
421.605	686.21
421.982	678.75
422.358	687.34
422.735	696.61
423.111	688.47
423.488	698.87
423.864	701.35
424.241	733.44
424.617	715.14
424.994	731.63
425.37	698.19
425.746	722.82
426.123	756.72
426.499	753.1
426.875	742.93
427.251	749.71
427.627	774.34
428.003	793.1
428.379	803.95
428.756	801.91
429.132	796.94
429.507	823.38
429.883	797.39
430.259	853.44
430.635	843.49
431.011	819.54
431.387	835.13
431.763	859.54
432.138	886.66
432.514	877.62
432.89	887.79
433.265	910.84
433.641	923.04
434.016	898.18
434.392	930.05
434.767	926.88
435.143	949.03
435.518	929.59
435.894	916.26
436.269	974.56
436.644	981.34
437.02	990.84
437.395	971.63
437.77	993.1
438.145	993.1
438.52	1025.64
438.895	1014.11
439.271	1025.64
439.646	1064.73
440.021	1032.19
440.395	1066.54
440.77	1065.86
441.145	1061.57
441.52	1050.27
441.895	1056.6
442.27	1113.32
442.645	1104.96
443.019	1077.84
443.394	1090.04
443.769	1078.06
444.143	1118.97
444.518	1149.7
444.892	1111.74
445.267	1123.26
445.641	1136.14
446.016	1146.31
446.39	1180.21
446.764	1175.92
447.139	1150.15
447.513	1173.88
447.887	1182.24
448.262	1194.22
448.636	1204.84
449.01	1225.18
449.384	1228.12
449.758	1248
450.132	1247.78
450.506	1241.45
450.88	1251.62
451.254	1272.41
451.628	1255.91
452.002	1293.43
452.376	1304.05
452.75	1300.88
453.123	1318.74
453.497	1317.38
453.871	1351.5
454.244	1354.44
454.618	1370.94
454.992	1362.35
455.365	1424.95
455.739	1426.98
456.112	1452.29
456.486	1457.49
456.859	1467.89
457.232	1474.89
457.606	1480.77
457.979	1494.1
458.352	1540.43
458.725	1509.01
459.099	1526.87
459.472	1576.36
459.845	1589.69
460.218	1589.92
460.591	1606.41
460.964	1614.77
461.337	1641.67
461.71	1662.68
462.083	1680.08
462.456	1698.16
462.829	1687.99
463.201	1729.35
463.574	1739.74
463.947	1757.37
464.32	1798.5
464.692	1806.18
465.065	1807.76
465.438	1854.09
465.81	1824.49
466.183	1849.12
466.555	1918.27
466.928	1931.15
467.3	1972.28
467.672	1976.8
468.045	2007.98
468.417	2026.51
468.789	2047.76
469.161	2053.63
469.534	2069.9
469.906	2133.18
470.278	2163.46
470.65	2133.86
471.022	2193.97
471.394	2186.74
471.766	2215.66
472.138	2250.24
472.51	2264.93
472.882	2344.92
473.253	2366.39
473.625	2396.9
473.997	2440.06
474.369	2458.14
474.74	2482.32
475.112	2545.6
475.484	2586.95
475.855	2600.96
476.227	2621.98
476.598	2717.8
476.97	2694.29
477.341	2778.36
477.713	2803.22
478.084	2769.77
478.455	2887.28
478.827	2897.9
479.198	2983.33
479.569	3006.83
479.94	3068.07
480.311	3083.21
480.682	3110.55
481.053	3176.54
481.424	3266.93
481.795	3272.81
482.166	3332.24
482.537	3402.07
482.908	3430.55
483.279	3485.01
483.65	3563.42
484.021	3593.93
484.391	3666.47
484.762	3654.49
485.133	3760.25
485.503	3762.74
485.874	3822.85
486.244	3864.43
486.615	3929.97
486.985	3983.98
487.356	4085.67
487.726	4092.45
488.097	4151.66
488.467	4198.89
488.837	4296.29
489.207	4325.44
489.578	4355.94
489.948	4389.16
490.318	4454.02
490.688	4466.9
491.058	4505.77
491.428	4575.37
491.798	4664.86
492.168	4702.15
492.538	4734.69
492.908	4807.46
493.278	4889.04
493.648	4860.11
494.017	4921.81
494.387	4952.99
494.757	5039.09
495.126	5038.41
495.496	5120.22
495.866	5136.04
496.235	5172.42
496.605	5253.55
496.974	5267.79
497.344	5338.97
497.713	5311.85
498.082	5410.38
498.452	5418.97
498.821	5457.84
499.19	5470.27
499.559	5569.02
499.928	5549.81
500.298	5599.75
500.667	5619.19
501.036	5632.3
501.405	5710.49
501.774	5730.82
502.143	5846.3
502.512	5801.33
502.88	5847.21
503.249	5831.39
503.618	5945.73
503.987	6025.96
504.356	5978.5
504.724	6056.01
505.093	6084.26
505.462	6110.47
505.83	6152.28
506.199	6152.06
506.567	6280.64
506.936	6298.27
507.304	6332.39
507.672	6369.23
508.041	6376.68
508.409	6433.18
508.777	6518.83
509.145	6542.55
509.514	6552.72
509.882	6653.96
510.25	6614.42
510.618	6699.16
510.986	6696.67
511.354	6832.94
511.722	6822.77
512.09	6976.44
512.458	6940.74
512.826	6982.99
513.193	7047.63
513.561	7052.6
513.929	7119.49
514.297	7211.24
514.664	7204.23
515.032	7286.72
515.4	7356.32
515.767	7335.53
516.135	7413.94
516.502	7301.18
516.869	7513.15
517.237	7551.57
517.604	7552.24
517.972	7652.81
518.339	7695.29
518.706	7703.43
519.073	7798.57
519.44	7843.31
519.808	7917.43
520.175	7973.7
520.542	8030.42
520.909	8079.24
521.276	8116.3
521.643	8234.71
522.009	8248.95
522.376	8317.65
522.743	8352.22
523.11	8452.33
523.477	8505.67
523.843	8491.88
524.21	8592.67
524.577	8651.2
524.943	8703.18
525.31	8777.07
525.676	8852.1
526.043	8962.15
526.409	8990.17
526.776	9135.03
527.142	9103.84
527.508	9131.86
527.874	9184.74
528.241	9281.46
528.607	9306.1
528.973	9355.81
529.339	9375.93
529.705	9518.07
530.071	9641.23
530.437	9573.43
530.803	9629.7
531.169	9751.28
531.535	9766.65
531.901	9743.6
532.267	9803.49
532.632	9888.23
532.998	9952.63
533.364	9966.87
533.73	10014.55
534.095	10092.52
534.461	10149.24
534.826	10135.91
535.192	10146.53
535.557	10265.39
535.923	10279.63
536.288	10306.3
536.653	10320.53
537.019	10353.98
537.384	10412.51
537.749	10440.08
538.114	10584.93
538.479	10534.99
538.845	10584.71
539.21	10630.58
539.575	10646.4
539.94	10719.85
540.305	10707.42
540.67	10810.69
541.034	10740.86
541.399	10869.67
541.764	10852.05
542.129	10926.17
542.494	10924.81
542.858	11017.01
543.223	10984.92
543.587	11088.2
543.952	11068.76
544.316	11087.97
544.681	11198.48
545.045	11270.57
545.41	11250.9
545.774	11250.23
546.138	11333.61
546.503	11302.43
546.867	11428.08
547.231	11485.02
547.595	11526.38
547.959	11560.5
548.324	11515.3
548.688	11545.81
549.052	11627.17
549.416	11699.71
549.779	11625.36
550.143	11625.13
550.507	11818.12
550.871	11848.4
551.235	11881.85
551.599	11906.93
551.962	11954.39
552.326	12031.45
552.689	12081.62
553.053	12016.31
553.417	12069.19
553.78	12206.13
554.143	12177.21
554.507	12232.57
554.87	12303.76
555.234	12493.81
555.597	12393.7
555.96	12422.4
556.323	12487.03
556.686	12458.56
557.05	12607.03
557.413	12626.69
557.776	12639.79
558.139	12704.2
558.502	12768.15
558.865	12808.6
559.228	12946.23
559.59	12901.71
559.953	13054.47
560.316	13121.59
560.679	13091.53
561.041	13117.97
561.404	13189.61
561.767	13300.79
562.129	13307.35
562.492	13444.52
562.854	13407.68
563.217	13492.43
563.579	13562.93
563.941	13612.2
564.304	13639.54
564.666	13714.34
565.028	13741.01
565.39	13839.31
565.753	13922.92
566.115	13974.9
566.477	13965.86
566.839	14065.07
567.201	14163.14
567.563	14104.39
567.925	14263.25
568.287	14165.18
568.648	14331.95
569.01	14294.21
569.372	14463.7
569.734	14476.13
570.095	14576.02
570.457	14683.58
570.819	14652.62
571.18	14676.13
571.542	14766.29
571.903	14732.62
572.265	14800.42
572.626	14761.77
572.987	14851.26
573.349	14841.77
573.71	14927.87
574.071	14898.04
574.432	14979.17
574.794	15086.51
575.155	15127.19
575.516	15039.51
575.877	15152.5
576.238	15248.31
576.599	15181.87
576.96	15180.07
577.32	15265.49
577.681	15211.03
578.042	15366.73
578.403	15489.21
578.763	15418.7
579.124	15529.89
579.485	15472.71
579.845	15510.23
580.206	15484.47
580.566	15399.5
580.927	15469.78
581.287	15497.8
581.648	15430.46
582.008	15629.77
582.368	15571.7
582.728	15496.67
583.089	15527.4
583.449	15575.08
583.809	15586.61
584.169	15539.15
584.529	15520.17
584.889	15781.41
585.249	15558.14
585.609	15495.99
585.969	15582.99
586.329	15523.33
586.688	15591.36
587.048	15565.82
587.408	15594.97
587.768	15606.27
588.127	15592.71
588.487	15546.84
588.846	15701.64
589.206	15437.24
589.565	15565.59
589.925	15618.25
590.284	15658.25
590.643	15642.43
591.003	15711.13
591.362	15726.95
591.721	15651.24
592.08	15631.81
592.44	15788.86
592.799	15724.91
593.158	15725.82
593.517	15682.2
593.876	15757.45
594.235	15752.93
594.593	15729.88
594.952	15779.15
595.311	15684.46
595.67	15739.83
596.029	15786.6
596.387	15755.42
596.746	15785.02
597.104	15759.71
597.463	15645.14
597.822	15801.07
598.18	15780.5
598.538	15676.1
598.897	15821.41
599.255	15670.22
599.613	16020.72
599.972	15884.23
600.33	15924.68
600.688	15767.4
601.046	15902.53
601.404	15996.99
601.762	15787.73
602.12	15990.22
602.478	15957.45
602.836	16023.21
603.194	15949.31
603.552	15896.21
603.91	15924.45
604.268	16058.91
604.625	15974.85
604.983	15982.31
605.341	15959.93
605.698	16042.87
606.056	15994.73
606.413	15997.22
606.771	16054.85
607.128	16072.02
607.485	15999.93
607.843	16057.56
608.2	16130.78
608.557	16208.29
608.914	16106.6
609.272	16211.68
609.629	16333.26
609.986	16181.85
610.343	16133.26
610.7	16235.18
611.057	16229.53
611.414	16226.37
611.771	16238.12
612.127	16291
612.484	16299.81
612.841	16383.88
613.198	16298.46
613.554	16393.59
613.911	16486.25
614.267	16404.89
614.624	16392.69
614.98	16433.59
615.337	16515.85
615.693	16461.16
616.05	16480.15
616.406	16622.51
616.762	16586.13
617.118	16509.98
617.475	16588.39
617.831	16601.95
618.187	16619.58
618.543	16677.65
618.899	16723.53
619.255	16655.96
619.611	16656.64
619.967	16821.38
620.323	16764.66
620.678	16751.1
621.034	16624.55
621.39	16689.18
621.746	16613.25
622.101	16790.87
622.457	16635.17
622.812	16770.08
623.168	16807.14
623.523	16762.85
623.879	16793.81
624.234	16646.92
624.589	16780.93
624.945	16712.46
625.3	16764.66
625.655	16700.7
626.01	16749.74
626.365	16749.29
626.72	16729.63
627.075	16767.82
627.43	16751.55
627.785	16692.8
628.14	16782.28
628.495	16684.89
628.85	16816.18
629.205	16655.96
629.559	16846.69
629.914	16752.68
630.269	16651.21
630.623	16637.88
630.978	16531.22
631.332	16706.81
631.687	16738.44
632.041	16654.83
632.396	16744.55
632.75	16566.92
633.104	16550.88
633.459	16540.94
633.813	16406.25
634.167	16485.57
634.521	16448.96
634.875	16501.84
635.229	16425.01
635.583	16356.53
635.937	16333.26
636.291	16173.04
636.645	16284.9
636.999	16256.2
637.352	16252.36
637.706	16140.04
638.06	16230.43
638.413	16064.34
638.767	16137.1
639.121	16153.83
639.474	15979.14
639.828	16138.23
640.181	16149.08
640.534	16115.18
640.888	16038.58
641.241	15852.59
641.594	15952.48
641.947	16029.76
642.301	15939.82
642.654	15928.52
643.007	15888.07
643.36	15952.93
643.713	15860.95
644.066	15890.1
644.419	15750.9
644.771	15756.32
645.124	15606.72
645.477	15541.19
645.83	15408.08
646.182	15304.13
646.535	15355.43
646.888	15410.12
647.24	15212.61
647.593	15400.17
647.945	15274.98
648.298	15145.04
648.65	15283.12
649.002	15171.25
649.355	15183.46
649.707	15187.75
650.059	15242.21
650.411	15506.16
650.763	15431.36
651.115	15586.16
651.467	15573.28
651.819	15538.48
652.171	15427.52
652.523	15464.81
652.875	15465.94
653.227	15444.69
653.578	15499.61
653.93	15439.95
654.282	15349.33
654.633	15286.28
654.985	15359.95
655.337	15371.02
655.688	15266.17
656.039	15303.91
656.391	15220.07
656.742	15214.42
657.094	15266.17
657.445	15407.18
657.796	15207.41
658.147	15322.66
658.498	15196.56
658.849	15218.71
659.2	15310.23
659.551	15168.09
659.902	15255.32
660.253	15162.21
660.604	15274.53
660.955	15246.28
661.306	15131.93
661.656	15086.96
662.007	15067.75
662.358	15079.5
662.708	15099.84
663.059	15161.76
663.409	15013.74
663.76	15163.57
664.11	15061.43
664.461	15223
664.811	15202.67
665.161	15199.73
665.511	15034.53
665.862	15092.16
666.212	15061.43
666.562	15051.48
666.912	15023.23
667.262	15139.62
667.612	15046.96
667.962	14964.48
668.312	15025.95
668.662	15018.49
669.011	15014.42
669.361	14918.15
669.711	14953.41
670.06	14831.38
670.41	14856.91
670.76	14830.02
671.109	14994.31
671.459	14918.6
671.808	14877.93
672.157	14879.74
672.507	14806.29
672.856	14822.79
673.205	14868.89
673.554	14842
673.904	14825.05
674.253	14845.61
674.602	14829.79
674.951	14524.49
675.3	14475.68
675.649	14765.39
675.998	14719.06
676.346	14699.4
676.695	14842
677.044	14679.74
677.393	14710.25
677.741	14673.19
678.09	14536.92
678.438	14662.79
678.787	14548.67
679.135	14588.44
679.484	14533.98
679.832	14682.9
680.181	14536.47
680.529	14572.85
680.877	14578.73
681.225	14600.42
681.573	14573.3
681.922	14463.7
682.27	14367.21
682.618	14431.84
682.966	14340.32
683.314	14445.17
683.661	14348.9
684.009	14323.82
684.357	14235.01
684.705	14236.59
685.053	14294.89
685.4	14274.78
685.748	14263.71
686.095	14152.52
686.443	14064.62
686.79	14117.27
687.138	14061.68
687.485	14009.7
687.832	13945.52
688.18	13963.15
688.527	13909.14
688.874	13907.33
689.221	13919.76
689.568	13956.14
689.915	13881.8
690.262	13837.5
690.609	13701.01
690.956	13727.45
691.303	13708.92
691.65	13683.16
691.997	13508.92
692.344	13513.22
692.69	13551.86
693.037	13461.02
693.383	13447.46
693.73	13478.64
694.077	13415.37
694.423	13486.78
694.769	13345.76
695.116	13359.1
695.462	13401.36
695.808	13280.23
696.155	13214.47
696.501	13161.14
696.847	13229.61
697.193	13147.8
697.539	13193.68
697.885	13100.35
698.231	13041.82
698.577	12979.9
698.923	13022.84
699.269	12954.59
699.614	12896.74
699.96	12867.59
700.306	12777.87
700.651	12779.45
700.997	12686.57
701.342	12676.4
701.688	12653.35
702.033	12709.4
702.379	12578.78
702.724	12598.89
703.069	12595.95
703.415	12595.5
703.76	12508.27
704.105	12572.23
704.45	12473.92
704.795	12430.31
705.14	12412.46
705.485	12386.69
705.83	12303.76
706.175	12268.73
706.52	12200.71
706.865	12259.24
707.209	12233.93
707.554	12113.93
707.899	12134.95
708.243	12180.37
708.588	12140.6
708.932	12098.11
709.277	12090.66
709.621	12009.98
709.966	11950.55
710.31	11984.67
710.654	11840.72
710.998	11953.26
711.342	11913.26
711.687	11863.54
712.031	11838.46
712.375	11758.69
712.719	11774.96
713.063	11748.52
713.407	11758.01
713.75	11639.6
714.094	11650.22
714.438	11614.51
714.782	11626.94
715.125	11520.28
715.469	11598.01
715.812	11539.48
716.156	11551.01
716.499	11492.93
716.843	11451.8
717.186	11381.97
717.53	11424.69
717.873	11487.96
718.216	11412.93
718.559	11420.84
718.902	11353.05
719.246	11406.15
719.589	11319.15
719.932	11292.03
720.275	11263.56
720.617	11273.95
720.96	11191.02
721.303	11189.21
721.646	11254.75
721.989	11215.43
722.331	11129.33
722.674	11114.64
723.016	11133.62
723.359	11092.49
723.701	11158.25
724.044	11043.23
724.386	11077.8
724.729	10990.12
725.071	10983.34
725.413	10949.9
725.755	10859.28
726.097	10895.89
726.439	10841.2
726.782	10856.79
727.124	10939.05
727.465	10855.43
727.807	10888.65
728.149	10814.76
728.491	10880.52
728.833	10782.89
729.175	10744.48
729.516	10711.26
729.858	10744.93
730.199	10770.01
730.541	10742.9
730.882	10726.4
731.224	10746.29
731.565	10684.59
731.906	10614.31
732.248	10610.02
732.589	10587.19
732.93	10507.42
733.271	10655.44
733.612	10529.79
733.953	10588.1
734.294	10548.32
734.635	10541.09
734.976	10557.36
735.317	10453.41
735.658	10533.18
735.999	10447.99
736.339	10390.81
736.68	10426.75
737.021	10371.15
737.361	10326.64
737.702	10335
738.042	10314.43
738.383	10313.53
738.723	10260.87
739.063	10307.65
739.404	10290.93
739.744	10222.01
740.084	10154.21
740.424	10238.73
740.764	10192.63
741.104	10245.28
741.444	10150.14
741.784	10153.53
742.124	10142.69
742.464	10144.49
742.804	10128.67
743.143	10138.84
743.483	10120.99
743.823	10090.48
744.162	10060.65
744.502	10114.21
744.841	10009.81
745.181	10025.17
745.52	9953.99
745.86	10082.57
746.199	10025.17
746.538	9953.76
746.877	9900.88
747.216	9852.07
747.556	9896.59
747.895	9895.23
748.234	9842.13
748.573	9864.5
748.911	9865.63
749.25	9778.18
749.589	9789.7
749.928	9791.28
750.267	9800.1
750.605	9772.75
750.944	9741.34
751.283	9726.2
751.621	9727.78
751.96	9659.08
752.298	9796.71
752.636	9675.13
752.975	9622.7
753.313	9554.23
753.651	9613.43
753.989	9558.52
754.327	9552.42
754.666	9457.96
755.004	9493.89
755.342	9504.74
755.679	9441.23
756.017	9385.19
756.355	9389.03
756.693	9331.18
757.031	9408.47
757.368	9337.06
757.706	9267.91
