Data from black_plastic_tray_FLMS001491_027.txt Node
Date: Tue Feb 07 10:39:31 GMT 2017
User: dcchb
Spectrometer: FLMS00149
Trigger mode: 0
Integration Time (sec): 2.000000E-2
Scans to average: 10
Electric dark correction enabled: true
Nonlinearity correction enabled: false
Boxcar width: 0
XAxis mode: Wavelengths
Number of Pixels in Spectrum: 2048
>>>>>Begin Spectral Data<<<<<
341.393	-2.68
341.776	-2.68
342.16	-2.68
342.543	-67.54
342.927	-63.92
343.31	-70.48
343.693	-74.55
344.077	-60.76
344.46	-48.56
344.843	-62.12
345.226	-39.74
345.61	-25.73
345.993	-17.82
346.376	-13.08
346.759	8.16
347.142	16.07
347.525	57.88
347.908	59.01
348.291	83.19
348.674	104.88
349.057	83.64
349.44	135.62
349.823	161.61
350.206	160.25
350.588	167.48
350.971	207.48
351.354	232.79
351.737	261.26
352.119	244.09
352.502	234.37
352.884	259.91
353.267	268.95
353.65	259
354.032	288.38
354.414	291.77
354.797	296.74
355.179	304.43
355.562	328.83
355.944	331.54
356.326	317.76
356.709	318.66
357.091	328.83
357.473	338.1
357.855	338.78
358.238	308.72
358.62	336.29
359.002	333.13
359.384	347.14
359.766	348.04
360.148	336.29
360.53	333.35
360.912	336.29
361.294	322.51
361.676	336.97
362.057	316.4
362.439	309.85
362.821	321.38
363.203	307.82
363.584	308.27
363.966	327.93
364.348	300.81
364.729	297.42
365.111	332.22
365.493	315.73
365.874	301.26
366.256	316.4
366.637	314.14
367.019	313.92
367.4	301.49
367.781	294.03
368.163	313.47
368.544	306.23
368.925	313.24
369.306	320.25
369.688	320.47
370.069	330.19
370.45	328.83
370.831	311.66
371.212	324.54
371.593	282.73
371.974	322.73
372.355	301.04
372.736	300.13
373.117	327.48
373.498	318.66
373.879	330.19
374.26	323.18
374.641	330.64
375.021	313.24
375.402	318.44
375.783	316.63
376.163	324.54
376.544	325.22
376.925	300.59
377.305	327.25
377.686	333.35
378.066	328.61
378.447	347.59
378.827	340.58
379.208	343.52
379.588	321.83
379.968	340.13
380.349	348.95
380.729	340.13
381.109	332.22
381.489	330.42
381.87	350.53
382.25	318.66
382.63	317.76
383.01	363.41
383.39	334.03
383.77	350.3
384.15	346.46
384.53	361.37
384.91	360.47
385.29	365.67
385.67	349.17
386.049	363.18
386.429	355.95
386.809	382.62
387.189	371.32
387.568	350.53
387.948	366.35
388.328	374.03
388.707	364.99
389.087	389.62
389.466	387.81
389.846	387.14
390.225	385.78
390.605	393.46
390.984	370.87
391.363	381.04
391.743	398.89
392.122	391.2
392.501	392.79
392.881	397.76
393.26	416.29
393.639	395.5
394.018	385.78
394.397	396.63
394.776	408.15
395.155	410.64
395.534	403.86
395.913	422.39
396.292	399.79
396.671	414.25
397.05	429.62
397.429	389.62
397.808	431.66
398.186	427.81
398.565	428.04
398.944	419
399.323	444.08
399.701	426.68
400.08	412.45
400.458	427.81
400.837	429.62
401.215	455.61
401.594	459.68
401.972	434.14
402.351	452.45
402.729	447.02
403.107	457.64
403.486	470.3
403.864	449.06
404.242	460.58
404.62	461.26
404.999	480.69
405.377	460.81
405.755	483.18
406.133	473.69
406.511	468.49
406.889	491.54
407.267	509.62
407.645	505.55
408.023	479.34
408.401	499.9
408.779	506.91
409.156	516.17
409.534	520.69
409.912	515.27
410.29	501.94
410.667	524.08
411.045	544.42
411.422	536.29
411.8	515.72
412.178	542.39
412.555	565.44
412.933	564.76
413.31	553.91
413.687	548.26
414.065	567.7
414.442	549.62
414.819	574.25
415.197	561.37
415.574	571.31
415.951	569.28
416.328	586.91
416.705	590.75
417.082	587.36
417.46	604.76
417.837	610.86
418.214	586.23
418.591	637.3
418.967	619.67
419.344	630.52
419.721	646.11
420.098	627.81
420.475	610.63
420.852	626
421.228	628.26
421.605	643.63
421.982	658.77
422.358	636.85
422.735	684.3
423.111	683.4
423.488	663.29
423.864	694.93
424.241	698.54
424.617	697.41
424.994	698.09
425.37	694.02
425.746	699.67
426.123	699.67
426.499	727.24
426.875	727.47
427.251	724.53
427.627	733.34
428.003	747.13
428.379	779.89
428.756	762.72
429.132	775.6
429.507	793
429.883	783.06
430.259	783.74
430.635	820.12
431.011	776.73
431.387	802.72
431.763	804.07
432.138	819.89
432.514	818.09
432.89	846.56
433.265	846.33
433.641	852.66
434.016	856.28
434.392	880.01
434.767	896.73
435.143	882.26
435.518	893.34
435.894	888.14
436.269	927.91
436.644	922.94
437.02	948.03
437.395	961.13
437.77	958.42
438.145	938.99
438.52	950.29
438.895	955.71
439.271	967.46
439.646	1022.6
440.021	1002.94
440.395	1004.3
440.77	993.67
441.145	984.64
441.52	1023.28
441.895	1018.76
442.27	1044.52
442.645	1044.52
443.019	1040.45
443.394	1038.65
443.769	1068.47
444.143	1048.81
444.518	1075.48
444.892	1068.02
445.267	1059.89
445.641	1101.47
446.016	1064.41
446.39	1111.19
446.764	1117.96
447.139	1109.38
447.513	1094.46
447.887	1109.38
448.262	1119.09
448.636	1123.16
449.01	1114.8
449.384	1132.65
449.758	1127.91
450.132	1159.32
450.506	1174.69
450.88	1192.99
451.254	1180.79
451.628	1188.02
452.002	1207.45
452.376	1199.54
452.75	1224.85
453.123	1208.81
453.497	1229.37
453.871	1263.72
454.244	1265.76
454.618	1302.59
454.992	1294.46
455.365	1301.69
455.739	1342.14
456.112	1343.04
456.486	1333.78
456.859	1361.8
457.232	1375.13
457.606	1364.29
457.979	1409.26
458.352	1392.99
458.725	1440.22
459.099	1451.52
459.472	1458.07
459.845	1470.27
460.218	1495.81
460.591	1526.77
460.964	1516.37
461.337	1544.17
461.71	1550.95
462.083	1566.31
462.456	1578.97
462.829	1580.78
463.201	1594.79
463.574	1611.74
463.947	1633.43
464.32	1663.26
464.692	1700.55
465.065	1692.19
465.438	1691.51
465.81	1729.7
466.183	1766.54
466.555	1799.75
466.928	1807.21
467.3	1830.04
467.672	1808.57
468.045	1863.03
468.417	1879.53
468.789	1889.47
469.161	1910.26
469.534	1950.94
469.906	1966.53
470.278	1981.9
470.65	1988
471.022	2039.52
471.394	2057.15
471.766	2084.95
472.138	2118.84
472.51	2155.45
472.882	2156.81
473.253	2215.79
473.625	2230.03
473.997	2310.48
474.369	2267.99
474.74	2324.49
475.112	2342.11
475.484	2405.39
475.855	2435.22
476.227	2428.44
476.598	2474.09
476.97	2497.36
477.341	2610.13
477.713	2588.66
478.084	2637.25
478.455	2711.82
478.827	2700.75
479.198	2771.48
479.569	2785.04
479.94	2864.13
480.311	2874.98
480.682	2915.66
481.053	2966.5
481.424	3041.76
481.795	3041.08
482.166	3113.84
482.537	3134.86
482.908	3186.16
483.279	3224.12
483.65	3270.22
484.021	3336.21
484.391	3371.47
484.762	3403.55
485.133	3424.12
485.503	3488.07
485.874	3572.36
486.244	3585.47
486.615	3644.45
486.985	3670.67
487.356	3748.86
487.726	3738.46
488.097	3823.66
488.467	3874.5
488.837	3940.04
489.207	3972.35
489.578	4015.52
489.948	4030.2
490.318	4137.55
490.688	4142.52
491.058	4207.6
491.428	4241.05
491.798	4238.11
492.168	4329.63
492.538	4359.01
492.908	4405.11
493.278	4481.72
493.648	4514.49
494.017	4521.94
494.387	4551.55
494.757	4611.21
495.126	4662.5
495.496	4691.43
495.866	4724.65
496.235	4806.68
496.605	4819.56
496.974	4818.66
497.344	4878.32
497.713	4896.85
498.082	4909.28
498.452	4985.21
498.821	5046
499.19	5033.12
499.559	5091.19
499.928	5118.09
500.298	5180.23
500.667	5206.45
501.036	5204.41
501.405	5269.95
501.774	5250.74
502.143	5296.61
502.512	5314.24
502.88	5386.78
503.249	5432.43
503.618	5492.77
503.987	5472.65
504.356	5508.81
504.724	5523.05
505.093	5603.27
505.462	5572.31
505.83	5630.84
506.199	5676.26
506.567	5730.05
506.936	5798.07
507.304	5860.44
507.672	5857.5
508.041	5873.77
508.409	5977.72
508.777	5935.01
509.145	6010.94
509.514	6055.01
509.882	6061.56
510.25	6114.9
510.618	6147.89
510.986	6111.28
511.354	6217.72
511.722	6320.99
512.09	6398.28
512.458	6304.27
512.826	6344.95
513.193	6409.13
513.561	6436.47
513.929	6510.59
514.297	6542.23
514.664	6589.91
515.032	6674.88
515.4	6725.73
515.767	6703.81
516.135	6736.12
516.502	6739.74
516.869	6830.13
517.237	6882.11
517.604	6904.03
517.972	6975.89
518.339	7059.96
518.706	7024.48
519.073	7014.31
519.44	7098.15
519.808	7199.16
520.175	7146.73
520.542	7356.67
520.909	7345.15
521.276	7365.94
521.643	7470.57
522.009	7492.71
522.376	7532.03
522.743	7623.33
523.11	7689.77
523.477	7797.56
523.843	7807.96
524.21	7911.68
524.577	8014.05
524.943	7952.36
525.31	8011.79
525.676	8015.18
526.043	8153.03
526.409	8177.89
526.776	8244.78
527.142	8254.95
527.508	8340.6
527.874	8368.17
528.241	8503.99
528.607	8436.19
528.973	8590.76
529.339	8581.27
529.705	8683.42
530.071	8758.67
530.437	8772.68
530.803	8806.35
531.169	8880.47
531.535	8896.52
531.901	8947.14
532.267	8969.96
532.632	9072.56
532.998	9094.93
533.364	9132.44
533.73	9136.06
534.095	9260.58
534.461	9249.05
534.826	9354.58
535.192	9313.23
535.557	9356.39
535.923	9341.93
536.288	9453.11
536.653	9465.99
537.019	9471.87
537.384	9492.43
537.749	9586.44
538.114	9656.27
538.479	9663.5
538.845	9700.79
539.21	9670.73
539.575	9706.67
539.94	9726.78
540.305	9872.99
540.67	9771.97
541.034	9933.1
541.399	9927.9
541.764	9910.73
542.129	9969.94
542.494	9989.6
542.858	9974.91
543.223	10030.05
543.587	10077.5
543.952	10043.83
544.316	10127.22
544.681	10082.93
545.045	10185.52
545.41	10236.37
545.774	10279.53
546.138	10255.8
546.503	10370.38
546.867	10326.31
547.231	10449.25
547.595	10460.77
547.959	10473.88
548.324	10521.79
548.688	10533.08
549.052	10614.89
549.416	10585.96
549.779	10573.54
550.143	10615.34
550.507	10649.24
550.871	10753.87
551.235	10743.47
551.599	10872.96
551.962	10856.69
552.326	10858.73
552.689	10989.8
553.053	10952.96
553.417	10991.38
553.78	11137.59
554.143	11148.21
554.507	11092.17
554.87	11074.99
555.234	11305.27
555.597	11267.75
555.96	11277.47
556.323	11319.5
556.686	11372.61
557.05	11461.65
557.413	11479.27
557.776	11509.33
558.139	11554.3
558.502	11547.97
558.865	11654.64
559.228	11644.02
559.59	11773.96
559.953	11771.47
560.316	11910
560.679	11927.85
561.041	11941.18
561.404	11982.09
561.767	12037.45
562.129	12010.33
562.492	12245.36
562.854	12148.41
563.217	12213.04
563.579	12262.3
563.941	12356.54
564.304	12463.43
564.666	12422.07
565.028	12454.84
565.39	12447.16
565.753	12590.43
566.115	12596.53
566.477	12679.24
566.839	12693.93
567.201	12798.34
567.563	12791.78
567.925	12956.07
568.287	12853.02
568.648	12953.81
569.01	12976.86
569.372	13133.24
569.734	13011.21
570.095	13175.95
570.457	13198.78
570.819	13208.27
571.18	13266.12
571.542	13332.56
571.903	13283.75
572.265	13434.03
572.626	13395.38
572.987	13465.89
573.349	13347.7
573.71	13474.93
574.071	13629.95
574.432	13552.21
574.794	13674.02
575.155	13666.11
575.516	13644.19
575.877	13645.09
576.238	13671.76
576.599	13742.04
576.96	13712.44
577.32	13781.59
577.681	13888.7
578.042	13889.83
578.403	13855.26
578.763	13976.38
579.124	14003.28
579.485	13971.86
579.845	14056.38
580.206	13926.44
580.566	13951.98
580.927	13942.03
581.287	14035.59
581.648	13946.55
582.008	14063.61
582.368	14009.6
582.728	14079.66
583.089	14007.12
583.449	14152.42
583.809	13962.37
584.169	14184.51
584.529	14091.41
584.889	14173.44
585.249	14168.02
585.609	13969.83
585.969	14100.9
586.329	14069.49
586.688	14149.49
587.048	14129.6
587.408	14063.61
587.768	14032.88
588.127	14118.3
588.487	14042.37
588.846	14154.01
589.206	14014.58
589.565	13938.87
589.925	14102.48
590.284	13994.69
590.643	14112.65
591.003	14167.57
591.362	14182.93
591.721	14052.99
592.08	14147.45
592.44	14151.75
592.799	14228.13
593.158	14264.51
593.517	14212.31
593.876	14181.35
594.235	14153.55
594.593	14231.97
594.952	14190.84
595.311	14107.45
595.67	14137.74
596.029	14210.5
596.387	14230.84
596.746	14248.92
597.104	14231.07
597.463	14220.45
597.822	14264.29
598.18	14163.95
598.538	14175.47
598.897	14292.31
599.255	14057.96
599.613	14404.4
599.972	14330.95
600.33	14317.17
600.688	14261.35
601.046	14312.65
601.404	14373.66
601.762	14389.71
602.12	14339.99
602.478	14385.19
602.836	14466.31
603.194	14369.59
603.552	14429.48
603.91	14400.55
604.268	14371.4
604.625	14339.31
604.983	14415.47
605.341	14330.27
605.698	14442.81
606.056	14494.56
606.413	14456.6
606.771	14422.93
607.128	14488.69
607.485	14410.04
607.843	14467.44
608.2	14534.34
608.557	14537.05
608.914	14550.61
609.272	14617.27
609.629	14586.09
609.986	14533.43
610.343	14553.77
610.7	14673.09
611.057	14631.96
611.414	14663.82
611.771	14716.03
612.127	14696.82
612.484	14686.65
612.841	14761.9
613.198	14680.09
613.554	14777.72
613.911	14850.03
614.267	14802.35
614.624	14746.53
614.98	14789.47
615.337	14845.06
615.693	14866.08
616.05	14845.97
616.406	14869.02
616.762	14825.63
617.118	14996.7
617.475	14945.62
617.831	14902.46
618.187	14951.5
618.543	14984.04
618.899	15049.8
619.255	15056.81
619.611	14998.28
619.967	14909.01
620.323	15026.98
620.678	14893.65
621.034	14958.96
621.39	14960.54
621.746	14898.39
622.101	15106.07
622.457	14894.78
622.812	14983.82
623.168	15073.53
623.523	14916.7
623.879	15066.52
624.234	14887.09
624.589	14959.63
624.945	15073.08
625.3	14989.46
625.655	15010.48
626.01	15072.4
626.365	15023.14
626.72	14990.14
627.075	14977.04
627.43	14980.43
627.785	14894.55
628.14	14980.2
628.495	15040.08
628.85	15035.57
629.205	15009.58
629.559	14978.17
629.914	14967.32
630.269	14977.71
630.623	14965.28
630.978	14949.01
631.332	14974.55
631.687	15011.38
632.041	14863.37
632.396	14880.31
632.75	14848
633.104	14954.21
633.459	14772.07
633.813	14746.31
634.167	14761.22
634.521	14798.96
634.875	14831.95
635.229	14750.37
635.583	14659.53
635.937	14618.63
636.291	14618.63
636.645	14600.1
636.999	14541.34
637.352	14543.15
637.706	14526.43
638.06	14553.32
638.413	14581.79
638.767	14475.58
639.121	14515.13
639.474	14454.11
639.828	14414.56
640.181	14519.87
640.534	14441.23
640.888	14365.07
641.241	14342.25
641.594	14351.97
641.947	14374.11
642.301	14385.64
642.654	14327.79
643.007	14331.63
643.36	14291.63
643.713	14288.69
644.066	14298.41
644.419	14240.56
644.771	14198.75
645.124	14012.99
645.477	14014.8
645.83	13971.19
646.182	13871.75
646.535	13801.25
646.888	13745.66
647.24	13706.33
647.593	13763.06
647.945	13717.63
648.298	13671.53
648.65	13638.54
649.002	13622.95
649.355	13686
649.707	13566
650.059	13748.59
650.411	13849.61
650.763	13930.74
651.115	13996.27
651.467	13971.19
651.819	13860.91
652.171	13957.4
652.523	13856.16
652.875	13930.06
653.227	13803.96
653.578	13875.37
653.93	13864.97
654.282	13830.17
654.633	13744.53
654.985	13798.76
655.337	13779.1
655.688	13759.89
656.039	13851.64
656.391	13747.01
656.742	13744.75
657.094	13781.13
657.445	13808.93
657.796	13802.38
658.147	13745.88
658.498	13707.92
658.849	13768.48
659.2	13767.58
659.551	13637.64
659.902	13771.64
660.253	13716.73
660.604	13743.62
660.955	13638.99
661.306	13663.4
661.656	13619.78
662.007	13551.99
662.358	13581.14
662.708	13584.76
663.059	13586.79
663.409	13509.05
663.76	13673.57
664.11	13576.39
664.461	13649.39
664.811	13574.59
665.161	13546.11
665.511	13620.91
665.862	13594.93
666.212	13566.23
666.562	13624.75
666.912	13513.57
667.262	13481.26
667.612	13483.29
667.962	13530.52
668.312	13502.05
668.662	13578.43
669.011	13480.58
669.361	13410.98
669.711	13426.57
670.06	13332.33
670.41	13379.56
670.76	13373.01
671.109	13389.51
671.459	13364.2
671.808	13341.82
672.157	13316.74
672.507	13294.37
672.856	13364.42
673.205	13363.07
673.554	13312.9
673.904	13245.78
674.253	13355.61
674.602	13317.42
674.951	13160.59
675.3	12950.87
675.649	13324.88
675.998	13205.33
676.346	13300.92
676.695	13334.37
677.044	13245.78
677.393	13369.85
677.741	13238.78
678.09	13228.61
678.438	13135.05
678.787	13130.98
679.135	13143.41
679.484	13049.4
679.832	13141.15
680.181	13053.24
680.529	13174.15
680.877	13104.77
681.225	12977.54
681.573	13048.72
681.922	12942.96
682.27	13047.14
682.618	12939.8
682.966	12948.84
683.314	12961.04
683.661	12962.63
684.009	12856.64
684.357	12921.5
684.705	12825.45
685.053	12931.67
685.4	12893.7
685.748	12800.37
686.095	12715.17
686.443	12568.74
686.79	12631.56
687.138	12632.01
687.485	12591.79
687.832	12691.22
688.18	12541.39
688.527	12519.47
688.874	12519.47
689.221	12533.94
689.568	12488.97
689.915	12475.41
690.262	12384.56
690.609	12336.65
690.956	12339.14
691.303	12303.43
691.65	12275.64
691.997	12185.47
692.344	12183.66
692.69	12087.17
693.037	12078.35
693.383	12022.76
693.73	12133.27
694.077	12104.34
694.423	12058.47
694.769	12081.74
695.116	12031.12
695.462	11985.02
695.808	11940.51
696.155	11966.04
696.501	11891.02
696.847	11840.62
697.193	11735.31
697.539	11884.01
697.885	11707.29
698.231	11730.57
698.577	11647.18
698.923	11647.63
699.269	11608.99
699.614	11541.65
699.96	11485.15
700.306	11459.84
700.651	11373.06
700.997	11404.25
701.342	11343.23
701.688	11315.89
702.033	11328.77
702.379	11359.5
702.724	11380.75
703.069	11333.52
703.415	11222.78
703.76	11227.08
704.105	11195.89
704.45	11173.75
704.795	11126.97
705.14	11116.12
705.485	11093.3
705.83	10962.45
706.175	11057.14
706.52	10968.55
706.865	10913.87
707.209	10922.23
707.554	10897.82
707.899	10978.95
708.243	10908.44
708.588	10892.62
708.932	10826.64
709.277	10796.13
709.621	10757.49
709.966	10745.28
710.31	10775.79
710.654	10682.69
710.998	10721.55
711.342	10761.1
711.687	10660.09
712.031	10598.62
712.375	10508.23
712.719	10580.09
713.063	10467.78
713.407	10531.05
713.75	10487.44
714.094	10510.26
714.438	10389.81
714.782	10360.89
715.125	10376.25
715.469	10411.73
715.812	10324.73
716.156	10263.71
716.499	10279.31
716.843	10242.47
717.186	10212.87
717.53	10298.29
717.873	10333.54
718.216	10323.82
718.559	10233.88
718.902	10146.2
719.246	10215.58
719.589	10207.9
719.932	10193.21
720.275	10088.12
720.617	10062.14
720.96	10084.28
721.303	10086.77
721.646	10050.16
721.989	10009.26
722.331	9970.61
722.674	10012.87
723.016	9987.56
723.359	9992.31
723.701	9967.45
724.044	9883.38
724.386	9848.58
724.729	9922.93
725.071	9891.07
725.413	9792.31
725.755	9785.99
726.097	9693.78
726.439	9710.06
726.782	9729.49
727.124	9701.92
727.465	9711.19
727.807	9712.54
728.149	9693.78
728.491	9737.4
728.833	9689.04
729.175	9722.71
729.516	9663.73
729.858	9527.24
730.199	9592.54
730.541	9626.67
730.882	9587.35
731.224	9575.37
731.565	9526.56
731.906	9499.21
732.248	9564.07
732.589	9522.26
732.93	9439.78
733.271	9437.75
733.612	9447.01
733.953	9464.41
734.294	9404.3
734.635	9438.2
734.976	9414.92
735.317	9402.72
735.658	9326.56
735.999	9371.31
736.339	9288.15
736.68	9308.03
737.021	9274.59
737.361	9227.58
737.702	9253.8
738.042	9286.34
738.383	9278.2
738.723	9305.77
739.063	9220.58
739.404	9190.07
739.744	9162.5
740.084	9164.08
740.424	9127.92
740.764	9111.65
741.104	9073.69
741.444	9092.67
741.784	9090.18
742.124	9053.8
742.464	9066.46
742.804	9079.11
743.143	9006.57
743.483	9037.98
743.823	8996.85
744.162	9024.2
744.502	8967.25
744.841	8986.23
745.181	9048.15
745.52	8978.55
745.86	9050.86
746.199	9016.97
746.538	8931.77
746.877	8885.44
747.216	8860.59
747.556	8839.8
747.895	8892.9
748.234	8820.14
748.573	8833.02
748.911	8906.23
749.25	8831.89
749.589	8820.36
749.928	8823.07
750.267	8765
750.605	8747.82
750.944	8715.05
751.283	8696.07
751.621	8748.95
751.96	8670.99
752.298	8662.85
752.636	8646.81
752.975	8630.08
753.313	8636.86
753.651	8677.09
753.989	8581.05
754.327	8625.56
754.666	8504.44
755.004	8550.76
755.342	8510.09
755.679	8495.62
756.017	8411.33
756.355	8431.44
756.693	8390.09
757.031	8427.15
757.368	8394.61
757.706	8310.54
758.044	8316.19
758.381	8291.56
758.719	8225.35
759.056	8251.56
759.394	8238.46
