Data from black_plastic_tray_FLMS001491_033.txt Node
Date: Tue Feb 07 10:39:42 GMT 2017
User: dcchb
Spectrometer: FLMS00149
Trigger mode: 0
Integration Time (sec): 2.000000E-2
Scans to average: 10
Electric dark correction enabled: true
Nonlinearity correction enabled: false
Boxcar width: 0
XAxis mode: Wavelengths
Number of Pixels in Spectrum: 2048
>>>>>Begin Spectral Data<<<<<
341.393	-12.5
341.776	-12.5
342.16	-12.5
342.543	-75.32
342.927	-60.18
343.31	-51.59
343.693	-61.09
344.077	-53.85
344.46	-62.67
344.843	-60.41
345.226	-40.52
345.61	-36.68
345.993	-35.1
346.376	-21.09
346.759	14.62
347.142	38.12
347.525	26.6
347.908	59.14
348.291	87.84
348.674	86.71
349.057	109.98
349.44	110.89
349.823	110.66
350.206	160.6
350.588	197.44
350.971	203.99
351.354	221.17
351.737	229.53
352.119	232.24
352.502	256.42
352.884	276.98
353.267	273.82
353.65	265.23
354.032	272.92
354.414	295.74
354.797	305.23
355.179	314.5
355.562	308.4
355.944	317.21
356.326	312.24
356.709	341.39
357.091	322.41
357.473	339.81
357.855	331.9
358.238	354.04
358.62	355.4
359.002	320.37
359.384	335.29
359.766	340.49
360.148	329.19
360.53	324.89
360.912	323.76
361.294	342.75
361.676	350.88
362.057	326.25
362.439	325.12
362.821	324.89
363.203	321.73
363.584	331.9
363.966	308.4
364.348	318.57
364.729	330.09
365.111	340.49
365.493	332.12
365.874	316.98
366.256	312.46
366.637	322.86
367.019	328.51
367.4	295.97
367.781	346.59
368.163	310.66
368.544	326.7
368.925	318.34
369.306	312.01
369.688	317.44
370.069	304.55
370.45	313.59
370.831	291.22
371.212	324.89
371.593	296.19
371.974	337.77
372.355	326.25
372.736	337.77
373.117	338.23
373.498	326.47
373.879	333.71
374.26	315.63
374.641	312.92
375.021	329.86
375.402	328.96
375.783	337.55
376.163	350.2
376.544	363.31
376.925	365.8
377.305	351.11
377.686	350.88
378.066	350.2
378.447	342.07
378.827	336.19
379.208	362.18
379.588	362.63
379.968	334.84
380.349	352.24
380.729	346.81
381.109	383.42
381.489	368.96
381.87	363.76
382.25	373.48
382.63	353.14
383.01	359.47
383.39	377.77
383.77	361.05
384.15	380.48
384.53	369.41
384.91	377.09
385.29	381.84
385.67	377.55
386.049	402.18
386.429	399.01
386.809	401.05
387.189	405.34
387.568	380.48
387.948	399.92
388.328	392.01
388.707	405.12
389.087	401.05
389.466	396.76
389.846	411.9
390.225	418.9
390.605	397.89
390.984	401.05
391.363	436.53
391.743	418.9
392.122	439.69
392.501	434.27
392.881	436.98
393.26	436.98
393.639	431.78
394.018	426.81
394.397	427.94
394.776	436.3
395.155	447.6
395.534	464.32
395.913	443.99
396.292	454.15
396.671	463.19
397.05	462.29
397.429	446.92
397.808	465.45
398.186	476.53
398.565	487.15
398.944	470.43
399.323	488.73
399.701	487.83
400.08	482.18
400.458	476.75
400.837	470.65
401.215	501.39
401.594	490.99
401.972	492.12
402.351	494.38
402.729	493.7
403.107	506.81
403.486	517.66
403.864	504.77
404.242	508.16
404.62	522.85
404.999	512.01
405.377	520.14
405.755	542.06
406.133	539.8
406.511	549.52
406.889	540.25
407.267	539.35
407.645	544.77
408.023	579.35
408.401	552.46
408.779	587.03
409.156	598.56
409.534	575.28
409.912	567.15
410.29	552.23
410.667	577.09
411.045	606.24
411.422	608.27
411.8	621.38
412.178	606.92
412.555	622.51
412.933	625.45
413.31	616.18
413.687	639.46
414.065	635.84
414.442	654.83
414.819	641.49
415.197	656.86
415.574	675.39
415.951	653.02
416.328	670.19
416.705	686.24
417.082	681.95
417.46	700.48
417.837	679.23
418.214	706.58
418.591	698.67
418.967	696.18
419.344	721.72
419.721	728.27
420.098	738.22
420.475	714.49
420.852	747.93
421.228	756.29
421.605	745.22
421.982	771.89
422.358	781.15
422.735	794.48
423.111	774.15
423.488	791.32
423.864	794.48
424.241	799
424.617	789.06
424.994	816.86
425.37	810.53
425.746	823.64
426.123	788.16
426.499	831.55
426.875	857.53
427.251	865.44
427.627	873.58
428.003	870.87
428.379	886.46
428.756	905.44
429.132	898.89
429.507	921.26
429.883	932.56
430.259	947.48
430.635	943.86
431.011	960.58
431.387	960.58
431.763	982.95
432.138	978.66
432.514	988.6
432.89	1014.37
433.265	1035.38
433.641	1017.76
434.016	1016.4
434.392	1026.8
434.767	1054.36
435.143	1066.34
435.518	1066.34
435.894	1061.82
436.269	1086.45
436.644	1101.37
437.02	1104.53
437.395	1115.15
437.77	1139.56
438.145	1152.22
438.52	1164.19
438.895	1177.07
439.271	1147.24
439.646	1196.51
440.021	1204.87
440.395	1168.94
440.77	1216.39
441.145	1207.58
441.52	1219.33
441.895	1229.28
442.27	1233.8
442.645	1214.13
443.019	1259.33
443.394	1233.8
443.769	1246
444.143	1277.64
444.518	1288.03
444.892	1288.94
445.267	1307.01
445.641	1323.74
446.016	1302.49
446.39	1319.67
446.764	1314.7
447.139	1327.58
447.513	1347.01
447.887	1350.4
448.262	1335.94
448.636	1363.28
449.01	1379.1
449.384	1388.14
449.758	1390.63
450.132	1407.8
450.506	1440.57
450.88	1423.17
451.254	1438.99
451.628	1441.93
452.002	1490.06
452.376	1490.06
452.75	1495.26
453.123	1523.73
453.497	1537.29
453.871	1533.22
454.244	1543.62
454.618	1548.59
454.992	1593.79
455.365	1577.74
455.739	1611.64
456.112	1640.79
456.486	1658.19
456.859	1693.22
457.232	1678.08
457.606	1687.12
457.979	1725.99
458.352	1766.66
458.725	1769.6
459.099	1762.82
459.472	1801.24
459.845	1790.39
460.218	1836.94
460.591	1851.41
460.964	1857.28
461.337	1892.76
461.71	1916.72
462.083	1950.84
462.456	1924.62
462.829	1997.84
463.201	2030.84
463.574	1982.25
463.947	2058.18
464.32	2093.66
464.692	2092.76
465.065	2118.74
465.438	2134.11
465.81	2189.93
466.183	2170.27
466.555	2229.7
466.928	2222.24
467.3	2237.16
467.672	2272.86
468.045	2331.85
468.417	2311.06
468.789	2349.92
469.161	2398.74
469.534	2431.5
469.906	2456.36
470.278	2466.53
470.65	2492.97
471.022	2528.22
471.394	2599.41
471.766	2596.47
472.138	2613.65
472.51	2698.84
472.882	2726.19
473.253	2768.44
473.625	2768.22
473.997	2880.08
474.369	2864.26
474.74	2904.26
475.112	2939.51
475.484	3003.92
475.855	3021.77
476.227	3018.61
476.598	3127.98
476.97	3166.85
477.341	3225.38
477.713	3280.3
478.084	3289.79
478.455	3373.63
478.827	3412.5
479.198	3478.03
479.569	3518.71
479.94	3574.3
480.311	3601.42
480.682	3695.88
481.053	3713.05
481.424	3811.81
481.795	3855.65
482.166	3899.04
482.537	3996.89
482.908	4055.64
483.279	4044.57
483.65	4149.65
484.021	4194.4
484.391	4249.08
484.762	4343.32
485.133	4338.12
485.503	4461.28
485.874	4519.36
486.244	4544.67
486.615	4639.58
486.985	4706.7
487.356	4759.58
487.726	4768.84
488.097	4904.89
488.467	4908.05
488.837	4975.39
489.207	5026.92
489.578	5105.33
489.948	5194.82
490.318	5252.67
490.688	5259
491.058	5371.54
491.428	5393.01
491.798	5422.84
492.168	5590.97
492.538	5574.92
492.908	5661.25
493.278	5683.17
493.648	5703.73
494.017	5795.48
494.387	5862.6
494.757	5933.78
495.126	6010.62
495.496	6002.03
495.866	5999.09
496.235	6058.98
496.605	6198.64
496.974	6229.6
497.344	6211.52
497.713	6271.85
498.082	6335.13
498.452	6355.02
498.821	6409.48
499.19	6396.82
499.559	6502.36
499.928	6515.92
500.298	6600.89
500.667	6679.08
501.036	6674.56
501.405	6683.37
501.774	6755.23
502.143	6754.33
502.512	6862.8
502.88	6872.74
503.249	6907.09
503.618	6987.77
503.987	7011.72
504.356	7093.3
504.724	7096.01
505.093	7100.53
505.462	7178.5
505.83	7173.3
506.199	7274.31
506.567	7428.43
506.936	7350.7
507.304	7460.07
507.672	7485.16
508.041	7564.02
508.409	7592.95
508.777	7640.18
509.145	7710.69
509.514	7728.54
509.882	7812.61
510.25	7752.04
510.618	7843.11
510.986	7850.8
511.354	7976.89
511.722	8084.24
512.09	8137.57
512.458	8116.1
512.826	8323.78
513.193	8207.62
513.561	8261.86
513.929	8361.97
514.297	8397
514.664	8454.17
515.032	8552.92
515.4	8606.48
515.767	8592.7
516.135	8686.93
516.502	8676.09
516.869	8821.62
517.237	8881.05
517.604	8818.45
517.972	8955.63
518.339	9036.53
518.706	8989.98
519.073	9148.62
519.44	9173.02
519.808	9287.82
520.175	9293.7
520.542	9421.83
520.909	9486.91
521.276	9542.05
521.643	9590.19
522.009	9670.64
522.376	9762.61
522.743	9830.18
523.11	9922.38
523.477	10032.66
523.843	10026.33
524.21	10121.25
524.577	10203.73
524.943	10223.84
525.31	10329.15
525.676	10408.92
526.043	10479.2
526.409	10542.25
526.776	10614.34
527.142	10686.88
527.508	10733.88
527.874	10830.15
528.241	10866.76
528.607	10965.97
528.973	11021.11
529.339	11039.64
529.705	11130.94
530.071	11213.19
530.437	11299.29
530.803	11396.47
531.169	11392.4
531.535	11431.95
531.901	11479.63
532.267	11542.9
532.632	11633.07
532.998	11688.44
533.364	11744.03
533.73	11762.56
534.095	11792.84
534.461	11922.33
534.826	11940.41
535.192	12039.39
535.557	12123.68
535.923	12106.28
536.288	12196.9
536.653	12224.24
537.019	12230.57
537.384	12307.85
537.749	12398.02
538.114	12382.65
538.479	12465.59
538.845	12459.71
539.21	12449.32
539.575	12557.79
539.94	12586.94
540.305	12624.91
540.67	12574.74
541.034	12744.23
541.399	12704
541.764	12859.25
542.129	12936.31
542.494	12923.88
542.858	12910.78
543.223	12943.32
543.587	12972.24
543.952	12964.79
544.316	13099.7
544.681	12997.55
545.045	13171.33
545.41	13250.65
545.774	13178.79
546.138	13197.32
546.503	13342.18
546.867	13312.12
547.231	13449.97
547.595	13569.52
547.959	13510.08
548.324	13493.81
548.688	13508.27
549.052	13594.83
549.416	13610.19
549.779	13682.28
550.143	13705.56
550.507	13887.02
550.871	13855.16
551.235	13902.84
551.599	14063.51
551.962	14052.44
552.326	14076.17
552.689	14201.82
553.053	14124.98
553.417	14161.14
553.78	14388.03
554.143	14396.39
554.507	14366.56
554.87	14465.76
555.234	14524.07
555.597	14505.54
555.96	14625.76
556.323	14685.87
556.686	14658.98
557.05	14758.86
557.413	14848.35
557.776	14762.71
558.139	14968.8
558.502	15050.38
558.865	15047.67
559.228	15149.36
559.59	15280.43
559.953	15304.39
560.316	15434.55
560.679	15322.24
561.041	15457.6
561.404	15486.3
561.767	15644.49
562.129	15532.18
562.492	15803.81
562.854	15726.3
563.217	15786.63
563.579	15896.01
563.941	15924.26
564.304	15986.18
564.666	16084.03
565.028	16095.78
565.39	16209.22
565.753	16251.71
566.115	16357.01
566.477	16416.9
566.839	16434.3
567.201	16543.22
567.563	16618.93
567.925	16749.55
568.287	16695.76
568.648	16720.85
569.01	16806.95
569.372	16932.82
569.734	16866.15
570.095	17045.13
570.457	17049.88
570.819	17115.64
571.18	17206.03
571.542	17262.53
571.903	17300.04
572.265	17379.36
572.626	17502.97
572.987	17487.83
573.349	17470.66
573.71	17571.22
574.071	17619.58
574.432	17662.29
574.794	17737.54
575.155	17823.42
575.516	17662.97
575.877	17733.7
576.238	17855.28
576.599	17779.35
576.96	17922.85
577.32	17915.39
577.681	18044.2
578.042	18117.65
578.403	18143.41
578.763	18109.51
579.124	18209.85
579.485	18235.38
579.845	18245.55
580.206	18173.46
580.566	18139.79
580.927	18210.07
581.287	18220.69
581.648	18256.85
582.008	18256.62
582.368	18226.57
582.728	18278.54
583.089	18262.27
583.449	18237.19
583.809	18296.4
584.169	18247.13
584.529	18278.77
584.889	18468.14
585.249	18240.58
585.609	18311.09
585.969	18311.99
586.329	18271.54
586.688	18307.24
587.048	18326.91
587.408	18290.07
587.768	18307.92
588.127	18310.86
588.487	18276.51
588.846	18453.68
589.206	18190.19
589.565	18313.8
589.925	18310.63
590.284	18166.91
590.643	18330.07
591.003	18402.61
591.362	18384.08
591.721	18369.16
592.08	18253.46
592.44	18420.01
592.799	18399.67
593.158	18359.67
593.517	18399.45
593.876	18406.23
594.235	18467.24
594.593	18458.2
594.952	18450.74
595.311	18346.79
595.67	18432.89
596.029	18546.79
596.387	18573.23
596.746	18587.92
597.104	18514.02
597.463	18461.82
597.822	18496.62
598.18	18293.23
598.538	18372.1
598.897	18570.74
599.255	18441.48
599.613	18597.86
599.972	18542.49
600.33	18650.29
600.688	18643.96
601.046	18627.91
601.404	18730.74
601.762	18718.08
602.12	18759.44
602.478	18760.34
602.836	18800.79
603.194	18725.31
603.552	18755.37
603.91	18662.49
604.268	18709.72
604.625	18643.28
604.983	18728.48
605.341	18591.98
605.698	18742.71
606.056	18770.96
606.413	18842.82
606.771	18749.49
607.128	18787.46
607.485	18770.06
607.843	18822.94
608.2	18912.65
608.557	18985.42
608.914	18887.79
609.272	18964.18
609.629	18955.14
609.986	19057.73
610.343	18934.57
610.7	19131.86
611.057	19137.96
611.414	19118.75
611.771	19160.78
612.127	19173.66
612.484	19163.49
612.841	19245.3
613.198	19097.28
613.554	19253.43
613.911	19290.04
614.267	19296.82
614.624	19219.09
614.98	19302.92
615.337	19311.74
615.693	19269.48
616.05	19316.71
616.406	19495.01
616.762	19305.18
617.118	19384.5
617.475	19330.27
617.831	19419.31
618.187	19496.37
618.543	19498.85
618.899	19601.67
619.255	19589.92
619.611	19519.64
619.967	19558.06
620.323	19784.04
620.678	19517.83
621.034	19507.44
621.39	19464.5
621.746	19478.97
622.101	19675.8
622.457	19470.38
622.812	19616.59
623.168	19720.77
623.523	19655.01
623.879	19646.87
624.234	19422.7
624.589	19569.81
624.945	19674.21
625.3	19582.24
625.655	19624.72
626.01	19619.3
626.365	19696.81
626.72	19628.34
627.075	19621.33
627.43	19573.43
627.785	19485.52
628.14	19571.84
628.495	19563.03
628.85	19593.76
629.205	19409.36
629.559	19605.06
629.914	19376.6
630.269	19470.38
630.623	19414.11
630.978	19339.99
631.332	19557.38
631.687	19529.59
632.041	19467.89
632.396	19534.33
632.75	19411.4
633.104	19444.62
633.459	19265.41
633.813	19337.73
634.167	19339.53
634.521	19257.95
634.875	19318.29
635.229	19307.67
635.583	19139.09
635.937	19098.18
636.291	19185.19
636.645	19123.95
636.999	19060.22
637.352	19075.36
637.706	18922.82
638.06	19003.05
638.413	19074.68
638.767	19065.42
639.121	19037.17
639.474	18941.8
639.828	18878.76
640.181	18875.14
640.534	18896.61
640.888	18761.02
641.241	18704.75
641.594	18724.63
641.947	18781.81
642.301	18672.43
642.654	18645.54
643.007	18650.74
643.36	18582.27
643.713	18629.72
644.066	18668.14
644.419	18548.59
644.771	18462.04
645.124	18309.28
645.477	18314.7
645.83	18122.39
646.182	18088.49
646.535	17933.47
646.888	17993.58
647.24	17919.23
647.593	17967.59
647.945	17849.86
648.298	17664.78
648.65	17766.24
649.002	17731.67
649.355	17767.15
649.707	17816.64
650.059	17893.24
650.411	18029.06
650.763	18135.27
651.115	18204.2
651.467	18227.92
651.819	18247.13
652.171	18168.04
652.523	18121.26
652.875	18160.58
653.227	17975.05
653.578	18245.78
653.93	18098.89
654.282	18029.29
654.633	17952.68
654.985	17980.02
655.337	18036.52
655.688	18020.02
656.039	17975.28
656.391	17766.24
656.742	17829.07
657.094	17788.84
657.445	17922.62
657.796	17948.84
658.147	17994.94
658.498	17860.02
658.849	17879.91
659.2	17851.44
659.551	17884.2
659.902	17948.16
660.253	17796.75
660.604	17839.01
660.955	17746.13
661.306	17858.44
661.656	17699.8
662.007	17672.01
662.358	17676.75
662.708	17695.96
663.059	17734.38
663.409	17546.36
663.76	17795.62
664.11	17661.16
664.461	17710.2
664.811	17695.28
665.161	17676.07
665.511	17660.26
665.862	17587.94
666.212	17679.01
666.562	17542.52
666.912	17537.55
667.262	17451.67
667.612	17573.93
667.962	17538.68
668.312	17434.73
668.662	17413.93
669.011	17434.5
669.361	17329.42
669.711	17368.74
670.06	17384.11
670.41	17381.62
670.76	17330.77
671.109	17382.52
671.459	17250.55
671.808	17399.92
672.157	17335.52
672.507	17209.65
672.856	17201.96
673.205	17242.87
673.554	17234.28
673.904	17218.91
674.253	17387.49
674.602	17249.65
674.951	17005.36
675.3	16885.36
675.649	17200.38
675.998	17192.25
676.346	17214.62
676.695	17282.19
677.044	17206.48
677.393	17136.88
677.741	17104.56
678.09	17052.14
678.438	16961.52
678.787	17128.07
679.135	17083.55
679.484	16969.65
679.832	17078.12
680.181	16918.81
680.529	17001.29
680.877	16975.08
681.225	16907.06
681.573	16974.85
681.922	16782.99
682.27	16770.79
682.618	16719.04
682.966	16791.13
683.314	16878.81
683.661	16656.21
684.009	16602.43
684.357	16697.12
684.705	16601.07
685.053	16667.74
685.4	16593.17
685.748	16565.37
686.095	16510.91
686.443	16404.24
686.79	16266.62
687.138	16385.26
687.485	16331.25
687.832	16371.48
688.18	16326.51
688.527	16244.7
688.874	16171.48
689.221	16170.35
689.568	16151.6
689.915	16184.81
690.262	16104.59
690.609	16048.09
690.956	15947.31
691.303	15989.79
691.65	15870.25
691.997	15927.87
692.344	15827.99
692.69	15714.32
693.037	15747.09
693.383	15625.96
693.73	15665.28
694.077	15667.54
694.423	15669.35
694.769	15558.62
695.116	15514.1
695.462	15428.45
695.808	15404.95
696.155	15425.06
696.501	15293.99
696.847	15355.91
697.193	15200.66
697.539	15293.54
697.885	15178.29
698.231	15081.34
698.577	15077.95
698.923	15099.42
699.269	15063.49
699.614	15003.6
699.96	14912.31
700.306	14958.41
700.651	14792.99
700.997	14815.13
701.342	14728.13
701.688	14742.37
702.033	14632.99
702.379	14695.81
702.724	14690.16
703.069	14716.6
703.415	14504.63
703.76	14602.71
704.105	14452.43
704.45	14480
704.795	14508.93
705.14	14405.65
705.485	14256.96
705.83	14270.97
706.175	14199.1
706.52	14219.22
706.865	14169.5
707.209	14245.43
707.554	14158.88
707.899	14124.76
708.243	14064.87
708.588	14078.88
708.932	13964.31
709.277	13939.68
709.621	14018.77
709.966	13943.52
710.31	13911.43
710.654	13795.95
710.998	13882.73
711.342	13873.91
711.687	13802.5
712.031	13723.41
712.375	13626.24
712.719	13679.57
713.063	13587.37
713.407	13591.44
713.75	13557.76
714.094	13596.86
714.438	13438.22
714.782	13490.2
715.125	13341.95
715.469	13403.64
715.812	13358.67
716.156	13181.28
716.499	13282.52
716.843	13291.11
717.186	13236.42
717.53	13246.81
717.873	13302.18
718.216	13230.54
718.559	13209.07
718.902	13089.98
719.246	13108.29
719.589	13158.91
719.932	13051.11
720.275	13127.04
720.617	13064.67
720.96	13001.4
721.303	13010.66
721.646	12934.05
721.989	12871.68
722.331	12951.45
722.674	12953.94
723.016	12877.33
723.359	12857.67
723.701	12845.24
724.044	12903.77
724.386	12724.11
724.729	12823.32
725.071	12789.42
725.413	12651.35
725.755	12641.18
726.097	12615.19
726.439	12584.46
726.782	12571.8
727.124	12599.6
727.465	12555.76
727.807	12589.43
728.149	12494.06
728.491	12575.19
728.833	12593.04
729.175	12374.52
729.516	12479.83
729.858	12482.99
730.199	12442.77
730.541	12405.48
730.882	12439.83
731.224	12288.42
731.565	12220.17
731.906	12339.49
732.248	12355.31
732.589	12229.44
732.93	12253.84
733.271	12198.25
733.612	12203.9
733.953	12223.11
734.294	12130.23
734.635	12160.06
734.976	12188.08
735.317	12170.68
735.658	12170.46
735.999	12115.09
736.339	12021.99
736.68	12196.22
737.021	11994.87
737.361	11959.84
737.702	12036
738.042	11896.11
738.383	12017.24
738.723	11999.61
739.063	11820.86
739.404	11937.02
739.744	11821.31
740.084	11786.74
740.424	11796.68
740.764	11738.38
741.104	11815.21
741.444	11766.63
741.784	11740.64
742.124	11783.35
742.464	11722.56
742.804	11667.87
743.143	11644.14
743.483	11631.71
743.823	11595.33
744.162	11671.26
744.502	11634.65
744.841	11628.1
745.181	11654.76
745.52	11567.99
745.86	11580.87
746.199	11504.26
746.538	11535.9
746.877	11477.59
747.216	11498.84
747.556	11365.05
747.895	11407.54
748.234	11332.96
748.573	11336.81
748.911	11378.16
749.25	11408.67
749.589	11308.56
749.928	11302.23
750.267	11253.19
750.605	11259.52
750.944	11235.11
751.283	11188.79
751.621	11189.92
751.96	11150.37
752.298	11136.36
752.636	11148.56
752.975	11059.98
753.313	10961.45
753.651	11005.06
753.989	11082.35
754.327	10971.39
754.666	10963.93
755.004	10991.5
755.342	10962.58
755.679	10900.66
756.017	10805.52
