Data from black_plastic_tray_FLMS001491_085.txt Node
Date: Tue Feb 07 10:40:52 GMT 2017
User: dcchb
Spectrometer: FLMS00149
Trigger mode: 0
Integration Time (sec): 2.000000E-2
Scans to average: 10
Electric dark correction enabled: true
Nonlinearity correction enabled: false
Boxcar width: 0
XAxis mode: Wavelengths
Number of Pixels in Spectrum: 2048
>>>>>Begin Spectral Data<<<<<
341.393	6.3
341.776	6.3
342.16	6.3
342.543	-44.32
342.927	-73.92
343.31	-65.34
343.693	-63.76
344.077	-57.2
344.46	-73.7
344.843	-58.78
345.226	-33.25
345.61	-29.41
345.993	-18.56
346.376	6.98
346.759	4.72
347.142	16.69
347.525	29.58
347.908	49.46
348.291	77.71
348.674	93.98
349.057	120.87
349.44	126.52
349.823	139.18
350.206	162
350.588	184.6
350.971	197.93
351.354	196.58
351.737	212.62
352.119	229.57
352.502	249.91
352.884	265.05
353.267	245.84
353.65	303.24
354.032	288.33
354.414	297.82
354.797	310.02
355.179	294.43
355.562	332.17
355.944	319.96
356.326	341.66
356.709	314.09
357.091	328.78
357.473	334.43
357.855	312.28
358.238	310.02
358.62	329.91
359.002	345.05
359.384	332.62
359.766	319.74
360.148	332.62
360.53	337.59
360.912	322.22
361.294	314.99
361.676	321.77
362.057	324.03
362.439	315.22
362.821	326.29
363.203	321.77
363.584	321.55
363.966	303.24
364.348	324.03
364.729	301.21
365.111	301.88
365.493	327.42
365.874	307.31
366.256	311.38
366.637	311.6
367.019	298.27
367.4	299.4
367.781	313.18
368.163	299.85
368.544	303.92
368.925	306.4
369.306	323.35
369.688	316.35
370.069	289.23
370.45	313.64
370.831	311.6
371.212	325.39
371.593	315.9
371.974	317.7
372.355	284.71
372.736	310.47
373.117	309.57
373.498	316.8
373.879	314.31
374.26	307.99
374.641	324.93
375.021	300.53
375.402	322.22
375.783	318.38
376.163	322.45
376.544	336.91
376.925	343.01
377.305	311.38
377.686	313.18
378.066	302.11
378.447	344.37
378.827	339.62
379.208	323.81
379.588	327.19
379.968	323.58
380.349	328.32
380.729	343.92
381.109	354.31
381.489	349.79
381.87	347.53
382.25	352.28
382.63	346.86
383.01	359.74
383.39	344.6
383.77	340.53
384.15	351.37
384.53	364.03
384.91	360.41
385.29	355.89
385.67	378.49
386.049	360.87
386.429	370.36
386.809	390.92
387.189	367.19
387.568	366.97
387.948	349.79
388.328	370.36
388.707	364.71
389.087	374.65
389.466	383.24
389.846	381.2
390.225	381.43
390.605	361.32
390.984	353.63
391.363	394.99
391.743	380.53
392.122	403.12
392.501	407.87
392.881	387.31
393.26	395.89
393.639	421.2
394.018	394.09
394.397	404.03
394.776	405.38
395.155	429.56
395.534	413.97
395.913	412.84
396.292	403.12
396.671	422.56
397.05	413.07
397.429	415.78
397.808	417.36
398.186	423.24
398.565	421.66
398.944	415.55
399.323	439.73
399.701	423.46
400.08	425.5
400.458	448.55
400.837	427.31
401.215	440.64
401.594	423.46
401.972	439.96
402.351	456
402.729	426.63
403.107	449.68
403.486	454.42
403.864	463.69
404.242	451.26
404.62	469.79
404.999	461.43
405.377	459.39
405.755	460.98
406.133	485.16
406.511	490.13
406.889	511.14
407.267	506.17
407.645	505.5
408.023	495.78
408.401	488.09
408.779	489.68
409.156	488.77
409.534	505.04
409.912	504.14
410.29	512.05
410.667	538.26
411.045	532.84
411.422	524.93
411.8	545.72
412.178	525.16
412.555	546.62
412.933	546.85
413.31	573.06
413.687	557.7
414.065	537.13
414.442	576.45
414.819	559.05
415.197	556.79
415.574	571.93
415.951	567.64
416.328	587.53
416.705	561.76
417.082	587.98
417.46	602.22
417.837	616.68
418.214	631.37
418.591	610.8
418.967	622.55
419.344	614.87
419.721	603.12
420.098	601.31
420.475	615.55
420.852	630.46
421.228	650.58
421.605	643.12
421.982	655.55
422.358	641.08
422.735	645.6
423.111	660.75
423.488	673.17
423.864	670.24
424.241	651.71
424.617	669.33
424.994	678.6
425.37	696.45
425.746	704.81
426.123	699.39
426.499	694.64
426.875	709.56
427.251	714.08
427.627	711.59
428.003	722.21
428.379	719.95
428.756	719.27
429.132	738.71
429.507	744.36
429.883	757.92
430.259	770.35
430.635	796.33
431.011	792.95
431.387	768.99
431.763	811.7
432.138	785.26
432.514	813.51
432.89	828.65
433.265	798.82
433.641	848.76
434.016	834.53
434.392	865.94
434.767	880.4
435.143	863.9
435.518	865.26
435.894	870.68
436.269	865.94
436.644	881.76
437.02	903
437.395	910.46
437.77	903.45
438.145	933.05
438.52	929.21
438.895	924.24
439.271	951.13
439.646	973.05
440.021	965.82
440.395	978.93
440.77	967.4
441.145	985.03
441.52	989.32
441.895	1003.79
442.27	1005.6
442.645	1009.89
443.019	1012.83
443.394	1014.63
443.769	1043.33
444.143	1011.7
444.518	1014.41
444.892	1036.1
445.267	1034.75
445.641	1039.27
446.016	1033.16
446.39	1084.91
446.764	1070.9
447.139	1091.02
447.513	1103.67
447.887	1087.85
448.262	1069.32
448.636	1090.79
449.01	1099.83
449.384	1117.46
449.758	1119.04
450.132	1103.45
450.506	1148.64
450.88	1140.51
451.254	1126.27
451.628	1152.03
452.002	1195.87
452.376	1184.35
452.75	1168.08
453.123	1169.66
453.497	1193.61
453.871	1224.8
454.244	1252.59
454.618	1241.52
454.992	1273.61
455.365	1251.01
455.739	1283.33
456.112	1297.79
456.486	1329.2
456.859	1311.35
457.232	1349.77
457.606	1350.22
457.979	1362.42
458.352	1410.1
458.725	1393.38
459.099	1388.18
459.472	1420.27
459.845	1441.06
460.218	1458.69
460.591	1447.84
460.964	1453.27
461.337	1483.32
461.71	1521.51
462.083	1516.54
462.456	1526.03
462.829	1520.84
463.201	1534.85
463.574	1578.01
463.947	1599.25
464.32	1647.16
464.692	1635.63
465.065	1639.7
465.438	1675.41
465.81	1695.97
466.183	1697.1
466.555	1752.47
466.928	1726.71
467.3	1737.33
467.672	1768.74
468.045	1814.39
468.417	1791.11
468.789	1811.45
469.161	1882.41
469.534	1870.43
469.906	1883.76
470.278	1909.07
470.65	1946.36
471.022	1977.55
471.394	1982.97
471.766	2038.79
472.138	2059.8
472.51	2091.89
472.882	2078.79
473.253	2114.04
473.625	2182.29
473.997	2162.4
474.369	2204.66
474.74	2227.48
475.112	2294.15
475.484	2316.3
475.855	2320.36
476.227	2373.24
476.598	2431.55
476.97	2428.61
477.341	2481.49
477.713	2542.96
478.084	2492.56
478.455	2591.99
478.827	2633.57
479.198	2698.43
479.569	2674.03
479.94	2712.89
480.311	2781.82
480.682	2872.66
481.053	2893.23
481.424	2916.51
481.795	2984.75
482.166	2975.71
482.537	3039.67
482.908	3076.95
483.279	3135.03
483.65	3174.13
484.021	3218.19
484.391	3275.37
484.762	3294.35
485.133	3304.52
485.503	3384.52
485.874	3463.61
486.244	3484.85
486.615	3528.69
486.985	3573.89
487.356	3637.62
487.726	3633.55
488.097	3723.94
488.467	3736.14
488.837	3801.68
489.207	3839.87
489.578	3941.56
489.948	3924.84
490.318	4033.54
490.688	4008.68
491.058	4044.16
491.428	4115.34
491.798	4119.41
492.168	4206.19
492.538	4269.01
492.908	4347.88
493.278	4359.18
493.648	4301.55
494.017	4392.4
494.387	4433.75
494.757	4461.32
495.126	4496.12
495.496	4535.45
495.866	4587.42
496.235	4600.53
496.605	4682.79
496.974	4689.57
497.344	4739.96
497.713	4729.11
498.082	4768.43
498.452	4839.84
498.821	4845.27
499.19	4894.76
499.559	4975.21
499.928	5008.2
500.298	5010.69
500.667	5067.41
501.036	5088.88
501.405	5104.24
501.774	5127.97
502.143	5183.79
502.512	5233.28
502.88	5231.25
503.249	5248.87
503.618	5293.84
503.987	5328.19
504.356	5329.1
504.724	5391.47
505.093	5365.25
505.462	5435.54
505.83	5460.39
506.199	5496.55
506.567	5549.2
506.936	5599.82
507.304	5647.05
507.672	5636.21
508.041	5701.74
508.409	5749.2
508.777	5733.15
509.145	5785.36
509.514	5824.45
509.882	5901.29
510.25	5884.56
510.618	5997.78
510.986	5993.26
511.354	6002.07
511.722	6075.74
512.09	6220.15
512.458	6198
512.826	6228.96
513.193	6218.57
513.561	6263.08
513.929	6329.97
514.297	6389.63
514.664	6381.95
515.032	6405
515.4	6495.17
515.767	6552.34
516.135	6579.01
516.502	6614.49
516.869	6695.61
517.237	6685.9
517.604	6690.19
517.972	6802.05
518.339	6814.93
518.706	6920.69
519.073	6892.67
519.44	6958.88
519.808	7013.35
520.175	7068.26
520.542	7155.72
520.909	7184.87
521.276	7246.56
521.643	7334.47
522.009	7338.76
522.376	7345.54
522.743	7432.09
523.11	7482.71
523.477	7585.08
523.843	7639.09
524.21	7740.33
524.577	7736.27
524.943	7794.57
525.31	7770.84
525.676	7932.19
526.043	7958.41
526.409	7989.59
526.776	8086.09
527.142	8080.44
527.508	8160.44
527.874	8238.85
528.241	8257.61
528.607	8331.73
528.973	8416.25
529.339	8376.93
529.705	8428.45
530.071	8569.92
530.437	8608.56
530.803	8629.8
531.169	8680.65
531.535	8654.21
531.901	8763.58
532.267	8773.53
532.632	8838.84
532.998	8892.39
533.364	8977.14
533.73	8923.35
534.095	8994.31
534.461	9062.78
534.826	9123.57
535.192	9161.31
535.557	9257.58
535.923	9214.19
536.288	9253.06
536.653	9286.51
537.019	9290.35
537.384	9343.45
537.749	9371.02
538.114	9442.44
538.479	9475.65
538.845	9488.31
539.21	9516.11
539.575	9545.94
539.94	9578.02
540.305	9687.63
540.67	9601.75
541.034	9614.18
541.399	9762.65
541.764	9710.45
542.129	9793.84
542.494	9755.42
542.858	9904.8
543.223	9849.88
543.587	9906.15
543.952	9885.14
544.316	9910.67
544.681	9941.41
545.045	9984.57
545.41	10038.58
545.774	10051.23
546.138	10041.97
546.503	10160.83
546.867	10147.73
547.231	10237.89
547.595	10213.71
547.959	10310.44
548.324	10265.69
548.688	10403.09
549.052	10345.91
549.416	10398.34
549.779	10397.21
550.143	10409.87
550.507	10503.2
550.871	10529.41
551.235	10622.52
551.599	10664.78
551.962	10596.98
552.326	10685.11
552.689	10720.59
553.053	10754.49
553.417	10792
553.78	10976.41
554.143	10918.55
554.507	10931.89
554.87	11039.91
555.234	11177.3
555.597	11062.73
555.96	11140.02
556.323	11211.2
556.686	11294.14
557.05	11310.63
557.413	11315.15
557.776	11340.69
558.139	11394.7
558.502	11451.87
558.865	11432.21
559.228	11620.68
559.59	11553.34
559.953	11674.92
560.316	11787.01
560.679	11740.91
561.041	11889.6
561.404	11840.34
561.767	11973.44
562.129	11881.24
562.492	12118.3
562.854	12153.55
563.217	12108.35
563.579	12219.09
563.941	12224.96
564.304	12228.35
564.666	12318.29
565.028	12377.73
565.39	12369.82
565.753	12452.53
566.115	12480.1
566.477	12587.44
566.839	12583.82
567.201	12622.01
567.563	12644.84
567.925	12766.64
568.287	12763.93
568.648	12772.97
569.01	12865.17
569.372	12978.16
569.734	12943.13
570.095	13109.46
570.457	13124.15
570.819	13050.7
571.18	13103.13
571.542	13118.72
571.903	13214.54
572.265	13306.51
572.626	13335.44
572.987	13342.9
573.349	13406.62
573.71	13488.43
574.071	13452.95
574.432	13470.13
574.794	13643.68
575.155	13571.59
575.516	13461.31
575.877	13587.19
576.238	13623.57
576.599	13676.67
576.96	13691.82
577.32	13610.46
577.681	13770.68
578.042	13761.64
578.403	13819.72
578.763	13798.48
579.124	13840.96
579.485	13925.03
579.845	13921.19
580.206	13870.34
580.566	13868.76
580.927	13886.16
581.287	13881.41
581.648	13959.15
582.008	13946.05
582.368	13992.15
582.728	14014.74
583.089	13934.29
583.449	13954.18
583.809	13938.14
584.169	13989.21
584.529	14055.42
584.889	14106.95
585.249	14019.49
585.609	13953.96
585.969	13993.95
586.329	14056.1
586.688	14120.05
587.048	14017
587.408	13907.4
587.768	13973.16
588.127	14001.86
588.487	13985.37
588.846	14101.97
589.206	13928.42
589.565	13953.5
589.925	14071.69
590.284	13996.89
590.643	14044.8
591.003	14127.96
591.362	14147.85
591.721	14026.04
592.08	14072.14
592.44	14100.39
592.799	14079.83
593.158	14082.31
593.517	14093.39
593.876	14094.06
594.235	14055.2
594.593	14146.27
594.952	14220.16
595.311	14193.5
595.67	14235.53
596.029	14289.09
596.387	14205.93
596.746	14320.05
597.104	14111.01
597.463	14215.42
597.822	14198.92
598.18	14097
598.538	14113.95
598.897	14229.43
599.255	14165.02
599.613	14406.15
599.972	14240.28
600.33	14208.86
600.688	14192.59
601.046	14239.37
601.404	14340.16
601.762	14372.7
602.12	14434.85
602.478	14398.69
602.836	14454.73
603.194	14358.46
603.552	14380.84
603.91	14374.51
604.268	14384.9
604.625	14363.89
604.983	14449.76
605.341	14402.3
605.698	14521.17
606.056	14372.02
606.413	14450.44
606.771	14531.79
607.128	14505.58
607.485	14449.08
607.843	14507.16
608.2	14574.96
608.557	14647.95
608.914	14604.79
609.272	14601.4
609.629	14623.99
609.986	14559.81
610.343	14637.55
610.7	14747.38
611.057	14703.31
611.414	14685.01
611.771	14768.62
612.127	14796.19
612.484	14789.87
612.841	14822.41
613.198	14846.81
613.554	14750.32
613.911	14916.64
614.267	14905.57
614.624	14853.14
614.98	14764.56
615.337	14892.69
615.693	14846.36
616.05	14771.79
616.406	14986.24
616.762	14868.28
617.118	14869.41
617.475	14917.55
617.831	14958
618.187	14946.47
618.543	15007.03
618.899	15014.49
619.255	15000.71
619.611	15003.42
619.967	15152.79
620.323	15162.96
620.678	15078.45
621.034	14944.21
621.39	14968.39
621.746	14972.46
622.101	15103.76
622.457	14979.69
622.812	15076.41
623.168	15005.45
623.523	15087.03
623.879	15092.46
624.234	15063.53
624.589	15071.44
624.945	15133.59
625.3	15089.74
625.655	15099.91
626.01	15074.6
626.365	15000.71
626.72	15035.06
627.075	14975.85
627.43	14987.15
627.785	14908.51
628.14	15012.46
628.495	15015.62
628.85	14969.75
629.205	14926.36
629.559	14995.96
629.914	14992.12
630.269	14959.58
630.623	14936.53
630.978	14896.98
631.332	14978.33
631.687	15000.48
632.041	14915.06
632.396	14957.54
632.75	14942.4
633.104	14869.19
633.459	14732.69
633.813	14809.75
634.167	14786.02
634.521	14852.69
634.875	14830.99
635.229	14823.54
635.583	14728.62
635.937	14656.31
636.291	14659.93
636.645	14685.01
636.999	14608.18
637.352	14738.79
637.706	14638.46
638.06	14627.16
638.413	14557.1
638.767	14605.01
639.121	14571.11
639.474	14441.4
639.828	14477.33
640.181	14516.65
640.534	14505.13
640.888	14394.4
641.241	14426.03
641.594	14392.14
641.947	14491.34
642.301	14321.18
642.654	14388.29
643.007	14418.12
643.36	14422.42
643.713	14402.53
644.066	14365.7
644.419	14281.86
644.771	14146.72
645.124	14097
645.477	14056.1
645.83	13923.22
646.182	13908.76
646.535	13868.99
646.888	13858.14
647.24	13731.14
647.593	13821.3
647.945	13771.59
648.298	13711.7
648.65	13650.46
649.002	13701.08
649.355	13705.83
649.707	13705.15
650.059	13754.64
650.411	13941.53
650.763	13962.09
651.115	14099.04
651.467	13975.42
651.819	14032.6
652.171	14044.35
652.523	13963.9
652.875	14014.29
653.227	13902.21
653.578	14008.87
653.93	13951.92
654.282	13931.36
654.633	13856.78
654.985	13800.29
655.337	13964.58
655.688	13900.85
656.039	13939.04
656.391	13804.81
656.742	13863.56
657.094	13878.93
657.445	13872.6
657.796	13814.52
658.147	13880.96
658.498	13848.42
658.849	13848.65
659.2	13731.14
659.551	13802.09
659.902	13811.13
660.253	13799.61
660.604	13823.11
660.955	13729.1
661.306	13788.76
661.656	13721.19
662.007	13684.81
662.358	13658.14
662.708	13687.07
663.059	13694.3
663.409	13621.53
663.76	13717.13
664.11	13653.17
664.461	13631.48
664.811	13733.85
665.161	13695.88
665.511	13630.57
665.862	13659.05
666.212	13718.26
666.562	13703.79
666.912	13646.84
667.262	13665.38
667.612	13615.43
667.962	13740.85
668.312	13572.27
668.662	13688.88
669.011	13560.29
669.361	13545.15
669.711	13579.28
670.06	13555.32
670.41	13541.08
670.76	13567.52
671.109	13614.08
671.459	13574.98
671.808	13527.75
672.157	13539.05
672.507	13455.89
672.856	13410.01
673.205	13498.37
673.554	13504.48
673.904	13408.66
674.253	13508.32
674.602	13489.79
674.951	13252.05
675.3	13240.98
675.649	13365.5
675.998	13450.92
676.346	13438.04
676.695	13427.64
677.044	13364.14
677.393	13410.01
677.741	13425.61
678.09	13284.59
678.438	13270.13
678.787	13273.3
679.135	13251.15
679.484	13209.57
679.832	13255.22
680.181	13258.61
680.529	13263.58
680.877	13200.98
681.225	13202.11
681.573	13298.61
681.922	13129.57
682.27	13116.24
682.618	13113.98
682.966	13037.6
683.314	13171.6
683.661	13110.14
684.009	13027.88
684.357	12975.68
684.705	12864.72
685.053	12964.6
685.4	12961.66
685.748	12918.95
686.095	12845.51
686.443	12774.33
686.79	12750.82
687.138	12769.81
687.485	12802.35
687.832	12699.98
688.18	12684.61
688.527	12556.93
688.874	12602.58
689.221	12626.76
689.568	12593.54
689.915	12570.49
690.262	12482.13
690.609	12358.74
690.956	12451.85
691.303	12450.49
691.65	12223.15
691.997	12279.65
692.344	12229.71
692.69	12295.69
693.037	12246.43
693.383	12187.67
693.73	12236.71
694.077	12201.91
694.423	12176.37
694.769	12098.86
695.116	12114
695.462	12103.38
695.808	11992.2
696.155	12037.17
696.501	11925.76
696.847	11942.71
697.193	11900.68
697.539	11836.04
697.885	11803.5
698.231	11772.09
698.577	11759.44
698.923	11759.21
699.269	11678.76
699.614	11642.6
699.96	11633.34
700.306	11650.06
700.651	11487.35
700.997	11525.09
701.342	11531.19
701.688	11515.38
702.033	11456.39
702.379	11507.92
702.724	11377.98
703.069	11541.59
703.415	11262.05
703.76	11340.24
704.105	11393.57
704.45	11273.12
704.795	11191.54
705.14	11142.05
705.485	11154.03
705.83	11137.98
706.175	11143.86
706.52	11101.6
706.865	11048.04
707.209	11023.18
707.554	11039
707.899	11037.2
708.243	10927.82
708.588	10976.18
708.932	10877.88
709.277	10902.74
709.621	10933.47
709.966	10902.96
710.31	10959.68
710.654	10769.63
710.998	10820.03
711.342	10772.34
711.687	10764.21
712.031	10773.7
712.375	10665
712.719	10623.2
713.063	10667.94
713.407	10800.37
713.75	10613.48
714.094	10619.81
714.438	10617.55
714.782	10589.98
715.125	10535.97
715.469	10556.98
715.812	10557.43
716.156	10453.48
716.499	10474.05
716.843	10475.4
717.186	10481.28
717.53	10518.34
717.873	10393.82
718.216	10368.74
718.559	10422.07
718.902	10342.98
719.246	10367.61
719.589	10345.69
719.932	10302.75
720.275	10345.01
720.617	10298.01
720.96	10220.49
721.303	10250.78
721.646	10234.5
721.989	10196.09
722.331	10193.6
722.674	10170.78
723.016	10180.04
723.359	10103.66
723.701	10141.4
724.044	10157.22
724.386	9981.86
724.729	10094.85
725.071	10006.94
725.413	10022.08
725.755	9977.11
726.097	9909.77
726.439	9953.83
726.782	9967.39
727.124	9997
727.465	9937.34
727.807	9934.63
728.149	9925.81
728.491	9851.01
728.833	9917.68
729.175	9766.72
729.516	9870.9
729.858	9763.1
730.199	9869.09
730.541	9806.04
730.882	9785.03
731.224	9741.18
731.565	9772.6
731.906	9746.83
732.248	9738.02
732.589	9697.12
732.93	9650.34
733.271	9641.98
733.612	9612.83
733.953	9695.08
734.294	9588.19
734.635	9630.9
734.976	9599.95
735.317	9599.95
735.658	9523.11
735.999	9557.23
736.339	9556.56
736.68	9485.82
737.021	9524.69
737.361	9399.95
737.702	9491.47
738.042	9404.7
738.383	9436.33
738.723	9396.79
739.063	9426.16
739.404	9391.14
739.744	9373.74
740.084	9282.89
740.424	9378.48
740.764	9289.9
741.104	9318.82
741.444	9272.04
741.784	9269.33
742.124	9327.18
742.464	9193.63
742.804	9201.99
743.143	9272.27
743.483	9264.13
743.823	9193.4
744.162	9183.23
744.502	9164.02
744.841	9140.3
745.181	9254.19
745.52	9172.84
745.86	9232.05
746.199	9110.92
746.538	9078.38
746.877	9091.71
747.216	9064.14
747.556	8999.51
747.895	9029.79
748.234	8936.01
748.573	9048.55
748.911	9025.95
749.25	8970.36
749.589	8876.35
749.928	8931.49
750.267	8985.5
750.605	8926.06
750.944	8860.3
751.283	8840.87
751.621	8923.58
751.96	8751.15
752.298	8850.13
752.636	8811.49
752.975	8813.07
753.313	8766.75
753.651	8761.32
753.989	8778.95
754.327	8724.04
754.666	8636.81
755.004	8676.13
755.342	8646.52
755.679	8616.92
756.017	8573.98
756.355	8524.72
756.693	8466.64
757.031	8550.71
757.368	8532.63
757.706	8510.71
758.044	8514.1
758.381	8453.31
758.719	8458.05
759.056	8459.18
759.394	8389.13
759.731	8338.51
760.068	8335.57
