Data from black_metal_pc_casing_FLMS001491_00090.txt Node
Date: Wed Feb 08 14:33:39 GMT 2017
User: dcchb
Spectrometer: FLMS00149
Trigger mode: 0
Integration Time (sec): 2.000000E-2
Scans to average: 10
Electric dark correction enabled: true
Nonlinearity correction enabled: false
Boxcar width: 0
XAxis mode: Wavelengths
Number of Pixels in Spectrum: 2048
>>>>>Begin Spectral Data<<<<<
341.393	-21.95
341.776	-21.95
342.16	-21.95
342.543	-46.13
342.927	-61.72
343.31	-72.34
343.693	-65.79
344.077	-64.66
344.46	-68.05
344.843	-28.95
345.226	-35.28
345.61	-46.81
345.993	-17.88
346.376	-14.49
346.759	-10.2
347.142	43.81
347.525	31.61
347.908	79.29
348.291	74.55
348.674	73.87
349.057	121.32
349.44	121.32
349.823	156.13
350.206	181.44
350.588	163.13
350.971	193.41
351.354	227.31
351.737	225.73
352.119	234.99
352.502	251.26
352.884	268.89
353.267	271.6
353.65	303.92
354.032	285.84
354.414	286.97
354.797	320.19
355.179	308.89
355.562	329.91
355.944	326.52
356.326	336.46
356.709	312.05
357.091	321.77
357.473	324.26
357.855	310.47
358.238	337.36
358.62	348.66
359.002	333.97
359.384	329.91
359.766	338.04
360.148	335.33
360.53	339.62
360.912	325.16
361.294	329.45
361.676	330.58
362.057	342.11
362.439	330.81
362.821	310.7
363.203	317.48
363.584	325.61
363.966	317.48
364.348	351.83
364.729	316.12
365.111	303.24
365.493	328.1
365.874	332.84
366.256	331.71
366.637	302.34
367.019	309.34
367.4	319.74
367.781	321.32
368.163	314.09
368.544	326.06
368.925	310.92
369.306	313.18
369.688	317.48
370.069	338.72
370.45	309.57
370.831	315.22
371.212	313.86
371.593	322.68
371.974	306.86
372.355	321.55
372.736	328.32
373.117	331.49
373.498	336.69
373.879	317.25
374.26	326.52
374.641	322.45
375.021	329.23
375.402	331.94
375.783	329.91
376.163	347.76
376.544	336.69
376.925	340.98
377.305	335.1
377.686	326.52
378.066	331.94
378.447	348.44
378.827	343.69
379.208	335.1
379.588	360.87
379.968	326.97
380.349	362.9
380.729	351.37
381.109	372.84
381.489	336.69
381.87	373.75
382.25	354.31
382.63	362.22
383.01	362.45
383.39	358.38
383.77	367.19
384.15	361.09
384.53	364.03
384.91	368.78
385.29	380.53
385.67	354.99
386.049	373.75
386.429	375.78
386.809	375.1
387.189	354.99
387.568	369.91
387.948	375.1
388.328	392.05
388.707	380.53
389.087	380.3
389.466	391.83
389.846	396.57
390.225	401.32
390.605	372.62
390.984	406.74
391.363	381.2
391.743	393.86
392.122	380.3
392.501	415.1
392.881	431.6
393.26	425.72
393.639	396.12
394.018	415.55
394.397	412.39
394.776	406.74
395.155	427.98
395.534	432.05
395.913	413.29
396.292	426.4
396.671	452.16
397.05	432.95
397.429	425.27
397.808	460.98
398.186	441.99
398.565	450.13
398.944	445.61
399.323	441.09
399.701	463.69
400.08	454.42
400.458	470.02
400.837	463.91
401.215	455.55
401.594	469.56
401.972	456.68
402.351	463.69
402.729	488.55
403.107	478.6
403.486	479.06
403.864	493.97
404.242	467.76
404.62	482.22
404.999	476.8
405.377	488.09
405.755	491.71
406.133	500.75
406.511	489.22
406.889	510.01
407.267	504.14
407.645	504.14
408.023	513.18
408.401	538.71
408.779	514.53
409.156	532.84
409.534	524.25
409.912	540.75
410.29	531.71
410.667	561.54
411.045	557.92
411.422	558.6
411.8	569.22
412.178	548.88
412.555	563.35
412.933	575.55
413.31	592.27
413.687	571.03
414.065	593.18
414.442	595.44
414.819	584.36
415.197	624.14
415.574	616.9
415.951	627.07
416.328	614.87
416.705	632.72
417.082	623.01
417.46	616.9
417.837	627.98
418.214	630.69
418.591	653.97
418.967	652.61
419.344	642.44
419.721	651.71
420.098	676.79
420.475	673.17
420.852	650.8
421.228	666.39
421.605	670.46
421.982	664.14
422.358	698.03
422.735	674.53
423.111	689.22
423.488	694.19
423.864	709.56
424.241	704.13
424.617	699.61
424.994	741.42
425.37	722.44
425.746	733.96
426.123	752.95
426.499	740.97
426.875	773.06
427.251	765.6
427.627	751.36
428.003	756.34
428.379	778.71
428.756	786.17
429.132	791.59
429.507	801.08
429.883	781.19
430.259	842.89
430.635	825.94
431.011	814.64
431.387	863.68
431.763	869.1
432.138	863.68
432.514	877.01
432.89	900.06
433.265	894.41
433.641	888.08
434.016	896.9
434.392	892.15
434.767	908.65
435.143	908.42
435.518	919.04
435.894	921.76
436.269	952.94
436.644	936.22
437.02	971.02
437.395	965.14
437.77	977.12
438.145	1008.53
438.52	986.61
438.895	1004.01
439.271	995.43
439.646	1020.28
440.021	1028.19
440.395	1041.75
440.77	1040.85
441.145	1036.78
441.52	1060.06
441.895	1046.72
442.27	1072.26
442.645	1059.15
443.019	1095.99
443.394	1091.47
443.769	1089.66
444.143	1052.37
444.518	1105.93
444.892	1105.71
445.267	1119.72
445.641	1116.55
446.016	1128.08
446.39	1170.34
446.764	1161.07
447.139	1138.47
447.513	1145.93
447.887	1150.22
448.262	1174.18
448.636	1141.18
449.01	1176.44
449.384	1182.09
449.758	1210.79
450.132	1221.41
450.506	1216.21
450.88	1223.22
451.254	1194.74
451.628	1213.5
452.002	1251.92
452.376	1251.92
452.75	1269.32
453.123	1253.27
453.497	1298.69
453.871	1301.63
454.244	1328.3
454.618	1327.17
454.992	1340.5
455.365	1344.34
455.739	1357
456.112	1376.88
456.486	1390.44
456.859	1414.17
457.232	1428.41
457.606	1425.92
457.979	1459.14
458.352	1456.66
458.725	1448.52
459.099	1483.77
459.472	1559.03
459.845	1521.06
460.218	1534.39
460.591	1555.19
460.964	1532.59
461.337	1599.25
461.71	1617.1
462.083	1638.8
462.456	1635.86
462.829	1652.58
463.201	1669.31
463.574	1651.45
463.947	1703.66
464.32	1735.07
464.692	1754.73
465.065	1740.49
465.438	1742.98
465.81	1805.12
466.183	1829.08
466.555	1836.76
466.928	1865.91
467.3	1877.89
467.672	1910.88
468.045	1932.12
468.417	1922.86
468.789	1953.82
469.161	1970.09
469.534	1984.55
469.906	2053.93
470.278	2043.08
470.65	2089.63
471.022	2078.56
471.394	2136.86
471.766	2116.98
472.138	2167.82
472.51	2244.88
472.882	2229.97
473.253	2279.69
473.625	2286.01
473.997	2352
474.369	2371.21
474.74	2347.93
475.112	2419.8
475.484	2435.84
475.855	2500.92
476.227	2520.58
476.598	2573.01
476.97	2553.8
477.341	2622.5
477.713	2663.86
478.084	2705.44
478.455	2744.31
478.827	2784.08
479.198	2835.15
479.569	2815.26
479.94	2928.26
480.311	2979.33
480.682	2998.99
481.053	3064.52
481.424	3138.42
481.795	3114.24
482.166	3177.52
482.537	3223.84
482.908	3283.28
483.279	3314.46
483.65	3416.15
484.021	3399.66
484.391	3479.43
484.762	3506.77
485.133	3501.12
485.503	3604.4
485.874	3620.89
486.244	3685.3
486.615	3749.48
486.985	3816.59
487.356	3863.6
487.726	3843.26
488.097	3957.61
488.467	3908.8
488.837	4068.57
489.207	4093.42
489.578	4130.71
489.948	4113.99
490.318	4259.97
490.688	4253.65
491.058	4290.25
491.428	4357.6
491.798	4425.62
492.168	4464.49
492.538	4508.1
492.908	4543.58
493.278	4586.97
493.648	4649.79
494.017	4691.37
494.387	4757.81
494.757	4756.68
495.126	4808.21
495.496	4803.01
495.866	4897.47
496.235	4907.64
496.605	4936.11
496.974	4974.3
497.344	5058.37
497.713	5088.88
498.082	5117.58
498.452	5149.21
498.821	5191.93
499.19	5214.52
499.559	5242.09
499.928	5312.83
500.298	5285.26
500.667	5349.66
501.036	5384.01
501.405	5408.42
501.774	5426.27
502.143	5423.33
502.512	5474.86
502.88	5553.72
503.249	5549.66
503.618	5636.66
503.987	5673.95
504.356	5652.93
504.724	5681.18
505.093	5743.78
505.462	5793.72
505.83	5815.19
506.199	5877.11
506.567	5882.08
506.936	5913.71
507.304	6032.36
507.672	6015.63
508.041	6036.88
508.409	6094.73
508.777	6122.07
509.145	6180.6
509.514	6174.27
509.882	6275.06
510.25	6276.64
510.618	6296.53
510.986	6314.16
511.354	6374.04
511.722	6399.13
512.09	6490.42
512.458	6471.67
512.826	6543.53
513.193	6583.75
513.561	6652.9
513.929	6682.73
514.297	6769.29
514.664	6777.19
515.032	6818.1
515.4	6849.96
515.767	6937.19
516.135	6926.8
516.502	6943.29
516.869	7067.36
517.237	7107.36
517.604	7035.04
517.972	7190.29
518.339	7217.41
518.706	7215.15
519.073	7233.23
519.44	7352.55
519.808	7457.63
520.175	7431.41
520.542	7473
520.909	7614.23
521.276	7611.97
521.643	7655.14
522.009	7741.92
522.376	7781.91
522.743	7824.62
523.11	7855.13
523.477	7939.65
523.843	8015.81
524.21	8110.94
524.577	8190.94
524.943	8158.63
525.31	8264.16
525.676	8367.44
526.043	8305.06
526.409	8415.57
526.776	8533.53
527.142	8591.61
527.508	8597.03
527.874	8683.13
528.241	8769.01
528.607	8779.85
528.973	8848.1
529.339	8879.29
529.705	8949.57
530.071	8998.15
530.437	9093.29
530.803	9095.55
531.169	9124.7
531.535	9110.92
531.901	9150.69
532.267	9278.6
532.632	9322.89
532.998	9322.89
533.364	9414.19
533.73	9394.98
534.095	9494.19
534.461	9519.04
534.826	9611.02
535.192	9581.87
535.557	9725.37
535.923	9683.11
536.288	9785.48
536.653	9748.87
537.019	9782.09
537.384	9846.72
537.749	9893.04
538.114	9898.24
538.479	9958.58
538.845	10003.55
539.21	9989.99
539.575	10035.64
539.94	10068.18
540.305	10128.52
540.67	10140.5
541.034	10154.06
541.399	10198.35
541.764	10248.29
542.129	10258.01
542.494	10383.2
542.858	10357.89
543.223	10470.43
543.587	10467.04
543.952	10424.56
544.316	10542.52
544.681	10526.47
545.045	10596.98
545.41	10624.78
545.774	10704.1
546.138	10654.38
546.503	10767.6
546.867	10727.37
547.231	10875.84
547.595	10794.72
547.959	10886.69
548.324	10902.28
548.688	10916.07
549.052	10958.55
549.416	10932.11
549.779	10932.57
550.143	11100.47
550.507	11105.89
550.871	11132.33
551.235	11141.6
551.599	11216.4
551.962	11306.34
552.326	11335.27
552.689	11366.45
553.053	11308.15
553.417	11399.22
553.78	11546.56
554.143	11481.93
554.507	11547.46
554.87	11620.01
555.234	11753.56
555.597	11702.04
555.96	11759.66
556.323	11750.17
556.686	11889.83
557.05	11806.44
557.413	11919.43
557.776	11928.7
558.139	11984.97
558.502	11984.29
558.865	12102.93
559.228	12267.45
559.59	12201.68
559.953	12282.81
560.316	12425.41
560.679	12408.91
561.041	12495.69
561.404	12524.39
561.767	12603.03
562.129	12520.77
562.492	12723.48
562.854	12714.21
563.217	12698.62
563.579	12799.86
563.941	12853.65
564.304	12873.76
564.666	12989.91
565.028	12982.23
565.39	13099.74
565.753	13071.04
566.115	13292.5
566.477	13197.36
566.839	13316.68
567.201	13312.84
567.563	13410.92
567.925	13486.85
568.287	13442.33
568.648	13500.18
569.01	13541.54
569.372	13639.61
569.734	13628.54
570.095	13788.54
570.457	13845.48
570.819	13830.34
571.18	13835.54
571.542	13918.48
571.903	14081.86
572.265	13962.09
572.626	14054.29
572.987	14096.78
573.349	14082.09
573.71	14161.41
574.071	14241.86
574.432	14184.68
574.794	14373.38
575.155	14332.93
575.516	14294.74
575.877	14339.93
576.238	14426.26
576.599	14457.9
576.96	14455.41
577.32	14477.78
577.681	14613.15
578.042	14518.01
578.403	14495.41
578.763	14574.5
579.124	14613.6
579.485	14682.52
579.845	14753.03
580.206	14688.17
580.566	14752.58
580.927	14770.43
581.287	14786.93
581.648	14755.97
582.008	14814.27
582.368	14676.42
582.728	14827.38
583.089	14812.24
583.449	14769.75
583.809	14810.66
584.169	14902.18
584.529	14814.72
584.889	14899.92
585.249	14854.5
585.609	14844.33
585.969	14902.63
586.329	14869.41
586.688	14796.87
587.048	14888.17
587.408	14799.36
587.768	14831.9
588.127	14931.33
588.487	14935.85
588.846	14932.46
589.206	14848.85
589.565	14890.43
589.925	14899.24
590.284	14869.64
590.643	14908.73
591.003	14925.68
591.362	14958.22
591.721	14863.54
592.08	14907.83
592.44	14946.92
592.799	14865.12
593.158	14958.22
593.517	14926.58
593.876	15018.56
594.235	14925.91
594.593	15023.98
594.952	14900.6
595.311	14843.2
595.67	14978.56
596.029	15010.2
596.387	15019.46
596.746	15088.39
597.104	15035.96
597.463	15049.07
597.822	15119.12
598.18	15037.54
598.538	15068.5
598.897	15205.9
599.255	15047.94
599.613	15287.93
599.972	15121.83
600.33	15166.35
600.688	15207.71
601.046	15151.66
601.404	15283.86
601.762	15217.65
602.12	15303.98
602.478	15287.71
602.836	15290.64
603.194	15210.65
603.552	15209.97
603.91	15209.06
604.268	15174.94
604.625	15316.41
604.983	15315.5
605.341	15220.81
605.698	15392.79
606.056	15374.93
606.413	15339.46
606.771	15331.32
607.128	15342.17
607.485	15375.84
607.843	15348.95
608.2	15461.49
608.557	15436.85
608.914	15513.91
609.272	15543.29
609.629	15558.21
609.986	15527.93
610.343	15523.18
610.7	15584.19
611.057	15566.57
611.414	15571.31
611.771	15661.93
612.127	15683.85
612.484	15597.75
612.841	15727.47
613.198	15654.25
613.554	15649.96
613.911	15735.15
614.267	15767.24
614.624	15715.49
614.98	15759.11
615.337	15806.56
615.693	15829.39
616.05	15740.35
616.406	15847.01
616.762	15854.7
617.118	15861.02
617.475	15760.46
617.831	15829.84
618.187	15877.07
618.543	15914.13
618.899	15942.6
619.255	15985.99
619.611	15915.71
619.967	15985.99
620.323	16045.2
620.678	15948.25
621.034	15882.49
621.39	15949.38
621.746	15934.69
622.101	16116.38
622.457	16004.75
622.812	16002.94
623.168	16002.04
623.523	16056.27
623.879	15996.84
624.234	15969.72
624.589	16034.13
624.945	15995.71
625.3	16013.56
625.655	16089.72
626.01	16045.2
626.365	15992.55
626.72	16057.85
627.075	16021.02
627.43	15938.99
627.785	15966.78
628.14	16014.69
628.495	16065.76
628.85	15985.31
629.205	16001.58
629.559	15969.95
629.914	15980.12
630.269	16087.23
630.623	15907.12
630.978	15940.12
631.332	15944.19
631.687	15990.96
632.041	15865.32
632.396	15956.84
632.75	15950.29
633.104	15911.64
633.459	15796.39
633.813	15878.42
634.167	15783.96
634.521	15794.36
634.875	15741.93
635.229	15736.96
635.583	15604.08
635.937	15664.87
636.291	15731.54
636.645	15691.54
636.999	15669.84
637.352	15684.31
637.706	15613.12
638.06	15604.53
638.413	15571.31
638.767	15488.83
639.121	15550.3
639.474	15539.9
639.828	15534.93
640.181	15526.57
640.534	15541.94
640.888	15504.2
641.241	15331.32
641.594	15352.56
641.947	15440.92
642.301	15316.18
642.654	15386.01
643.007	15372.9
643.36	15389.17
643.713	15327.48
644.066	15455.61
644.419	15252
644.771	15153.25
645.124	15015.62
645.477	14999.8
645.83	14888.17
646.182	14830.54
646.535	14775.4
646.888	14853.14
647.24	14679.81
647.593	14738.34
647.945	14709.64
648.298	14675.74
648.65	14694.95
649.002	14663.32
649.355	14717.1
649.707	14706.25
650.059	14750.77
650.411	14821.95
650.763	14846.59
651.115	15030.54
651.467	15012.91
651.819	14940.37
652.171	14936.98
652.523	14910.77
652.875	14901.73
653.227	14880.26
653.578	14999.35
653.93	14955.51
654.282	14917.09
654.633	14815.85
654.985	14983.08
655.337	14833.71
655.688	14827.6
656.039	14894.27
656.391	14770.88
656.742	14804.55
657.094	14766.59
657.445	14841.39
657.796	14785.57
658.147	14676.87
658.498	14748.96
658.849	14740.15
659.2	14725.01
659.551	14750.77
659.902	14698.12
660.253	14678.23
660.604	14791.9
660.955	14616.08
661.306	14718
661.656	14592.81
662.007	14650.43
662.358	14664.67
662.708	14638
663.059	14616.54
663.409	14523.21
663.76	14603.43
664.11	14642.52
664.461	14597.78
664.811	14523.43
665.161	14564.33
665.511	14544.45
665.862	14616.99
666.212	14622.86
666.562	14597.1
666.912	14612.02
667.262	14572.92
667.612	14585.58
667.962	14607.05
668.312	14560.72
668.662	14553.71
669.011	14590.55
669.361	14522.98
669.711	14450.89
670.06	14512.36
670.41	14415.64
670.76	14469.42
671.109	14551.23
671.459	14520.27
671.808	14452.93
672.157	14438.24
672.507	14348.3
672.856	14428.29
673.205	14482.53
673.554	14451.34
673.904	14353.49
674.253	14497.67
674.602	14418.8
674.951	14162.31
675.3	14114.4
675.649	14387.62
675.998	14343.78
676.346	14360.27
676.695	14381.97
677.044	14249.99
677.393	14372.93
677.741	14314.85
678.09	14209.77
678.438	14255.19
678.787	14290.44
679.135	14359.37
679.484	14172.25
679.832	14265.13
680.181	14201.63
680.529	14200.73
680.877	14158.92
681.225	14051.81
681.573	14199.37
681.922	14090.45
682.27	13990.34
682.618	14060.39
682.966	14042.77
683.314	14071.24
683.661	14015.87
684.009	13920.74
684.357	13906.95
684.705	13912.37
685.053	13828.99
685.4	13927.74
685.748	13788.76
686.095	13802.09
686.443	13784.69
686.79	13747.18
687.138	13799.38
687.485	13777.46
687.832	13675.77
688.18	13673.96
688.527	13668.09
688.874	13721.64
689.221	13613.4
689.568	13565.26
689.915	13588.99
690.262	13515.1
690.609	13510.12
690.956	13433.97
691.303	13452.27
691.65	13327.3
691.997	13340.19
692.344	13271.71
692.69	13164.15
693.037	13235.56
693.383	13109.68
693.73	13134.54
694.077	13092.51
694.423	13088.67
694.769	13145.61
695.116	13023.58
695.462	13042.11
695.808	12920.31
696.155	13012.74
696.501	12895
696.847	12931.84
697.193	12800.09
697.539	12798.28
697.885	12718.73
698.231	12739.3
698.577	12641.22
698.923	12677.38
699.269	12609.36
699.614	12549.25
699.96	12471.06
700.306	12556.25
700.651	12449.81
700.997	12446.2
701.342	12417.27
701.688	12461.11
702.033	12303.83
702.379	12391.06
702.724	12296.15
703.069	12254.34
703.415	12220.22
703.76	12213.66
704.105	12136.6
704.45	12177.73
704.795	12066.1
705.14	12073.1
705.485	11952.65
705.83	11992.42
706.175	12052.99
706.52	11938.19
706.865	11905.2
707.209	11930.05
707.554	11827.01
707.899	11873.11
708.243	11904.97
708.588	11790.17
708.932	11705.88
709.277	11755.82
709.621	11726.9
709.966	11647.35
710.31	11711.08
710.654	11611.87
710.998	11667.69
711.342	11604.19
711.687	11568.48
712.031	11569.16
712.375	11509.27
712.719	11531.87
713.063	11416.39
713.407	11544.3
713.75	11429.28
714.094	11482.38
714.438	11435.83
714.782	11429.5
715.125	11338.2
715.469	11339.11
715.812	11303.63
716.156	11204.65
716.499	11246.91
716.843	11317.41
717.186	11210.3
717.53	11229.96
717.873	11289.39
718.216	11249.39
718.559	11119.45
718.902	11147.25
719.246	11106.35
719.589	11133.92
719.932	11020.47
720.275	11102.28
720.617	11053.01
720.96	11046.46
721.303	10958.55
721.646	11019.57
721.989	10930.08
722.331	10948.84
722.674	10924.2
723.016	10921.04
723.359	10922.17
723.701	10948.38
724.044	10860.03
724.386	10852.57
724.729	10876.07
725.071	10780.25
725.413	10813.02
725.755	10826.35
726.097	10689.41
726.439	10711.55
726.782	10670.43
727.124	10722.18
727.465	10609.86
727.807	10599.24
728.149	10653.02
728.491	10620.71
728.833	10570.32
729.175	10593.82
729.516	10599.47
729.858	10486.02
730.199	10526.47
730.541	10544.1
730.882	10510.66
731.224	10444.44
731.565	10492.13
731.906	10436.99
732.248	10464.56
732.589	10390.66
732.93	10382.07
733.271	10293.26
733.612	10398.57
733.953	10365.35
734.294	10352.47
734.635	10296.65
734.976	10284.22
735.317	10239.25
735.658	10281.06
735.999	10253.49
736.339	10277.44
736.68	10325.8
737.021	10225.01
737.361	10213.94
737.702	10265.69
738.042	10188.18
738.383	10206.26
738.723	10211.68
739.063	10124.68
739.404	10130.55
739.744	10130.78
740.084	10063.44
740.424	10134.85
740.764	10063.21
741.104	10058.92
741.444	9997.67
741.784	9985.02
742.124	10013.72
742.464	10027.28
742.804	9888.98
743.143	9916.55
743.483	9886.94
743.823	9905.7
744.162	9870.22
744.502	9872.03
744.841	9875.87
745.181	9886.04
745.52	9921.97
745.86	9900.05
746.199	9761.97
746.538	9816.66
746.877	9806.27
747.216	9774.86
747.556	9740.73
747.895	9732.6
748.234	9756.55
748.573	9608.08
748.911	9697.8
749.25	9632.49
749.589	9533.05
749.928	9647.18
750.267	9634.07
750.605	9641.07
750.944	9571.25
751.283	9515.43
751.621	9599.27
751.96	9505.03
752.298	9504.58
752.636	9544.35
752.975	9473.62
753.313	9469.55
753.651	9431.59
753.989	9364.47
754.327	9354.3
754.666	9382.32
755.004	9353.62
755.342	9356.34
755.679	9316.34
756.017	9229.56
756.355	9399.72
756.693	9295.55
757.031	9283.12
757.368	9280.86
757.706	9164.02
758.044	9146.62
