Data from black_metal_pc_casing_FLMS001491_00063.txt Node
Date: Wed Feb 08 14:33:18 GMT 2017
User: dcchb
Spectrometer: FLMS00149
Trigger mode: 0
Integration Time (sec): 2.000000E-2
Scans to average: 10
Electric dark correction enabled: true
Nonlinearity correction enabled: false
Boxcar width: 0
XAxis mode: Wavelengths
Number of Pixels in Spectrum: 2048
>>>>>Begin Spectral Data<<<<<
341.393	-11.33
341.776	-11.33
342.16	-11.33
342.543	-48.61
342.927	-49.52
343.31	-54.72
343.693	-70.08
344.077	-69.18
344.46	-59.01
344.843	-57.2
345.226	-40.25
345.61	-30.54
345.993	-7.71
346.376	-2.29
346.759	-4.1
347.142	33.19
347.525	35.45
347.908	47.65
348.291	70.25
348.674	89.91
349.057	118.61
349.44	131.49
349.823	146.41
350.206	145.96
350.588	191.83
350.971	209.23
351.354	218.95
351.737	242.23
352.119	240.42
352.502	255.33
352.884	258.95
353.267	267.54
353.65	273.64
354.032	286.29
354.414	290.59
354.797	320.19
355.179	311.38
355.562	312.73
355.944	314.09
356.326	345.27
356.709	333.3
357.091	333.97
357.473	327.87
357.855	344.82
358.238	299.4
358.62	332.62
359.002	343.01
359.384	333.75
359.766	339.4
360.148	329.45
360.53	323.35
360.912	348.89
361.294	314.31
361.676	323.81
362.057	310.92
362.439	325.84
362.821	329.68
363.203	324.26
363.584	313.18
363.966	303.92
364.348	319.96
364.729	319.29
365.111	304.14
365.493	324.71
365.874	319.96
366.256	307.31
366.637	318.16
367.019	322.68
367.4	313.86
367.781	321.55
368.163	293.52
368.544	310.25
368.925	310.25
369.306	325.61
369.688	303.24
370.069	312.96
370.45	317.93
370.831	299.62
371.212	304.37
371.593	305.05
371.974	289
372.355	311.15
372.736	305.95
373.117	301.43
373.498	324.93
373.879	316.8
374.26	296.46
374.641	325.61
375.021	318.16
375.402	310.25
375.783	347.99
376.163	328.55
376.544	329.91
376.925	330.58
377.305	314.77
377.686	334.65
378.066	310.02
378.447	333.3
378.827	338.27
379.208	315.67
379.588	340.98
379.968	339.4
380.349	343.01
380.729	336.01
381.109	333.75
381.489	344.82
381.87	348.44
382.25	311.6
382.63	333.75
383.01	338.04
383.39	340.53
383.77	337.59
384.15	345.27
384.53	354.54
384.91	337.14
385.29	350.7
385.67	368.32
386.049	351.15
386.429	361.54
386.809	357.25
387.189	368.55
387.568	338.95
387.948	364.93
388.328	359.74
388.707	345.27
389.087	364.03
389.466	371.94
389.846	357.7
390.225	380.53
390.605	381.66
390.984	393.18
391.363	363.58
391.743	379.4
392.122	384.59
392.501	378.04
392.881	376.23
393.26	376.23
393.639	410.58
394.018	378.72
394.397	402.9
394.776	383.01
395.155	390.02
395.534	407.64
395.913	405.61
396.292	392.05
396.671	406.74
397.05	391.15
397.429	406.97
397.808	412.39
398.186	404.93
398.565	402.22
398.944	413.07
399.323	412.62
399.701	404.48
400.08	413.29
400.458	420.98
400.837	437.7
401.215	426.4
401.594	426.18
401.972	428.21
402.351	434.31
402.729	428.21
403.107	435.44
403.486	444.03
403.864	428.89
404.242	464.37
404.62	441.99
404.999	450.81
405.377	456.23
405.755	453.07
406.133	445.61
406.511	467.76
406.889	475.89
407.267	443.35
407.645	463.01
408.023	477.93
408.401	470.02
408.779	466.4
409.156	467.76
409.534	461.2
409.912	482.67
410.29	488.32
410.667	506.63
411.045	511.6
411.422	494.2
411.8	498.49
412.178	485.83
412.555	519.51
412.933	528.77
413.31	521.54
413.687	541.2
414.065	536.91
414.442	550.01
414.819	536.91
415.197	522.9
415.574	557.02
415.951	552.27
416.328	562.67
416.705	544.36
417.082	538.26
417.46	559.96
417.837	550.92
418.214	566.06
418.591	578.94
418.967	565.83
419.344	537.13
419.721	580.07
420.098	585.95
420.475	590.46
420.852	577.81
421.228	604.93
421.605	600.41
421.982	581.43
422.358	613.97
422.735	610.35
423.111	622.33
423.488	616.23
423.864	624.14
424.241	623.91
424.617	649.22
424.994	657.36
425.37	638.37
425.746	645.15
426.123	662.1
426.499	654.87
426.875	656.9
427.251	665.94
427.627	663.68
428.003	683.8
428.379	689.22
428.756	696.22
429.132	697.13
429.507	706.17
429.883	682.21
430.259	736.45
430.635	722.89
431.011	732.38
431.387	738.48
431.763	760.4
432.138	755.21
432.514	773.74
432.89	736.45
433.265	786.84
433.641	798.37
434.016	773.96
434.392	782.78
434.767	787.3
435.143	817.8
435.518	797.24
435.894	828.88
436.269	809.44
436.644	807.63
437.02	829.55
437.395	843.79
437.77	872.27
438.145	836.79
438.52	859.84
438.895	877.46
439.271	856.67
439.646	910.68
440.021	895.99
440.395	888.54
440.77	893.28
441.145	909.55
441.52	912.72
441.895	916.56
442.27	914.07
442.645	921.76
443.019	926.95
443.394	930.34
443.769	943
444.143	947.52
444.518	961.3
444.892	943.45
445.267	962.21
445.641	980.51
446.016	954.3
446.39	983.67
446.764	971.25
447.139	976.67
447.513	994.52
447.887	983.45
448.262	987.74
448.636	1008.31
449.01	1012.83
449.384	1030.23
449.758	1051.24
450.132	1020.96
450.506	1041.07
450.88	1040.17
451.254	1046.05
451.628	1069.55
452.002	1071.36
452.376	1076.1
452.75	1099.15
453.123	1088.08
453.497	1092.82
453.871	1100.06
454.244	1118.36
454.618	1153.84
454.992	1162.88
455.365	1172.37
455.739	1173.95
456.112	1192.03
456.486	1197.68
456.859	1188.64
457.232	1221.41
457.606	1211.01
457.979	1207.85
458.352	1229.09
458.725	1260.73
459.099	1286.72
459.472	1298.92
459.845	1309.99
460.218	1287.85
460.591	1343.67
460.964	1338.69
461.337	1349.77
461.71	1362.42
462.083	1386.83
462.456	1400.39
462.829	1408.07
463.201	1415.75
463.574	1424.12
463.947	1451.68
464.32	1460.27
464.692	1479.93
465.065	1476.54
465.438	1524.68
465.81	1496.88
466.183	1514.06
466.555	1549.54
466.928	1574.85
467.3	1591.34
467.672	1588.18
468.045	1621.85
468.417	1621.17
468.789	1621.4
469.161	1650.55
469.534	1670.21
469.906	1725.58
470.278	1723.77
470.65	1735.29
471.022	1784.56
471.394	1815.29
471.766	1815.97
472.138	1822.75
472.51	1876.98
472.882	1874.27
473.253	1917.44
473.625	1923.54
473.997	1961.5
474.369	1995.17
474.74	2000.15
475.112	2025.68
475.484	2062.06
475.855	2084.89
476.227	2119.46
476.598	2150.2
476.97	2150.88
477.341	2207.37
477.713	2258.44
478.084	2261.61
478.455	2281.27
478.827	2329.63
479.198	2382.28
479.569	2405.33
479.94	2439.23
480.311	2464.54
480.682	2490.3
481.053	2579.56
481.424	2572.56
481.795	2659.11
482.166	2676.29
482.537	2693.91
482.908	2769.16
483.279	2784.31
483.65	2826.79
484.021	2889.84
484.391	2924.64
484.762	2923.51
485.133	2912.21
485.503	2984.3
485.874	3055.26
486.244	3059.1
486.615	3152.43
486.985	3165.99
487.356	3194.69
487.726	3235.59
488.097	3271.3
488.467	3297.74
488.837	3384.06
489.207	3404.18
489.578	3454.12
489.948	3462.48
490.318	3512.42
490.688	3559.2
491.058	3591.74
491.428	3648.46
491.798	3656.6
492.168	3720.33
492.538	3762.13
492.908	3812.53
493.278	3843.49
493.648	3884.39
494.017	3877.38
494.387	3904.73
494.757	3961.68
495.126	4014.56
495.496	4035.35
495.866	4069.7
496.235	4077.38
496.605	4083.71
496.974	4167.55
497.344	4159.18
497.713	4191.27
498.082	4219.97
498.452	4218.17
498.821	4265.62
499.19	4303.81
499.559	4344.04
499.928	4379.07
500.298	4415.22
500.667	4462.68
501.036	4439.4
501.405	4473.53
501.774	4523.69
502.143	4551.26
502.512	4560.76
502.88	4626.52
503.249	4632.17
503.618	4631.49
503.987	4652.73
504.356	4733.18
504.724	4714.65
505.093	4740.64
505.462	4761.2
505.83	4797.36
506.199	4849.79
506.567	4864.48
506.936	4890.69
507.304	4967.98
507.672	4991.03
508.041	4979.05
508.409	5083.68
508.777	5099.5
509.145	5137.46
509.514	5130.91
509.882	5182.43
510.25	5170.46
510.618	5232.6
510.986	5219.72
511.354	5295.43
511.722	5349.89
512.09	5401.64
512.458	5395.54
512.826	5446.38
513.193	5492.71
513.561	5525.48
513.929	5591.01
514.297	5615.64
514.664	5622.42
515.032	5612.03
515.4	5734.06
515.767	5696.32
516.135	5796.88
516.502	5737.45
516.869	5847.73
517.237	5892.25
517.604	5847.5
517.972	5885.47
518.339	5995.97
518.706	6000.04
519.073	6010.21
519.44	6065.8
519.808	6197.77
520.175	6168.4
520.542	6246.59
520.909	6261.05
521.276	6285.46
521.643	6333.36
522.009	6420.37
522.376	6467.37
522.743	6492.46
523.11	6546.24
523.477	6631.89
523.843	6626.24
524.21	6687.48
524.577	6755.5
524.943	6757.99
525.31	6839.34
525.676	6893.8
526.043	6883.86
526.409	6957.53
526.776	7130.63
527.142	7068.03
527.508	7082.72
527.874	7118.43
528.241	7175.6
528.607	7186.45
528.973	7261.02
529.339	7273.23
529.705	7348.71
530.071	7394.13
530.437	7446.1
530.803	7531.3
531.169	7523.39
531.535	7521.81
531.901	7537.17
532.267	7607.46
532.632	7746.21
532.998	7694.23
533.364	7753.67
533.73	7743.72
534.095	7867.34
534.461	7880.44
534.826	7935.36
535.192	7920.67
535.557	8025.3
535.923	8030.72
536.288	8013.55
536.653	8151.17
537.019	8066.65
537.384	8092.64
537.749	8191.62
538.114	8242.01
538.479	8188.68
538.845	8158.63
539.21	8262.58
539.575	8313.88
539.94	8381.9
540.305	8390.03
540.67	8360.88
541.034	8396.14
541.399	8450.82
541.764	8423.25
542.129	8437.49
542.494	8442.69
542.858	8555.45
543.223	8587.09
543.587	8645.17
543.952	8592.51
544.316	8640.2
544.681	8613.98
545.045	8702.12
545.41	8739.4
545.774	8787.99
546.138	8778.72
546.503	8807.42
546.867	8771.94
547.231	8915.9
547.595	8865.05
547.959	8946.4
548.324	8952.28
548.688	8924.71
549.052	9026.63
549.416	9020.3
549.779	9075.21
550.143	9064.59
550.507	9121.31
550.871	9168.54
551.235	9207.19
551.599	9215.32
551.962	9274.53
552.326	9287.41
552.689	9355.88
553.053	9291.93
553.417	9400.4
553.78	9476.56
554.143	9347.52
554.507	9529.66
554.87	9551.36
555.234	9591.13
555.597	9589.78
555.96	9599.49
556.323	9722.65
556.686	9609.44
557.05	9747.06
557.413	9808.98
557.776	9822.76
558.139	9885.14
558.502	9913.38
558.865	9974.85
559.228	10018.69
559.59	10045.58
559.953	10100.5
560.316	10141.63
560.679	10160.38
561.041	10227.05
561.404	10254.84
561.767	10328.51
562.129	10288.74
562.492	10420.26
562.854	10429.53
563.217	10430.66
563.579	10476.31
563.941	10571.45
564.304	10578.45
564.666	10597.21
565.028	10691.22
565.39	10645.79
565.753	10815.73
566.115	10840.82
566.477	10813.02
566.839	10893.24
567.201	10890.98
567.563	10957.88
567.925	11056.63
568.287	11054.37
568.648	11014.6
569.01	11139.79
569.372	11214.14
569.734	11126.23
570.095	11147.7
570.457	11301.14
570.819	11309.05
571.18	11340.01
571.542	11349.05
571.903	11460.24
572.265	11448.03
572.626	11507.01
572.987	11511.76
573.349	11601.7
573.71	11593.79
574.071	11617.97
574.432	11601.25
574.794	11665.2
575.155	11678.99
575.516	11698.65
575.877	11774.58
576.238	11782.26
576.599	11828.81
576.96	11881.47
577.32	11868.13
577.681	11908.13
578.042	11886.66
578.403	11918.75
578.763	11885.31
579.124	12024.51
579.485	11996.72
579.845	12056.15
580.206	11917.62
580.566	11984.74
580.927	12061.8
581.287	12064.06
581.648	12022.48
582.008	12134.57
582.368	12031.97
582.728	12130.05
583.089	12055.47
583.449	12106.32
583.809	12118.75
584.169	12199.88
584.529	12065.87
584.889	12176.83
585.249	12116.49
585.609	12102.7
585.969	12133.44
586.329	12169.37
586.688	12183.61
587.048	12273.32
587.408	12127.56
587.768	12105.64
588.127	12170.05
588.487	12136.6
588.846	12217.5
589.206	12139.99
589.565	12166.88
589.925	12177.96
590.284	12217.28
590.643	12170.27
591.003	12188.35
591.362	12195.81
591.721	12278.74
592.08	12217.96
592.44	12277.62
592.799	12263.15
593.158	12274.9
593.517	12207.56
593.876	12238.52
594.235	12215.02
594.593	12238.07
594.952	12263.6
595.311	12144.74
595.67	12217.5
596.029	12368.01
596.387	12383.15
596.746	12330.04
597.104	12243.72
597.463	12318.97
597.822	12368.01
598.18	12257.5
598.538	12329.59
598.897	12392.19
599.255	12269.03
599.613	12494.78
599.972	12404.17
600.33	12437.38
600.688	12324.62
601.046	12457.72
601.404	12457.72
601.762	12455.24
602.12	12557.83
602.478	12536.14
602.836	12560.55
603.194	12489.13
603.552	12513.54
603.91	12419.76
604.268	12443.49
604.625	12466.31
604.983	12544.05
605.341	12508.8
605.698	12629.92
606.056	12521.22
606.413	12580.43
606.771	12570.49
607.128	12615.69
607.485	12563.71
607.843	12525.74
608.2	12644.61
608.557	12710.15
608.914	12645.97
609.272	12734.78
609.629	12709.92
609.986	12818.17
610.343	12653.65
610.7	12710.37
611.057	12681.45
611.414	12713.99
611.771	12807.77
612.127	12778.62
612.484	12855.68
612.841	12845.06
613.198	12835.79
613.554	12834.21
613.911	12938.84
614.267	12951.5
614.624	12988.1
614.98	12831.5
615.337	13013.64
615.693	12944.94
616.05	12993.75
616.406	13021.78
616.762	12961.21
617.118	12960.99
617.475	12935.22
617.831	12994.21
618.187	13107.88
618.543	13046.63
618.899	13132.73
619.255	13092.06
619.611	13053.19
619.967	13066.07
620.323	13197.82
620.678	13096.58
621.034	13140.87
621.39	13003.02
621.746	13102
622.101	13123.47
622.457	13062.23
622.812	13118.27
623.168	13135.9
623.523	13104.71
623.879	13102.23
624.234	13033.08
624.589	13110.36
624.945	13156.24
625.3	13193.3
625.655	13131.15
626.01	13192.62
626.365	13133.64
626.72	13106.97
627.075	13167.31
627.43	13111.94
627.785	13072.62
628.14	13142.45
628.495	13064.71
628.85	13093.86
629.205	13092.28
629.559	13191.72
629.914	13110.59
630.269	13068.78
630.623	13074.2
630.978	13019.74
631.332	13104.49
631.687	13052.74
632.041	12998.5
632.396	13017.93
632.75	12964.6
633.104	12954.21
633.459	12971.61
633.813	12898.62
634.167	12904.72
634.521	12882.8
634.875	12959.41
635.229	12912.4
635.583	12805.28
635.937	12784.95
636.291	12817.71
636.645	12846.87
636.999	12784.95
637.352	12790.82
637.706	12766.87
638.06	12785.85
638.413	12740.65
638.767	12722.12
639.121	12706.76
639.474	12727.32
639.828	12681.45
640.181	12699.3
640.534	12660.2
640.888	12642.13
641.241	12579.53
641.594	12648.9
641.947	12614.78
642.301	12615.69
642.654	12562.35
643.007	12638.06
643.36	12647.32
643.713	12563.94
644.066	12538.4
644.419	12523.26
644.771	12433.32
645.124	12253.21
645.477	12225.41
645.83	12313.55
646.182	12224.51
646.535	12118.75
646.888	12169.82
647.24	12102.7
647.593	12155.36
647.945	11977.06
648.298	12002.82
648.65	12051.86
649.002	11994.91
649.355	12026.55
649.707	12004.63
650.059	12017.51
650.411	12198.07
650.763	12254.56
651.115	12302.25
651.467	12245.07
651.819	12240.1
652.171	12305.64
652.523	12212.76
652.875	12179.76
653.227	12201.01
653.578	12302.25
653.93	12219.31
654.282	12116.94
654.633	12198.75
654.985	12191.29
655.337	12172.99
655.688	12163.72
656.039	12216.37
656.391	12051.41
656.742	12183.15
657.094	12097.73
657.445	12146.09
657.796	12131.4
658.147	12062.03
658.498	12099.77
658.849	12205.53
659.2	11928.02
659.551	12074.91
659.902	12123.04
660.253	12043.95
660.604	12123.95
660.955	11970.28
661.306	12049.6
661.656	12000.11
662.007	11954.69
662.358	12010.28
662.708	12020.67
663.059	12012.09
663.409	11941.35
663.76	11907
664.11	11916.27
664.461	11946.55
664.811	11962.6
665.161	11867.68
665.511	11915.59
665.862	11918.98
666.212	11946.32
666.562	11962.82
666.912	11874.91
667.262	11946.1
667.612	11974.8
667.962	11886.66
668.312	11854.12
668.662	11886.44
669.011	11909.72
669.361	11782.49
669.711	11846.44
670.06	11706.56
670.41	11808.02
670.76	11791.98
671.109	11882.15
671.459	11824.75
671.808	11830.85
672.157	11868.13
672.507	11797.4
672.856	11739.78
673.205	11808.93
673.554	11839.21
673.904	11749.95
674.253	11861.81
674.602	11716.27
674.951	11593.34
675.3	11538.2
675.649	11733.67
675.998	11740.23
676.346	11664.3
676.695	11735.03
677.044	11691.42
677.393	11738.42
677.741	11638.54
678.09	11638.08
678.438	11706.78
678.787	11669.72
679.135	11659.55
679.484	11597.18
679.832	11648.25
680.181	11541.82
680.529	11608.71
680.877	11602.15
681.225	11572.55
681.573	11622.27
681.922	11532.55
682.27	11514.47
682.618	11486.22
682.966	11430.41
683.314	11487.13
683.661	11341.37
684.009	11395.15
684.357	11329.62
684.705	11322.39
685.053	11333.23
685.4	11296.4
685.748	11261.82
686.095	11267.7
686.443	11192.67
686.79	11162.16
687.138	11279.22
687.485	11267.92
687.832	11197.42
688.18	11177.08
688.527	11144.76
688.874	11132.11
689.221	11166.01
689.568	11048.49
689.915	10996.74
690.262	11064.31
690.609	10977.54
690.956	10978.21
691.303	10926.69
691.65	10836.52
691.997	10873.36
692.344	10842.85
692.69	10780.03
693.037	10844.88
693.383	10735.73
693.73	10783.64
694.077	10658.22
694.423	10727.37
694.769	10659.58
695.116	10656.87
695.462	10644.44
695.808	10620.03
696.155	10595.4
696.501	10537.1
696.847	10516.76
697.193	10512.92
697.539	10488.74
697.885	10454.61
698.231	10402.18
698.577	10435.63
698.923	10351.79
699.269	10346.59
699.614	10311.34
699.96	10279.48
700.306	10314.5
700.651	10218.23
700.997	10159.93
701.342	10170.78
701.688	10179.82
702.033	10171
702.379	10091.91
702.724	10025.24
703.069	10112.7
703.415	10017.79
703.76	10056.88
704.105	9989.77
704.45	9937.79
704.795	9884.01
705.14	9910.45
705.485	9870.9
705.83	9831.8
706.175	9833.39
706.52	9812.6
706.865	9809.66
707.209	9793.39
707.554	9745.48
707.899	9756.33
708.243	9696.21
708.588	9660.73
708.932	9622.54
709.277	9634.29
709.621	9621.41
709.966	9544.58
710.31	9519.95
710.654	9457.58
710.998	9576.44
711.342	9483.34
711.687	9443.11
712.031	9430.91
712.375	9470.91
712.719	9381.87
713.063	9348.65
713.407	9425.26
713.75	9399.05
714.094	9383.91
714.438	9372.61
714.782	9384.13
715.125	9325.38
715.469	9319.73
715.812	9255.1
716.156	9237.69
716.499	9283.12
716.843	9221.65
717.186	9224.81
717.53	9207.41
717.873	9261.88
718.216	9140.97
718.559	9133.74
718.902	9113.18
719.246	9099.62
719.589	9117.25
719.932	9013.97
720.275	9115.66
720.617	9024.14
720.96	9012.84
721.303	8999.28
721.646	9025.95
721.989	8954.76
722.331	9023.24
722.674	9012.62
723.016	8944.14
723.359	8924.03
723.701	8939.17
724.044	8859.17
724.386	8869.12
724.729	8900.53
725.071	8861.21
725.413	8860.98
725.755	8883.81
726.097	8862.34
726.439	8756.13
726.782	8814.66
727.124	8752.28
727.465	8703.47
727.807	8780.76
728.149	8752.96
728.491	8715.22
728.833	8707.99
729.175	8690.14
729.516	8631.16
729.858	8589.8
730.199	8589.12
730.541	8605.85
730.882	8651.95
731.224	8594.1
731.565	8577.15
731.906	8586.86
732.248	8597.71
732.589	8530.82
732.93	8424.83
733.271	8468.22
733.612	8463.93
733.953	8492.18
734.294	8531.5
734.635	8476.13
734.976	8516.36
735.317	8444.27
735.658	8435.46
735.999	8379.64
736.339	8415.8
736.68	8376.02
737.021	8366.08
737.361	8430.94
737.702	8362.24
738.042	8441.11
738.383	8311.62
738.723	8320.88
739.063	8316.14
739.404	8291.05
739.744	8312.75
740.084	8273.65
740.424	8255.57
740.764	8289.02
741.104	8285.63
741.444	8187.1
741.784	8205.63
742.124	8214.22
742.464	8181.45
742.804	8235.91
743.143	8133.77
743.483	8118.18
743.823	8077.73
744.162	8117.27
744.502	8103.49
744.841	8054.45
745.181	8080.66
745.52	8037.95
745.86	8077.73
746.199	8114.56
746.538	8049.93
746.877	8062.13
747.216	8064.17
747.556	8011.29
747.895	7988.46
748.234	8000.67
748.573	7920.22
748.911	7900.78
749.25	7921.57
749.589	7888.35
749.928	7899.88
750.267	7930.38
750.605	7882.02
750.944	7874.79
751.283	7926.77
751.621	7909.37
751.96	7799.09
752.298	7785.08
752.636	7826.43
752.975	7806.09
753.313	7767.45
753.651	7777.62
753.989	7719.09
754.327	7691.52
754.666	7654.46
755.004	7669.37
755.342	7659.66
755.679	7662.14
756.017	7590.28
756.355	7569.72
756.693	7567.46
757.031	7639.54
757.368	7514.12
757.706	7573.11
758.044	7509.6
758.381	7540.56
758.719	7495.14
759.056	7519.32
759.394	7451.98
759.731	7442.04
760.068	7344.41
760.405	7357.52
760.743	7345.54
761.08	7336.05
761.417	7294.7
761.754	7296.28
762.091	7254.47
