Data from black_plastic_tray_FLMS001491_002.txt Node
Date: Tue Feb 07 10:39:09 GMT 2017
User: dcchb
Spectrometer: FLMS00149
Trigger mode: 0
Integration Time (sec): 2.000000E-2
Scans to average: 10
Electric dark correction enabled: true
Nonlinearity correction enabled: false
Boxcar width: 0
XAxis mode: Wavelengths
Number of Pixels in Spectrum: 2048
>>>>>Begin Spectral Data<<<<<
341.393	-8.25
341.776	-8.25
342.16	-8.25
342.543	-70.17
342.927	-78.75
343.31	-73.56
343.693	-84.18
344.077	-68.59
344.46	-47.12
344.843	-68.81
345.226	-52.99
345.61	-26.33
345.993	-22.49
346.376	-4.41
346.759	8.25
347.142	21.81
347.525	28.81
347.908	91.86
348.291	77.17
348.674	99.77
349.057	120.79
349.44	128.47
349.823	138.87
350.206	158.75
350.588	183.61
350.971	201.24
351.354	203.5
351.737	211.41
352.119	245.98
352.502	234.01
352.884	245.76
353.267	263.16
353.65	279.65
354.032	269.94
354.414	284.63
354.797	298.64
355.179	312.65
355.562	314.23
355.944	309.03
356.326	308.81
356.709	319.88
357.091	294.79
357.473	324.62
357.855	318.97
358.238	312.2
358.62	321.91
359.002	321.46
359.384	322.82
359.766	339.54
360.148	316.71
360.53	308.81
360.912	315.36
361.294	321.91
361.676	313.78
362.057	286.66
362.439	325.75
362.821	307.22
363.203	298.86
363.584	318.52
363.966	299.09
364.348	313.78
364.729	311.74
365.111	319.88
365.493	310.39
365.874	288.47
366.256	307.9
366.637	300.44
367.019	299.77
367.4	307.68
367.781	301.35
368.163	289.82
368.544	304.96
368.925	289.82
369.306	294.57
369.688	305.42
370.069	288.02
370.45	309.03
370.831	288.24
371.212	307.68
371.593	305.19
371.974	288.92
372.355	310.16
372.736	307
373.117	299.77
373.498	321.46
373.879	299.54
374.26	297.73
374.641	300.9
375.021	304.29
375.402	308.35
375.783	300.9
376.163	308.81
376.544	310.61
376.925	315.13
377.305	323.49
377.686	325.75
378.066	319.65
378.447	307
378.827	322.82
379.208	322.36
379.588	332.08
379.968	315.36
380.349	321.69
380.729	320.78
381.109	317.39
381.489	315.58
381.87	340.44
382.25	347.45
382.63	351.52
383.01	322.14
383.39	342.02
383.77	336.6
384.15	333.66
384.53	332.76
384.91	336.83
385.29	357.39
385.67	348.35
386.049	361.91
386.429	350.39
386.809	347
387.189	343.38
387.568	344.96
387.948	342.93
388.328	333.44
388.707	362.82
389.087	353.1
389.466	350.16
389.846	351.97
390.225	382.25
390.605	348.8
390.984	373.21
391.363	349.71
391.743	371.18
392.122	379.76
392.501	352.87
392.881	403.04
393.26	398.07
393.639	391.74
394.018	363.72
394.397	385.87
394.776	404.85
395.155	370.27
395.534	380.22
395.913	396.03
396.292	387.45
396.671	388.8
397.05	405.75
397.429	408.46
397.808	391.06
398.186	396.03
398.565	412.08
398.944	408.24
399.323	416.83
399.701	396.49
400.08	430.61
400.458	426.99
400.837	423.15
401.215	421.57
401.594	398.97
401.972	406.43
402.351	415.02
402.729	436.71
403.107	432.19
403.486	445.07
403.864	424.73
404.242	436.49
404.62	438.52
404.999	455.24
405.377	444.17
405.755	438.75
406.133	430.84
406.511	459.08
406.889	466.09
407.267	451.17
407.645	456.6
408.023	458.63
408.401	465.86
408.779	486.65
409.156	479.65
409.534	504.05
409.912	479.2
410.29	486.43
410.667	483.04
411.045	505.18
411.422	509.03
411.8	495.24
412.178	501.12
412.555	508.35
412.933	502.92
413.31	499.76
413.687	517.16
414.065	519.65
414.442	531.62
414.819	539.31
415.197	515.13
415.574	548.35
415.951	531.85
416.328	531.4
416.705	529.14
417.082	536.37
417.46	524.62
417.837	543.15
418.214	566.65
418.591	563.26
418.967	563.49
419.344	568.46
419.721	587.22
420.098	579.53
420.475	586.76
420.852	575.24
421.228	592.19
421.605	603.03
421.982	567.56
422.358	586.31
422.735	598.29
423.111	589.93
423.488	594.45
423.864	612.07
424.241	626.76
424.617	628.8
424.994	631.28
425.37	621.11
425.746	651.85
426.123	657.72
426.499	662.69
426.875	658.85
427.251	645.52
427.627	667.67
428.003	645.07
428.379	675.12
428.756	665.63
429.132	709.02
429.507	681.68
429.883	699.3
430.259	700.66
430.635	713.77
431.011	699.53
431.387	736.59
431.763	715.12
432.138	710.83
432.514	740.66
432.89	733.2
433.265	765.52
433.641	775.91
434.016	782.47
434.392	774.56
434.767	805.97
435.143	782.69
435.518	797.38
435.894	786.53
436.269	830.15
436.644	818.85
437.02	822.46
437.395	822.46
437.77	828.34
438.145	844.16
438.52	875.8
438.895	863.37
439.271	860.88
439.646	874.44
440.021	889.58
440.395	871.5
440.77	860.2
441.145	897.26
441.52	912.63
441.895	892.74
442.27	918.05
442.645	918.51
443.019	914.67
443.394	924.16
443.769	919.18
444.143	929.35
444.518	934.33
444.892	957.6
445.267	963.03
445.641	941.11
446.016	962.35
446.39	955.57
446.764	978.17
447.139	964.38
447.513	996.24
447.887	982.23
448.262	992.18
448.636	996.47
449.01	1023.14
449.384	1042.8
449.758	1031.5
450.132	1010.26
450.506	1046.87
450.88	1016.13
451.254	1049.35
451.628	1054.32
452.002	1058.84
452.376	1075.11
452.75	1073.31
453.123	1092.51
453.497	1081.44
453.871	1088.45
454.244	1114.89
454.618	1146.07
454.992	1132.29
455.365	1144.72
455.739	1158.95
456.112	1170.7
456.486	1158.73
456.859	1211.61
457.232	1217.03
457.606	1204.15
457.979	1235.56
458.352	1247.76
458.725	1265.62
459.099	1238.05
459.472	1284.37
459.845	1266.29
460.218	1289.34
460.591	1299.06
460.964	1324.37
461.337	1340.42
461.71	1368.66
462.083	1396.01
462.456	1376.57
462.829	1411.6
463.201	1419.28
463.574	1403.47
463.947	1465.16
464.32	1461.32
464.692	1471.71
465.065	1483.69
465.438	1488.21
465.81	1517.59
466.183	1533.18
466.555	1594.2
466.928	1576.12
467.3	1541.54
467.672	1596.46
468.045	1608.88
468.417	1640.97
468.789	1654.53
469.161	1648.66
469.534	1685.94
469.906	1715.32
470.278	1718.26
470.65	1720.75
471.022	1789.44
471.394	1772.95
471.766	1815.43
472.138	1831.25
472.51	1842.78
472.882	1880.29
473.253	1908.76
473.625	1914.86
473.997	1969.55
474.369	1967.29
474.74	1997.57
475.112	2007.97
475.484	2053.62
475.855	2086.39
476.227	2097.01
476.598	2141.98
476.97	2183.33
477.341	2207.96
477.713	2228.08
478.084	2210.45
478.455	2312.82
478.827	2288.41
479.198	2395.08
479.569	2376.55
479.94	2426.04
480.311	2515.08
480.682	2541.29
481.053	2580.61
481.424	2590.55
481.795	2624.9
482.166	2677.78
482.537	2687.73
482.908	2737.67
483.279	2756.65
483.65	2842.98
484.021	2877.55
484.391	2882.75
484.762	2933.6
485.133	2939.47
485.503	2977.44
485.874	3042.52
486.244	3024.21
486.615	3125.45
486.985	3150.54
487.356	3176.3
487.726	3204.55
488.097	3272.57
488.467	3283.87
488.837	3330.87
489.207	3401.15
489.578	3478.44
489.948	3473.02
490.318	3542.62
490.688	3542.17
491.058	3575.84
491.428	3638.21
491.798	3674.37
492.168	3722.28
492.538	3733.8
492.908	3810.41
493.278	3798.43
493.648	3821.26
494.017	3887.02
494.387	3914.81
494.757	3967.69
495.126	3982.83
495.496	4002.04
495.866	4037.97
496.235	4064.19
496.605	4086.33
496.974	4115.49
497.344	4162.49
497.713	4139.44
498.082	4173.79
498.452	4283.84
498.821	4247.68
499.19	4305.76
499.559	4369.49
499.928	4396.16
500.298	4398.64
500.667	4432.31
501.036	4446.55
501.405	4507.34
501.774	4493.33
502.143	4510.95
502.512	4561.12
502.88	4657.62
503.249	4622.36
503.618	4622.36
503.987	4708.92
504.356	4683.38
504.724	4717.5
505.093	4724.28
505.462	4763.6
505.83	4756.82
506.199	4856.93
506.567	4907.33
506.936	4882.47
507.304	4968.57
507.672	5015.35
508.041	4981
508.409	5025.74
508.777	5053.54
509.145	5112.97
509.514	5121.11
509.882	5166.98
510.25	5179.86
510.618	5224.38
510.986	5255.34
511.354	5293.76
511.722	5369.69
512.09	5449.24
512.458	5411.5
512.826	5421.21
513.193	5509.57
513.561	5479.97
513.929	5523.58
514.297	5656.24
514.664	5560.64
515.032	5666.86
515.4	5706.63
515.767	5718.83
516.135	5789.79
516.502	5754.31
516.869	5831.6
517.237	5828.66
517.604	5851.71
517.972	5914.99
518.339	5967.87
518.706	5992.95
519.073	6003.8
519.44	6013.51
519.808	6119.95
520.175	6159.05
520.542	6183.23
520.909	6246.28
521.276	6289.44
521.643	6389.32
522.009	6361.75
522.376	6451.24
522.743	6452.6
523.11	6556.78
523.477	6575.99
523.843	6668.86
524.21	6730.78
524.577	6720.16
524.943	6766.26
525.31	6770.56
525.676	6914.96
526.043	6969.65
526.409	6893.94
526.776	7055.97
527.142	7055.52
527.508	7094.16
527.874	7137.1
528.241	7209.64
528.607	7192.47
528.973	7257.55
529.339	7181.62
529.705	7326.47
530.071	7322.18
530.437	7373.48
530.803	7435.4
531.169	7453.7
531.535	7530.31
531.901	7542.74
532.267	7604.88
532.632	7693.02
532.998	7711.77
533.364	7752.68
533.73	7736.86
534.095	7832.22
534.461	7870.19
534.826	7867.48
535.192	7934.37
535.557	8037.42
535.923	7993.35
536.288	8076.28
536.653	8109.96
537.019	8026.79
537.384	8126.9
537.749	8201.25
538.114	8193.34
538.479	8179.56
538.845	8238.09
539.21	8213.23
539.575	8291.42
539.94	8262.72
540.305	8387.46
540.67	8370.06
541.034	8382.27
541.399	8395.37
541.764	8354.24
542.129	8503.17
542.494	8514.24
542.858	8576.61
543.223	8492.55
543.587	8572.99
543.952	8613.45
544.316	8601.92
544.681	8560.57
545.045	8631.3
545.41	8744.74
545.774	8756.49
546.138	8744.52
546.503	8810.5
546.867	8829.94
547.231	8907.9
547.595	8956.94
547.959	8953.32
548.324	8976.83
548.688	9014.11
549.052	9049.14
549.416	8986.32
549.779	9050.72
550.143	9045.98
550.507	9094.11
550.871	9146.09
551.235	9128.23
551.599	9207.55
551.962	9181.11
552.326	9226.54
552.689	9267.44
553.053	9285.52
553.417	9325.52
553.78	9424.27
554.143	9416.14
554.507	9483.03
554.87	9488.9
555.234	9642.57
555.597	9583.59
555.96	9551.05
556.323	9653.87
556.686	9679.63
557.05	9694.77
557.413	9787.88
557.776	9828.56
558.139	9867.88
558.502	9879.4
558.865	9868.33
559.228	9993.97
559.59	10035.56
559.953	10049.79
560.316	10156
560.679	10098.15
561.041	10221.77
561.404	10251.59
561.767	10260.18
562.129	10278.71
562.492	10367.52
562.854	10354.19
563.217	10377.24
563.579	10441.19
563.941	10495.88
564.304	10498.37
564.666	10589.89
565.028	10541.3
565.39	10574.98
565.753	10626.05
566.115	10702.66
566.477	10765.71
566.839	10859.04
567.201	10854.06
567.563	10904.01
567.925	10955.08
568.287	10941.52
568.648	10913.5
569.01	11022.42
569.372	11150.78
569.734	11104.68
570.095	11209.31
570.457	11269.65
570.819	11281.62
571.18	11299.7
571.542	11414.05
571.903	11310.78
572.265	11437.1
572.626	11396.88
572.987	11500.15
573.349	11458.12
573.71	11514.39
574.071	11562.29
574.432	11559.13
574.794	11610.88
575.155	11592.58
575.516	11605.23
575.877	11630.32
576.238	11673.7
576.599	11703.31
576.96	11669.41
577.32	11702.4
577.681	11753.93
578.042	11791.22
578.403	11858.33
578.763	11829.63
579.124	11867.82
579.485	11826.92
579.845	11863.53
580.206	11872.34
580.566	11893.59
580.927	11874.15
581.287	11944.43
581.648	11843.87
582.008	11960.25
582.368	11953.92
582.728	12071.43
583.089	12015.62
583.449	11976.75
583.809	12057.2
584.169	12110.76
584.529	12026.46
584.889	12163.63
585.249	12066.46
585.609	11997.99
585.969	12041.15
586.329	12000.25
586.688	12197.08
587.048	12077.76
587.408	11984.2
587.768	12063.07
588.127	12040.93
588.487	12139.68
588.846	12066.46
589.206	11957.54
589.565	11884.55
589.925	12040.25
590.284	11955.05
590.643	12061.94
591.003	11999.12
591.362	12059.23
591.721	12009.51
592.08	12022.17
592.44	11995.73
592.799	11979.23
593.158	12127.7
593.517	12100.59
593.876	12058.1
594.235	12026.69
594.593	12014.49
594.952	12018.78
595.311	12034.37
595.67	12109.85
596.029	12164.54
596.387	12206.35
596.746	12165.89
597.104	12185.33
597.463	12086.8
597.822	12235.27
598.18	12130.19
598.538	12145.1
598.897	12257.87
599.255	12155.05
599.613	12320.24
599.972	12270.07
600.33	12323.18
600.688	12248.38
601.046	12381.03
601.404	12345.1
601.762	12337.64
602.12	12419.9
602.478	12344.42
602.836	12316.63
603.194	12288.6
603.552	12327.92
603.91	12239.11
604.268	12340.35
604.625	12228.49
604.983	12347.36
605.341	12210.19
605.698	12308.72
606.056	12338.32
606.413	12285.89
606.771	12301.71
607.128	12441.37
607.485	12267.59
607.843	12364.99
608.2	12419.67
608.557	12477.98
608.914	12376.06
609.272	12546.9
609.629	12471.42
609.986	12504.64
610.343	12497.64
610.7	12602.49
611.057	12588.03
611.414	12582.61
611.771	12567.24
612.127	12630.06
612.484	12672.32
612.841	12688.82
613.198	12601.36
613.554	12642.27
613.911	12686.79
614.267	12691.08
614.624	12695.15
614.98	12713.9
615.337	12791.87
615.693	12725.2
616.05	12718.87
616.406	12767.01
616.762	12706.45
617.118	12717.74
617.475	12682.94
617.831	12799.1
618.187	12781.25
618.543	12738.76
618.899	12861.47
619.255	12765.88
619.611	12859.44
619.967	12836.84
620.323	12847.46
620.678	12775.37
621.034	12743.96
621.39	12727.69
621.746	12742.6
622.101	12884.52
622.457	12769.49
622.812	12838.19
623.168	12866.22
623.523	12757.97
623.879	12942.6
624.234	12759.55
624.589	12865.54
624.945	12787.35
625.3	12830.51
625.655	12881.58
626.01	12867.8
626.365	12867.35
626.72	12899.66
627.075	12861.7
627.43	12769.04
627.785	12827.57
628.14	12855.59
628.495	12845.42
628.85	12897.63
629.205	12874.8
629.559	12911.64
629.914	12798.87
630.269	12851.53
630.623	12800.91
630.978	12701.47
631.332	12821.24
631.687	12833.22
632.041	12791.19
632.396	12780.34
632.75	12654.02
633.104	12696.73
633.459	12664.86
633.813	12627.13
634.167	12602.49
634.521	12738.31
634.875	12677.52
635.229	12645.43
635.583	12502.16
635.937	12551.87
636.291	12494.25
636.645	12523.17
636.999	12447.47
637.352	12423.97
637.706	12402.27
638.06	12443.4
638.413	12472.1
638.767	12357.53
639.121	12432.78
639.474	12403.63
639.828	12292.9
640.181	12381.48
640.534	12362.5
640.888	12281.37
641.241	12293.8
641.594	12366.57
641.947	12296.96
642.301	12266.23
642.654	12282.5
643.007	12330.64
643.36	12197.08
643.713	12268.26
644.066	12333.12
644.419	12199.34
644.771	12181.49
645.124	12004.09
645.477	12045.67
645.83	11948.73
646.182	11807.94
646.535	11804.55
646.888	11805.23
647.24	11867.6
647.593	11807.26
647.945	11792.57
648.298	11813.14
648.65	11715.29
649.002	11694.27
649.355	11775.62
649.707	11657.43
650.059	11711.44
650.411	11941.95
650.763	11907.82
651.115	12039.57
651.467	11889.29
651.819	11833.7
652.171	11945.11
652.523	11908.95
652.875	11874.15
653.227	11807.71
653.578	11942.4
653.93	11874.15
654.282	11789.86
654.633	11772.23
654.985	11786.47
655.337	11816.75
655.688	11820.37
656.039	11816.07
656.391	11685.91
656.742	11755.96
657.094	11783.31
657.445	11844.32
657.796	11824.43
658.147	11800.48
658.498	11750.76
658.849	11884.09
659.2	11727.04
659.551	11793.7
659.902	11822.18
660.253	11808.39
660.604	11754.15
660.955	11747.6
661.306	11812.68
661.656	11658.56
662.007	11717.55
662.358	11740.14
662.708	11675.29
663.059	11641.61
663.409	11580.15
663.76	11691.33
664.11	11624.44
664.461	11666.47
664.811	11699.47
665.161	11641.16
665.511	11544.44
665.862	11631.45
666.212	11640.48
666.562	11604.33
666.912	11530.88
667.262	11548.74
667.612	11512.13
667.962	11527.49
668.312	11518.23
668.662	11597.55
669.011	11530.43
669.361	11465.35
669.711	11457.66
670.06	11519.13
670.41	11390.55
670.76	11419.93
671.109	11476.87
671.459	11403.88
671.808	11405.46
672.157	11422.19
672.507	11375.18
672.856	11392.81
673.205	11466.03
673.554	11507.83
673.904	11364.56
674.253	11474.84
674.602	11446.37
674.951	11291.12
675.3	11205.69
675.649	11355.97
675.998	11427.84
676.346	11380.15
676.695	11431
677.044	11395.07
677.393	11359.59
677.741	11347.16
678.09	11281.85
678.438	11313.49
678.787	11235.75
679.135	11266.94
679.484	11174.96
679.832	11256.31
680.181	11170.21
680.529	11187.16
680.877	11196.65
681.225	11167.5
681.573	11280.95
681.922	11091.57
682.27	11127.5
682.618	11133.15
682.966	11004.8
683.314	11153.27
683.661	11043.66
684.009	11065.58
684.357	10952.14
684.705	11020.16
685.053	11092.93
685.4	10969.99
685.748	10891.8
686.095	10909.2
686.443	10820.39
686.79	10796.67
687.138	10783.33
687.485	10752.15
687.832	10741.07
688.18	10782.2
688.527	10713.05
688.874	10684.13
689.221	10630.57
689.568	10633.28
689.915	10606.61
690.262	10624.01
690.609	10582.89
690.956	10541.3
691.303	10535.88
691.65	10463.79
691.997	10551.25
692.344	10392.16
692.69	10431.7
693.037	10437.13
693.383	10400.74
693.73	10362.1
694.077	10345.6
694.423	10373.85
694.769	10264.02
695.116	10334.3
695.462	10247.98
695.808	10266.74
696.155	10291.59
696.501	10213.63
696.847	10216.57
697.193	10140.19
697.539	10132.05
697.885	10061.54
698.231	10074.2
698.577	9997.82
698.923	10033.3
699.269	9946.74
699.614	9897.25
699.96	9911.26
700.306	9868.33
700.651	9852.28
700.997	9751.72
701.342	9819.97
701.688	9829.23
702.033	9757.82
702.379	9749.46
702.724	9749.01
703.069	9687.32
703.415	9611.61
703.76	9617.26
704.105	9590.82
704.45	9614.32
704.795	9573.65
705.14	9531.84
705.485	9490.48
705.83	9443.93
706.175	9410.04
706.52	9421.56
706.865	9384.72
707.209	9370.04
707.554	9351.73
707.899	9315.8
708.243	9357.83
708.588	9267.21
708.932	9344.05
709.277	9256.37
709.621	9330.72
709.966	9238.74
710.31	9236.71
710.654	9148.35
710.998	9175.01
711.342	9245.29
711.687	9166.2
712.031	9104.05
712.375	9066.77
712.719	9068.12
713.063	9073.77
713.407	9123.94
713.75	9074.45
714.094	9075.81
714.438	9012.76
714.782	8969.59
715.125	8927.56
715.469	8949.71
715.812	8883.95
716.156	8887.11
716.499	8854.34
716.843	8876.94
717.186	8873.33
717.53	8843.72
717.873	8849.37
718.216	8844.85
718.559	8776.83
718.902	8717.17
719.246	8720.56
719.589	8687.34
719.932	8723.05
720.275	8670.17
720.617	8623.62
720.96	8659.09
721.303	8588.36
721.646	8614.8
721.989	8554.92
722.331	8554.01
722.674	8540.91
723.016	8575.48
723.359	8534.35
723.701	8516.27
724.044	8482.6
724.386	8474.69
724.729	8446.67
725.071	8407.35
725.413	8403.51
725.755	8455.94
726.097	8406.22
726.439	8374.81
726.782	8406.67
727.124	8412.55
727.465	8353.79
727.807	8285.77
728.149	8364.19
728.491	8366.67
728.833	8284.64
729.175	8315.6
729.516	8273.12
729.858	8274.7
730.199	8293.45
730.541	8285.77
730.882	8232.44
731.224	8257.75
731.565	8168.26
731.906	8239.44
732.248	8231.76
732.589	8171.88
732.93	8184.98
733.271	8163.29
733.612	8200.8
733.953	8136.62
734.294	8131.88
734.635	8133.68
734.976	8143.4
735.317	8117.64
735.658	8091.2
735.999	8129.84
736.339	8067.47
736.68	8075.61
737.021	7997.19
737.361	7965.55
737.702	7972.33
738.042	8016.63
738.383	8012.33
738.723	8000.81
739.063	7942.5
739.404	7975.27
739.744	7896.18
740.084	7918.55
740.424	7864.09
740.764	7896.63
741.104	7892.33
741.444	7853.47
741.784	7828.83
742.124	7819.79
742.464	7793.81
742.804	7831.09
743.143	7754.94
743.483	7763.98
743.823	7692.57
744.162	7744.77
744.502	7779.57
744.841	7676.97
745.181	7762.85
745.52	7717.42
745.86	7784.09
746.199	7711.55
746.538	7650.53
746.877	7645.11
747.216	7625.45
747.556	7608.5
747.895	7643.75
748.234	7625.22
748.573	7571.89
748.911	7574.83
749.25	7594.49
749.589	7568.5
749.928	7555.17
750.267	7587.71
750.605	7551.33
750.944	7524.43
751.283	7449.63
751.621	7510.65
751.96	7434.27
752.298	7473.59
752.636	7442.63
752.975	7403.99
753.313	7335.97
753.651	7377.32
753.989	7363.08
754.327	7319.02
754.666	7331.22
755.004	7313.37
755.342	7258.23
755.679	7256.19
756.017	7190.43
756.355	7243.99
756.693	7202.18
757.031	7222.75
757.368	7131
757.706	7157.89
758.044	7103.2
758.381	7176.87
758.719	7153.15
759.056	7186.36
759.394	7106.59
759.731	7076.54
760.068	7015.3
760.405	6941.4
760.743	6997.67
761.08	6985.01
761.417	6950.66
761.754	6981.4
762.091	6945.92
762.428	6932.36
