Data from black_metal_pc_casing_FLMS001491_00072.txt Node
Date: Wed Feb 08 14:33:28 GMT 2017
User: dcchb
Spectrometer: FLMS00149
Trigger mode: 0
Integration Time (sec): 2.000000E-2
Scans to average: 10
Electric dark correction enabled: true
Nonlinearity correction enabled: false
Boxcar width: 0
XAxis mode: Wavelengths
Number of Pixels in Spectrum: 2048
>>>>>Begin Spectral Data<<<<<
341.393	-0.06
341.776	-0.06
342.16	-0.06
342.543	-56.55
342.927	-41.19
343.31	-57.91
343.693	-75.53
344.077	-50.68
344.46	-55.87
344.843	-71.69
345.226	-50.45
345.61	-19.72
345.993	-35.08
346.376	1.98
346.759	22.54
347.142	45.14
347.525	28.87
347.908	41.3
348.291	63.22
348.674	93.5
349.057	120.39
349.44	109.32
349.823	145.02
350.206	174.4
350.588	164.91
350.971	195.87
351.354	215.98
351.737	234.97
352.119	238.81
352.502	274.06
352.884	273.38
353.267	282.87
353.65	282.42
354.032	277.22
354.414	309.31
354.797	303.44
355.179	321.74
355.562	324.91
355.944	322.65
356.326	314.96
356.709	320.16
357.091	318.81
357.473	339.14
357.855	346.83
358.238	336.43
358.62	358.35
359.002	359.48
359.384	343.89
359.766	349.99
360.148	333.27
360.53	335.53
360.912	325.81
361.294	331.01
361.676	338.92
362.057	352.02
362.439	354.28
362.821	333.95
363.203	332.14
363.584	318.58
363.966	342.08
364.348	317.68
364.729	330.56
365.111	336.66
365.493	322.19
365.874	327.62
366.256	306.6
366.637	326.94
367.019	328.52
367.4	316.09
367.781	305.47
368.163	333.95
368.544	326.94
368.925	321.74
369.306	325.81
369.688	326.04
370.069	326.71
370.45	332.82
370.831	328.52
371.212	325.13
371.593	346.83
371.974	306.15
372.355	342.76
372.736	330.56
373.117	322.65
373.498	324.23
373.879	329.2
374.26	331.69
374.641	331.69
375.021	341.18
375.402	325.58
375.783	334.62
376.163	360.16
376.544	352.7
376.925	334.62
377.305	345.02
377.686	338.24
378.066	331.46
378.447	349.54
378.827	319.03
379.208	352.48
379.588	332.14
379.968	346.38
380.349	339.37
380.729	353.61
381.109	349.54
381.489	356.09
381.87	354.06
382.25	355.41
382.63	346.83
383.01	356.54
383.39	361.52
383.77	375.07
384.15	349.31
384.53	364.91
384.91	374.4
385.29	382.98
385.67	365.58
386.049	398.35
386.429	380.27
386.809	383.44
387.189	388.18
387.568	376.43
387.948	378.69
388.328	379.59
388.707	366.26
389.087	395.87
389.466	384.79
389.846	380.72
390.225	381.18
390.605	407.84
390.984	399.93
391.363	397.67
391.743	391.8
392.122	411.23
392.501	403.77
392.881	386.83
393.26	403.55
393.639	416.2
394.018	420.72
394.397	409.65
394.776	418.24
395.155	431.12
395.534	411.23
395.913	418.92
396.292	416.66
396.671	457.56
397.05	433.83
397.429	439.48
397.808	429.31
398.186	425.92
398.565	429.76
398.944	450.78
399.323	427.5
399.701	460.95
400.08	461.85
400.458	461.17
400.837	454.17
401.215	476.99
401.594	458.91
401.972	459.59
402.351	462.08
402.729	457.33
403.107	460.95
403.486	471.57
403.864	458.69
404.242	487.16
404.62	487.39
404.999	482.19
405.377	503.66
405.755	477.67
406.133	489.87
406.511	485.81
406.889	493.94
407.267	518.8
407.645	502.08
408.023	500.5
408.401	519.25
408.779	518.8
409.156	516.31
409.534	524.68
409.912	536.2
410.29	521.29
410.667	526.71
411.045	561.28
411.422	547.05
411.8	561.96
412.178	566.48
412.555	535.3
412.933	556.99
413.31	573.26
413.687	575.75
414.065	583.88
414.442	583.21
414.819	590.21
415.197	590.44
415.574	601.74
415.951	585.46
416.328	601.51
416.705	599.48
417.082	594.5
417.46	589.53
417.837	612.13
418.214	626.37
418.591	635.63
418.967	624.56
419.344	627.27
419.721	646.48
420.098	637.89
420.475	643.99
420.852	664.11
421.228	654.62
421.605	669.08
421.982	662.07
422.358	679.25
422.735	667.27
423.111	688.06
423.488	691.45
423.864	702.07
424.241	695.52
424.617	719.92
424.994	713.37
425.37	684.9
425.746	717.21
426.123	699.36
426.499	718.12
426.875	716.08
427.251	725.8
427.627	741.84
428.003	731.45
428.379	743.43
428.756	775.29
429.132	753.6
429.507	756.76
429.883	788.62
430.259	798.57
430.635	778.68
431.011	815.52
431.387	827.04
431.763	829.53
432.138	815.97
432.514	832.46
432.89	831.33
433.265	870.66
433.641	849.64
434.016	872.01
434.392	885.57
434.767	908.39
435.143	873.14
435.518	904.78
435.894	912.91
436.269	916.76
436.644	941.16
437.02	921.28
437.395	940.71
437.77	944.55
438.145	952.69
438.52	935.96
438.895	977.54
439.271	971.67
439.646	988.17
440.021	978.45
440.395	997.21
440.77	986.81
441.145	1001.27
441.52	1005.79
441.895	1039.24
442.27	1011.67
442.645	1032.91
443.019	1046.47
443.394	1039.92
443.769	1071.1
444.143	1057.77
444.518	1077.88
444.892	1055.28
445.267	1072.46
445.641	1083.08
446.016	1090.54
446.39	1092.34
446.764	1094.6
447.139	1099.8
447.513	1130.08
447.887	1133.92
448.262	1136.41
448.636	1095.51
449.01	1148.16
449.384	1161.04
449.758	1167.6
450.132	1162.62
450.506	1153.13
450.88	1162.17
451.254	1163.53
451.628	1189.97
452.002	1192.23
452.376	1209.18
452.75	1220.93
453.123	1219.12
453.497	1242.85
453.871	1237.43
454.244	1267.48
454.618	1284.2
454.992	1316.52
455.365	1293.92
455.739	1319.68
456.112	1314.94
456.486	1346.57
456.859	1382.05
457.232	1366.24
457.606	1380.7
457.979	1381.6
458.352	1398.55
458.725	1450.3
459.099	1422.96
459.472	1474.48
459.845	1455.72
460.218	1463.86
460.591	1507.93
460.964	1499.57
461.337	1525.78
461.71	1544.31
462.083	1550.19
462.456	1563.97
462.829	1577.76
463.201	1597.42
463.574	1571.88
463.947	1668.6
464.32	1646.45
464.692	1645.55
465.065	1681.03
465.438	1703.4
465.81	1739.11
466.183	1730.75
466.555	1784.76
466.928	1782.72
467.3	1779.78
467.672	1822.04
468.045	1841.93
468.417	1861.59
468.789	1858.2
469.161	1871.31
469.534	1917.86
469.906	1950.17
470.278	1985.65
470.65	1971.87
471.022	2010.06
471.394	2044.18
471.766	2077.63
472.138	2072.88
472.51	2118.31
472.882	2171.41
473.253	2206.89
473.625	2206.21
473.997	2234.69
474.369	2229.26
474.74	2295.25
475.112	2311.75
475.484	2364.18
475.855	2399.43
476.227	2423.16
476.598	2442.59
476.97	2501.35
477.341	2531.18
477.713	2537.28
478.084	2618.18
478.455	2610.27
478.827	2676.94
479.198	2753.32
479.569	2749.25
479.94	2829.02
480.311	2808.68
480.682	2870.6
481.053	2960.77
481.424	2987.89
481.795	3028.11
482.166	3111.05
482.537	3110.37
482.908	3124.61
483.279	3148.79
483.65	3199.41
484.021	3284.83
484.391	3332.29
484.762	3362.11
485.133	3368.89
485.503	3436.92
485.874	3532.05
486.244	3503.58
486.615	3567.08
486.985	3649.34
487.356	3646.63
487.726	3743.57
488.097	3765.72
488.467	3785.61
488.837	3849.33
489.207	3878.71
489.578	3939.27
489.948	3985.38
490.318	4035.09
490.688	4072.83
491.058	4113.28
491.428	4174.75
491.798	4216.56
492.168	4296.78
492.538	4299.27
492.908	4358.47
493.278	4407.74
493.648	4420.17
494.017	4477.79
494.387	4494.51
494.757	4512.59
495.126	4617.68
495.496	4652.02
495.866	4619.94
496.235	4691.8
496.605	4708.52
496.974	4784.22
497.344	4828.52
497.713	4818.12
498.082	4884.11
498.452	4918.91
498.821	4934.95
499.19	4989.87
499.559	4988.96
499.928	5021.51
500.298	5075.29
500.667	5108.51
501.036	5120.94
501.405	5186.25
501.774	5204.78
502.143	5211.33
502.512	5265.12
502.88	5322.29
503.249	5308.28
503.618	5342.18
503.987	5381.95
504.356	5488.84
504.724	5440.48
505.093	5498.56
505.462	5552.79
505.83	5521.15
506.199	5571.55
506.567	5638.89
506.936	5643.18
507.304	5701.26
507.672	5741.49
508.041	5784.2
508.409	5782.16
508.777	5855.16
509.145	5945.32
509.514	5929.73
509.882	5995.94
510.25	5981.93
510.618	5995.72
510.986	6042.5
511.354	6144.41
511.722	6176.5
512.09	6259.44
512.458	6206.79
512.826	6229.38
513.193	6312.32
513.561	6368.14
513.929	6395.26
514.297	6466.67
514.664	6502.82
515.032	6539.66
515.4	6587.57
515.767	6567.23
516.135	6687
516.502	6607.91
516.869	6794.34
517.237	6783.04
517.604	6778.52
517.972	6886.54
518.339	6908.46
518.706	6985.3
519.073	6969.48
519.44	7042.92
519.808	7121.79
520.175	7025.07
520.542	7166.08
520.909	7201.79
521.276	7224.84
521.643	7311.62
522.009	7380.31
522.376	7400.88
522.743	7483.81
523.11	7581.67
523.477	7582.57
523.843	7657.6
524.21	7755.9
524.577	7764.49
524.943	7896.23
525.31	7857.82
525.676	8016.46
526.043	8022.11
526.409	8030.47
526.776	8107.75
527.142	8187.75
527.508	8187.75
527.874	8310.91
528.241	8277.47
528.607	8308.88
528.973	8436.56
529.339	8502.54
529.705	8525.6
530.071	8555.88
530.437	8618.02
530.803	8677
531.169	8649.66
531.535	8688.3
531.901	8708.87
532.267	8832.25
532.632	8826.38
532.998	8903.44
533.364	9004.45
533.73	8984.57
534.095	9029.76
534.461	9089.65
534.826	9159.25
535.192	9121.06
535.557	9301.17
535.923	9196.99
536.288	9304.56
536.653	9386.59
537.019	9346.36
537.384	9349.98
537.749	9491.22
538.114	9476.53
538.479	9493.93
538.845	9494.16
539.21	9552.23
539.575	9611.44
539.94	9653.47
540.305	9675.85
540.67	9657.09
541.034	9728.5
541.399	9772.12
541.764	9793.81
542.129	9813.47
542.494	9799.01
542.858	9904.32
543.223	9937.99
543.587	9949.74
543.952	9975.27
544.316	10041.04
544.681	10030.19
545.045	10107.7
545.41	10183.63
545.774	10151.54
546.138	10209.17
546.503	10276.74
546.867	10251.43
547.231	10274.02
547.595	10338.88
547.959	10387.92
548.324	10340.91
548.688	10388.14
549.052	10423.85
549.416	10482.61
549.779	10537.07
550.143	10534.58
550.507	10628.36
550.871	10652.32
551.235	10653.22
551.599	10728.25
551.962	10815.7
552.326	10805.31
552.689	10889.37
553.053	10814.35
553.417	10847.57
553.78	11000.78
554.143	10949.26
554.507	11033.1
554.87	11114.45
555.234	11240.33
555.597	11094.34
555.96	11217.95
556.323	11231.96
556.686	11215.24
557.05	11269.7
557.413	11374.11
557.776	11328.01
558.139	11581.33
558.502	11405.29
558.865	11531.17
559.228	11667.43
559.59	11622.01
559.953	11632.63
560.316	11801.22
560.679	11815.23
561.041	11852.97
561.404	11922.79
561.767	12010.48
562.129	11944.04
562.492	12148.32
562.854	12134.77
563.217	12078.04
563.579	12201.66
563.941	12257.47
564.304	12370.69
564.666	12396.91
565.028	12442.1
565.39	12478.26
565.753	12559.16
566.115	12594.41
566.477	12607.75
566.839	12663.11
567.201	12766.61
567.563	12748.99
567.925	12868.31
568.287	12812.04
568.648	12901.75
569.01	12943.33
569.372	13140.16
569.734	13043.89
570.095	13082.99
570.457	13177.22
570.819	13122.08
571.18	13144
571.542	13229.2
571.903	13294.06
572.265	13377.22
572.626	13357.56
572.987	13424.22
573.349	13465.13
573.71	13491.34
574.071	13536.08
574.432	13554.84
574.794	13637.33
575.155	13684.33
575.516	13576.99
575.877	13672.13
576.238	13710.77
576.599	13788.28
576.96	13770.2
577.32	13827.6
577.681	13924.55
578.042	13812.69
578.403	13796.87
578.763	13894.95
579.124	13993.02
579.485	14002.06
579.845	13988.73
580.206	13954.6
580.566	14008.84
580.927	14040.48
581.287	14109.4
581.648	14097.88
582.008	14078.67
582.368	14145.11
582.728	14130.42
583.089	14143.98
583.449	14110.53
583.809	14143.98
584.169	14117.99
584.529	14075.05
584.889	14167.03
585.249	14081.38
585.609	14058.33
585.969	14247.03
586.329	14130.87
586.688	14127.93
587.048	14180.14
587.408	14202.28
587.768	14164.54
588.127	14161.15
588.487	14148.95
588.846	14316.4
589.206	14138.33
589.565	14199.12
589.925	14250.42
590.284	14206.35
590.643	14174.26
591.003	14183.53
591.362	14230.53
591.721	14235.28
592.08	14255.84
592.44	14197.54
592.799	14145.33
593.158	14245.67
593.517	14153.47
593.876	14264.65
594.235	14256.74
594.593	14340.58
594.952	14323.41
595.311	14342.39
595.67	14373.12
596.029	14418.77
596.387	14383.52
596.746	14415.61
597.104	14338.1
597.463	14305.33
597.822	14314.82
598.18	14311.88
598.538	14399.34
598.897	14466.23
599.255	14253.58
599.613	14513.69
599.972	14562.95
600.33	14498.77
600.688	14345.1
601.046	14514.82
601.404	14543.74
601.762	14500.58
602.12	14591.65
602.478	14581.93
602.836	14612.67
603.194	14577.19
603.552	14631.2
603.91	14492.44
604.268	14567.02
604.625	14611.31
604.983	14590.29
605.341	14549.84
605.698	14640.24
606.056	14725.21
606.413	14681.82
606.771	14693.57
607.128	14675.94
607.485	14643.4
607.843	14674.59
608.2	14766.11
608.557	14768.59
608.914	14680.69
609.272	14748.93
609.629	14781.25
609.986	14871.64
610.343	14749.39
610.7	14854.02
611.057	14850.4
611.414	14872.09
611.771	14864.86
612.127	14960
612.484	14816.96
612.841	14931.53
613.198	14948.93
613.554	14923.17
613.911	15063.95
614.267	15004.52
614.624	15039.77
614.98	15030.28
615.337	15151.86
615.693	15089.94
616.05	15049.49
616.406	15121.58
616.762	15179.21
617.118	15075.48
617.475	15231.41
617.831	15071.64
618.187	15180.79
618.543	15223.27
618.899	15232.31
619.255	15104.63
619.611	15288.81
619.967	15220.79
620.323	15313.67
620.678	15194.12
621.034	15152.09
621.39	15202.93
621.746	15214.23
622.101	15327.22
622.457	15212.42
622.812	15253.78
623.168	15360.22
623.523	15230.5
623.879	15365.87
624.234	15204.29
624.589	15312.99
624.945	15226.21
625.3	15274.34
625.655	15272.99
626.01	15287
626.365	15267.11
626.72	15287.23
627.075	15294.46
627.43	15240.9
627.785	15236.15
628.14	15188.7
628.495	15292.2
628.85	15222.37
629.205	15191.18
629.559	15253.78
629.914	15179.66
630.269	15208.36
630.623	15156.61
630.978	15082.71
631.332	15211.52
631.687	15228.24
632.041	15157.74
632.396	15185.98
632.75	15084.07
633.104	15008.59
633.459	15023.28
633.813	15071.64
634.167	15122.94
634.521	15020.57
634.875	15084.74
635.229	15000
635.583	14902.38
635.937	14896.05
636.291	14980.34
636.645	14991.64
636.999	14936.5
637.352	14956.61
637.706	14895.37
638.06	14940.79
638.413	14907.35
638.767	14795.49
639.121	14839.1
639.474	14750.29
639.828	14795.71
640.181	14832.1
640.534	14783.96
640.888	14692.66
641.241	14658.32
641.594	14653.57
641.947	14702.61
642.301	14674.59
642.654	14742.83
643.007	14731.99
643.36	14663.51
643.713	14620.58
644.066	14616.51
644.419	14578.09
644.771	14494.48
645.124	14277.08
645.477	14334.71
645.83	14236.41
646.182	14112.79
646.535	14089.74
646.888	14121.38
647.24	14024.43
647.593	14128.84
647.945	14070.53
648.298	13969.75
648.65	13919.35
649.002	13920.93
649.355	14037.99
649.707	13957.32
650.059	13982.63
650.411	14216.97
650.763	14167.48
651.115	14299.68
651.467	14301.04
651.819	14233.69
652.171	14210.87
652.523	14211.32
652.875	14246.57
653.227	14181.27
653.578	14247.93
653.93	14246.35
654.282	14137.65
654.633	14091.78
654.985	14163.19
655.337	14186.24
655.688	14099.91
656.039	14220.81
656.391	13941.72
656.742	14056.3
657.094	14099.69
657.445	14153.02
657.796	14062.4
658.147	14063.98
658.498	13950.09
658.849	14020.82
659.2	13998.9
659.551	13971.1
659.902	14098.1
660.253	13915.96
660.604	14052.91
660.955	13922.29
661.306	13976.75
661.656	13918.67
662.007	13978.33
662.358	13959.35
662.708	13985.34
663.059	13929.97
663.409	13883.19
663.76	13951.67
664.11	13876.41
664.461	13939.46
664.811	13923.87
665.161	13934.94
665.511	13932.23
665.862	13885.91
666.212	13872.35
666.562	13934.27
666.912	13891.78
667.262	13886.13
667.612	13811.78
667.962	13860.82
668.312	13889.07
668.662	14014.72
669.011	13923.65
669.361	13898.56
669.711	13858.79
670.06	13789.86
670.41	13867.6
670.76	13816.76
671.109	13836.42
671.459	13833.7
671.808	13739.24
672.157	13804.33
672.507	13708.06
672.856	13755.97
673.205	13761.62
673.554	13848.84
673.904	13713.03
674.253	13741.05
674.602	13743.08
674.951	13493.37
675.3	13455.63
675.649	13718.45
675.998	13681.84
676.346	13611.11
676.695	13788.73
677.044	13623.31
677.393	13608.4
677.741	13585.35
678.09	13603.2
678.438	13626.03
678.787	13558.68
679.135	13535.63
679.484	13469.42
679.832	13481.85
680.181	13416.77
680.529	13496.31
680.877	13402.53
681.225	13418.35
681.573	13546.48
681.922	13410.66
682.27	13371.12
682.618	13286.15
682.966	13337.9
683.314	13334.28
683.661	13320.95
684.009	13310.55
684.357	13264.23
684.705	13239.37
685.053	13287.05
685.4	13208.41
685.748	13177
686.095	13146.04
686.443	13068.75
686.79	13094.29
687.138	13090.67
687.485	13030.79
687.832	13037.57
688.18	13025.59
688.527	12877.35
688.874	12983.56
689.221	12896.55
689.568	12902.43
689.915	12866.05
690.262	12844.58
690.609	12793.96
690.956	12809.55
691.303	12669.67
691.65	12716.45
691.997	12684.13
692.344	12663.11
692.69	12544.47
693.037	12612.04
693.383	12492.95
693.73	12537.69
694.077	12512.83
694.423	12433.29
694.769	12435.32
695.116	12463.57
695.462	12343.57
695.808	12292.28
696.155	12386.06
696.501	12273.07
696.847	12371.14
697.193	12141.09
697.539	12205.5
697.885	12101.09
698.231	12052.73
698.577	12026.97
698.923	12083.47
699.269	11951.72
699.614	11976.58
699.96	11904.26
700.306	11963.92
700.651	11897.94
700.997	11840.08
701.342	11786.07
701.688	11827.88
702.033	11709.69
702.379	11723.48
702.724	11717.83
703.069	11690.03
703.415	11641.22
703.76	11561.67
704.105	11609.81
704.45	11610.49
704.795	11456.59
705.14	11482.13
705.485	11496.59
705.83	11422.92
706.175	11393.32
706.52	11329.14
706.865	11318.97
707.209	11313.09
707.554	11328.01
707.899	11347.22
708.243	11301.12
708.588	11233.77
708.932	11173.89
709.277	11152.42
709.621	11134.11
709.966	11095.7
710.31	11114.23
710.654	11073.1
710.998	11029.03
711.342	11081.69
711.687	10995.36
712.031	11013.21
712.375	10992.65
712.719	10946.1
713.063	10916.04
713.407	11041.46
713.75	10958.75
714.094	10839.88
714.438	10799.89
714.782	10845.76
715.125	10843.05
715.469	10757.17
715.812	10725.09
716.156	10748.14
716.499	10771.19
716.843	10736.61
717.186	10641.47
717.53	10636.27
717.873	10688.93
718.216	10653.9
718.559	10611.19
718.902	10541.81
719.246	10549.04
719.589	10461.36
719.932	10441.48
720.275	10462.27
720.617	10480.35
720.96	10498.42
721.303	10462.27
721.646	10491.42
721.989	10369.84
722.331	10408.48
722.674	10443.74
723.016	10369.84
723.359	10378.65
723.701	10370.97
724.044	10235.83
724.386	10258.2
724.729	10343.4
725.071	10255.95
725.413	10254.14
725.755	10236.51
726.097	10218.43
726.439	10184.08
726.782	10096.63
727.124	10167.81
727.465	10094.82
727.807	10166.68
728.149	10128.72
728.491	10166.23
728.833	10115.61
729.175	10067.02
729.516	10089.17
729.858	10056.4
730.199	9980.7
730.541	9959.23
730.882	9955.61
731.224	9980.47
731.565	9911.55
731.906	9992
732.248	9984.54
732.589	9927.37
732.93	9824.09
733.271	9886.69
733.612	9896.86
733.953	9867.48
734.294	9880.36
734.635	9755.85
734.976	9843.75
735.317	9769.4
735.658	9724.43
735.999	9797.88
736.339	9727.37
736.68	9776.41
737.021	9750.2
737.361	9720.14
737.702	9750.87
738.042	9625.45
738.383	9622.52
738.723	9705.45
739.063	9568.51
739.404	9627.71
739.744	9653.7
740.084	9636.07
740.424	9650.76
740.764	9538.68
741.104	9644.44
741.444	9528.96
741.784	9466.14
742.124	9512.24
742.464	9491.22
742.804	9517.89
743.143	9487.6
743.483	9483.99
743.823	9398.34
744.162	9420.49
744.502	9397.21
744.841	9457.55
745.181	9445.57
745.52	9382.52
745.86	9396.98
746.199	9314.05
746.538	9328.74
746.877	9380.49
747.216	9330.77
747.556	9279.25
747.895	9287.16
748.234	9308.17
748.573	9296.87
748.911	9273.37
749.25	9272.47
749.589	9132.81
749.928	9259.81
750.267	9281.06
750.605	9158.12
750.944	9191.79
751.283	9109.76
751.621	9132.81
751.96	9039.93
752.298	9044.9
752.636	9072.25
752.975	9044.23
753.313	8919.26
753.651	8991.12
753.989	8947.28
754.327	8951.57
754.666	8869.54
755.004	8937.11
755.342	8901.86
755.679	8908.41
756.017	8842.42
756.355	8872.03
756.693	8846.94
757.031	8841.07
757.368	8748.41
757.706	8719.49
758.044	8745.7
758.381	8722.88
758.719	8688.75
759.056	8684.23
