Data from black_metal_pc_casing_FLMS001491_00037.txt Node
Date: Wed Feb 08 14:32:35 GMT 2017
User: dcchb
Spectrometer: FLMS00149
Trigger mode: 0
Integration Time (sec): 2.000000E-2
Scans to average: 10
Electric dark correction enabled: true
Nonlinearity correction enabled: false
Boxcar width: 0
XAxis mode: Wavelengths
Number of Pixels in Spectrum: 2048
>>>>>Begin Spectral Data<<<<<
341.393	-10.07
341.776	-10.07
342.16	-10.07
342.543	-43.97
342.927	-65.21
343.31	-80.35
343.693	-73.57
344.077	-68.37
344.46	-43.29
344.843	-48.26
345.226	-46.45
345.61	-22.5
345.993	-12.1
346.376	-18.21
346.759	15.24
347.142	8.46
347.525	58.18
347.908	42.36
348.291	78.29
348.674	92.98
349.057	117.61
349.44	135.91
349.823	137.04
350.206	147.89
350.588	177.72
350.971	198.06
351.354	197.16
351.737	212.52
352.119	233.54
352.502	237.38
352.884	251.39
353.267	257.72
353.65	285.97
354.032	286.65
354.414	305.18
354.797	281.9
355.179	315.8
355.562	310.83
355.944	312.86
356.326	323.25
356.709	316.25
357.091	330.94
357.473	318.96
357.855	312.18
358.238	330.71
358.62	331.84
359.002	329.81
359.384	303.82
359.766	335.91
360.148	318.73
360.53	328
360.912	335.46
361.294	314.21
361.676	323.93
362.057	294.1
362.439	311.96
362.821	320.09
363.203	312.41
363.584	312.63
363.966	316.25
364.348	304.05
364.729	314.44
365.111	313.31
365.493	290.26
365.874	315.34
366.256	311.05
366.637	283.26
367.019	314.44
367.4	280.77
367.781	317.6
368.163	308.79
368.544	304.95
368.925	311.73
369.306	319.64
369.688	293.88
370.069	298.85
370.45	303.14
370.831	302.46
371.212	305.4
371.593	294.1
371.974	294.55
372.355	303.59
372.736	311.73
373.117	306.53
373.498	333.88
373.879	298.62
374.26	300.2
374.641	308.79
375.021	317.15
375.402	330.03
375.783	303.37
376.163	325.97
376.544	343.82
376.925	311.28
377.305	328.68
377.686	312.86
378.066	343.37
378.447	316.25
378.827	337.49
379.208	316.47
379.588	350.15
379.968	320.09
380.349	320.77
380.729	326.42
381.109	320.54
381.489	326.64
381.87	335.01
382.25	327.32
382.63	325.06
383.01	333.88
383.39	352.63
383.77	341.33
384.15	339.98
384.53	349.24
384.91	354.21
385.29	329.81
385.67	354.89
386.049	356.02
386.429	320.09
386.809	366.87
387.189	351.95
387.568	347.89
387.948	350.82
388.328	361.9
388.707	351.5
389.087	386.3
389.466	360.77
389.846	362.58
390.225	355.34
390.605	383.37
390.984	367.77
391.363	358.28
391.743	364.84
392.122	358.96
392.501	360.99
392.881	388.56
393.26	379.07
393.639	366.42
394.018	389.92
394.397	388.79
394.776	380.88
395.155	387.21
395.534	404.16
395.913	390.82
396.292	387.66
396.671	397.83
397.05	394.66
397.429	390.82
397.808	415.23
398.186	422.01
398.565	407.55
398.944	411.39
399.323	414.78
399.701	395.34
400.08	407.77
400.458	421.1
400.837	391.05
401.215	408
401.594	421.1
401.972	432.63
402.351	408.68
402.729	421.1
403.107	442.12
403.486	428.56
403.864	429.47
404.242	440.31
404.62	419.97
404.999	441.22
405.377	447.77
405.755	426.75
406.133	452.29
406.511	462.23
406.889	444.83
407.267	485.74
407.645	449.35
408.023	458.39
408.401	454.78
408.779	480.54
409.156	473.08
409.534	475.79
409.912	466.98
410.29	481.89
410.667	472.63
411.045	499.52
411.422	490.03
411.8	502.68
412.178	496.58
412.555	506.75
412.933	523.93
413.31	500.88
413.687	501.55
414.065	524.83
414.442	524.6
414.819	537.49
415.197	512.18
415.574	543.36
415.951	551.27
416.328	538.84
416.705	553.08
417.082	546.07
417.46	563.93
417.837	569.8
418.214	549.24
418.591	556.24
418.967	549.69
419.344	569.58
419.721	578.61
420.098	565.28
420.475	561.67
420.852	575.9
421.228	587.2
421.605	587.88
421.982	563.47
422.358	599.41
422.735	586.98
423.111	592.85
423.488	616.58
423.864	597.82
424.241	621.33
424.617	611.61
424.994	608.22
425.37	659.29
425.746	624.94
426.123	646.41
426.499	636.47
426.875	644.15
427.251	651.61
427.627	663.13
428.003	659.29
428.379	638.95
428.756	674.21
429.132	686.18
429.507	683.24
429.883	657.71
430.259	695
430.635	683.92
431.011	704.71
431.387	730.48
431.763	704.26
432.138	723.7
432.514	721.89
432.89	731.38
433.265	758.5
433.641	738.61
434.016	745.16
434.392	744.26
434.767	782.23
435.143	767.76
435.518	744.71
435.894	772.51
436.269	821.09
436.644	810.93
437.02	803.02
437.395	820.64
437.77	803.24
438.145	817.03
438.52	831.04
438.895	819.74
439.271	819.51
439.646	860.42
440.021	848.89
440.395	857.48
440.77	854.77
441.145	863.35
441.52	874.2
441.895	877.36
442.27	890.24
442.645	887.53
443.019	887.08
443.394	872.84
443.769	889.12
444.143	891.6
444.518	904.93
444.892	911.04
445.267	914.2
445.641	937.02
446.016	924.37
446.39	938.38
446.764	932.96
447.139	953.52
447.513	934.99
447.887	935.67
448.262	948.55
448.636	956.01
449.01	952.62
449.384	965.5
449.758	970.02
450.132	996.23
450.506	1007.76
450.88	995.55
451.254	1009.56
451.628	996.46
452.002	1009.11
452.376	1030.13
452.75	1054.53
453.123	1023.57
453.497	1039.17
453.871	1054.53
454.244	1072.84
454.618	1069.22
454.992	1084.82
455.365	1087.3
455.739	1126.17
456.112	1130.92
456.486	1138.15
456.859	1134.31
457.232	1188.09
457.606	1147.87
457.979	1187.41
458.352	1175.44
458.725	1212.5
459.099	1238.71
459.472	1215.66
459.845	1224.93
460.218	1233.96
460.591	1262.66
460.964	1250.01
461.337	1283.23
461.71	1302.21
462.083	1301.31
462.456	1312.61
462.829	1330.46
463.201	1346.05
463.574	1333.4
463.947	1362.77
464.32	1378.59
464.692	1380.18
465.065	1383.57
465.438	1419.04
465.81	1438.93
466.183	1463.79
466.555	1465.37
466.928	1482.09
467.3	1486.39
467.672	1498.36
468.045	1546.05
468.417	1526.61
468.789	1515.99
469.161	1565.48
469.534	1571.58
469.906	1641.86
470.278	1635.99
470.65	1647.51
471.022	1673.95
471.394	1691.35
471.766	1712.6
472.138	1717.79
472.51	1752.37
472.882	1774.74
473.253	1805.7
473.625	1796.44
473.997	1877.11
474.369	1875.98
474.74	1860.16
475.112	1907.62
475.484	1953.49
475.855	1968.86
476.227	1970.89
476.598	2034.85
476.97	1999.59
477.341	2052.02
477.713	2125.01
478.084	2113.26
478.455	2132.92
478.827	2186.71
479.198	2243.66
479.569	2224
479.94	2292.02
480.311	2308.74
480.682	2341.28
481.053	2406.14
481.424	2446.81
481.795	2470.32
482.166	2505.57
482.537	2520.03
482.908	2549.64
483.279	2579.24
483.65	2655.17
484.021	2712.57
484.391	2709.63
484.762	2687.94
485.133	2742.17
485.503	2805.67
485.874	2859.91
486.244	2859.01
486.615	2936.97
486.985	2902.4
487.356	2990.53
487.726	3017.65
488.097	3062.17
488.467	3068.04
488.837	3175.38
489.207	3143.75
489.578	3240.92
489.948	3197.98
490.318	3265.55
490.688	3283.18
491.058	3372.89
491.428	3379.9
491.798	3374.02
492.168	3477.3
492.538	3498.09
492.908	3499.44
493.278	3582.15
493.648	3611.53
494.017	3623.73
494.387	3613.79
494.757	3674.8
495.126	3751.86
495.496	3764.07
495.866	3771.53
496.235	3796.38
496.605	3776.95
496.974	3839.55
497.344	3881.8
497.713	3883.61
498.082	3922.71
498.452	3985.3
498.821	3991.18
499.19	4040.22
499.559	4051.97
499.928	4031.63
500.298	4108.92
500.667	4113.21
501.036	4120.89
501.405	4144.62
501.774	4197.95
502.143	4208.8
502.512	4221.46
502.88	4273.88
503.249	4236.6
503.618	4293.09
503.987	4321.79
504.356	4375.8
504.724	4370.38
505.093	4412.86
505.462	4428.91
505.83	4474.11
506.199	4484.5
506.567	4534.22
506.936	4533.31
507.304	4598.85
507.672	4612.63
508.041	4658.28
508.409	4727.66
508.777	4742.35
509.145	4756.81
509.514	4750.71
509.882	4863.02
510.25	4851.27
510.618	4924.26
510.986	4883.59
511.354	4898.28
511.722	4965.62
512.09	5002.91
512.458	5018.27
512.826	5049.01
513.193	5078.16
513.561	5081.77
513.929	5157.25
514.297	5173.52
514.664	5220.3
515.032	5227.53
515.4	5272.28
515.767	5346.62
516.135	5343.91
516.502	5355.89
516.869	5423.23
517.237	5453.06
517.604	5475.66
517.972	5514.98
518.339	5579.61
518.706	5589.56
519.073	5644.47
519.44	5657.8
519.808	5743.9
520.175	5733.73
520.542	5785.03
520.909	5836.56
521.276	5841.53
521.643	5926.5
522.009	5916.1
522.376	5979.15
522.743	5988.87
523.11	6003.33
523.477	6116.32
523.843	6103.22
524.21	6205.81
524.577	6284.68
524.943	6309.31
525.31	6387.05
525.676	6389.99
526.043	6408.97
526.409	6493.49
526.776	6545.01
527.142	6535.29
527.508	6598.34
527.874	6596.76
528.241	6670.88
528.607	6664.1
528.973	6824.33
529.339	6744.1
529.705	6826.13
530.071	6863.65
530.437	6900.93
530.803	6966.7
531.169	6977.99
531.535	6993.14
531.901	7045.79
532.267	7061.16
532.632	7111.1
532.998	7133.02
533.364	7196.29
533.73	7220.7
534.095	7288.72
534.461	7300.47
534.826	7299.34
535.192	7342.05
535.557	7399.68
535.923	7412.11
536.288	7434.93
536.653	7558.54
537.019	7516.96
537.384	7556.51
537.749	7541.37
538.114	7615.27
538.479	7545.66
538.845	7670.86
539.21	7630.18
539.575	7707.01
539.94	7737.3
540.305	7779.33
540.67	7803.28
541.034	7905.43
541.399	7902.26
541.764	7882.6
542.129	7899.78
542.494	7950.4
542.858	8008.48
543.223	7937.07
543.587	8070.17
543.952	8020
544.316	8069.72
544.681	8102.71
545.045	8160.79
545.41	8165.31
545.774	8258.41
546.138	8169.6
546.503	8252.54
546.867	8290.73
547.231	8273.33
547.595	8326.66
547.959	8389.03
548.324	8372.76
548.688	8398.52
549.052	8474
549.416	8478.07
549.779	8499.08
550.143	8484.62
550.507	8598.52
550.871	8597.16
551.235	8626.54
551.599	8659.31
551.962	8682.13
552.326	8762.13
552.689	8773.65
553.053	8707.44
553.417	8817.27
553.78	8901.79
554.143	8861.11
554.507	8909.24
554.87	8922.58
555.234	9018.84
555.597	8938.62
555.96	9038.73
556.323	9012.74
556.686	9111.72
557.05	9131.16
557.413	9186.75
557.776	9175.68
558.139	9309.46
558.502	9313.07
558.865	9309.23
559.228	9392.85
559.59	9422
559.953	9443.01
560.316	9512.17
560.679	9515.33
561.041	9604.82
561.404	9652.73
561.767	9666.51
562.129	9647.3
562.492	9750.58
562.854	9688.43
563.217	9755.77
563.579	9873.74
563.941	9930.69
564.304	9958.03
564.666	9949.67
565.028	10048.87
565.39	9994.41
565.753	10081.42
566.115	10091.81
566.477	10183.11
566.839	10250.45
567.201	10317.79
567.563	10391.24
567.925	10408.86
568.287	10422.88
568.648	10426.27
569.01	10483.44
569.372	10521.4
569.734	10546.04
570.095	10616.77
570.457	10648.63
570.819	10685.24
571.18	10699.03
571.542	10744.45
571.903	10744.22
572.265	10801.4
572.626	10879.81
572.987	10818.57
573.349	10899.93
573.71	10897.21
574.071	10915.07
574.432	10970.43
574.794	10989.64
575.155	11042.97
575.516	11000.71
575.877	11085.68
576.238	11066.7
576.599	11150.31
576.96	11207.49
577.32	11188.05
577.681	11249.52
578.042	11230.09
578.403	11211.78
578.763	11279.8
579.124	11309.18
579.485	11334.49
579.845	11383.08
580.206	11346.02
580.566	11385.34
580.927	11356.86
581.287	11424.88
581.648	11416.97
582.008	11449.52
582.368	11392.79
582.728	11430.53
583.089	11493.13
583.449	11364.32
583.809	11422.4
584.169	11447.26
584.529	11422.62
584.889	11507.37
585.249	11404.32
585.609	11397.99
585.969	11536.52
586.329	11420.59
586.688	11456.07
587.048	11454.26
587.408	11459.01
587.768	11491.55
588.127	11523.19
588.487	11469.4
588.846	11583.07
589.206	11512.34
589.565	11462.4
589.925	11522.06
590.284	11491.77
590.643	11486.35
591.003	11480.7
591.362	11564.09
591.721	11574.48
592.08	11492.45
592.44	11574.03
592.799	11495.84
593.158	11540.59
593.517	11567.48
593.876	11563.41
594.235	11597.99
594.593	11570.64
594.952	11563.64
595.311	11505.79
595.67	11551.21
596.029	11612.67
596.387	11621.04
596.746	11717.08
597.104	11649.96
597.463	11663.75
597.822	11602.96
598.18	11634.82
598.538	11646.8
598.897	11637.98
599.255	11583.98
599.613	11781.48
599.972	11655.84
600.33	11682.96
600.688	11716.85
601.046	11710.75
601.404	11811.09
601.762	11732.9
602.12	11839.34
602.478	11813.12
602.836	11822.39
603.194	11773.35
603.552	11802.27
603.91	11698.55
604.268	11830.3
604.625	11754.37
604.983	11857.19
605.341	11767.25
605.698	11886.57
606.056	11920.46
606.413	11848.6
606.771	11930.41
607.128	11946.23
607.485	11868.26
607.843	11884.31
608.2	11966.34
608.557	11921.59
608.914	11914.14
609.272	12020.35
609.629	12004.53
609.986	12104.41
610.343	12056.51
610.7	12138.08
611.057	12034.58
611.414	12068.48
611.771	12096.96
612.127	12144.41
612.484	12067.13
612.841	12214.47
613.198	12139.21
613.554	12132.89
613.911	12191.42
614.267	12140.34
614.624	12190.96
614.98	12264.18
615.337	12288.82
615.693	12198.2
616.05	12258.99
616.406	12304.41
616.762	12297.18
617.118	12253.56
617.475	12375.14
617.831	12451.3
618.187	12306.22
618.543	12367.91
618.899	12449.72
619.255	12335.37
619.611	12403.39
619.967	12375.37
620.323	12428.25
620.678	12340.57
621.034	12375.14
621.39	12400.9
621.746	12345.54
622.101	12507.11
622.457	12390.51
622.812	12361.81
623.168	12453.33
623.523	12374.01
623.879	12429.83
624.234	12386.44
624.589	12448.13
624.945	12373.11
625.3	12492.65
625.655	12433.22
626.01	12418.53
626.365	12417.4
626.72	12413.56
627.075	12355.71
627.43	12378.3
627.785	12446.1
628.14	12372.43
628.495	12393.45
628.85	12383.28
629.205	12332.66
629.559	12424.18
629.914	12312.09
630.269	12313.9
630.623	12324.29
630.978	12294.46
631.332	12362.49
631.687	12322.71
632.041	12371.3
632.396	12360
632.75	12334.46
633.104	12273.67
633.459	12213.56
633.813	12287.01
634.167	12255.82
634.521	12263.96
634.875	12267.8
635.229	12241.81
635.583	12213.56
635.937	12252.88
636.291	12239.55
636.645	12196.84
636.999	12129.5
637.352	12128.14
637.706	12049.27
638.06	12117.07
638.413	12127.24
638.767	12106.45
639.121	12145.99
639.474	12076.84
639.828	12012.89
640.181	12041.14
640.534	12033.68
640.888	12007.92
641.241	11922.95
641.594	11922.95
641.947	11995.94
642.301	11973.8
642.654	11909.62
643.007	11956.85
643.36	11939.45
643.713	11868.26
644.066	11975.38
644.419	11854.7
644.771	11751.2
645.124	11683.63
645.477	11623.52
645.83	11544.43
646.182	11520.25
646.535	11463.98
646.888	11451.1
647.24	11567.48
647.593	11545.56
647.945	11513.02
648.298	11386.24
648.65	11390.99
649.002	11469.4
649.355	11417.65
649.707	11432.79
650.059	11475.28
650.411	11642.96
650.763	11594.14
651.115	11717.3
651.467	11643.41
651.819	11653.58
652.171	11678.21
652.523	11560.47
652.875	11586.01
653.227	11501.94
653.578	11613.58
653.93	11551.21
654.282	11596.18
654.633	11502.4
654.985	11463.53
655.337	11498.78
655.688	11513.02
656.039	11525.22
656.391	11419.91
656.742	11456.75
657.094	11449.97
657.445	11546.24
657.796	11468.72
658.147	11477.54
658.498	11459.23
658.849	11441.38
659.2	11454.26
659.551	11350.99
659.902	11445.45
660.253	11463.07
660.604	11416.97
660.955	11409.97
661.306	11363.64
661.656	11391.89
662.007	11449.06
662.358	11432.57
662.708	11428.95
663.059	11377.2
663.409	11292.68
663.76	11408.84
664.11	11398.44
664.461	11397.09
664.811	11367.71
665.161	11316.19
665.511	11329.29
665.862	11363.87
666.212	11379.91
666.562	11421.49
666.912	11428.72
667.262	11344.21
667.612	11354.83
667.962	11373.59
668.312	11305.11
668.662	11341.04
669.011	11344.89
669.361	11274.15
669.711	11346.92
670.06	11246.13
670.41	11259.01
670.76	11207.94
671.109	11240.71
671.459	11283.64
671.808	11218.33
672.157	11237.77
672.507	11177.21
672.856	11136.53
673.205	11161.84
673.554	11127.72
673.904	11206.13
674.253	11279.35
674.602	11200.03
674.951	11063.31
675.3	10990.77
675.649	11052.01
675.998	11184.66
676.346	11148.51
676.695	11108.28
677.044	11036.42
677.393	11114.83
677.741	11150.31
678.09	11059.02
678.438	11006.14
678.787	11070.09
679.135	11036.87
679.484	10983.31
679.832	11015.63
680.181	10955.07
680.529	10996.87
680.877	10951.22
681.225	10902.19
681.573	10907.38
681.922	10954.84
682.27	10913.26
682.618	10894.28
682.966	10913.48
683.314	10955.52
683.661	10846.14
684.009	10861.28
684.357	10800.94
684.705	10852.69
685.053	10748.97
685.4	10808.85
685.748	10709.42
686.095	10705.58
686.443	10675.3
686.79	10650.21
687.138	10660.84
687.485	10659.48
687.832	10683.21
688.18	10602.76
688.527	10578.13
688.874	10561.18
689.221	10496.09
689.568	10532.7
689.915	10498.58
690.262	10537.67
690.609	10426.27
690.956	10392.82
691.303	10429.88
691.65	10360.73
691.997	10349.21
692.344	10302.88
692.69	10277.57
693.037	10229.66
693.383	10181.53
693.73	10228.98
694.077	10194.41
694.423	10156.22
694.769	10198.25
695.116	10146.27
695.462	10096.1
695.808	10082.32
696.155	10077.57
696.501	9974.98
696.847	10013.85
697.193	9977.92
697.539	9941.31
697.885	9951.93
698.231	9903.34
698.577	9852.04
698.923	9851.82
699.269	9861.99
699.614	9741.54
699.96	9759.39
700.306	9798.26
700.651	9776.34
700.997	9687.3
701.342	9751.48
701.688	9640.52
702.033	9622.9
702.379	9636.91
702.724	9601.43
703.069	9576.34
703.415	9529.11
703.76	9524.82
704.105	9490.92
704.45	9521.43
704.795	9416.57
705.14	9407.54
705.485	9439.4
705.83	9428.1
706.175	9334.32
706.52	9338.84
706.865	9256.58
707.209	9272.4
707.554	9270.14
707.899	9362.11
708.243	9236.92
708.588	9196.02
708.932	9187.43
709.277	9211.83
709.621	9222.23
709.966	9120.99
710.31	9067.66
710.654	9050.71
710.998	9082.57
711.342	9041.9
711.687	9053.87
712.031	8962.58
712.375	9008.45
712.719	9029.24
713.063	9008
713.407	9069.92
713.75	8992.86
714.094	8904.95
714.438	8898.62
714.782	8850.49
715.125	8901.56
715.469	8894.55
715.812	8782.47
716.156	8768.23
716.499	8829.02
716.843	8811.84
717.186	8783.6
717.53	8760.09
717.873	8770.04
718.216	8824.05
718.559	8742.02
718.902	8625.41
719.246	8603.71
719.589	8671.74
719.932	8600.1
720.275	8631.06
720.617	8582.7
720.96	8580.66
721.303	8665.41
721.646	8629.02
721.989	8608.23
722.331	8564.85
722.674	8609.36
723.016	8511.51
723.359	8526.2
723.701	8539.99
724.044	8462.25
724.386	8391.74
724.729	8452.31
725.071	8452.08
725.413	8392.87
725.755	8413.21
726.097	8363.27
726.439	8383.16
726.782	8299.77
727.124	8434.91
727.465	8347.9
727.807	8318.3
728.149	8282.82
728.491	8287.34
728.833	8330.73
729.175	8227.45
729.516	8286.89
729.858	8264.51
730.199	8212.09
730.541	8230.39
730.882	8221.13
731.224	8228.81
731.565	8172.54
731.906	8208.02
732.248	8202.82
732.589	8137.06
732.93	8175.93
733.271	8128.02
733.612	8189.49
733.953	8056.16
734.294	8017.97
734.635	8065.65
734.976	8061.81
735.317	8035.14
735.658	8033.11
735.999	8021.58
736.339	8018.19
736.68	8038.53
737.021	7995.37
737.361	8020.9
737.702	7970.96
738.042	8023.39
738.383	7938.42
738.723	7995.82
739.063	7945.2
739.404	7935.26
739.744	7917.86
740.084	7878.99
740.424	7885.54
740.764	7864.98
741.104	7869.27
741.444	7822.72
741.784	7855.03
742.124	7802.83
742.464	7834.24
742.804	7809.61
743.143	7769.39
743.483	7774.36
743.823	7755.6
744.162	7746.79
744.502	7759.89
744.841	7730.52
745.181	7798.09
745.52	7688.94
745.86	7719.9
746.199	7714.25
746.538	7670.86
746.877	7655.49
747.216	7733
747.556	7604.19
747.895	7666.79
748.234	7655.94
748.573	7603.74
748.911	7599.45
749.25	7584.53
749.589	7547.92
749.928	7568.94
750.267	7548.15
750.605	7552.89
750.944	7568.04
751.283	7445.1
751.621	7563.29
751.96	7417.76
752.298	7496.62
752.636	7443.29
752.975	7399.68
753.313	7385.44
753.651	7435.61
753.989	7374.37
754.327	7380.47
754.666	7249.4
755.004	7337.99
755.342	7376.63
755.679	7286.91
756.017	7252.34
756.355	7258.67
756.693	7207.14
757.031	7282.85
757.368	7187.03
757.706	7222.73
758.044	7206.24
758.381	7192.23
758.719	7163.3
759.056	7137.99
759.394	7128.72
759.731	7081.95
760.068	7091.21
760.405	6999.24
760.743	7022.74
761.08	7083.3
761.417	6992.91
761.754	6909.75
762.091	6938.22
762.428	6900.48
762.765	6852.12
763.102	6917.43
