Data from black_metal_pc_casing_FLMS001491_00051.txt Node
Date: Wed Feb 08 14:33:03 GMT 2017
User: dcchb
Spectrometer: FLMS00149
Trigger mode: 0
Integration Time (sec): 2.000000E-2
Scans to average: 10
Electric dark correction enabled: true
Nonlinearity correction enabled: false
Boxcar width: 0
XAxis mode: Wavelengths
Number of Pixels in Spectrum: 2048
>>>>>Begin Spectral Data<<<<<
341.393	9.87
341.776	9.87
342.16	9.87
342.543	-48.66
342.927	-64.25
343.31	-63.8
343.693	-62.22
344.077	-64.48
344.46	-45.95
344.843	-42.56
345.226	-47.53
345.61	-31.71
345.993	-21.54
346.376	-9.34
346.759	-9.79
347.142	22.53
347.525	39.93
347.908	65.69
348.291	62.3
348.674	100.72
349.057	107.72
349.44	95.97
349.823	121.51
350.206	155.41
350.588	199.92
350.971	190.88
351.354	217.1
351.737	227.04
352.119	238.57
352.502	246.02
352.884	255.06
353.267	290.77
353.65	281.28
354.032	302.07
354.414	295.74
354.797	295.74
355.179	313.37
355.562	316.08
355.944	338.45
356.326	332.12
356.709	300.03
357.091	328.28
357.473	329.41
357.855	338.23
358.238	333.03
358.62	345.46
359.002	316.76
359.384	321.05
359.766	326.02
360.148	321.73
360.53	318.79
360.912	333.93
361.294	308.62
361.676	340.03
362.057	323.99
362.439	318.11
362.821	338.45
363.203	302.75
363.584	306.81
363.966	309.53
364.348	307.94
364.729	318.34
365.111	316.53
365.493	298
365.874	324.44
366.256	291.67
366.637	315.18
367.019	300.71
367.4	319.24
367.781	295.29
368.163	313.14
368.544	325.8
368.925	308.62
369.306	327.38
369.688	321.73
370.069	321.28
370.45	326.7
370.831	311.79
371.212	304.33
371.593	338
371.974	317.21
372.355	319.92
372.736	306.14
373.117	313.82
373.498	312.46
373.879	315.85
374.26	327.38
374.641	300.03
375.021	313.59
375.402	298.9
375.783	341.62
376.163	327.15
376.544	341.84
376.925	337.32
377.305	331.45
377.686	328.28
378.066	328.06
378.447	331.67
378.827	341.84
379.208	318.57
379.588	338.68
379.968	330.32
380.349	352.46
380.729	339.13
381.109	355.85
381.489	359.47
381.87	342.75
382.25	336.87
382.63	328.96
383.01	336.87
383.39	350.2
383.77	360.6
384.15	359.24
384.53	356.53
384.91	348.85
385.29	373.03
385.67	354.5
386.049	329.86
386.429	362.63
386.809	370.32
387.189	357.89
387.568	374.16
387.948	354.95
388.328	388.85
388.707	393.14
389.087	369.19
389.466	392.01
389.846	374.83
390.225	364.67
390.605	372.35
390.984	383.87
391.363	384.55
391.743	409.64
392.122	406.25
392.501	392.91
392.881	386.36
393.26	401.27
393.639	392.91
394.018	393.82
394.397	389.52
394.776	400.82
395.155	405.79
395.534	418.45
395.913	403.76
396.292	427.04
396.671	413.25
397.05	418
397.429	410.54
397.808	415.74
398.186	424.55
398.565	427.04
398.944	450.31
399.323	450.54
399.701	414.38
400.08	411.9
400.458	423.65
400.837	437.66
401.215	453.02
401.594	442.86
401.972	444.21
402.351	460.26
402.729	446.47
403.107	453.02
403.486	441.73
403.864	440.6
404.242	465.68
404.62	454.15
404.999	472.46
405.377	464.32
405.755	486.47
406.133	480.14
406.511	476.98
406.889	484.66
407.267	482.85
407.645	473.82
408.023	485.34
408.401	480.82
408.779	484.21
409.156	520.37
409.534	513.81
409.912	525.79
410.29	511.78
410.667	536.41
411.045	545
411.422	511.33
411.8	522.85
412.178	544.55
412.555	526.92
412.933	529.86
413.31	556.52
413.687	573.47
414.065	537.09
414.442	540.93
414.819	584.77
415.197	548.62
415.574	554.49
415.951	554.94
416.328	586.35
416.705	571.89
417.082	602.4
417.46	591.78
417.837	602.4
418.214	584.77
418.591	601.95
418.967	577.54
419.344	607.15
419.721	624.55
420.098	613.25
420.475	610.53
420.852	631.1
421.228	627.48
421.605	628.84
421.982	658.9
422.358	640.36
422.735	618.44
423.111	662.06
423.488	650.08
423.864	661.61
424.241	667.48
424.617	674.94
424.994	659.12
425.37	681.49
425.746	677.88
426.123	696.18
426.499	689.18
426.875	703.87
427.251	692.79
427.627	728.72
428.003	709.97
428.379	723.53
428.756	737.76
429.132	721.04
429.507	744.09
429.883	752.23
430.259	758.1
430.635	759.01
431.011	764.66
431.387	794.94
431.763	796.97
432.138	797.42
432.514	797.65
432.89	812.56
433.265	818.66
433.641	799.46
434.016	827.25
434.392	845.56
434.767	840.13
435.143	875.16
435.518	855.27
435.894	864.31
436.269	864.77
436.644	887.14
437.02	907.93
437.395	871.54
437.77	908.61
438.145	930.53
438.52	916.06
438.895	907.48
439.271	942.96
439.646	912.22
440.021	954.03
440.395	978.21
440.77	919.68
441.145	945.67
441.52	980.24
441.895	953.12
442.27	974.14
442.645	981.37
443.019	954.03
443.394	996.51
443.769	1007.13
444.143	980.92
444.518	1003.29
444.892	997.19
445.267	1014.82
445.641	1005.55
446.016	1015.72
446.39	1028.6
446.764	1022.05
447.139	1038.32
447.513	1056.85
447.887	1060.47
448.262	1040.81
448.636	1053.91
449.01	1089.84
449.384	1053.24
449.758	1093.91
450.132	1099.56
450.506	1120.35
450.88	1084.42
451.254	1118.09
451.628	1124.65
452.002	1157.87
452.376	1140.01
452.75	1142.05
453.123	1157.87
453.497	1181.82
453.871	1176.85
454.244	1203.51
454.618	1235.38
454.992	1202.84
455.365	1227.92
455.739	1250.29
456.112	1279.9
456.486	1254.81
456.859	1231.76
457.232	1293
457.606	1302.72
457.979	1314.47
458.352	1327.13
458.725	1361.02
459.099	1337.3
459.472	1394.69
459.845	1393.11
460.218	1424.3
460.591	1409.84
460.964	1383.17
461.337	1440.8
461.71	1449.61
462.083	1472.89
462.456	1492.32
462.829	1493
463.201	1514.24
463.574	1515.82
463.947	1539.78
464.32	1544.97
464.692	1600.57
465.065	1561.02
465.438	1617.97
465.81	1650.06
466.183	1644.63
466.555	1657.51
466.928	1655.93
467.3	1662.94
467.672	1683.27
468.045	1749.94
468.417	1753.78
468.789	1742.03
469.161	1793.33
469.534	1789.03
469.906	1814.57
470.278	1822.03
470.65	1890.05
471.022	1903.61
471.394	1905.19
471.766	1930.73
472.138	1966.21
472.51	1972.31
472.882	2021.8
473.253	2056.37
473.625	2073.32
473.997	2118.07
474.369	2131.85
474.74	2132.08
475.112	2143.15
475.484	2197.61
475.855	2210.04
476.227	2239.87
476.598	2319.87
476.97	2338.4
477.341	2374.1
477.713	2407.55
478.084	2417.27
478.455	2469.69
478.827	2537.94
479.198	2556.25
479.569	2536.81
479.94	2628.56
480.311	2647.32
480.682	2712.4
481.053	2727.77
481.424	2761.66
481.795	2803.7
482.166	2837.82
482.537	2873.53
482.908	2953.52
483.279	2957.82
483.65	2984.94
484.021	3056.35
484.391	3111.71
484.762	3146.29
485.133	3144.25
485.503	3208.88
485.874	3257.24
486.244	3303.57
486.615	3364.13
486.985	3397.13
487.356	3459.5
487.726	3478.93
488.097	3515.09
488.467	3540.85
488.837	3633.51
489.207	3634.86
489.578	3723.22
489.948	3763.45
490.318	3755.08
490.688	3763.67
491.058	3870.79
491.428	3907.4
491.798	3903.78
492.168	3990.56
492.538	4046.6
492.908	4039.6
493.278	4129.76
493.648	4081.18
494.017	4148.75
494.387	4207.05
494.757	4234.62
495.126	4245.02
495.496	4289.08
495.866	4349.19
496.235	4404.79
496.605	4351.91
496.974	4475.74
497.344	4489.3
497.713	4570.88
498.082	4567.27
498.452	4609.98
498.821	4611.11
499.19	4641.84
499.559	4700.82
499.928	4717.55
500.298	4695.4
500.667	4766.81
501.036	4723.2
501.405	4809.75
501.774	4799.58
502.143	4841.61
502.512	4902.4
502.88	4939.69
503.249	4951.21
503.618	4990.31
503.987	5026.46
504.356	5063.98
504.724	5074.6
505.093	5098.55
505.462	5105.33
505.83	5153.47
506.199	5141.26
506.567	5287.47
506.936	5228.72
507.304	5325.44
507.672	5325.89
508.041	5404.31
508.409	5426.91
508.777	5498.99
509.145	5485.21
509.514	5530.18
509.882	5534.47
510.25	5530.18
510.618	5590.74
510.986	5639.1
511.354	5670.51
511.722	5744.64
512.09	5793.22
512.458	5815.6
512.826	5802.04
513.193	5835.48
513.561	5947.57
513.929	5957.06
514.297	6037.51
514.664	6025.99
515.032	6019.43
515.4	6103.5
515.767	6138.53
516.135	6164.06
516.502	6159.54
516.869	6280.89
517.237	6266.43
517.604	6301.46
517.972	6373.77
518.339	6390.5
518.706	6377.61
519.073	6494.45
519.44	6538.74
519.808	6547.78
520.175	6565.18
520.542	6668.68
520.909	6660.09
521.276	6710.04
521.643	6777.15
522.009	6834.1
522.376	6904.61
522.743	6870.94
523.11	7045.17
523.477	7029.35
523.843	7146.41
524.21	7182.57
524.577	7259.85
524.943	7313.64
525.31	7296.69
525.676	7422.56
526.043	7398.38
526.409	7442.67
526.776	7511.82
527.142	7586.62
527.508	7620.97
527.874	7662.78
528.241	7758.14
528.607	7762.66
528.973	7860.29
529.339	7847.18
529.705	7903
530.071	8004.24
530.437	8024.8
530.803	8068.64
531.169	8103.67
531.535	8098.25
531.901	8172.14
532.267	8187.74
532.632	8292.14
532.998	8298.47
533.364	8349.77
533.73	8339.6
534.095	8450.1
534.461	8409.2
534.826	8527.84
535.192	8605.13
535.557	8610.55
535.923	8604.45
536.288	8670.66
536.653	8755.18
537.019	8678.57
537.384	8812.35
537.749	8778.23
538.114	8764.67
538.479	8765.8
538.845	8812.58
539.21	8787.49
539.575	8893.03
539.94	8960.6
540.305	9057.77
540.67	9024.78
541.034	9043.53
541.399	9105.45
541.764	9152.23
542.129	9112.68
542.494	9212.12
542.858	9226.13
543.223	9292.79
543.587	9258.67
543.952	9251.89
544.316	9390.42
544.681	9376.41
545.045	9371.89
545.41	9447.59
545.774	9449.17
546.138	9396.97
546.503	9520.13
546.867	9527.36
547.231	9549.73
547.595	9642.84
547.959	9711.54
548.324	9669.73
548.688	9705.21
549.052	9719.67
549.416	9785.21
549.779	9759.67
550.143	9801.25
550.507	9888.93
550.871	9949.27
551.235	9909.95
551.599	9965.77
551.962	10000.12
552.326	10027.69
552.689	10078.08
553.053	10012.55
553.417	10058.65
553.78	10245.99
554.143	10221.81
554.507	10282.82
554.87	10264.52
555.234	10457.51
555.597	10323.05
555.96	10408.47
556.323	10415.7
556.686	10452.54
557.05	10540.22
557.413	10626.32
557.776	10597.39
558.139	10677.84
558.502	10757.39
558.865	10707.22
559.228	10775.47
559.59	10892.75
559.953	10836.03
560.316	11041.22
560.679	10949.02
561.041	11123.03
561.404	11076.02
561.767	11186.3
562.129	11133.2
562.492	11264.72
562.854	11240.76
563.217	11297.94
563.579	11330.25
563.941	11428.56
564.304	11457.03
564.666	11631.94
565.028	11558.27
565.39	11596.46
565.753	11660.41
566.115	11745.84
566.477	11821.99
566.839	11817.02
567.201	11834.19
567.563	11912.16
567.925	11979.28
568.287	11994.64
568.648	11999.84
569.01	12114.41
569.372	12229.66
569.734	12072.83
570.095	12299.94
570.457	12191.02
570.819	12283.22
571.18	12420.62
571.542	12397.34
571.903	12404.35
572.265	12398.7
572.626	12501.52
572.987	12494.52
573.349	12572.03
573.71	12515.76
574.071	12659.94
574.432	12709.65
574.794	12748.75
575.155	12763.21
575.516	12726.6
575.877	12779.25
576.238	12690.22
576.599	12837.11
576.96	12889.53
577.32	12838.01
577.681	12956.2
578.042	12938.12
578.403	12928.63
578.763	13017.67
579.124	12976.31
579.485	13047.04
579.845	13012.92
580.206	13014.95
580.566	13060.6
580.927	13050.66
581.287	13113.03
581.648	13068.29
582.008	13121.39
582.368	13139.7
582.728	13165.91
583.089	13190.77
583.449	13119.36
583.809	13165.46
584.169	13163.2
584.529	13120.71
584.889	13240.71
585.249	13155.29
585.609	13149.64
585.969	13271.67
586.329	13263.99
586.688	13242.07
587.048	13205.23
587.408	13165.23
587.768	13107.61
588.127	13173.14
588.487	13217.21
588.846	13298.34
589.206	13246.13
589.565	13188.28
589.925	13240.03
590.284	13252.01
590.643	13262.41
591.003	13294.72
591.362	13241.62
591.721	13263.31
592.08	13293.59
592.44	13327.49
592.799	13314.61
593.158	13219.69
593.517	13240.26
593.876	13301.5
594.235	13308.28
594.593	13257.66
594.952	13318.45
595.311	13264.89
595.67	13240.94
596.029	13401.61
596.387	13404.77
596.746	13445
597.104	13333.59
597.463	13316.19
597.822	13396.19
598.18	13299.01
598.538	13332.91
598.897	13438.67
599.255	13273.7
599.613	13478.9
599.972	13461.95
600.33	13500.14
600.688	13473.25
601.046	13588.5
601.404	13543.98
601.762	13511.89
602.12	13669.63
602.478	13536.97
602.836	13557.31
603.194	13500.59
603.552	13543.08
603.91	13445
604.268	13534.26
604.625	13593.92
604.983	13624.66
605.341	13597.31
605.698	13593.24
606.056	13696.97
606.413	13569.74
606.771	13645.22
607.128	13634.83
607.485	13647.48
607.843	13625.56
608.2	13732.45
608.557	13858.32
608.914	13717.99
609.272	13812.9
609.629	13829.85
609.986	13875.04
610.343	13835.72
610.7	13903.07
611.057	13891.54
611.414	13870.07
611.771	13892.67
612.127	13955.49
612.484	13876.4
612.841	14020.58
613.198	13936.96
613.554	13909.85
613.911	13975.61
614.267	14027.13
614.624	14056.96
614.98	14052.67
615.337	13997.3
615.693	14035.04
616.05	14017.64
616.406	14192.78
616.762	14039.56
617.118	14029.84
617.475	13987.36
617.831	14143.96
618.187	14120.91
618.543	14069.16
618.899	14124.98
619.255	14231.42
619.611	14197.97
619.967	14105.1
620.323	14189.84
620.678	14280.23
621.034	14222.38
621.39	14132.89
621.746	14168.82
622.101	14337.86
622.457	14180.57
622.812	14301.25
623.168	14233.68
623.523	14284.07
623.879	14231.19
624.234	14164.3
624.589	14297.86
624.945	14236.39
625.3	14201.36
625.655	14205.21
626.01	14153.91
626.365	14221.48
626.72	14275.26
627.075	14235.71
627.43	14255.83
627.785	14157.75
628.14	14183.06
628.495	14285.2
628.85	14234.81
629.205	14186.22
629.559	14286.33
629.914	14127.24
630.269	14152.55
630.623	14150.97
630.978	14137.18
631.332	14186.68
631.687	14141.48
632.041	14099.67
632.396	14125.89
632.75	14124.98
633.104	14175.38
633.459	14064.19
633.813	14104.64
634.167	14071.65
634.521	14056.06
634.875	14047.47
635.229	14044.31
635.583	14047.47
635.937	13973.12
636.291	13943.07
636.645	13960.92
636.999	13958.43
637.352	13986.23
637.706	13818.32
638.06	13917.98
638.413	13844.76
638.767	13824.65
639.121	13823.52
639.474	13792.11
639.828	13776.74
640.181	13829.85
640.534	13789.17
640.888	13747.59
641.241	13673.92
641.594	13684.09
641.947	13690.19
642.301	13667.82
642.654	13707.37
643.007	13767.93
643.36	13645.22
643.713	13594.37
644.066	13655.16
644.419	13615.16
644.771	13485.45
645.124	13367.04
645.477	13340.37
645.83	13286.59
646.182	13264.21
646.535	13110.09
646.888	13295.4
647.24	13133.37
647.593	13252.01
647.945	13205.46
648.298	13134.27
648.65	13040.72
649.002	12988.97
649.355	13074.61
649.707	13110.09
650.059	13080.04
650.411	13324.55
650.763	13356.87
651.115	13364.1
651.467	13340.14
651.819	13382.4
652.171	13370.65
652.523	13294.95
652.875	13342.18
653.227	13253.82
653.578	13293.59
653.93	13282.07
654.282	13238.23
654.633	13225.12
654.985	13269.86
655.337	13210.43
655.688	13230.77
656.039	13246.13
656.391	13043.88
656.742	13106.48
657.094	13208.62
657.445	13196.64
657.796	13146.48
658.147	13116.42
658.498	13072.13
658.849	13125.69
659.2	13114.84
659.551	13073.26
659.902	13077.33
660.253	12986.71
660.604	13080.26
660.955	13031.23
661.306	13022.86
661.656	13004.79
662.007	13074.16
662.358	13054.28
662.708	13077.55
663.059	13052.02
663.409	13002.75
663.76	13038
664.11	13038.46
664.461	13024.22
664.811	13035.07
665.161	12980.83
665.511	12860.83
665.862	12918.91
666.212	13039.81
666.562	12986.71
666.912	13011.34
667.262	12897.44
667.612	12944.67
667.962	12931.34
668.312	12931.34
668.662	13048.63
669.011	13034.16
669.361	12953.26
669.711	12927.05
670.06	12967.05
670.41	12878.69
670.76	12833.49
671.109	12928.85
671.459	12888.86
671.808	12827.61
672.157	12899.25
672.507	12783.1
672.856	12794.4
673.205	12824.22
673.554	12826.26
673.904	12735.64
674.253	12826.03
674.602	12852.7
674.951	12631.46
675.3	12599.82
675.649	12808.18
675.998	12717.34
676.346	12717.34
676.695	12807.95
677.044	12655.64
677.393	12775.64
677.741	12722.53
678.09	12684.79
678.438	12629.2
678.787	12732.02
679.135	12656.09
679.484	12619.71
679.832	12561.18
680.181	12580.84
680.529	12587.85
680.877	12628.3
681.225	12530
681.573	12591.24
681.922	12459.26
682.27	12451.35
682.618	12481.64
682.966	12448.19
683.314	12475.76
683.661	12433.05
684.009	12381.98
684.357	12377.68
684.705	12370
685.053	12379.72
685.4	12350.79
685.748	12278.25
686.095	12354.41
686.443	12311.47
686.79	12255.65
687.138	12237.8
687.485	12195.77
687.832	12073.96
688.18	12150.8
688.527	12139.05
688.874	12102.89
689.221	12106.96
689.568	12063.79
689.915	12044.81
690.262	12015.21
690.609	11920.75
690.956	11926.85
691.303	11868.32
691.65	11866.51
691.997	11928.66
692.344	11828.09
692.69	11806.62
693.037	11792.84
693.383	11697.7
693.73	11672.39
694.077	11689.57
694.423	11626.29
694.769	11561.66
695.116	11597.82
695.462	11565.73
695.808	11529.8
696.155	11503.13
696.501	11455.45
696.847	11456.8
697.193	11407.31
697.539	11381.1
697.885	11317.6
698.231	11325.96
698.577	11256.13
698.923	11311.72
699.269	11252.06
699.614	11153.53
699.96	11120.54
700.306	11143.82
700.651	11175.45
700.997	11051.62
701.342	11053.2
701.688	10982.01
702.033	10948.79
702.379	10984.95
702.724	10933.43
703.069	11027.89
703.415	10840.1
703.76	10907.89
704.105	10907.67
704.45	10861.34
704.795	10823.15
705.14	10768.69
705.485	10748.12
705.83	10629.25
706.175	10678.74
706.52	10665.41
706.865	10562.59
707.209	10605.3
707.554	10510.39
707.899	10599.2
708.243	10536.38
708.588	10553.55
708.932	10495.25
709.277	10415.93
709.621	10464.51
709.966	10396.49
710.31	10352.43
710.654	10358.53
710.998	10275.14
711.342	10335.25
711.687	10341.8
712.031	10333.67
712.375	10218.64
712.719	10246.21
713.063	10211.86
713.407	10252.32
713.75	10168.25
714.094	10080.12
714.438	10084.86
714.782	10115.6
715.125	10095.94
715.469	10137.06
715.812	10087.12
716.156	10030.17
716.499	9981.59
716.843	10008.48
717.186	9996.5
717.53	9970.06
717.873	9958.31
718.216	9970.51
718.559	9891.42
718.902	9843.74
719.246	9879.9
719.589	9776.17
719.932	9775.04
720.275	9777.07
720.617	9792.44
720.96	9744.98
721.303	9776.62
721.646	9810.97
721.989	9692.1
722.331	9722.39
722.674	9746.11
723.016	9779.79
723.359	9711.31
723.701	9640.13
724.044	9698.66
724.386	9559.9
724.729	9653.23
725.071	9608.49
725.413	9627.25
725.755	9566.91
726.097	9608.26
726.439	9541.6
726.782	9546.57
727.124	9557.64
727.465	9464.54
727.807	9472.9
728.149	9457.31
728.491	9428.61
728.833	9453.69
729.175	9455.95
729.516	9464.54
729.858	9354.71
730.199	9385.22
730.541	9398.1
730.882	9462.51
731.224	9407.82
731.565	9314.26
731.906	9318.1
732.248	9306.35
732.589	9220.7
732.93	9274.26
733.271	9252.12
733.612	9172.8
733.953	9213.92
734.294	9117.43
734.635	9115.62
734.976	9222.06
735.317	9204.21
735.658	9193.36
735.999	9138.45
736.339	9104.55
736.68	9169.86
737.021	9117.66
737.361	9065.45
737.702	9173.25
738.042	9129.18
738.383	9080.14
738.723	8990.88
739.063	8972.57
739.404	9049.41
739.744	9021.84
740.084	8947.94
740.424	8961.95
740.764	9020.71
741.104	9025.23
741.444	8973.48
741.784	8941.16
742.124	8867.72
742.464	8846.7
742.804	8868.4
743.143	8808.29
743.483	8857.55
743.823	8847.83
744.162	8782.98
744.502	8801.51
744.841	8756.54
745.181	8777.78
745.52	8762.86
745.86	8808.51
746.199	8741.62
746.538	8694.16
746.877	8726.03
747.216	8707.27
747.556	8690.55
747.895	8669.31
748.234	8740.26
748.573	8668.18
748.911	8625.47
749.25	8586.82
749.589	8621.85
749.928	8577.1
750.267	8571
750.605	8551.34
750.944	8620.72
751.283	8577.56
751.621	8524
751.96	8459.82
752.298	8549.76
752.636	8516.99
752.975	8422.53
753.313	8402.42
753.651	8436.77
753.989	8388.41
754.327	8361.07
754.666	8328.75
755.004	8366.26
755.342	8411.69
755.679	8378.47
756.017	8267.96
756.355	8234.74
756.693	8225.02
757.031	8252.59
757.368	8210.33
757.706	8152.94
758.044	8159.26
758.381	8165.36
758.719	8081.3
759.056	8121.98
759.394	8105.48
759.731	8140.96
760.068	8111.13
760.405	8011.7
760.743	7977.57
761.08	8049.66
