Data from black_metal_pc_casing_FLMS001491_00058.txt Node
Date: Wed Feb 08 14:33:05 GMT 2017
User: dcchb
Spectrometer: FLMS00149
Trigger mode: 0
Integration Time (sec): 2.000000E-2
Scans to average: 10
Electric dark correction enabled: true
Nonlinearity correction enabled: false
Boxcar width: 0
XAxis mode: Wavelengths
Number of Pixels in Spectrum: 2048
>>>>>Begin Spectral Data<<<<<
341.393	-4.01
341.776	-4.01
342.16	-4.01
342.543	-64.35
342.927	-72.26
343.31	-75.87
343.693	-81.52
344.077	-71.13
344.46	-53.5
344.843	-64.8
345.226	-49.66
345.61	-23.67
345.993	-2.66
346.376	-6.5
346.759	17.01
347.142	48.42
347.525	21.52
347.908	50.9
348.291	74.86
348.674	99.49
349.057	117.12
349.44	135.87
349.823	151.92
350.206	164.8
350.588	180.16
350.971	192.82
351.354	212.71
351.737	222.2
352.119	237.79
352.502	255.64
352.884	260.61
353.267	266.72
353.65	289.99
354.032	301.07
354.414	281.86
354.797	310.33
355.179	332.7
355.562	333.16
355.944	310.56
356.326	325.92
356.709	310.33
357.091	328.41
357.473	314.85
357.855	348.97
358.238	336.32
358.62	315.3
359.002	326.83
359.384	345.58
359.766	333.61
360.148	328.18
360.53	344.68
360.912	330.44
361.294	341.29
361.676	339.48
362.057	351.23
362.439	319.82
362.821	336.54
363.203	310.56
363.584	333.61
363.966	330.67
364.348	329.31
364.729	305.59
365.111	330.22
365.493	321.63
365.874	320.27
366.256	326.15
366.637	307.62
367.019	313.72
367.4	325.92
367.781	325.7
368.163	328.41
368.544	306.94
368.925	313.27
369.306	311.46
369.688	333.61
370.069	318.01
370.45	306.94
370.831	331.57
371.212	327.96
371.593	321.86
371.974	319.82
372.355	325.02
372.736	307.62
373.117	314.62
373.498	314.17
373.879	338.13
374.26	321.63
374.641	321.4
375.021	346.71
375.402	318.01
375.783	327.05
376.163	329.54
376.544	333.38
376.925	332.7
377.305	340.16
377.686	331.12
378.066	347.17
378.447	346.94
378.827	334.06
379.208	350.1
379.588	347.62
379.968	333.16
380.349	349.43
380.729	346.94
381.109	346.04
381.489	350.56
381.87	344.91
382.25	349.65
382.63	345.13
383.01	359.82
383.39	370.67
383.77	344.91
384.15	334.28
384.53	372.02
384.91	353.04
385.29	372.7
385.67	380.39
386.049	368.86
386.429	350.33
386.809	379.26
387.189	382.19
387.568	369.54
387.948	380.39
388.328	368.86
388.707	370.89
389.087	362.31
389.466	392.59
389.846	385.36
390.225	382.65
390.605	386.94
390.984	404.11
391.363	395.53
391.743	405.7
392.122	387.62
392.501	401.18
392.881	412.25
393.26	395.07
393.639	397.33
394.018	402.08
394.397	413.6
394.776	393.94
395.155	439.14
395.534	417.45
395.913	393.04
396.292	412.48
396.671	410.67
397.05	410.44
397.429	407.28
397.808	422.42
398.186	448.86
398.565	449.76
398.944	432.81
399.323	456.32
399.701	417.45
400.08	433.72
400.458	438.24
400.837	455.86
401.215	442.3
401.594	434.17
401.972	457.22
402.351	454.51
402.729	456.09
403.107	441.85
403.486	460.61
403.864	478.01
404.242	457.45
404.62	489.08
404.999	483.66
405.377	466.71
405.755	464.9
406.133	486.37
406.511	494.51
406.889	495.41
407.267	494.96
407.645	509.2
408.023	495.64
408.401	478.24
408.779	514.85
409.156	518.46
409.534	527.5
409.912	508.52
410.29	525.24
410.667	528.86
411.045	506.94
411.422	536.99
411.8	534.05
412.178	541.74
412.555	540.83
412.933	543.77
413.31	558.46
413.687	563.43
414.065	553.94
414.442	573.15
414.819	536.77
415.197	569.76
415.574	575.86
415.951	594.17
416.328	574.73
416.705	584.45
417.082	584.22
417.46	607.72
417.837	607.5
418.214	589.42
418.591	602.07
418.967	607.5
419.344	593.71
419.721	609.31
420.098	618.12
420.475	615.63
420.852	637.55
421.228	623.09
421.605	631.9
421.982	641.85
422.358	648.85
422.735	650.21
423.111	651.79
423.488	654.05
423.864	649.98
424.241	669.87
424.617	668.06
424.994	676.2
425.37	685.69
425.746	690.21
426.123	680.72
426.499	722.07
426.875	696.31
427.251	718.68
427.627	718.91
428.003	708.74
428.379	718.91
428.756	744.22
429.132	734.27
429.507	743.09
429.883	751.68
430.259	762.75
430.635	767.95
431.011	769.08
431.387	768.4
431.763	789.41
432.138	795.29
432.514	782.41
432.89	793.71
433.265	828.06
433.641	845.68
434.016	820.83
434.392	847.49
434.767	878
435.143	849.98
435.518	849.75
435.894	852.92
436.269	858.11
436.644	870.77
437.02	888.62
437.395	892.91
437.77	896.08
438.145	930.88
438.52	918.45
438.895	943.31
439.271	940.37
439.646	925
440.021	931.78
440.395	947.38
440.77	940.14
441.145	954.38
441.52	981.5
441.895	991.22
442.27	974.49
442.645	959.13
443.019	1004.1
443.394	998.22
443.769	1007.49
444.143	981.05
444.518	1002.97
444.892	1027.6
445.267	1012.01
445.641	1038.22
446.016	1013.82
446.39	996.41
446.764	1059.69
447.139	1064.66
447.513	1066.24
447.887	1038.9
448.262	1066.92
448.636	1050.65
449.01	1082.29
449.384	1107.82
449.758	1122.51
450.132	1081.16
450.506	1098.11
450.88	1093.14
451.254	1117.09
451.628	1113.02
452.002	1140.82
452.376	1161.16
452.75	1167.26
453.123	1158.22
453.497	1174.49
453.871	1177.88
454.244	1192.12
454.618	1194.38
454.992	1223.75
455.365	1223.75
455.739	1240.02
456.112	1254.71
456.486	1291.32
456.859	1300.59
457.232	1319.34
457.606	1321.38
457.979	1323.41
458.352	1339.91
458.725	1362.05
459.099	1325.67
459.472	1384.2
459.845	1397.53
460.218	1438.89
460.591	1405.9
460.964	1442.73
461.337	1441.6
461.71	1466.46
462.083	1470.07
462.456	1501.03
462.829	1494.71
463.201	1513.46
463.574	1530.41
463.947	1522.28
464.32	1546.91
464.692	1594.82
465.065	1542.16
465.438	1597.75
465.81	1612.44
466.183	1621.93
466.555	1665.32
466.928	1689.96
467.3	1719.79
467.672	1720.69
468.045	1748.49
468.417	1760.24
468.789	1767.69
469.161	1788.94
469.534	1796.17
469.906	1845.43
470.278	1874.13
470.65	1858.76
471.022	1893.11
471.394	1933.11
471.766	1951.19
472.138	1947.12
472.51	1996.39
472.882	2006.56
473.253	2049.72
473.625	2069.38
473.997	2086.33
474.369	2108.25
474.74	2121.81
475.112	2169.72
475.484	2187.34
475.855	2226.66
476.227	2294.91
476.598	2299.43
476.97	2336.72
477.341	2382.59
477.713	2394.8
478.084	2423.5
478.455	2495.58
478.827	2500.56
479.198	2531.29
479.569	2555.24
479.94	2643.83
480.311	2648.8
480.682	2718.63
481.053	2726.99
481.424	2823.03
481.795	2802.47
482.166	2885.18
482.537	2886.08
482.908	2937.38
483.279	2956.14
483.65	2984.38
484.021	3080.2
484.391	3071.61
484.762	3124.95
485.133	3164.49
485.503	3255.11
485.874	3305.28
486.244	3270.48
486.615	3378.05
486.985	3372.17
487.356	3416.24
487.726	3478.38
488.097	3528.55
488.467	3499.17
488.837	3650.81
489.207	3636.12
489.578	3724.93
489.948	3743.46
490.318	3776.68
490.688	3803.12
491.058	3814.42
491.428	3926.73
491.798	3960.4
492.168	4037.92
492.538	4044.92
492.908	4052.38
493.278	4115.88
493.648	4158.59
494.017	4186.61
494.387	4201.75
494.757	4216.89
495.126	4324.46
495.496	4273.62
495.866	4320.39
496.235	4354.74
496.605	4457.11
496.974	4446.27
497.344	4467.28
497.713	4501.41
498.082	4527.85
498.452	4598.81
498.821	4569.88
499.19	4634.06
499.559	4684.68
499.928	4670.22
500.298	4736.43
500.667	4800.61
501.036	4764.9
501.405	4815.98
501.774	4835.86
502.143	4856.88
502.512	4895.3
502.88	4922.86
503.249	4898.46
503.618	5015.97
503.987	5016.42
504.356	5080.6
504.724	5062.52
505.093	5114.72
505.462	5119.47
505.83	5181.39
506.199	5214.61
506.567	5242.4
506.936	5227.72
507.304	5353.14
507.672	5411.44
508.041	5432.23
508.409	5432.46
508.777	5502.06
509.145	5500.25
509.514	5521.27
509.882	5507.26
510.25	5616.41
510.618	5606.01
510.986	5665.67
511.354	5743.18
511.722	5754.03
512.09	5786.12
512.458	5790.19
512.826	5850.3
513.193	5868.15
513.561	5887.81
513.929	5934.82
514.297	6000.35
514.664	6041.48
515.032	6043.97
515.4	6105.88
515.767	6182.94
516.135	6172.78
516.502	6168.26
516.869	6267.69
517.237	6278.99
517.604	6286.22
517.972	6388.36
518.339	6422.94
518.706	6436.72
519.073	6480.11
519.44	6509.04
519.808	6618.41
520.175	6588.13
520.542	6739.77
520.909	6736.6
521.276	6761.23
521.643	6837.39
522.009	6874.45
522.376	6946.99
522.743	6949.03
523.11	7063.15
523.477	7062.7
523.843	7124.39
524.21	7207.55
524.577	7232.86
524.943	7247.1
525.31	7319.19
525.676	7396.47
526.043	7421.78
526.409	7517.82
526.776	7565.06
527.142	7568.22
527.508	7671.49
527.874	7673.98
528.241	7712.4
528.607	7760.08
528.973	7834.2
529.339	7831.71
529.705	7936.57
530.071	7967.3
530.437	7968.66
530.803	8059.05
531.169	8128.88
531.535	8060.41
531.901	8132.27
532.267	8182.21
532.632	8260.4
532.998	8303.34
533.364	8357.35
533.73	8347.41
534.095	8448.42
534.461	8490.45
534.826	8489.78
535.192	8520.51
535.557	8609.55
535.923	8592.37
536.288	8691.35
536.653	8703.1
537.019	8661.75
537.384	8778.58
537.749	8777.9
538.114	8745.82
538.479	8779.49
538.845	8894.74
539.21	8879.15
539.575	8901.97
539.94	8888.86
540.305	8982.42
540.67	8984.9
541.034	9064.9
541.399	9104.68
541.764	9100.61
542.129	9182.64
542.494	9186.93
542.858	9188.97
543.223	9215.41
543.587	9303.54
543.952	9291.11
544.316	9306.93
544.681	9370.66
545.045	9408.85
545.41	9453.37
545.774	9491.56
546.138	9511.22
546.503	9537.88
546.867	9513.25
547.231	9632.8
547.595	9629.63
547.959	9625.57
548.324	9685.45
548.688	9689.52
549.052	9715.73
549.416	9765
549.779	9746.69
550.143	9834.15
550.507	9894.49
550.871	9846.35
551.235	9845.9
551.599	9966.35
551.962	9979.91
552.326	10064.2
552.689	10088.15
553.053	10013.13
553.417	10111.88
553.78	10253.12
554.143	10160.02
554.507	10247.02
554.87	10322.5
555.234	10442.72
555.597	10412.44
555.96	10376.05
556.323	10390.07
556.686	10429.84
557.05	10555.03
557.413	10582.38
557.776	10662.15
558.139	10658.76
558.502	10700.11
558.865	10754.35
559.228	10814.69
559.59	10868.02
559.953	10910.73
560.316	10950.28
560.679	11070.73
561.041	11035.02
561.404	11028.69
561.767	11199.31
562.129	11145.07
562.492	11242.7
562.854	11282.7
563.217	11215.81
563.579	11389.59
563.941	11434.56
564.304	11446.31
564.666	11604.05
565.028	11582.12
565.39	11619.86
565.753	11706.42
566.115	11689.47
566.477	11797.94
566.839	11771.05
567.201	11846.07
567.563	11965.17
567.925	11940.53
568.287	11933.3
568.648	12018.95
569.01	12051.72
569.372	12085.39
569.734	12170.81
570.095	12193.41
570.457	12269.34
570.819	12296
571.18	12371.03
571.542	12420.52
571.903	12363.12
572.265	12483.34
572.626	12477.24
572.987	12503
573.349	12573.74
573.71	12506.17
574.071	12633.62
574.432	12633.4
574.794	12735.09
575.155	12734.41
575.516	12732.83
575.877	12783.9
576.238	12785.26
576.599	12823.67
576.96	12854.86
577.32	12922.88
577.681	12864.8
578.042	12977.57
578.403	12947.51
578.763	12927.17
579.124	12957.46
579.485	13044.91
579.845	13128.52
580.206	13037.23
580.566	13099.15
580.927	13016.44
581.287	13124.23
581.648	13135.53
582.008	13121.97
582.368	13154.06
582.728	13143.44
583.089	13104.8
583.449	13123.33
583.809	13156.32
584.169	13218.92
584.529	13161.74
584.889	13248.52
585.249	13124.91
585.609	13121.52
585.969	13284
586.329	13213.04
586.688	13245.36
587.048	13218.47
587.408	13172.37
587.768	13130.33
588.127	13223.44
588.487	13277.45
588.846	13277.9
589.206	13169.65
589.565	13218.01
589.925	13231.12
590.284	13253.95
590.643	13274.96
591.003	13319.93
591.362	13314.51
591.721	13307.5
592.08	13320.16
592.44	13267.5
592.799	13308.18
593.158	13220.5
593.517	13332.59
593.876	13365.35
594.235	13305.92
594.593	13287.39
594.952	13421.62
595.311	13371
595.67	13331.91
596.029	13425.69
596.387	13346.37
596.746	13405.13
597.104	13352.93
597.463	13321.97
597.822	13378.01
598.18	13391.57
598.538	13401.74
598.897	13481.06
599.255	13272.02
599.613	13529.64
599.972	13456.65
600.33	13448.29
600.688	13430.44
601.046	13523.09
601.404	13627.27
601.762	13511.34
602.12	13624.11
602.478	13589.3
602.836	13578.23
603.194	13521.51
603.552	13629.75
603.91	13556.76
604.268	13590.43
604.625	13602.86
604.983	13686.02
605.341	13540.49
605.698	13682.86
606.056	13673.14
606.413	13709.75
606.771	13636.31
607.128	13702.97
607.485	13627.72
607.843	13616.87
608.2	13782.74
608.557	13774.84
608.914	13749.3
609.272	13824.33
609.629	13799.92
609.986	13871.1
610.343	13761.5
610.7	13957.2
611.057	13937.77
611.414	13831.33
611.771	13945.23
612.127	13949.29
612.484	13954.72
612.841	13950.42
613.198	13851.67
613.554	13914.72
613.911	14008.05
614.267	13958.79
614.624	14017.77
614.98	14033.59
615.337	14010.31
615.693	14094.15
616.05	14022.96
616.406	14071.78
616.762	14101.38
617.118	13998.78
617.475	14050.53
617.831	14091.21
618.187	14116.75
618.543	14169.18
618.899	14195.16
619.255	14233.13
619.611	14215.5
619.967	14206.46
620.323	14229.74
620.678	14305.44
621.034	14164.2
621.39	14091.66
621.746	14140.48
622.101	14335.95
622.457	14215.73
622.812	14205.11
623.168	14222.96
623.523	14206.24
623.879	14215.05
624.234	14175.05
624.589	14262.73
624.945	14236.74
625.3	14288.49
625.655	14281.49
626.01	14316.97
626.365	14278.33
626.72	14223.86
627.075	14264.77
627.43	14234.48
627.785	14235.61
628.14	14255.73
628.495	14180.47
628.85	14301.83
629.205	14197.42
629.559	14253.69
629.914	14168.72
630.269	14300.02
630.623	14159.23
630.978	14163.75
631.332	14244.2
631.687	14155.62
632.041	14047.14
632.396	14162.85
632.75	14136.63
633.104	14150.64
633.459	13991.78
633.813	14069.52
634.167	14097.54
634.521	13999.01
634.875	14124.66
635.229	13952.68
635.583	14052.12
635.937	14040.37
636.291	13957.88
636.645	13993.13
636.999	13954.94
637.352	13893.02
637.706	13862.97
638.06	13918.79
638.413	13945
638.767	13799.92
639.121	13813.25
639.474	13765.57
639.828	13808.51
640.181	13799.02
640.534	13839.24
640.888	13842.4
641.241	13800.15
641.594	13768.51
641.947	13773.03
642.301	13702.75
642.654	13644.9
643.007	13662.3
643.36	13664.1
643.713	13616.65
644.066	13750.43
644.419	13595.41
644.771	13453.71
645.124	13327.39
645.477	13401.74
645.83	13275.19
646.182	13266.6
646.535	13141.63
646.888	13218.92
647.24	13188.86
647.593	13249.88
647.945	13154.74
648.298	13121.07
648.65	13051.01
649.002	13124.01
649.355	13126.27
649.707	13086.04
650.059	13124.01
650.411	13320.61
650.763	13291.91
651.115	13367.16
651.467	13294.4
651.819	13319.03
652.171	13255.75
652.523	13281.29
652.875	13285.58
653.227	13183.66
653.578	13303.21
653.93	13304.34
654.282	13245.58
654.633	13180.5
654.985	13234.51
655.337	13229.77
655.688	13206.04
656.039	13198.81
656.391	13143.67
656.742	13145.47
657.094	13171.46
657.445	13114.51
657.796	13120.62
658.147	13147.28
658.498	13067.51
658.849	13059.6
659.2	13093.95
659.551	13031.58
659.902	13082.42
660.253	13046.49
660.604	13144.12
660.955	13088.75
661.306	13088.3
661.656	13061.63
662.007	12995.87
662.358	13044.46
662.708	13041.3
663.059	13017.12
663.409	12940.96
663.76	13003.1
664.11	13046.72
664.461	12985.48
664.811	12984.8
665.161	13114.51
665.511	12974.63
665.862	12901.64
666.212	13035.65
666.562	12996.32
666.912	13000.39
667.262	12972.6
667.612	12923.33
667.962	12973.73
668.312	12926.27
668.662	13012.14
669.011	12967.17
669.361	12908.87
669.711	12888.98
670.06	12908.19
670.41	12861.19
670.76	12880.17
671.109	12879.72
671.459	12890.34
671.808	12890.34
672.157	12854.18
672.507	12779.61
672.856	12806.05
673.205	12773.51
673.554	12817.8
673.904	12772.83
674.253	12851.24
674.602	12770.12
674.951	12628.2
675.3	12658.93
675.649	12788.87
675.998	12762.43
676.346	12697.8
676.695	12766.95
677.044	12746.61
677.393	12714.98
677.741	12751.59
678.09	12724.02
678.438	12615.54
678.787	12708.42
679.135	12738.03
679.484	12584.36
679.832	12645.37
680.181	12584.13
680.529	12653.06
680.877	12526.96
681.225	12493.06
681.573	12581.19
681.922	12515.43
682.27	12516.56
682.618	12463.46
682.966	12486.73
683.314	12441.54
683.661	12377.13
684.009	12406.96
684.357	12437.92
684.705	12364.48
685.053	12434.53
685.4	12368.09
685.748	12248.77
686.095	12312.5
686.443	12315.44
686.79	12290.35
687.138	12241.09
687.485	12249.45
687.832	12123.35
688.18	12087.42
688.527	12087.87
688.874	12132.39
689.221	12110.92
689.568	12070.47
689.915	11907.09
690.262	12031.15
690.609	12002.68
690.956	11978.5
691.303	11824.83
691.65	11857.6
691.997	11874.55
692.344	11800.42
692.69	11789.58
693.037	11797.03
693.383	11720.43
693.73	11743.48
694.077	11629.36
694.423	11678.39
694.769	11555.46
695.116	11622.8
695.462	11595.46
695.808	11501.67
696.155	11585.06
696.501	11537.38
696.847	11484.05
697.193	11355.01
697.539	11445.41
697.885	11339.65
698.231	11263.04
698.577	11328.57
698.923	11218.52
699.269	11229.14
699.614	11165.86
699.96	11167.22
700.306	11179.2
700.651	11126.77
700.997	10990.5
701.342	11075.47
701.688	11060.1
702.033	11022.59
702.379	11039.77
702.724	10933.33
703.069	11017.85
703.415	10849.04
703.76	10912.09
704.105	10889.04
704.45	10901.92
704.795	10738.76
705.14	10675.71
705.485	10675.71
705.83	10702.37
706.175	10678.42
706.52	10589.16
706.865	10588.25
707.209	10595.48
707.554	10605.65
707.899	10614.69
708.243	10567.24
708.588	10538.54
708.932	10461.02
709.277	10555.49
709.621	10484.3
709.966	10410.18
710.31	10327.24
710.654	10318.2
710.998	10370.41
711.342	10332.44
711.687	10278.66
712.031	10360.46
712.375	10227.81
712.719	10284.08
713.063	10220.58
713.407	10302.84
713.75	10190.52
714.094	10162.28
714.438	10135.16
714.782	10173.57
715.125	10070.98
715.469	10200.24
715.812	10024.88
716.156	10067.81
716.499	10007.03
716.843	10016.52
717.186	9936.07
717.53	9990.08
717.873	9993.01
718.216	9933.13
718.559	9928.38
718.902	9868.05
719.246	9873.92
719.589	9838.44
719.932	9781.72
720.275	9823.08
720.617	9793.02
720.96	9780.59
721.303	9786.92
721.646	9761.16
721.989	9763.87
722.331	9732
722.674	9714.15
723.016	9724.09
723.359	9695.17
723.701	9750.76
724.044	9623.53
724.386	9534.5
724.729	9668.28
725.071	9651.55
725.413	9642.29
725.755	9595.51
726.097	9570.65
726.439	9525.46
726.782	9542.4
727.124	9584.89
727.465	9526.13
727.807	9482.52
728.149	9473.48
728.491	9470.77
728.833	9490.43
729.175	9386.7
729.516	9380.15
729.858	9379.02
730.199	9435.29
730.541	9335.86
730.882	9365.01
731.224	9394.61
731.565	9357.32
731.906	9350.55
732.248	9295.86
732.589	9276.65
732.93	9218.12
733.271	9270.77
733.612	9273.94
733.953	9219.02
734.294	9216.76
734.635	9257.89
734.976	9232.58
735.317	9158.01
735.658	9131.79
735.999	9164.34
736.339	9117.78
736.68	9157.78
737.021	9177.89
737.361	9066.26
737.702	9137.67
738.042	9048.41
738.383	9057.9
738.723	9046.6
739.063	9031.01
739.404	9054.28
739.744	8990.33
740.084	9007.5
740.424	9000.5
740.764	8986.71
741.104	9019.03
741.444	8956.21
741.784	8845.25
742.124	8909.88
742.464	8854.51
742.804	8830.11
743.143	8805.7
743.483	8891.57
743.823	8831.01
744.162	8761.63
744.502	8811.12
744.841	8796.21
745.181	8839.37
745.52	8704.23
745.86	8719.15
746.199	8719.6
746.538	8748.53
746.877	8725.7
747.216	8772.03
747.556	8756.44
747.895	8669.21
748.234	8691.81
748.573	8653.16
748.911	8628.53
749.25	8658.36
749.589	8632.37
749.928	8546.72
750.267	8553.73
750.605	8592.6
750.944	8689.09
751.283	8510.57
751.621	8526.16
751.96	8464.01
752.298	8540.4
752.636	8537.23
752.975	8472.38
753.313	8388.76
753.651	8476.67
753.989	8470.79
754.327	8390.12
754.666	8324.36
755.004	8345.37
755.342	8359.16
755.679	8357.12
756.017	8283
756.355	8305.37
756.693	8247.52
757.031	8280.52
757.368	8209.11
757.706	8226.96
758.044	8126.4
758.381	8145.38
758.719	8148.77
759.056	8122.33
759.394	8134.08
759.731	8078.04
760.068	8039.85
760.405	8058.83
760.743	8018.15
