Data from black_metal_pc_casing_FLMS001491_00054.txt Node
Date: Wed Feb 08 14:33:04 GMT 2017
User: dcchb
Spectrometer: FLMS00149
Trigger mode: 0
Integration Time (sec): 2.000000E-2
Scans to average: 10
Electric dark correction enabled: true
Nonlinearity correction enabled: false
Boxcar width: 0
XAxis mode: Wavelengths
Number of Pixels in Spectrum: 2048
>>>>>Begin Spectral Data<<<<<
341.393	-1.85
341.776	-1.85
342.16	-1.85
342.543	-57.44
342.927	-72.36
343.31	-80.49
343.693	-80.49
344.077	-45.01
344.46	-62.19
344.843	-46.82
345.226	-52.47
345.61	-12.47
345.993	-26.26
346.376	0.41
346.759	18.49
347.142	19.62
347.525	39.73
347.908	63.91
348.291	71.37
348.674	85.83
349.057	106.85
349.44	139.16
349.823	154.53
350.206	159.05
350.588	183
350.971	213.51
351.354	209.22
351.737	201.08
352.119	240.63
352.502	252.61
352.884	272.94
353.267	268.43
353.65	278.37
354.032	291.7
354.414	294.64
354.797	313.85
355.179	307.29
355.562	338.93
355.944	307.52
356.326	312.72
356.709	320.4
357.091	318.37
357.473	342.32
357.855	354.07
358.238	331.47
358.62	334.86
359.002	332.38
359.384	349.33
359.766	331.93
360.148	324.69
360.53	328.31
360.912	332.38
361.294	340.97
361.676	347.97
362.057	320.18
362.439	324.92
362.821	321.53
363.203	319.5
363.584	328.54
363.966	325.15
364.348	321.98
364.729	307.07
365.111	311.14
365.493	330.12
365.874	305.49
366.256	335.32
366.637	307.07
367.019	321.76
367.4	316.56
367.781	300.51
368.163	306.84
368.544	285.37
368.925	324.47
369.306	327.86
369.688	331.47
370.069	304.58
370.45	315.66
370.831	324.02
371.212	332.6
371.593	316.79
371.974	307.97
372.355	324.69
372.736	303.23
373.117	305.03
373.498	309.33
373.879	331.02
374.26	331.7
374.641	310.46
375.021	290.35
375.402	330.57
375.783	333.06
376.163	352.04
376.544	319.27
376.925	326.95
377.305	334.64
377.686	339.38
378.066	331.93
378.447	361.76
378.827	328.31
379.208	319.05
379.588	335.54
379.968	339.38
380.349	337.12
380.729	326.28
381.109	346.84
381.489	340.74
381.87	349.1
382.25	351.59
382.63	352.26
383.01	341.64
383.39	368.54
383.77	348.88
384.15	364.92
384.53	367.86
384.91	375.77
385.29	360.63
385.67	384.58
386.049	370.57
386.429	341.87
386.809	362.66
387.189	363.34
387.568	375.09
387.948	359.5
388.328	375.99
388.707	368.54
389.087	361.08
389.466	391.81
389.846	388.87
390.225	381.42
390.605	388.2
390.984	389.55
391.363	374.64
391.743	402.66
392.122	404.01
392.501	405.82
392.881	399.95
393.26	393.62
393.639	388.2
394.018	389.78
394.397	396.33
394.776	419.38
395.155	398.14
395.534	401.08
395.913	402.21
396.292	410.12
396.671	431.36
397.05	408.08
397.429	421.64
397.808	402.43
398.186	436.78
398.565	430.45
398.944	439.95
399.323	458.7
399.701	440.85
400.08	429.1
400.458	447.63
400.837	435.88
401.215	438.14
401.594	444.92
401.972	465.71
402.351	453.73
402.729	458.02
403.107	456.67
403.486	461.41
403.864	464.58
404.242	455.76
404.62	468.19
404.999	463.45
405.377	458.93
405.755	464.13
406.133	468.42
406.511	458.7
406.889	483.56
407.267	501.87
407.645	480.4
408.023	500.51
408.401	509.1
408.779	510.23
409.156	511.81
409.534	495.54
409.912	515.88
410.29	525.37
410.667	514.75
411.045	508.64
411.422	556.1
411.8	540.28
412.178	559.49
412.555	542.54
412.933	537.57
413.31	545.48
413.687	562.88
414.065	556.1
414.442	566.95
414.819	560.39
415.197	573.28
415.574	584.12
415.951	568.3
416.328	590.68
416.705	592.26
417.082	571.92
417.46	570.56
417.837	604.91
418.214	587.51
418.591	610.79
418.967	593.39
419.344	608.98
419.721	633.39
420.098	612.82
420.475	609.66
420.852	632.03
421.228	627.06
421.605	629.77
421.982	636.1
422.358	655.99
422.735	638.13
423.111	649.88
423.488	670.9
423.864	662.77
424.241	660.73
424.617	673.39
424.994	670
425.37	675.87
425.746	693.72
426.123	712.48
426.499	697.79
426.875	702.09
427.251	706.83
427.627	696.44
428.003	722.42
428.379	729.2
428.756	727.17
429.132	764.01
429.507	734.4
429.883	739.37
430.259	757.23
430.635	759.03
431.011	775.08
431.387	768.75
431.763	783.89
432.138	786.83
432.514	807.39
432.89	815.3
433.265	828.18
433.641	837.9
434.016	853.95
434.392	841.29
434.767	837.9
435.143	846.49
435.518	865.47
435.894	877.45
436.269	887.84
436.644	883.55
437.02	878.8
437.395	896.88
437.77	911.12
438.145	929.42
438.52	921.29
438.895	926.94
439.271	920.84
439.646	943.21
440.021	969.65
440.395	957.45
440.77	930.55
441.145	954.06
441.52	964.45
441.895	996.99
442.27	984.34
442.645	974.17
443.019	1006.71
443.394	1032.25
443.769	1001.06
444.143	987.5
444.518	1029.08
444.892	1027.05
445.267	1018.46
445.641	1019.82
446.016	1036.54
446.39	1058.23
446.764	1038.35
447.139	1055.98
447.513	1055.07
447.887	1053.49
448.262	1071.57
448.636	1069.99
449.01	1081.29
449.384	1076.54
449.758	1086.93
450.132	1079.48
450.506	1107.5
450.88	1140.27
451.254	1105.92
451.628	1131
452.002	1147.05
452.376	1146.59
452.75	1152.7
453.123	1177.78
453.497	1166.48
453.871	1159.7
454.244	1215.52
454.618	1214.61
454.992	1218.23
455.365	1229.53
455.739	1232.24
456.112	1252.81
456.486	1290.77
456.859	1274.73
457.232	1315.63
457.606	1302.3
457.979	1326.48
458.352	1326.25
458.725	1331.9
459.099	1364.67
459.472	1374.84
459.845	1421.16
460.218	1403.99
460.591	1421.16
460.964	1422.52
461.337	1429.75
461.71	1447.38
462.083	1458.45
462.456	1491.44
462.829	1478.34
463.201	1494.16
463.574	1511.1
463.947	1545
464.32	1565.57
464.692	1576.87
465.065	1588.39
465.438	1632.68
465.81	1639.24
466.183	1640.59
466.555	1716.52
466.928	1666.35
467.3	1669.07
467.672	1691.66
468.045	1706.58
468.417	1739.35
468.789	1756.75
469.161	1778.67
469.534	1820.25
469.906	1826.58
470.278	1832.68
470.65	1825.45
471.022	1898.66
471.394	1919.23
471.766	1928.49
472.138	1924.88
472.51	1956.29
472.882	2037.87
473.253	2046.68
473.625	2079
473.997	2128.49
474.369	2113.8
474.74	2119.68
475.112	2176.4
475.484	2191.31
475.855	2207.58
476.227	2287.58
476.598	2319.9
476.97	2328.26
477.341	2380.01
477.713	2382.04
478.084	2383.17
478.455	2474.47
478.827	2484.41
479.198	2584.75
479.569	2577.07
479.94	2627.46
480.311	2626.1
480.682	2718.3
481.053	2754.46
481.424	2768.25
481.795	2798.53
482.166	2876.27
482.537	2896.15
482.908	2901.8
483.279	2989.94
483.65	2999.2
484.021	3065.19
484.391	3106.99
484.762	3126.2
485.133	3136.82
485.503	3214.79
485.874	3249.14
486.244	3282.58
486.615	3372.75
486.985	3402.35
487.356	3436.48
487.726	3478.51
488.097	3577.72
488.467	3561.9
488.837	3603.03
489.207	3650.71
489.578	3683.02
489.948	3750.37
490.318	3792.4
490.688	3822
491.058	3849.8
491.428	3885.96
491.798	3913.75
492.168	4031.04
492.538	4005.95
492.908	4063.35
493.278	4128.66
493.648	4138.61
494.017	4162.79
494.387	4218.6
494.757	4224.93
495.126	4266.74
495.496	4300.41
495.866	4320.07
496.235	4346.28
496.605	4402.55
496.974	4453.63
497.344	4493.85
497.713	4513.06
498.082	4504.47
498.452	4577.46
498.821	4565.71
499.19	4604.36
499.559	4664.92
499.928	4709.21
500.298	4703.34
500.667	4783.11
501.036	4786.5
501.405	4811.81
501.774	4793.05
502.143	4880.96
502.512	4881.86
502.88	4945.14
503.249	4937.91
503.618	4970.45
503.987	5020.84
504.356	5012.93
504.724	5067.62
505.093	5083.21
505.462	5152.82
505.83	5165.92
506.199	5194.4
506.567	5261.06
506.936	5262.64
507.304	5341.51
507.672	5337.22
508.041	5405.01
508.409	5401.17
508.777	5449.76
509.145	5505.58
509.514	5494.28
509.882	5597.32
510.25	5529.08
510.618	5568.4
510.986	5714.16
511.354	5686.36
511.722	5756.87
512.09	5765.23
512.458	5829.63
512.826	5818.34
513.193	5864.44
513.561	5932.46
513.929	5963.64
514.297	5931.78
514.664	6022.85
515.032	6011.78
515.4	6127.71
515.767	6125.45
516.135	6195.73
516.502	6144.65
516.869	6265.33
517.237	6343.29
517.604	6283.41
517.972	6369.96
518.339	6428.04
518.706	6432.1
519.073	6460.8
519.44	6548.26
519.808	6560.01
520.175	6608.37
520.542	6666.67
520.909	6724.98
521.276	6724.3
521.643	6811.98
522.009	6844.52
522.376	6861.92
522.743	6940.11
523.11	7032.99
523.477	7071.41
523.843	7115.93
524.21	7224.85
524.577	7197.96
524.943	7263.5
525.31	7322.25
525.676	7388.92
526.043	7437.95
526.409	7514.79
526.776	7581.45
527.142	7609.48
527.508	7624.84
527.874	7771.73
528.241	7758.4
528.607	7732.86
528.973	7876.13
529.339	7882.69
529.705	7874.1
530.071	7959.07
530.437	7968.11
530.803	8079.29
531.169	8093.98
531.535	8115.45
531.901	8149.12
532.267	8227.54
532.632	8263.02
532.998	8332.39
533.364	8318.83
533.73	8376.69
534.095	8462.33
534.461	8465.5
534.826	8512.95
535.192	8547.08
535.557	8594.53
535.923	8613.29
536.288	8674.53
536.653	8678.83
537.019	8693.74
537.384	8746.62
537.749	8802.89
538.114	8777.13
538.479	8812.61
538.845	8882.21
539.21	8869.33
539.575	8933.73
539.94	8918.59
540.305	8994.07
540.67	9022.55
541.034	9040.62
541.399	9105.48
541.764	9127.4
542.129	9241.75
542.494	9146.84
542.858	9220.05
543.223	9185.25
543.587	9286.04
543.952	9210.79
544.316	9343.21
544.681	9380.95
545.045	9419.6
545.41	9493.49
545.774	9483.1
546.138	9437
546.503	9549.76
546.867	9482.65
547.231	9622.98
547.595	9612.13
547.959	9624.11
548.324	9645.13
548.688	9708.18
549.052	9732.36
549.416	9750.66
549.779	9787.5
550.143	9807.84
550.507	9882.64
550.871	9924.89
551.235	9853.03
551.599	9988.62
551.962	9986.59
552.326	10076.98
552.689	10196.53
553.053	10070.88
553.417	10100.93
553.78	10225
554.143	10150.2
554.507	10229.29
554.87	10344.77
555.234	10347.26
555.597	10287.37
555.96	10396.29
556.323	10472.68
556.686	10460.25
557.05	10590.87
557.413	10477.87
557.776	10576.4
558.139	10674.25
558.502	10648.94
558.865	10766.91
559.228	10807.13
559.59	10788.83
559.953	10788.83
560.316	10974.58
560.679	11059.33
561.041	11020.68
561.404	11072.89
561.767	11199.44
562.129	11223.62
562.492	11273.56
562.854	11225.65
563.217	11352.65
563.579	11348.81
563.941	11406.89
564.304	11548.13
564.666	11543.61
565.028	11551.29
565.39	11600.56
565.753	11682.14
566.115	11679.2
566.477	11759.2
566.839	11768.24
567.201	11925.75
567.563	11908.35
567.925	11929.14
568.287	11969.81
568.648	12038.51
569.01	12130.03
569.372	12256.36
569.734	12182.91
570.095	12243.48
570.457	12314.89
570.819	12280.99
571.18	12306.53
571.542	12432.63
571.903	12425.17
572.265	12473.75
572.626	12418.84
572.987	12477.82
573.349	12544.94
573.71	12633.75
574.071	12556.69
574.432	12609.57
574.794	12754.88
575.155	12765.27
575.516	12691.38
575.877	12727.08
576.238	12771.6
576.599	12781.32
576.96	12814.08
577.32	12909.22
577.681	12974.53
578.042	12985.6
578.403	12998.03
578.763	13008.66
579.124	12958.26
579.485	13064.02
579.845	13087.3
580.206	12969.79
580.566	13058.15
580.927	13017.47
581.287	13128.65
581.648	13091.14
582.008	13230.34
582.368	13106.73
582.728	13164.58
583.089	13172.94
583.449	13119.84
583.809	13120.97
584.169	13223.79
584.529	13193.06
584.889	13319.38
585.249	13250.23
585.609	13108.31
585.969	13309.89
586.329	13173.4
586.688	13210.91
587.048	13167.07
587.408	13150.12
587.768	13174.07
588.127	13228.54
588.487	13108.54
588.846	13300.85
589.206	13189.67
589.565	13166.84
589.925	13220.63
590.284	13323.45
590.643	13273.73
591.003	13259.95
591.362	13237.8
591.721	13262.89
592.08	13342.88
592.44	13268.99
592.799	13301.08
593.158	13357.35
593.517	13209.1
593.876	13231.02
594.235	13343.11
594.593	13298.82
594.952	13344.47
595.311	13217.69
595.67	13378.14
596.029	13339.95
596.387	13416.33
596.746	13486.16
597.104	13422.2
597.463	13348.53
597.822	13473.05
598.18	13291.13
598.538	13305.37
598.897	13485.48
599.255	13315.31
599.613	13541.97
599.972	13511.01
600.33	13471.92
600.688	13461.75
601.046	13564.57
601.404	13588.75
601.762	13509.88
602.12	13578.81
602.478	13608.19
602.836	13613.84
603.194	13579.71
603.552	13596.89
603.91	13540.62
604.268	13624.01
604.625	13572.71
604.983	13646.83
605.341	13495.42
605.698	13653.16
606.056	13659.94
606.413	13626.72
606.771	13654.74
607.128	13723.44
607.485	13614.51
607.843	13626.27
608.2	13730.22
608.557	13728.41
608.914	13702.2
609.272	13886.15
609.629	13800.72
609.986	13906.48
610.343	13781.06
610.7	13934.28
611.057	13915.75
611.414	13809.54
611.771	13811.8
612.127	13997.56
612.484	13878.46
612.841	13965.92
613.198	13905.58
613.554	13950.1
613.911	14059.02
614.267	14025.8
614.624	14034.39
614.98	14008.63
615.337	14049.08
615.693	14082.98
616.05	14002.08
616.406	14180.6
616.762	14071.68
617.118	14024.22
617.475	14051.34
617.831	14100.15
618.187	14165.01
618.543	14196.65
618.899	14208.4
619.255	14160.26
619.611	14182.41
619.967	14275.97
620.323	14236.87
620.678	14252.46
621.034	14224.22
621.39	14174.5
621.746	14180.15
622.101	14312.12
622.457	14146.48
622.812	14216.08
623.168	14267.61
623.523	14268.96
623.879	14319.58
624.234	14206.82
624.589	14161.62
624.945	14290.88
625.3	14322.52
625.655	14191.45
626.01	14287.49
626.365	14293.37
626.72	14277.1
627.075	14299.69
627.43	14207.49
627.785	14265.35
628.14	14195.74
628.495	14216.31
628.85	14262.18
629.205	14159.36
629.559	14294.5
629.914	14207.49
630.269	14176.99
630.623	14173.14
630.978	14141.96
631.332	14230.32
631.687	14241.17
632.041	14120.72
632.396	14173.6
632.75	14114.84
633.104	14200.49
633.459	14060.38
633.813	14041.17
634.167	14039.36
634.521	14094.95
634.875	14075.75
635.229	14040.49
635.583	13935.18
635.937	14002.98
636.291	13956.65
636.645	13943.77
636.999	13938.12
637.352	13932.02
637.706	13824.45
638.06	13931.57
638.413	13835.07
638.767	13873.27
639.121	13881.4
639.474	13869.42
639.828	13769.31
640.181	13819.71
640.534	13769.99
640.888	13718.47
641.241	13703.55
641.594	13797.33
641.947	13810.22
642.301	13688.19
642.654	13778.13
643.007	13713.5
643.36	13717.56
643.713	13628.3
644.066	13730.67
644.419	13553.73
644.771	13458.13
645.124	13313.51
645.477	13285.71
645.83	13251.59
646.182	13229.44
646.535	13217.46
646.888	13260.85
647.24	13132.04
647.593	13217.01
647.945	13278.25
648.298	13102.66
648.65	13103.79
649.002	13053.85
649.355	13116.45
649.707	13058.82
650.059	13110.35
650.411	13327.97
650.763	13250
651.115	13430.79
651.467	13319.38
651.819	13301.08
652.171	13314.41
652.523	13359.15
652.875	13325.48
653.227	13247.29
653.578	13336.33
653.93	13313.28
654.282	13201.64
654.633	13213.62
654.985	13301.3
655.337	13180.4
655.688	13156.22
656.039	13244.13
656.391	13116.9
656.742	13144.02
657.094	13124.13
657.445	13119.16
657.796	13205.71
658.147	13105.38
658.498	13188.09
658.849	13069.67
659.2	13064.25
659.551	13143.34
659.902	13081.65
660.253	13077.81
660.604	13162.32
660.955	13036
661.306	13117.8
661.656	13061.99
662.007	13047.07
662.358	13052.27
662.708	13007.53
663.059	12996
663.409	12903.8
663.76	13052.72
664.11	13084.36
664.461	13019.5
664.811	13056.34
665.161	12962.55
665.511	12981.76
665.862	13007.53
666.212	13007.53
666.562	12998.26
666.912	13057.92
667.262	12863.12
667.612	12933.85
667.962	12955.32
668.312	12928.21
668.662	13026.28
669.011	12883.69
669.361	12869
669.711	12871.48
670.06	12841.43
670.41	12857.02
670.76	12818.83
671.109	12976.34
671.459	12907.87
671.808	12849.34
672.157	12864.48
672.507	12761.88
672.856	12796.46
673.205	12793.29
673.554	12857.7
673.904	12849.34
674.253	12851.15
674.602	12818.6
674.951	12641.43
675.3	12593.07
675.649	12739.28
675.998	12753.29
676.346	12763.01
676.695	12808.21
677.044	12695.44
677.393	12729.57
677.741	12781.54
678.09	12672.17
678.438	12595.78
678.787	12723.69
679.135	12645.05
679.484	12598.04
679.832	12598.5
680.181	12565.73
680.529	12633.07
680.877	12595.78
681.225	12479.86
681.573	12568.44
681.922	12447.77
682.27	12460.65
682.618	12532.28
682.966	12434.21
683.314	12398.73
683.661	12398.28
684.009	12353.31
684.357	12386.07
684.705	12393.98
685.053	12445.05
685.4	12337.49
685.748	12209.81
686.095	12278.28
686.443	12225.85
686.79	12245.29
687.138	12189.24
687.485	12218.17
687.832	12135.68
688.18	12122.12
688.527	12030.6
688.874	12076.7
689.221	12038.29
689.568	12092.3
689.915	11985.63
690.262	12095.23
690.609	12028.34
690.956	11944.73
691.303	11860.44
691.65	11816.37
691.997	11829.93
692.344	11846.88
692.69	11824.96
693.037	11802.59
693.383	11690.5
693.73	11713.32
694.077	11635.58
694.423	11638.97
694.769	11666.32
695.116	11617.96
695.462	11577.96
695.808	11601.91
696.155	11560.11
696.501	11500.22
696.847	11515.59
697.193	11362.82
697.539	11347.46
697.885	11357.63
698.231	11300
698.577	11154.47
698.923	11313.56
699.269	11194.01
699.614	11139.78
699.96	11109.04
700.306	11185.43
700.651	11132.32
700.997	11128.48
701.342	11068.82
701.688	11042.83
702.033	10969.84
702.379	11012.78
702.724	10987.47
703.069	10929.61
703.415	10854.36
703.76	10902.5
704.105	10870.41
704.45	10821.14
704.795	10721.03
705.14	10744.76
705.485	10732.78
705.83	10696.4
706.175	10713.12
706.52	10677.64
706.865	10636.97
707.209	10607.14
707.554	10591.32
707.899	10638.55
708.243	10523.52
708.588	10586.12
708.932	10471.32
709.277	10526.01
709.621	10484.88
709.966	10425.22
710.31	10419.57
710.654	10296.86
710.998	10315.17
711.342	10312.23
711.687	10309.07
712.031	10208.95
712.375	10175.96
712.719	10233.13
713.063	10255.96
713.407	10267.71
713.75	10142.74
714.094	10135.06
714.438	10082.86
714.782	10138
715.125	10130.99
715.469	10171.44
715.812	10098.9
716.156	10009.64
716.499	10033.37
716.843	10027.72
717.186	9950.2
717.53	9956.53
717.873	9988.4
718.216	9911.79
718.559	9885.8
718.902	9890.32
719.246	9867.49
719.589	9872.47
719.932	9780.04
720.275	9876.08
720.617	9784.79
720.96	9772.58
721.303	9773.03
721.646	9780.04
721.989	9752.7
722.331	9731.68
722.674	9695.75
723.016	9740.04
723.359	9663.43
723.701	9690.55
724.044	9573.49
724.386	9609.65
724.729	9663.88
725.071	9666.82
725.413	9582.3
725.755	9593.6
726.097	9569.42
726.439	9534.4
726.782	9538.01
727.124	9600.61
727.465	9532.14
727.807	9471.57
728.149	9485.13
728.491	9415.3
728.833	9484.68
729.175	9386.83
729.516	9419.14
729.858	9366.49
730.199	9380.5
730.541	9350.9
730.882	9349.54
731.224	9405.36
731.565	9326.72
731.906	9285.82
732.248	9371.69
732.589	9221.41
732.93	9227.74
733.271	9323.1
733.612	9249.88
733.953	9260.05
734.294	9204.91
734.635	9152.49
734.976	9180.06
735.317	9162.88
735.658	9147.74
735.999	9165.37
736.339	9105.03
736.68	9157.68
737.021	9218.7
737.361	9085.37
737.702	9160.62
738.042	9087.4
738.383	9048.76
738.723	9034.07
739.063	8979.16
739.404	9003.79
739.744	9023
740.084	8997.46
740.424	9008.99
740.764	8989.1
741.104	9019.61
741.444	8924.92
741.784	8960.63
742.124	8957.46
742.464	8850.57
742.804	8823.91
743.143	8898.25
743.483	8843.57
743.823	8761.08
744.162	8815.32
744.502	8787.3
744.841	8766.28
745.181	8911.81
745.52	8821.42
745.86	8771.93
746.199	8760.63
746.538	8749.11
746.877	8752.72
747.216	8737.81
747.556	8688.99
747.895	8661.88
748.234	8674.31
748.573	8606.06
748.911	8638.15
749.25	8624.14
749.589	8572.84
749.928	8570.58
750.267	8659.62
750.605	8578.49
750.944	8565.61
751.283	8466.85
751.621	8533.52
751.96	8486.51
752.298	8486.51
752.636	8531.26
752.975	8434.54
753.313	8421.43
753.651	8439.96
753.989	8351.15
754.327	8419.62
754.666	8336.46
755.004	8327.2
755.342	8386.86
755.679	8279.97
756.017	8326.97
756.355	8260.08
756.693	8238.16
757.031	8259.63
757.368	8222.11
757.706	8231.15
758.044	8213.08
758.381	8198.84
758.719	8144.83
759.056	8163.81
759.394	8121.1
759.731	8043.59
760.068	8018.96
760.405	8036.13
760.743	7971.5
761.08	8004.49
