Data from black_plastic_tray_FLMS001491_070.txt Node
Date: Tue Feb 07 10:40:22 GMT 2017
User: dcchb
Spectrometer: FLMS00149
Trigger mode: 0
Integration Time (sec): 2.000000E-2
Scans to average: 10
Electric dark correction enabled: true
Nonlinearity correction enabled: false
Boxcar width: 0
XAxis mode: Wavelengths
Number of Pixels in Spectrum: 2048
>>>>>Begin Spectral Data<<<<<
341.393	-10.45
341.776	-10.45
342.16	-10.45
342.543	-67.85
342.927	-61.52
343.31	-55.42
343.693	-66.5
344.077	-49.32
344.46	-52.71
344.843	-49.77
345.226	-46.38
345.61	-34.18
345.993	-11.58
346.376	5.14
346.759	7.17
347.142	2.66
347.525	32.49
347.908	66.16
348.291	80.39
348.674	88.75
349.057	83.11
349.44	124.01
349.823	143.44
350.206	173.05
350.588	169.66
350.971	200.62
351.354	215.76
351.737	225.47
352.119	245.81
352.502	246.72
352.884	240.39
353.267	258.92
353.65	277.22
354.032	259.82
354.414	293.5
354.797	294.17
355.179	300.27
355.562	325.58
355.944	320.61
356.326	320.61
356.709	288.3
357.091	326.49
357.473	313.83
357.855	337.34
358.238	340.73
358.62	356.54
359.002	332.14
359.384	326.94
359.766	313.83
360.148	319.26
360.53	325.81
360.912	318.35
361.294	313.61
361.676	327.62
362.057	310.67
362.439	309.09
362.821	339.14
363.203	303.44
363.584	305.25
363.966	326.71
364.348	293.5
364.729	320.39
365.111	320.16
365.493	309.99
365.874	315.87
366.256	308.41
366.637	302.99
367.019	314.29
367.4	325.13
367.781	308.41
368.163	312.03
368.544	293.5
368.925	303.89
369.306	319.03
369.688	307.05
370.069	315.42
370.45	298.24
370.831	299.6
371.212	319.26
371.593	296.88
371.974	291.24
372.355	300.27
372.736	295.98
373.117	306.15
373.498	302.53
373.879	302.99
374.26	300.5
374.641	289.65
375.021	305.25
375.402	344.12
375.783	319.03
376.163	352.93
376.544	318.58
376.925	314.06
377.305	324
377.686	337.79
378.066	327.17
378.447	340.95
378.827	332.59
379.208	340.95
379.588	338.69
379.968	332.14
380.349	309.31
380.729	321.74
381.109	346.6
381.489	336.66
381.87	354.28
382.25	338.24
382.63	323.78
383.01	323.32
383.39	319.94
383.77	353.61
384.15	358.8
384.53	354.96
384.91	342.76
385.29	359.71
385.67	348.41
386.049	357.22
386.429	320.84
386.809	340.05
387.189	366.26
387.568	332.36
387.948	349.76
388.328	360.16
388.707	358.35
389.087	383.89
389.466	381.85
389.846	368.07
390.225	355.64
390.605	373.04
390.984	356.77
391.363	361.29
391.743	405.58
392.122	380.5
392.501	369.88
392.881	375.75
393.26	377.33
393.639	399.03
394.018	358.58
394.397	390.44
394.776	384.57
395.155	395.19
395.534	385.47
395.913	372.14
396.292	382.08
396.671	373.94
397.05	397.45
397.429	403.77
397.808	414.85
398.186	368.52
398.565	406.03
398.944	404.68
399.323	393.61
399.701	412.81
400.08	428.41
400.458	402.87
400.837	413.04
401.215	427.95
401.594	435.19
401.972	418.24
402.351	426.15
402.729	420.27
403.107	431.57
403.486	432.02
403.864	434.73
404.242	417.33
404.62	439.71
404.999	448.52
405.377	445.58
405.755	453.26
406.133	479.25
406.511	465.02
406.889	443.77
407.267	462.08
407.645	452.59
408.023	473.15
408.401	463.89
408.779	453.94
409.156	465.69
409.534	496.2
409.912	486.48
410.29	486.94
410.667	497.56
411.045	469.99
411.422	488.29
411.8	499.82
412.178	474.51
412.555	512.25
412.933	507.5
413.31	505.92
413.687	513.15
414.065	522.87
414.442	510.66
414.819	511.12
415.197	521.51
415.574	530.1
415.951	525.81
416.328	543.66
416.705	539.59
417.082	550.44
417.46	557.44
417.837	564.67
418.214	578.01
418.591	569.42
418.967	559.02
419.344	577.33
419.721	581.62
420.098	577.56
420.475	594.28
420.852	574.84
421.228	580.72
421.605	580.95
421.982	590.21
422.358	590.66
422.735	591.34
423.111	602.19
423.488	629.08
423.864	627.27
424.241	605.8
424.617	622.75
424.994	625.01
425.37	640.6
425.746	631.11
426.123	642.86
426.499	643.09
426.875	668.17
427.251	653.71
427.627	663.65
428.003	672.92
428.379	686.48
428.756	674.95
429.132	676.99
429.507	680.15
429.883	701.17
430.259	713.15
430.635	705.46
431.011	690.55
431.387	714.28
431.763	723.09
432.138	733.71
432.514	734.84
432.89	738
433.265	764.22
433.641	756.53
434.016	785.69
434.392	787.49
434.767	816.87
435.143	794.5
435.518	785.46
435.894	816.87
436.269	827.72
436.644	850.77
437.02	845.12
437.395	808.06
437.77	832.46
438.145	834.27
438.52	826.59
438.895	859.58
439.271	885.57
439.646	855.29
440.021	867.27
440.395	882.86
440.77	886.47
441.145	882.18
441.52	941.16
441.895	908.85
442.27	918.56
442.645	903.2
443.019	929.41
443.394	898.22
443.769	905.46
444.143	945.91
444.518	944.33
444.892	940.71
445.267	966.47
445.641	953.36
446.016	980.03
446.39	967.6
446.764	967.6
447.139	970.31
447.513	952.91
447.887	956.98
448.262	986.58
448.636	991.56
449.01	984.78
449.384	1001.5
449.758	1021.84
450.132	1028.84
450.506	1060.03
450.88	1006.02
451.254	1017.54
451.628	1044.89
452.002	1050.31
452.376	1076.3
452.75	1075.17
453.123	1100.93
453.497	1101.16
453.871	1100.93
454.244	1152.91
454.618	1144.09
454.992	1114.26
455.365	1139.57
455.739	1162.62
456.112	1167.14
456.486	1177.77
456.859	1175.73
457.232	1199.69
457.606	1224.77
457.979	1235.17
458.352	1253.92
458.725	1245.33
459.099	1251.89
459.472	1302.06
459.845	1292.79
460.218	1305.22
460.591	1340.02
460.964	1335.05
461.337	1363.98
461.71	1368.95
462.083	1392.9
462.456	1413.24
462.829	1411.43
463.201	1408.04
463.574	1418.89
463.947	1416.4
464.32	1463.86
464.692	1489.4
465.065	1489.62
465.438	1493.24
465.81	1509.06
466.183	1557.64
466.555	1575.95
466.928	1562.61
467.3	1583.63
467.672	1592.44
468.045	1607.58
468.417	1614.82
468.789	1657.3
469.161	1691.88
469.534	1708.37
469.906	1736.4
470.278	1758.54
470.65	1765.32
471.022	1753.12
471.394	1789.5
471.766	1808.03
472.138	1805.55
472.51	1897.07
472.882	1887.35
473.253	1890.06
473.625	1901.36
473.997	1955.82
474.369	1980.68
474.74	1989.95
475.112	2022.26
475.484	2043.05
475.855	2096.84
476.227	2093.67
476.598	2148.14
476.97	2188.13
477.341	2208.02
477.713	2247.57
478.084	2273.78
478.455	2278.53
478.827	2313.55
479.198	2405.76
479.569	2379.32
479.94	2457.96
480.311	2449.6
480.682	2500.67
481.053	2548.8
481.424	2624.06
481.795	2607.56
482.166	2663.6
482.537	2686.2
482.908	2762.81
483.279	2756.93
483.65	2808.01
484.021	2841.22
484.391	2906.53
484.762	2893.2
485.133	2956.25
485.503	2989.24
485.874	3057.04
486.244	3019.3
486.615	3151.5
486.985	3144.72
487.356	3190.82
487.726	3243.7
488.097	3293.64
488.467	3328.22
488.837	3342.45
489.207	3433.98
489.578	3479.17
489.948	3473.52
490.318	3523.01
490.688	3552.62
491.058	3609.57
491.428	3607.31
491.798	3676.01
492.168	3729.34
492.538	3730.92
492.908	3783.57
493.278	3850.01
493.648	3836.68
494.017	3901.08
494.387	3972.04
494.757	3887.3
495.126	4008.88
495.496	3991.93
495.866	4060.85
496.235	4062.89
496.605	4116.45
496.974	4097.24
497.344	4184.01
497.713	4180.62
498.082	4222.66
498.452	4276.44
498.821	4343.11
499.19	4329.32
499.559	4364.35
499.928	4352.82
500.298	4386.27
500.667	4458.81
501.036	4406.61
501.405	4467.17
501.774	4487.06
502.143	4548.98
502.512	4497.45
502.88	4576.55
503.249	4613.38
503.618	4619.03
503.987	4656.09
504.356	4679.82
504.724	4694.74
505.093	4743.55
505.462	4785.81
505.83	4814.73
506.199	4809.53
506.567	4885.46
506.936	4899.93
507.304	4927.72
507.672	4993.48
508.041	5019.25
508.409	5037.1
508.777	5064.22
509.145	5134.27
509.514	5056.53
509.882	5136.31
510.25	5162.75
510.618	5166.81
510.986	5237.32
511.354	5265.57
511.722	5325.91
512.09	5385.11
512.458	5347.6
512.826	5408.84
513.193	5486.58
513.561	5470.31
513.929	5519.57
514.297	5589.85
514.664	5682.73
515.032	5652.9
515.4	5653.81
515.767	5795.5
516.135	5768.83
516.502	5694.71
516.869	5774.03
517.237	5806.57
517.604	5840.69
517.972	5893.8
518.339	5919.34
518.706	6002.95
519.073	6013.12
519.44	6130.18
519.808	6114.58
520.175	6153.91
520.542	6216.5
520.909	6255.82
521.276	6317.29
521.643	6346.22
522.009	6383.5
522.376	6442.03
522.743	6472.99
523.11	6557.96
523.477	6622.37
523.843	6576.72
524.21	6714.57
524.577	6729.03
524.943	6729.03
525.31	6763.83
525.676	6852.64
526.043	6880.21
526.409	6927.9
526.776	6971.51
527.142	7046.54
527.508	7110.49
527.874	7084.05
528.241	7117.72
528.607	7203.82
528.973	7284.05
529.339	7231.62
529.705	7310.49
530.071	7352.29
530.437	7392.29
530.803	7452.63
531.169	7516.13
531.535	7540.54
531.901	7569.69
532.267	7603.13
532.632	7630.03
532.998	7681.1
533.364	7674.77
533.73	7735.56
534.095	7763.58
534.461	7772.85
534.826	7875.89
535.192	7863.24
535.557	7916.12
535.923	7899.4
536.288	7984.59
536.653	7962.45
537.019	7994.54
537.384	8039.51
537.749	8055.78
538.114	8105.04
538.479	8145.49
538.845	8175.77
539.21	8205.6
539.575	8217.58
539.94	8246.96
540.305	8296.45
540.67	8305.26
541.034	8339.84
541.399	8320.4
541.764	8396.33
542.129	8360.63
542.494	8417.35
542.858	8470.91
543.223	8462.32
543.587	8541.19
543.952	8472.94
544.316	8561.3
544.681	8545.93
545.045	8667.51
545.41	8702.31
545.774	8707.74
546.138	8764.23
546.503	8729.88
546.867	8769.2
547.231	8805.36
547.595	8855.08
547.959	8889.43
548.324	8928.07
548.688	8886.94
549.052	8921.97
549.416	8965.13
549.779	8941.86
550.143	9019.37
550.507	9110.89
550.871	9132.36
551.235	9062.76
551.599	9252.58
551.962	9179.14
552.326	9211.9
552.689	9297.55
553.053	9230.66
553.417	9264.33
553.78	9433.37
554.143	9441.5
554.507	9503.87
554.87	9463.2
555.234	9564.44
555.597	9606.47
555.96	9553.59
556.323	9592.23
556.686	9672.68
557.05	9737.09
557.413	9810.76
557.776	9777.54
558.139	9809.18
558.502	9917.2
558.865	9865.22
559.228	9898.89
559.59	10009.4
559.953	10009.85
560.316	10043.97
560.679	10128.72
561.041	10190.86
561.404	10227.47
561.767	10285.55
562.129	10293.68
562.492	10367.13
562.854	10347.69
563.217	10307.47
563.579	10448.93
563.941	10515.83
564.304	10450.97
564.666	10614.13
565.028	10539.78
565.39	10619.1
565.753	10662.71
566.115	10679.21
566.477	10752.43
566.839	10804.18
567.201	10838.75
567.563	10820
567.925	10857.06
568.287	10930.28
568.648	10971.41
569.01	11045.3
569.372	11064.06
569.734	11002.59
570.095	11135.24
570.457	11150.84
570.819	11197.62
571.18	11208.91
571.542	11296.82
571.903	11266.54
572.265	11331.85
572.626	11365.29
572.987	11375.46
573.349	11374.56
573.71	11422.69
574.071	11515.8
574.432	11470.38
574.794	11554.44
575.155	11477.61
575.516	11532.97
575.877	11523.26
576.238	11556.93
576.599	11607.77
576.96	11623.37
577.32	11626.76
577.681	11698.17
578.042	11742.91
578.403	11698.62
578.763	11824.04
579.124	11754.21
579.485	11768.67
579.845	11798.28
580.206	11749.69
580.566	11760.76
580.927	11846.41
581.287	11819.97
581.648	11759.18
582.008	11868.33
582.368	11884.83
582.728	11891.83
583.089	11848.45
583.449	11844.38
583.809	11901.55
584.169	11861.1
584.529	11889.12
584.889	11937.48
585.249	11904.04
585.609	11887.54
585.969	11966.41
586.329	11998.72
586.688	11986.75
587.048	11914.66
587.408	11932.29
587.768	11891.61
588.127	11901.55
588.487	11936.58
588.846	11963.24
589.206	11907.65
589.565	11902.68
589.925	11989.01
590.284	11984.94
590.643	11978.16
591.003	11952.17
591.362	12036.01
591.721	12071.26
592.08	11993.75
592.44	12131.6
592.799	12106.07
593.158	12076.46
593.517	12093.41
593.876	12123.47
594.235	12089.8
594.593	12120.98
594.952	12147.19
595.311	12085.95
595.67	12101.55
596.029	12155.56
596.387	12209.11
596.746	12163.01
597.104	12082.56
597.463	12067.87
597.822	12198.49
598.18	12029.01
598.538	12102.68
598.897	12052.28
599.255	12078.72
599.613	12234.2
599.972	12204.37
600.33	12263.8
600.688	12134.77
601.046	12168.21
601.404	12224.03
601.762	12229.9
602.12	12329.34
602.478	12312.84
602.836	12289.11
603.194	12314.42
603.552	12304.25
603.91	12259.28
604.268	12337.92
604.625	12276.68
604.983	12345.16
605.341	12301.31
605.698	12378.15
606.056	12309.9
606.413	12322.33
606.771	12431.03
607.128	12339.05
607.485	12374.76
607.843	12359.17
608.2	12376.79
608.557	12470.12
608.914	12352.16
609.272	12470.12
609.629	12457.7
609.986	12459.05
610.343	12427.41
610.7	12470.12
611.057	12395.1
611.414	12492.72
611.771	12438.03
612.127	12473.29
612.484	12483.23
612.841	12542.44
613.198	12570.91
613.554	12525.04
613.911	12609.33
614.267	12579.73
614.624	12617.92
614.98	12624.02
615.337	12547.41
615.693	12541.08
616.05	12581.53
616.406	12638.71
616.762	12594.19
617.118	12660.18
617.475	12588.31
617.831	12695.88
618.187	12676.45
618.543	12654.75
618.899	12709.44
619.255	12712.6
619.611	12725.48
619.967	12754.41
620.323	12746.73
620.678	12741.3
621.034	12669.89
621.39	12690.46
621.746	12729.55
622.101	12790.34
622.457	12720.74
622.812	12770.91
623.168	12835.09
623.523	12772.49
623.879	12828.08
624.234	12685.26
624.589	12764.13
624.945	12771.59
625.3	12779.95
625.655	12893.62
626.01	12874.63
626.365	12856.55
626.72	12845.26
627.075	12678.03
627.43	12819.27
627.785	12647.52
628.14	12731.59
628.495	12724.13
628.85	12695.2
629.205	12703.56
629.559	12776.56
629.914	12670.57
630.269	12672.6
630.623	12614.98
630.978	12623.79
631.332	12640.29
631.687	12637.13
632.041	12667.41
632.396	12709.44
632.75	12563.68
633.104	12603.23
633.459	12539.05
633.813	12457.92
634.167	12435.1
634.521	12572.72
634.875	12500.86
635.229	12468.99
635.583	12433.74
635.937	12455.44
636.291	12420.18
636.645	12367.75
636.999	12331.82
637.352	12407.75
637.706	12305.83
638.06	12417.47
638.413	12375.44
638.767	12282.33
639.121	12364.59
639.474	12254.54
639.828	12248.89
640.181	12247.76
640.534	12276
640.888	12294.76
641.241	12144.71
641.594	12171.83
641.947	12225.61
642.301	12196.91
642.654	12211.15
643.007	12148.78
643.36	12050.02
643.713	12156.23
644.066	12127.99
644.419	12111.72
644.771	11998.95
645.124	11940.19
645.477	11875.79
645.83	11846.19
646.182	11720.99
646.535	11660.65
646.888	11687.77
647.24	11645.06
647.593	11676.02
647.945	11597.15
648.298	11616.59
648.65	11578.62
649.002	11495.23
649.355	11645.06
649.707	11626.3
650.059	11604.38
650.411	11749.24
650.763	11830.59
651.115	11927.77
651.467	11835.79
651.819	11895.22
652.171	11818.62
652.523	11762.35
652.875	11862
653.227	11654.78
653.578	11806.19
653.93	11749.69
654.282	11752.85
654.633	11749.01
654.985	11669.69
655.337	11766.87
655.688	11707.88
656.039	11709.01
656.391	11665.4
656.742	11693.42
657.094	11648.9
657.445	11615.68
657.796	11632.86
658.147	11652.74
658.498	11619.52
658.849	11632.86
659.2	11582.24
659.551	11671.95
659.902	11575.91
660.253	11612.07
660.604	11586.31
660.955	11521.22
661.306	11600.09
661.656	11502.24
662.007	11505.18
662.358	11471.51
662.708	11539.98
663.059	11551.73
663.409	11477.61
663.76	11495.69
664.11	11506.76
664.461	11467.66
664.811	11535.91
665.161	11516.02
665.511	11526.42
665.862	11488.68
666.212	11554.22
666.562	11496.59
666.912	11498.85
667.262	11420.21
667.612	11431.06
667.962	11452.3
668.312	11392.41
668.662	11428.34
669.011	11437.61
669.361	11320.78
669.711	11420.89
670.06	11353.54
670.41	11265.41
670.76	11209.59
671.109	11296.6
671.459	11208.69
671.808	11331.85
672.157	11295.92
672.507	11274.22
672.856	11170.5
673.205	11216.82
673.554	11236.03
673.904	11167.79
674.253	11219.99
674.602	11197.16
674.951	11097.73
675.3	11007.56
675.649	11141.8
675.998	11121.68
676.346	11252.98
676.695	11216.15
677.044	11148.8
677.393	11201.23
677.741	11109.71
678.09	11038.07
678.438	11001.91
678.787	11131.4
679.135	11147.45
679.484	11004.63
679.832	11095.92
680.181	11036.94
680.529	11042.82
680.877	11044.62
681.225	10999.65
681.573	11113.32
681.922	10956.04
682.27	10893.67
682.618	10999.43
682.966	10946.1
683.314	10964.85
683.661	10912.2
684.009	10888.24
684.357	10819.77
684.705	10809.6
685.053	10874.91
685.4	10911.97
685.748	10829.04
686.095	10742.26
686.443	10718.31
686.79	10636.5
687.138	10622.04
687.485	10663.84
687.832	10596.05
688.18	10642.15
688.527	10643.05
688.874	10610.51
689.221	10575.48
689.568	10534.81
689.915	10496.16
690.262	10553.79
690.609	10536.16
690.956	10459.56
691.303	10418.2
691.65	10400.12
691.997	10353.12
692.344	10341.37
692.69	10333.91
693.037	10319.22
693.383	10273.57
693.73	10314.47
694.077	10256.17
694.423	10254.14
694.769	10215.72
695.116	10258.88
695.462	10253.91
695.808	10185.21
696.155	10184.53
696.501	10067.48
696.847	10106.12
697.193	10009.85
697.539	10014.6
697.885	10022.28
698.231	9938.67
698.577	9915.61
698.923	9921.04
699.269	9916.97
699.614	9806.01
699.96	9787.71
700.306	9810.08
700.651	9827.03
700.997	9746.58
701.342	9752.46
701.688	9695.73
702.033	9700.03
702.379	9645.11
702.724	9607.37
703.069	9616.19
703.415	9586.81
703.76	9687.15
704.105	9571.9
704.45	9504.78
704.795	9467.94
705.14	9421.62
705.485	9373.03
705.83	9423.2
706.175	9380.04
706.52	9345.69
706.865	9309.98
707.209	9323.77
707.554	9226.82
707.899	9310.21
708.243	9250.1
708.588	9255.29
708.932	9165.13
709.277	9197.22
709.621	9192.02
709.966	9184.11
710.31	9197.22
710.654	9042.19
710.998	9044.23
711.342	9081.51
711.687	9052.36
712.031	8959.48
712.375	8962.42
712.719	8951.8
713.063	8989.76
713.407	8916.32
713.75	8881.07
714.094	8830.22
714.438	8805.81
714.782	8860.5
715.125	8754.52
715.469	8832.93
715.812	8798.36
716.156	8680.85
716.499	8750.9
716.843	8781.18
717.186	8661.41
717.53	8722.43
717.873	8762.2
718.216	8662.54
718.559	8711.35
718.902	8623.45
719.246	8625.03
719.589	8632.26
719.932	8566.27
720.275	8585.71
720.617	8566.5
720.96	8524.01
721.303	8464.58
721.646	8528.53
721.989	8448.76
722.331	8493.51
722.674	8474.07
723.016	8476.1
723.359	8397.69
723.701	8439.04
724.044	8406.73
724.386	8365.37
724.729	8356.79
725.071	8310.69
725.413	8322.44
725.755	8290.12
726.097	8269.33
726.439	8242.44
726.782	8264.13
727.124	8281.76
727.465	8194.76
727.807	8196.34
728.149	8270.69
728.491	8153.63
728.833	8179.62
729.175	8167.86
729.516	8140.97
729.858	8100.07
730.199	8091.26
730.541	8139.62
730.882	8136.23
731.224	8131.93
731.565	8073.18
731.906	8106.17
732.248	7959.51
732.589	8046.06
732.93	7990.69
733.271	8047.87
733.612	8010.81
733.953	8096
734.294	7921.32
734.635	7943.01
734.976	8006.29
735.317	7936.46
735.658	7950.69
735.999	7956.8
736.339	7959.51
736.68	7886.06
737.021	7920.19
737.361	7867.31
737.702	7844.93
738.042	7858.72
738.383	7775.56
738.723	7827.08
739.063	7810.81
739.404	7807.87
739.744	7779.85
740.084	7734.43
740.424	7754.09
740.764	7736.01
741.104	7749.8
741.444	7709.57
741.784	7696.01
742.124	7717.71
742.464	7700.76
742.804	7648.78
743.143	7672.96
743.483	7689.01
743.823	7725.84
744.162	7693.75
744.502	7710.93
744.841	7627.31
745.181	7620.53
745.52	7595.68
745.86	7599.29
746.199	7605.85
746.538	7595.68
746.877	7559.74
747.216	7571.04
747.556	7556.81
747.895	7539.63
748.234	7570.82
748.573	7500.31
748.911	7478.39
749.25	7493.31
749.589	7485.85
749.928	7441.78
750.267	7461.67
750.605	7400.43
750.944	7432.97
751.283	7370.37
751.621	7374.21
751.96	7360.88
752.298	7285.63
752.636	7364.27
752.975	7306.42
753.313	7314.1
753.651	7284.95
753.989	7299.19
754.327	7272.29
754.666	7262.58
755.004	7254.44
755.342	7255.57
755.679	7210.38
756.017	7133.77
756.355	7151.62
756.693	7131.73
757.031	7125.63
757.368	7060.1
757.706	7076.37
758.044	7114.78
758.381	7033.2
758.719	7056.48
759.056	7008.57
759.394	7015.13
759.731	6939.65
760.068	6999.08
760.405	6937.39
760.743	6907.78
761.08	6955.01
761.417	6859.42
761.754	6843.83
762.091	6891.29
762.428	6841.35
