Data from black_plastic_tray_FLMS001491_031.txt Node
Date: Tue Feb 07 10:39:41 GMT 2017
User: dcchb
Spectrometer: FLMS00149
Trigger mode: 0
Integration Time (sec): 2.000000E-2
Scans to average: 10
Electric dark correction enabled: true
Nonlinearity correction enabled: false
Boxcar width: 0
XAxis mode: Wavelengths
Number of Pixels in Spectrum: 2048
>>>>>Begin Spectral Data<<<<<
341.393	-14.96
341.776	-14.96
342.16	-14.96
342.543	-70.77
342.927	-65.13
343.31	-81.85
343.693	-75.29
344.077	-45.46
344.46	-68.29
344.843	-63.09
345.226	-54.5
345.61	-40.04
345.993	-3.43
346.376	-8.86
346.759	8.54
347.142	14.65
347.525	37.7
347.908	49.67
348.291	99.39
348.674	110.01
349.057	120.86
349.44	113.85
349.823	130.35
350.206	156.11
350.588	199.05
350.971	199.5
351.354	225.94
351.737	217.35
352.119	246.28
352.502	248.31
352.884	276.56
353.267	270.23
353.65	293.74
354.032	279.5
354.414	294.19
354.797	323.11
355.179	296.67
355.562	299.61
355.944	325.37
356.326	346.16
356.709	328.76
357.091	329.89
357.473	322.89
357.855	323.56
358.238	349.33
358.62	334.41
359.002	341.42
359.384	350.68
359.766	354.52
360.148	324.24
360.53	310.68
360.912	339.61
361.294	351.59
361.676	339.84
362.057	338.25
362.439	321.98
362.821	313.62
363.203	333.51
363.584	335.32
363.966	316.79
364.348	319.5
364.729	318.37
365.111	325.15
365.493	321.76
365.874	337.8
366.256	302.55
366.637	312.27
367.019	316.11
367.4	304.81
367.781	325.82
368.163	316.56
368.544	322.66
368.925	321.98
369.306	329.44
369.688	315.66
370.069	348.2
370.45	313.62
370.831	331.47
371.212	312.72
371.593	349.1
371.974	298.48
372.355	325.37
372.736	333.96
373.117	322.89
373.498	326.95
373.879	330.8
374.26	329.89
374.641	321.31
375.021	337.58
375.402	331.25
375.783	349.78
376.163	355.65
376.544	348.42
376.925	339.61
377.305	359.95
377.686	350
378.066	312.49
378.447	348.88
378.827	324.92
379.208	339.84
379.588	341.42
379.968	367.18
380.349	361.53
380.729	343.9
381.109	369.89
381.489	370.57
381.87	345.49
382.25	377.35
382.63	365.37
383.01	378.03
383.39	385.48
383.77	373.73
384.15	384.58
384.53	370.57
384.91	382.77
385.29	375.31
385.67	385.26
386.049	365.37
386.429	398.14
386.809	378.93
387.189	387.07
387.568	391.59
387.948	401.08
388.328	389.78
388.707	379.16
389.087	403.79
389.466	419.83
389.846	406.27
390.225	414.18
390.605	430
390.984	417.8
391.363	395.88
391.743	421.19
392.122	424.13
392.501	427.29
392.881	401.3
393.26	429.32
393.639	434.97
394.018	427.29
394.397	438.59
394.776	437.23
395.155	442.88
395.534	472.26
395.913	435.43
396.292	451.02
396.671	454.18
397.05	446.73
397.429	448.31
397.808	473.84
398.186	475.88
398.565	459.61
398.944	476.1
399.323	473.84
399.701	460.28
400.08	468.87
400.458	489.89
400.837	498.7
401.215	493.5
401.594	503.67
401.972	489.89
402.351	494.18
402.729	484.69
403.107	520.62
403.486	502.32
403.864	518.14
404.242	523.79
404.62	519.27
404.999	534.18
405.377	519.27
405.755	536.89
406.133	538.93
406.511	559.72
406.889	531.92
407.267	523.79
407.645	557.01
408.023	580.96
408.401	570.34
408.779	566.5
409.156	559.49
409.534	572.37
409.912	596.33
410.29	599.04
410.667	579.6
411.045	610.11
411.422	586.16
411.8	642.65
412.178	597
412.555	631.81
412.933	645.59
413.31	627.96
413.687	641.75
414.065	635.42
414.442	651.01
414.819	651.47
415.197	677.45
415.574	658.7
415.951	667.51
416.328	668.64
416.705	676.55
417.082	685.14
417.46	668.64
417.837	693.5
418.214	682.43
418.591	711.13
418.967	719.03
419.344	704.8
419.721	727.4
420.098	744.12
420.475	733.05
420.852	716.32
421.228	736.44
421.605	745.47
421.982	753.38
422.358	763.55
422.735	775.08
423.111	747.73
423.488	758.36
423.864	779.15
424.241	797.45
424.617	812.37
424.994	816.89
425.37	799.94
425.746	817.56
426.123	834.51
426.499	845.59
426.875	834.74
427.251	834.06
427.627	877.45
428.003	870.44
428.379	866.15
428.756	862.53
429.132	885.13
429.507	900.27
429.883	909.09
430.259	940.95
430.635	955.41
431.011	938.92
431.387	961.51
431.763	923.55
432.138	968.07
432.514	998.8
432.89	971.01
433.265	1002.64
433.641	1024.79
434.016	1024.34
434.392	1055.3
434.767	1084.67
435.143	1072.02
435.518	1063.88
435.894	1089.42
436.269	1072.02
436.644	1078.35
437.02	1090.55
437.395	1105.24
437.77	1108.4
438.145	1138.91
438.52	1161.28
438.895	1156.99
439.271	1172.81
439.646	1164.9
440.021	1207.38
440.395	1210.55
440.77	1178.01
441.145	1200.83
441.52	1189.3
441.895	1216.42
442.27	1244.22
442.645	1243.09
443.019	1246.25
443.394	1247.61
443.769	1266.82
444.143	1276.08
444.518	1294.84
444.892	1270.43
445.267	1283.31
445.641	1287.83
446.016	1311.79
446.39	1302.52
446.764	1301.62
447.139	1334.39
447.513	1342.3
447.887	1358.11
448.262	1331.22
448.636	1396.76
449.01	1360.37
449.384	1373.71
449.758	1383.42
450.132	1404.21
450.506	1401.05
450.88	1415.51
451.254	1416.42
451.628	1436.98
452.002	1480.82
452.376	1509.97
452.75	1464.55
453.123	1498.22
453.497	1502.29
453.871	1534.15
454.244	1578.45
454.618	1589.75
454.992	1570.31
455.365	1561.5
455.739	1610.31
456.112	1614.83
456.486	1650.08
456.859	1696.41
457.232	1684.89
457.606	1714.71
457.979	1737.54
458.352	1748.16
458.725	1764.66
459.099	1776.63
459.472	1801.04
459.845	1826.58
460.218	1839.23
460.591	1857.54
460.964	1872.45
461.337	1907.93
461.71	1914.48
462.083	1946.57
462.456	1955.84
462.829	1980.24
463.201	1976.4
463.574	1982.5
463.947	2019.57
464.32	2081.94
464.692	2084.42
465.065	2080.13
465.438	2132.33
465.81	2148.6
466.183	2195.61
466.555	2219.56
466.928	2272.67
467.3	2273.57
467.672	2250.29
468.045	2326.68
468.417	2319.22
468.789	2324.87
469.161	2369.84
469.534	2425.2
469.906	2461.36
470.278	2468.14
470.65	2498.42
471.022	2535.26
471.394	2589.72
471.766	2598.31
472.138	2662.94
472.51	2667.23
472.882	2702.49
473.253	2732.09
473.625	2788.81
473.997	2807.12
474.369	2851.63
474.74	2872.65
475.112	2917.17
475.484	2968.24
475.855	3025.87
476.227	3067.67
476.598	3124.4
476.97	3189.48
477.341	3231.74
477.713	3261.11
478.084	3338.63
478.455	3355.12
478.827	3398.29
479.198	3506.08
479.569	3508.57
479.94	3594.44
480.311	3629.47
480.682	3673.76
481.053	3761.44
481.424	3797.82
481.795	3852.96
482.166	3928.22
482.537	3983.81
482.908	4037.14
483.279	4092.28
483.65	4139.06
484.021	4225.84
484.391	4276
484.762	4349.45
485.133	4335.21
485.503	4397.58
485.874	4546.5
486.244	4562.55
486.615	4601.87
486.985	4652.26
487.356	4785.59
487.726	4782.88
488.097	4887.51
488.467	4928.64
488.837	4984.91
489.207	5080.28
489.578	5144.46
489.948	5172.93
490.318	5237.79
490.688	5254.73
491.058	5315.75
491.428	5409.08
491.798	5432.81
492.168	5515.52
492.538	5576.53
492.908	5668.74
493.278	5707.38
493.648	5720.94
494.017	5861.95
494.387	5800.03
494.757	5965.9
495.126	5951.44
495.496	5992.79
495.866	6040.25
496.235	6089.52
496.605	6161.38
496.974	6190.98
497.344	6274.37
497.713	6283.41
498.082	6317.08
498.452	6365.67
498.821	6396.17
499.19	6440.47
499.559	6534.02
499.928	6538.99
500.298	6652.89
500.667	6654.02
501.036	6649.27
501.405	6685.66
501.774	6820.34
502.143	6814.92
502.512	6800.68
502.88	6900.12
503.249	6988.25
503.618	6996.16
503.987	6985.76
504.356	7066.21
504.724	7042.03
505.093	7162.03
505.462	7168.13
505.83	7202.93
506.199	7296.49
506.567	7394.57
506.936	7404.28
507.304	7508.01
507.672	7517.27
508.041	7486.31
508.409	7599.76
508.777	7664.16
509.145	7689.7
509.514	7649.25
509.882	7762.47
510.25	7838.17
510.618	7838.17
510.986	7899.18
511.354	7987.77
511.722	8010.82
512.09	8164.04
512.458	8105.28
512.826	8177.6
513.193	8235.22
513.561	8277.03
513.929	8405.16
514.297	8374.65
514.664	8463.92
515.032	8564.93
515.4	8580.07
515.767	8651.71
516.135	8647.19
516.502	8655.55
516.869	8839.95
517.237	8871.59
517.604	8846.96
517.972	8947.74
518.339	9016.44
518.706	9088.08
519.073	9137.57
519.44	9213.73
519.808	9245.36
520.175	9256.66
520.542	9431.57
520.909	9496.66
521.276	9468.41
521.643	9624.56
522.009	9685.35
522.376	9688.97
522.743	9787.04
523.11	9858.46
523.477	9970.99
523.843	10028.85
524.21	10100.03
524.577	10166.02
524.943	10182.97
525.31	10325.34
525.676	10442.39
526.043	10453.69
526.409	10557.19
526.776	10671.54
527.142	10670.41
527.508	10778.66
527.874	10823.63
528.241	10883.51
528.607	10998.99
528.973	11093.9
529.339	10977.97
529.705	11163.51
530.071	11217.52
530.437	11324.41
530.803	11316.04
531.169	11438.3
531.535	11483.5
531.901	11549.94
532.267	11585.42
532.632	11580.44
532.998	11576.6
533.364	11761.68
533.73	11782.47
534.095	11963.94
534.461	11978.4
534.826	12049.36
535.192	12012.07
535.557	12139.3
535.923	12113.76
536.288	12193.31
536.653	12208.68
537.019	12211.16
537.384	12316.47
537.749	12387.88
538.114	12455
538.479	12375.9
538.845	12517.82
539.21	12518.72
539.575	12541.1
539.94	12567.08
540.305	12576.58
540.67	12654.31
541.034	12772.05
541.399	12774.76
541.764	12728.66
542.129	12801.43
542.494	12876.23
542.858	12953.97
543.223	12986.06
543.587	12977.7
543.952	12964.81
544.316	13031.48
544.681	13093.17
545.045	13158.71
545.41	13214.3
545.774	13284.81
546.138	13242.32
546.503	13329.55
546.867	13414.07
547.231	13466.72
547.595	13535.65
547.959	13536.78
548.324	13597.79
548.688	13572.71
549.052	13655.87
549.416	13655.42
549.779	13682.99
550.143	13699.48
550.507	13869.65
550.871	13950.1
551.235	13900.84
551.599	14023.32
551.962	14028.97
552.326	13956.43
552.689	14127.27
553.053	14090.89
553.417	14179.7
553.78	14370.2
554.143	14395.06
554.507	14434.38
554.87	14429.41
555.234	14663.75
555.597	14511.67
555.96	14553.47
556.323	14657.65
556.686	14696.52
557.05	14789.85
557.413	14783.52
557.776	14797.31
558.139	15016.74
558.502	15014.25
558.865	15126.79
559.228	15169.95
559.59	15238.43
559.953	15306.45
560.316	15415.6
560.679	15342.38
561.041	15431.87
561.404	15455.82
561.767	15599.77
562.129	15583.28
562.492	15773.33
562.854	15856.26
563.217	15786.44
563.579	15952.53
563.941	15992.98
564.304	16020.55
564.666	16119.76
565.028	16103.49
565.39	16276.82
565.753	16296.03
566.115	16362.47
566.477	16435.46
566.839	16533.31
567.201	16602.01
567.563	16640.42
567.925	16723.36
568.287	16804.26
568.648	16701.89
569.01	16836.8
569.372	16907.54
569.734	16885.16
570.095	17062.11
570.457	17097.59
570.819	17176.68
571.18	17170.81
571.542	17380.97
571.903	17381.87
572.265	17514.07
572.626	17390.69
572.987	17475.43
573.349	17397.92
573.71	17399.73
574.071	17579.16
574.432	17696.22
574.794	17860.73
575.155	17773.5
575.516	17799.04
575.877	17819.38
576.238	17789.55
576.599	17917.68
576.96	17859.38
577.32	17947.28
577.681	17984.8
578.042	18155.64
578.403	18086.49
578.763	18168.52
579.124	18186.82
579.485	18192.47
579.845	18296.43
580.206	18126.71
580.566	18130.33
580.927	18206.03
581.287	18225.02
581.648	18193.83
582.008	18277.22
582.368	18173.49
582.728	18275.18
583.089	18251.68
583.449	18247.39
583.809	18264.11
584.169	18351.79
584.529	18241.51
584.889	18448.06
585.249	18331.23
585.609	18199.03
585.969	18318.35
586.329	18193.83
586.688	18349.53
587.048	18295.97
587.408	18284.9
587.768	18254.84
588.127	18298.23
588.487	18319.25
588.846	18390.43
589.206	18220.72
589.565	18284.9
589.925	18392.47
590.284	18240.38
590.643	18319.48
591.003	18335.07
591.362	18442.18
591.721	18391.11
592.08	18298.01
592.44	18426.59
592.799	18465.01
593.158	18322.87
593.517	18408.06
593.876	18499.81
594.235	18457.78
594.593	18368.29
594.952	18409.19
595.311	18409.64
595.67	18453.94
596.029	18548.62
596.387	18472.69
596.746	18555.85
597.104	18557.89
597.463	18437.89
597.822	18467.04
598.18	18396.08
598.538	18443.99
598.897	18553.14
599.255	18406.48
599.613	18756.3
599.972	18600.15
600.33	18628.85
600.688	18543.88
601.046	18658
601.404	18688.28
601.762	18697.32
602.12	18824.1
602.478	18770.09
602.836	18774.38
603.194	18671.33
603.552	18645.57
603.91	18673.59
604.268	18737.32
604.625	18646.47
604.983	18779.8
605.341	18663.42
605.698	18732.35
606.056	18726.24
606.413	18742.74
606.771	18777.54
607.128	18926.01
607.485	18802.63
607.843	18743.42
608.2	18840.59
608.557	18968.05
608.914	18931.89
609.272	18984.09
609.629	18956.07
609.986	19039.68
610.343	18932.79
610.7	19143.18
611.057	19096.4
611.414	19182.5
611.771	19129.4
612.127	19101.38
612.484	19150.19
612.841	19198.1
613.198	19274.25
613.554	19250.07
613.911	19217.76
614.267	19288.72
614.624	19230.19
614.98	19207.59
615.337	19323.07
615.693	19288.72
616.05	19187.7
616.406	19360.35
616.762	19274.48
617.118	19358.77
617.475	19438.77
617.831	19435.15
618.187	19548.6
618.543	19610.74
618.899	19626.33
619.255	19615.04
619.611	19596.5
619.967	19593.11
620.323	19632.66
620.678	19604.87
621.034	19473.57
621.39	19489.61
621.746	19545.88
622.101	19705.2
622.457	19549.27
622.812	19575.26
623.168	19709.72
623.523	19582.49
623.879	19731.42
624.234	19550.4
624.589	19621.36
624.945	19657.52
625.3	19592.89
625.655	19598.76
626.01	19608.03
626.365	19631.31
626.72	19538.88
627.075	19630.18
627.43	19553.57
627.785	19545.88
628.14	19526.68
628.495	19666.11
628.85	19553.57
629.205	19417.07
629.559	19603.74
629.914	19507.02
630.269	19551.08
630.623	19518.99
630.978	19514.92
631.332	19526.45
631.687	19569.39
632.041	19583.85
632.396	19498.65
632.75	19409.39
633.104	19462.04
633.459	19401.03
633.813	19314.93
634.167	19365.78
634.521	19347.02
634.875	19296.63
635.229	19266.8
635.583	19179.34
635.937	19151.54
636.291	19044.88
636.645	19153.35
636.999	19058.67
637.352	19078.33
637.706	18955.39
638.06	19051.43
638.413	19001.72
638.767	19023.41
639.121	18936.63
639.474	18876.98
639.828	18858.44
640.181	18903.64
640.534	18860.93
640.888	18786.58
641.241	18722.63
641.594	18824.77
641.947	18796.75
642.301	18754.49
642.654	18665.91
643.007	18658.9
643.36	18640.82
643.713	18612.35
644.066	18654.38
644.419	18561.5
644.771	18528.51
645.124	18383.2
645.477	18220.95
645.83	18094.85
646.182	18079.26
646.535	17925.14
646.888	17944.8
647.24	17806.95
647.593	17980.5
647.945	17826.83
648.298	17739.83
648.65	17725.14
649.002	17709.55
649.355	17803.33
649.707	17782.31
650.059	17827.06
650.411	18002.87
650.763	18106.6
651.115	18345.92
651.467	18276.31
651.819	18207.39
652.171	18191.8
652.523	18184.11
652.875	18125.13
653.227	18040.84
653.578	18225.24
653.93	18129.42
654.282	17982.99
654.633	17947.96
654.985	17971.69
655.337	18002.87
655.688	17992.25
656.039	17990.67
656.391	17868.41
656.742	17864.57
657.094	17854.18
657.445	17956.32
657.796	17936.66
658.147	17965.36
658.498	17825.25
658.849	17987.73
659.2	17917.23
659.551	17837.23
659.902	17938.02
660.253	17937.11
660.604	17924.01
660.955	17829.09
661.306	17779.83
661.656	17775.08
662.007	17697.57
662.358	17688.31
662.708	17755.87
663.059	17660.06
663.409	17527.18
663.76	17707.97
664.11	17692.37
664.461	17706.84
664.811	17632.49
665.161	17747.51
665.511	17652.6
665.862	17610.79
666.212	17649.66
666.562	17628.42
666.912	17601.53
667.262	17516.56
667.612	17469.78
667.962	17500.97
668.312	17448.09
668.662	17432.72
669.011	17433.62
669.361	17433.4
669.711	17384.81
670.06	17324.47
670.41	17347.52
670.76	17316.56
671.109	17374.64
671.459	17322.89
671.808	17270.69
672.157	17376
672.507	17209.45
672.856	17375.77
673.205	17307.07
673.554	17266.4
673.904	17165.83
674.253	17328.54
674.602	17319.05
674.951	16951.15
675.3	16815.33
675.649	17169.9
675.998	17156.34
676.346	17227.98
676.695	17251.93
677.044	17161.31
677.393	17115.44
677.741	17075.89
678.09	17020.08
678.438	16948.21
678.787	17086.06
679.135	17010.81
679.484	16958.83
679.832	17101.43
680.181	16955.9
680.529	17058.72
680.877	17030.24
681.225	16832.96
681.573	17030.7
681.922	16855.79
682.27	16919.96
682.618	16851.94
682.966	16877.03
683.314	16821.66
683.661	16749.8
684.009	16573.08
684.357	16605.85
684.705	16614.21
685.053	16606.53
685.4	16687.2
685.748	16524.49
686.095	16447.89
686.443	16406.98
686.79	16217.61
687.138	16350.04
687.485	16380.09
687.832	16279.53
688.18	16305.07
688.527	16266.42
688.874	16125.18
689.221	16168.12
689.568	16156.37
689.915	16039.54
690.262	16063.49
690.609	16048.35
690.956	15977.62
691.303	15922.7
691.65	15854.68
691.997	15799.09
692.344	15691.75
692.69	15693.1
693.037	15802.48
693.383	15634.12
693.73	15810.62
694.077	15661.01
694.423	15679.09
694.769	15632.31
695.116	15528.81
695.462	15364.98
695.808	15387.35
696.155	15487.69
696.501	15326.79
696.847	15373.56
697.193	15205.21
697.539	15280.69
697.885	15122.05
698.231	15005.21
698.577	15050.41
698.923	15057.87
699.269	15097.64
699.614	14924.31
699.96	14920.24
700.306	14868.04
700.651	14850.87
700.997	14729.74
701.342	14759.34
701.688	14754.82
702.033	14725.22
702.379	14763.19
702.724	14744.2
703.069	14727.71
703.415	14470.09
703.76	14645.45
704.105	14583.3
704.45	14513.7
704.795	14383.76
705.14	14343.54
705.485	14349.64
705.83	14254.27
706.175	14296.76
706.52	14210.21
706.865	14172.01
707.209	14227.38
707.554	14043.66
707.899	14215.63
708.243	14045.01
708.588	14084.33
708.932	13977.67
709.277	14021.96
709.621	14067.38
709.966	13945.58
710.31	13931.57
710.654	13821.29
710.998	13811.8
711.342	13838.46
711.687	13774.74
712.031	13794.62
712.375	13716.66
712.719	13668.52
713.063	13571.13
713.407	13609.77
713.75	13500.39
714.094	13555.53
714.438	13436.89
714.782	13466.5
715.125	13426.72
715.469	13443.45
715.812	13272.6
716.156	13240.29
716.499	13272.6
716.843	13265.15
717.186	13226.05
717.53	13214.98
717.873	13201.87
718.216	13205.26
718.559	13200.97
718.902	13109.22
719.246	13157.58
719.589	13196.9
719.932	13073.29
720.275	13128.2
720.617	13118.03
720.96	13011.37
721.303	12977.24
721.646	12888.43
721.989	12965.72
722.331	12971.82
722.674	12925.72
723.016	12799.85
723.359	12843.01
723.701	12930.01
724.044	12810.02
724.386	12767.31
724.729	12793.07
725.071	12681.88
725.413	12717.36
725.755	12755.33
726.097	12535.22
726.439	12578.16
726.782	12614.09
727.124	12685.27
727.465	12574.32
727.807	12490.93
728.149	12554.43
728.491	12577.25
728.833	12481.89
729.175	12459.74
729.516	12410.93
729.858	12431.27
730.199	12364.15
730.541	12381.55
730.882	12392.85
731.224	12458.61
731.565	12310.37
731.906	12363.25
732.248	12349.92
732.589	12232.18
732.93	12152.18
733.271	12270.6
733.612	12285.96
733.953	12223.82
734.294	12195.12
734.635	12131.62
734.976	12184.27
735.317	12097.49
735.658	12191.05
735.999	12123.25
736.339	12072.41
736.68	12080.77
737.021	12056.59
737.361	11946.31
737.702	11989.47
738.042	11963.03
738.383	11963.48
738.723	11975.24
739.063	11894.56
739.404	11901.34
739.744	11864.28
740.084	11830.16
740.424	11790.38
740.764	11790.16
741.104	11822.02
741.444	11781.57
741.784	11823.38
742.124	11752.64
742.464	11724.62
742.804	11685.53
743.143	11721.91
743.483	11662.48
743.823	11643.72
744.162	11613.66
744.502	11683.49
744.841	11590.16
745.181	11567.56
745.52	11610.05
745.86	11602.36
746.199	11535.25
746.538	11518.52
746.877	11490.5
747.216	11424.06
747.556	11383.39
747.895	11422.26
748.234	11378.19
748.573	11401.69
748.911	11301.58
749.25	11342.71
749.589	11330.06
749.928	11298.64
750.267	11295.03
750.605	11300
750.944	11200.34
751.283	11171.87
751.621	11265.42
751.96	11203.05
752.298	11164.64
752.636	11185.65
752.975	11095.49
753.313	10966.45
753.651	11021.36
753.989	11116.28
754.327	10964.42
754.666	10910.86
755.004	10945.21
755.342	10907.69
755.679	10916.51
756.017	10744.31
