Data from black_plastic_tray_FLMS001491_053.txt Node
Date: Tue Feb 07 10:40:09 GMT 2017
User: dcchb
Spectrometer: FLMS00149
Trigger mode: 0
Integration Time (sec): 2.000000E-2
Scans to average: 10
Electric dark correction enabled: true
Nonlinearity correction enabled: false
Boxcar width: 0
XAxis mode: Wavelengths
Number of Pixels in Spectrum: 2048
>>>>>Begin Spectral Data<<<<<
341.393	9.83
341.776	9.83
342.16	9.83
342.543	-52.99
342.927	-63.16
343.31	-72.65
343.693	-79.43
344.077	-67.46
344.46	-50.51
344.843	-64.97
345.226	-46.67
345.61	-22.49
345.993	-28.81
346.376	23.84
346.759	-1.24
347.142	31.98
347.525	47.34
347.908	62.48
348.291	75.14
348.674	69.72
349.057	123.73
349.44	127.57
349.823	135.02
350.206	161.24
350.588	183.61
350.971	192.2
351.354	211.41
351.737	234.01
352.119	243.95
352.502	245.76
352.884	264.96
353.267	264.96
353.65	292.99
354.032	277.62
354.414	290.27
354.797	330.05
355.179	302.03
355.562	311.29
355.944	316.94
356.326	348.13
356.709	326.66
357.091	325.75
357.473	320.78
357.855	327.34
358.238	327.11
358.62	345.41
359.002	333.66
359.384	333.89
359.766	331.86
360.148	351.06
360.53	323.04
360.912	335.02
361.294	338.41
361.676	315.81
362.057	307.68
362.439	333.66
362.821	314.23
363.203	321.01
363.584	303.38
363.966	330.27
364.348	312.42
364.729	297.51
365.111	302.48
365.493	326.21
365.874	311.74
366.256	324.85
366.637	331.4
367.019	326.66
367.4	298.41
367.781	305.64
368.163	307.9
368.544	336.6
368.925	306.55
369.306	307.9
369.688	313.33
370.069	295.7
370.45	324.4
370.831	310.84
371.212	320.78
371.593	305.87
371.974	314.68
372.355	322.14
372.736	311.52
373.117	332.31
373.498	323.04
373.879	319.88
374.26	306.77
374.641	317.62
375.021	333.44
375.402	308.35
375.783	326.66
376.163	353.55
376.544	338.86
376.925	321.69
377.305	329.14
377.686	344.51
378.066	328.47
378.447	323.72
378.827	329.82
379.208	347
379.588	342.93
379.968	331.86
380.349	335.7
380.729	323.72
381.109	336.15
381.489	362.59
381.87	338.64
382.25	347.9
382.63	359.65
383.01	338.64
383.39	340.89
383.77	352.87
384.15	346.77
384.53	331.63
384.91	361.01
385.29	354.91
385.67	365.75
386.049	379.09
386.429	375.24
386.809	384.28
387.189	384.96
387.568	390.61
387.948	367.79
388.328	375.47
388.707	377.05
389.087	367.33
389.466	388.58
389.846	382.7
390.225	400.1
390.605	379.31
390.984	398.07
391.363	394.23
391.743	407.11
392.122	420.89
392.501	409.59
392.881	412.08
393.26	419.54
393.639	400.55
394.018	402.14
394.397	424.51
394.776	398.75
395.155	399.65
395.534	431.29
395.913	428.58
396.292	439.2
396.671	443.94
397.05	433.1
397.429	441.23
397.808	442.59
398.186	459.08
398.565	448.24
398.944	439.65
399.323	442.14
399.701	449.82
400.08	456.37
400.458	450.95
400.837	459.31
401.215	448.91
401.594	465.19
401.972	451.63
402.351	472.42
402.729	471.51
403.107	465.19
403.486	453.66
403.864	465.19
404.242	483.26
404.62	495.69
404.999	462.02
405.377	479.2
405.755	509.7
406.133	499.08
406.511	500.21
406.889	535.01
407.267	538.63
407.645	522.81
408.023	491.63
408.401	514.9
408.779	530.04
409.156	540.21
409.534	520.1
409.912	521.46
410.29	559.19
410.667	547.9
411.045	519.42
411.422	551.51
411.8	593.32
412.178	559.19
412.555	569.14
412.933	588.12
413.31	582.7
413.687	569.14
414.065	580.89
414.442	594
414.819	589.7
415.197	599.87
415.574	596.03
415.951	633.32
416.328	609.36
416.705	608.23
417.082	642.81
417.46	615.01
417.837	623.15
418.214	611.17
418.591	659.08
418.967	646.2
419.344	661.56
419.721	669.02
420.098	650.27
420.475	654.56
420.852	655.91
421.228	676.48
421.605	688
421.982	687.55
422.358	693.43
422.735	711.96
423.111	681
423.488	688.91
423.864	721.22
424.241	715.35
424.617	722.81
424.994	721
425.37	723.26
425.746	762.8
426.123	738.17
426.499	717.83
426.875	740.21
427.251	773.88
427.627	764.16
428.003	786.98
428.379	784.27
428.756	790.37
429.132	788.79
429.507	785.18
429.883	804.61
430.259	828.11
430.635	831.5
431.011	824.5
431.387	850.49
431.763	872.41
432.138	873.08
432.514	890.49
432.89	881.45
433.265	875.34
433.641	908.34
434.016	925.96
434.392	923.03
434.767	908.11
435.143	936.13
435.518	952.86
435.894	961.67
436.269	982.46
436.644	966.42
437.02	999.86
437.395	969.58
437.77	988.56
438.145	1011.84
438.52	1010.71
438.895	1018.17
439.271	1036.92
439.646	1050.25
440.021	1063.36
440.395	1082.8
440.77	1070.59
441.145	1058.62
441.52	1033.31
441.895	1087.77
442.27	1083.25
442.645	1085.96
443.019	1118.05
443.394	1106.75
443.769	1110.59
444.143	1104.49
444.518	1118.5
444.892	1107.43
445.267	1133.42
445.641	1128.9
446.016	1150.82
446.39	1173.64
446.764	1158.05
447.139	1184.04
447.513	1186.3
447.887	1168.22
448.262	1186.52
448.636	1198.05
449.01	1200.99
449.384	1233.3
449.758	1224.26
450.132	1262
450.506	1229.69
450.88	1231.04
451.254	1255.67
451.628	1263.81
452.002	1288.89
452.376	1297.25
452.75	1293.64
453.123	1300.87
453.497	1327.54
453.871	1338.38
454.244	1373.64
454.618	1351.94
454.992	1389.68
455.365	1387.87
455.739	1389
456.112	1427.19
456.486	1408.66
456.859	1470.36
457.232	1467.87
457.606	1467.42
457.979	1502.9
458.352	1517.81
458.725	1531.37
459.099	1544.48
459.472	1570.24
459.845	1592.16
460.218	1582.9
460.591	1610.01
460.964	1610.92
461.337	1660.41
461.71	1661.09
462.083	1680.97
462.456	1665.15
462.829	1710.35
463.201	1716.45
463.574	1720.52
463.947	1754.64
464.32	1796.68
464.692	1800.29
465.065	1843.23
465.438	1857.24
465.81	1868.09
466.183	1880.74
466.555	1925.26
466.928	1915.77
467.3	1942.66
467.672	1960.74
468.045	2042.77
468.417	2011.36
468.789	2056.1
469.161	2049.55
469.534	2080.28
469.906	2118.48
470.278	2127.06
470.65	2145.37
471.022	2168.19
471.394	2242.09
471.766	2262.43
472.138	2277.12
472.51	2325.7
472.882	2351.46
473.253	2376.1
473.625	2332.26
473.997	2449.77
474.369	2430.33
474.74	2499.71
475.112	2548.52
475.484	2546.49
475.855	2559.37
476.227	2634.62
476.598	2716.88
476.97	2722.75
477.341	2760.27
477.713	2798.91
478.084	2838.46
478.455	2907.38
478.827	2911.22
479.198	2987.61
479.569	2992.35
479.94	3079.81
480.311	3139.47
480.682	3156.64
481.053	3186.47
481.424	3259.69
481.795	3302.4
482.166	3328.16
482.537	3407.48
482.908	3450.19
483.279	3534.26
483.65	3573.8
484.021	3640.7
484.391	3657.19
484.762	3715.27
485.133	3700.58
485.503	3783.97
485.874	3862.38
486.244	3866.68
486.615	3963.62
486.985	3963.17
487.356	4060.57
487.726	4095.82
488.097	4159.1
488.467	4180.79
488.837	4264.63
489.207	4339.43
489.578	4348.93
489.948	4401.58
490.318	4501.46
490.688	4487.68
491.058	4548.69
491.428	4593.89
491.798	4673.44
492.168	4705.3
492.538	4755.69
492.908	4813.09
493.278	4813.77
493.648	4862.58
494.017	4926.31
494.387	4898.74
494.757	5063.26
495.126	5088.79
495.496	5069.36
495.866	5151.39
496.235	5174.89
496.605	5250.6
496.974	5273.87
497.344	5364.94
497.713	5376.24
498.082	5390.71
498.452	5400.42
498.821	5456.24
499.19	5437.94
499.559	5545.96
499.928	5572.4
500.298	5576.24
500.667	5659.63
501.036	5656.46
501.405	5731.94
501.774	5728.55
502.143	5839.73
502.512	5847.64
502.88	5848.09
503.249	5959.05
503.618	5945.04
503.987	5952.95
504.356	6012.84
504.724	6006.28
505.093	6047.86
505.462	6111.82
505.83	6142.32
506.199	6180.97
506.567	6235.2
506.936	6249.44
507.304	6374.86
507.672	6399.94
508.041	6413.5
508.409	6414.41
508.777	6528.98
509.145	6497.12
509.514	6577.79
509.882	6642.88
510.25	6650.56
510.618	6705.02
510.986	6693.04
511.354	6834.28
511.722	6865.7
512.09	6950.89
512.458	6940.95
512.826	6959.7
513.193	7079.7
513.561	7081.96
513.929	7113.15
514.297	7128.29
514.664	7205.35
515.032	7277.21
515.4	7326.02
515.767	7299.58
516.135	7420.48
516.502	7357.89
516.869	7486.7
517.237	7579.57
517.604	7526.92
517.972	7669.06
518.339	7758.78
518.706	7698.67
519.073	7742.28
519.44	7928.27
519.808	7977.08
520.175	7961.71
520.542	8046.46
520.909	8114.7
521.276	8094.82
521.643	8170.75
522.009	8263.62
522.376	8258.2
522.743	8312.66
523.11	8448.25
523.477	8507.69
523.843	8549.27
524.21	8642.6
524.577	8665.42
524.943	8692.31
525.31	8805.76
525.676	8784.97
526.043	8947
526.409	9015.7
526.776	9066.99
527.142	9093.66
527.508	9167.33
527.874	9208.46
528.241	9272.86
528.607	9309.92
528.973	9414.33
529.339	9411.16
529.705	9462.46
530.071	9591.95
530.437	9627.2
530.803	9685.73
531.169	9718.05
531.535	9690.25
531.901	9750.14
532.267	9868.78
532.632	9902.23
532.998	9864.94
533.364	10034.2
533.73	9988.78
534.095	10095.89
534.461	10126.63
534.826	10177.47
535.192	10185.83
535.557	10276.23
535.923	10311.71
536.288	10311.93
536.653	10398.26
537.019	10408.2
537.384	10454.08
537.749	10513.96
538.114	10494.75
538.479	10520.51
538.845	10643.9
539.21	10681.41
539.575	10716.89
539.94	10663.56
540.305	10788.3
540.67	10722.99
541.034	10774.07
541.399	10855.42
541.764	10849.32
542.129	10980.62
542.494	10965.47
542.858	11051.35
543.223	11042.08
543.587	11067.39
543.952	11023.55
544.316	11058.81
544.681	11118.92
545.045	11206.82
545.41	11255.64
545.774	11289.31
546.138	11258.35
546.503	11377.89
546.867	11322.53
547.231	11495.4
547.595	11512.35
547.959	11633.48
548.324	11546.7
548.688	11549.41
549.052	11569.3
549.416	11601.39
549.779	11619.92
550.143	11640.94
550.507	11791.67
550.871	11763.42
551.235	11800.93
551.599	11855.39
551.962	11978.78
552.326	12018.33
552.689	12088.38
553.053	12023.98
553.417	12084.09
553.78	12204.09
554.143	12199.57
554.507	12268.94
554.87	12295.16
555.234	12470.52
555.597	12370.18
555.96	12377.64
556.323	12537.86
556.686	12441.82
557.05	12578.77
557.413	12640.68
557.776	12659.22
558.139	12774.69
558.502	12778.99
558.865	12884.52
559.228	12969.26
559.59	13003.61
559.953	12924.29
560.316	13114.34
560.679	13048.13
561.041	13238.63
561.404	13178.3
561.767	13306.88
562.129	13290.84
562.492	13487.67
562.854	13464.84
563.217	13457.16
563.579	13493.09
563.941	13716.14
564.304	13606.99
564.666	13672.3
565.028	13750.26
565.39	13841.33
565.753	13872.29
566.115	13967.43
566.477	13940.09
566.839	13947.99
567.201	14148.22
567.563	14071.61
567.925	14240.19
568.287	14188.21
568.648	14243.58
569.01	14365.61
569.372	14413.52
569.734	14473.63
570.095	14530.58
570.457	14683.79
570.819	14589.33
571.18	14660.52
571.542	14668.2
571.903	14826.39
572.265	14782.78
572.626	14872.72
572.987	14767.86
573.349	14799.5
573.71	14913.39
574.071	14899.83
574.432	15002.43
574.794	15146.16
575.155	15147.74
575.516	15014.41
575.877	15113.61
576.238	15079.26
576.599	15234.29
576.96	15129.43
577.32	15230.22
577.681	15335.75
578.042	15363.78
578.403	15368.3
578.763	15430.22
579.124	15434.06
579.485	15453.49
579.845	15570.1
580.206	15433.15
580.566	15437.22
580.927	15483.32
581.287	15521.51
581.648	15485.81
582.008	15514.73
582.368	15554.05
582.728	15645.35
583.089	15531.68
583.449	15604.45
583.809	15618.69
584.169	15524.9
584.529	15543.43
584.889	15710.43
585.249	15628.63
585.609	15513.6
585.969	15563.77
586.329	15578.23
586.688	15592.02
587.048	15560.16
587.408	15557.9
587.768	15634.28
588.127	15608.29
588.487	15477.67
588.846	15646.71
589.206	15450.33
589.565	15543.43
589.925	15675.86
590.284	15628.18
590.643	15702.75
591.003	15715.63
591.362	15722.41
591.721	15705.91
592.08	15672.47
592.44	15789.08
592.799	15712.69
593.158	15724.22
593.517	15740.26
593.876	15741.85
594.235	15665.01
594.593	15761.28
594.952	15817.1
595.311	15658.01
595.67	15737.78
596.029	15844.89
596.387	15814.61
596.746	15775.74
597.104	15758.12
597.463	15592.7
597.822	15717.89
598.18	15702.52
598.538	15695.75
598.897	15829.3
599.255	15787.49
599.613	16031.33
599.972	15859.36
600.33	15989.07
600.688	15840.15
601.046	15869.3
601.404	16020.03
601.762	15980.48
602.12	15977.55
602.478	16027.04
602.836	15982.74
603.194	15917.21
603.552	16003.31
603.91	15944.78
604.268	15998.56
604.625	15993.82
604.983	15946.81
605.341	15912.91
605.698	15997.88
606.056	16026.81
606.413	15978.9
606.771	15982.29
607.128	16073.36
607.485	16010.77
607.843	16023.87
608.2	16075.17
608.557	16269.52
608.914	16141.61
609.272	16228.16
609.629	16229.97
609.986	16216.86
610.343	16122.85
610.7	16283.98
611.057	16187.03
611.414	16217.77
611.771	16265.9
612.127	16347.25
612.484	16303.87
612.841	16417.99
613.198	16314.49
613.554	16452.56
613.911	16504.09
614.267	16470.19
614.624	16369.17
614.98	16297.09
615.337	16493.92
615.693	16455.27
616.05	16415.5
616.406	16598.77
616.762	16521.03
617.118	16493.92
617.475	16629.96
617.831	16627.7
618.187	16592.67
618.543	16662.5
618.899	16795.6
619.255	16698.88
619.611	16692.1
619.967	16735.72
620.323	16701.37
620.678	16732.55
621.034	16610.52
621.39	16650.52
621.746	16644.42
622.101	16766.9
622.457	16639.9
622.812	16729.16
623.168	16714.93
623.523	16810.29
623.879	16810.07
624.234	16657.75
624.589	16726.23
624.945	16707.7
625.3	16773.01
625.655	16742.72
626.01	16760.12
626.365	16725.55
626.72	16740.69
627.075	16775.27
627.43	16670.64
627.785	16696.4
628.14	16763.29
628.495	16676.06
628.85	16727.36
629.205	16663.86
629.559	16866.56
629.914	16690.75
630.269	16665.21
630.623	16641.26
630.978	16465.22
631.332	16673.12
631.687	16683.97
632.041	16546.8
632.396	16726.45
632.75	16597.87
633.104	16723.74
633.459	16544.99
633.813	16457.99
634.167	16449.85
634.521	16415.73
634.875	16460.02
635.229	16435.61
635.583	16356.75
635.937	16303.64
636.291	16343.19
636.645	16258.44
636.999	16276.75
637.352	16275.17
637.706	16191.33
638.06	16169.18
638.413	16241.72
638.767	16157.88
639.121	16241.27
639.474	16117.88
639.828	16114.72
640.181	16106.81
640.534	16088.96
640.888	15922.18
641.241	15890.99
641.594	15998.56
641.947	15993.82
642.301	15997.43
642.654	15935.74
643.007	15935.29
643.36	15952.91
643.713	15884.44
644.066	15919.47
644.419	15783.43
644.771	15615.3
645.124	15584.56
645.477	15548.4
645.83	15501.63
646.182	15402.19
646.535	15358.35
646.888	15279.03
647.24	15240.84
647.593	15324.23
647.945	15290.78
648.298	15230
648.65	15221.41
649.002	15120.39
649.355	15246.27
649.707	15089.66
650.059	15222.99
650.411	15505.69
650.763	15445.81
651.115	15585.92
651.467	15538.91
651.819	15465.02
652.171	15366.49
652.523	15533.49
652.875	15365.13
653.227	15379.6
653.578	15479.25
653.93	15387.96
654.282	15372.59
654.633	15330.56
654.985	15299.6
655.337	15382.53
655.688	15357
656.039	15333.04
656.391	15222.99
656.742	15280.62
657.094	15236.77
657.445	15274.51
657.796	15269.32
658.147	15347.51
658.498	15262.08
658.849	15319.48
659.2	15311.12
659.551	15244.23
659.902	15301.63
660.253	15261.63
660.604	15229.54
660.955	15121.52
661.306	15182.09
661.656	15062.99
662.007	15086.04
662.358	15174.86
662.708	15209.88
663.059	15066.38
663.409	15036.78
663.76	15037.01
664.11	15148.19
664.461	15109.32
664.811	15147.74
665.161	15125.59
665.511	15036.55
665.862	15011.7
666.212	15056.21
666.562	15024.8
666.912	14953.62
667.262	15036.33
667.612	15024.58
667.962	15026.38
668.312	14964.01
668.662	15131.69
669.011	15007.63
669.361	14983
669.711	14941.42
670.06	14948.42
670.41	14861.19
670.76	14877.24
671.109	14850.57
671.459	14941.42
671.808	14853.06
672.157	14921.08
672.507	14752.72
672.856	14860.74
673.205	14841.3
673.554	14935.31
673.904	14827.97
674.253	14890.57
674.602	14880.85
674.951	14626.17
675.3	14499.39
675.649	14685.38
675.998	14708.88
676.346	14726.51
676.695	14811.7
677.044	14640.63
677.393	14783.91
677.741	14680.4
678.09	14657.58
678.438	14587.3
678.787	14620.07
679.135	14634.98
679.484	14541.43
679.832	14596.34
680.181	14512.05
680.529	14550.24
680.877	14499.39
681.225	14505.95
681.573	14538.71
681.922	14445.38
682.27	14423.91
682.618	14416.23
682.966	14367.42
683.314	14486.29
683.661	14358.61
684.009	14311.38
684.357	14245.84
684.705	14256.91
685.053	14281.77
685.4	14333.52
685.748	14202.9
686.095	14199.97
686.443	14075.45
686.79	14007.88
687.138	14048.33
687.485	14002.23
687.832	14029.57
688.18	13979.63
688.527	13922.68
688.874	13923.59
689.221	13847.66
689.568	13797.49
689.915	13852.18
690.262	13759.3
690.609	13739.64
690.956	13719.07
691.303	13703.93
691.65	13585.74
691.997	13637.27
692.344	13448.8
692.69	13485.18
693.037	13515.69
693.383	13402.02
693.73	13541.9
694.077	13410.83
694.423	13470.72
694.769	13415.58
695.116	13344.85
695.462	13270.72
695.808	13222.36
696.155	13301.46
696.501	13233.44
696.847	13225.98
697.193	13134.68
697.539	13155.47
697.885	13135.81
698.231	13028.02
698.577	12962.71
698.923	12992.99
699.269	12940.56
699.614	12893.33
699.96	12796.84
700.306	12764.3
700.651	12779.44
700.997	12631.42
701.342	12701.02
701.688	12655.15
702.033	12661.02
702.379	12743.96
702.724	12698.54
703.069	12637.75
703.415	12531.53
703.76	12530.86
704.105	12515.72
704.45	12460.8
704.795	12376.28
705.14	12397.3
705.485	12424.87
705.83	12294.48
706.175	12360.69
706.52	12267.81
706.865	12232.79
707.209	12251.77
707.554	12124.54
707.899	12155.27
708.243	12142.17
708.588	12117.31
708.932	12113.69
709.277	12134.03
709.621	12016.75
709.966	11988.95
710.31	11945.56
710.654	11871.67
710.998	11927.93
711.342	11936.52
711.687	11833.47
712.031	11812.01
712.375	11771.55
712.719	11791.44
713.063	11654.27
713.407	11725.91
713.75	11739.92
714.094	11704.89
714.438	11582.86
714.782	11560.04
715.125	11531.11
715.469	11614.95
715.812	11525.91
716.156	11541.5
716.499	11491.34
716.843	11476.87
717.186	11407.95
717.53	11427.61
717.873	11458.34
718.216	11434.39
718.559	11471
718.902	11400.49
719.246	11397.55
719.589	11283.21
719.932	11265.35
720.275	11268.52
720.617	11217.45
720.96	11207.05
721.303	11119.37
721.646	11207.05
721.989	11153.94
722.331	11127.5
722.674	11092.93
723.016	11056.55
723.359	11126.37
723.701	11098.58
724.044	11101.52
724.386	11033.27
724.729	11059.48
725.071	10935.42
725.413	10956.21
725.755	10953.72
726.097	10869.88
726.439	10876.21
726.782	10855.65
727.124	10871.92
727.465	10735.2
727.807	10865.14
728.149	10903.56
728.491	10794.86
728.833	10790.79
729.175	10700.4
729.516	10731.36
729.858	10783.11
730.199	10673.05
730.541	10741.75
730.882	10744.46
731.224	10701.07
731.565	10621.08
731.906	10669.66
732.248	10599.38
732.589	10622.43
732.93	10599.38
733.271	10534.53
733.612	10564.35
733.953	10595.09
734.294	10483.91
734.635	10490.01
734.976	10548.08
735.317	10456.34
735.658	10498.37
735.999	10494.3
736.339	10390.57
736.68	10470.57
737.021	10357.13
737.361	10320.75
737.702	10367.07
738.042	10356
738.383	10272.16
738.723	10348.77
739.063	10259.73
739.404	10272.16
739.744	10209.11
740.084	10169.34
740.424	10266.28
740.764	10188.55
741.104	10232.39
741.444	10116.23
741.784	10176.12
742.124	10172.73
742.464	10108.77
742.804	10158.04
743.143	10111.71
743.483	10101.99
743.823	10050.24
744.162	10010.92
744.502	10170.02
744.841	10059.28
745.181	10106.06
745.52	10036.69
745.86	10075.1
746.199	10066.97
746.538	9970.47
746.877	9930.25
747.216	9922.11
747.556	9923.92
747.895	9955.56
748.234	9898.84
748.573	9908.33
748.911	9839.85
749.25	9835.11
749.589	9749.01
749.928	9791.72
750.267	9784.71
750.605	9796.92
750.944	9782.91
751.283	9737.94
751.621	9694.77
751.96	9649.35
752.298	9680.31
752.636	9676.47
752.975	9606.64
753.313	9611.61
753.651	9627.2
753.989	9527.77
754.327	9516.02
754.666	9519.64
755.004	9457.49
755.342	9432.18
755.679	9462.69
756.017	9417.94
756.355	9354.44
756.693	9349.02
757.031	9374.1
757.368	9290.04
757.706	9297.27
758.044	9345.4
