Data from black_plastic_tray_FLMS001491_035.txt Node
Date: Tue Feb 07 10:39:42 GMT 2017
User: dcchb
Spectrometer: FLMS00149
Trigger mode: 0
Integration Time (sec): 2.000000E-2
Scans to average: 10
Electric dark correction enabled: true
Nonlinearity correction enabled: false
Boxcar width: 0
XAxis mode: Wavelengths
Number of Pixels in Spectrum: 2048
>>>>>Begin Spectral Data<<<<<
341.393	-6.31
341.776	-6.31
342.16	-6.31
342.543	-72.07
342.927	-70.94
343.31	-58.52
343.693	-67.1
344.077	-65.75
344.46	-58.74
344.843	-46.99
345.226	-37.5
345.61	-19.19
345.993	-31.62
346.376	-7.22
346.759	14.25
347.142	25.55
347.525	37.3
347.908	47.24
348.291	66.91
348.674	102.16
349.057	99.22
349.44	115.27
349.823	139.67
350.206	162.5
350.588	195.94
350.971	206.11
351.354	232.55
351.737	234.36
352.119	245.66
352.502	254.02
352.884	245.88
353.267	285.2
353.65	289.72
354.032	302.83
354.414	295.37
354.797	297.63
355.179	300.8
355.562	300.57
355.944	305.99
356.326	336.5
356.709	333.11
357.091	324.53
357.473	344.19
357.855	322.49
358.238	327.46
358.62	314.81
359.002	344.86
359.384	350.06
359.766	358.2
360.148	344.19
360.53	331.76
360.912	320.01
361.294	323.17
361.676	338.99
362.057	311.64
362.439	331.98
362.821	344.41
363.203	341.25
363.584	327.24
363.966	335.82
364.348	319.55
364.729	327.46
365.111	318.88
365.493	323.4
365.874	304.41
366.256	310.97
366.637	325.43
367.019	325.66
367.4	330.4
367.781	296.73
368.163	325.66
368.544	318.2
368.925	323.62
369.306	320.01
369.688	324.07
370.069	332.89
370.45	308.25
370.831	306.9
371.212	324.75
371.593	320.01
371.974	308.25
372.355	333.34
372.736	334.24
373.117	324.07
373.498	315.49
373.879	325.43
374.26	319.33
374.641	327.69
375.021	318.2
375.402	322.49
375.783	312.55
376.163	335.82
376.544	347.8
376.925	343.73
377.305	357.97
377.686	339.89
378.066	328.37
378.447	354.36
378.827	343.28
379.208	347.8
379.588	350.51
379.968	366.78
380.349	351.42
380.729	351.87
381.109	353.9
381.489	363.17
381.87	372.89
382.25	358.42
382.63	353
383.01	380.8
383.39	387.57
383.77	366.78
384.15	354.81
384.53	372.21
384.91	362.72
385.29	383.05
385.67	386.22
386.049	380.57
386.429	373.56
386.809	399.78
387.189	385.99
387.568	400.23
387.948	390.96
388.328	403.85
388.707	409.72
389.087	415.14
389.466	383.73
389.846	402.94
390.225	392.77
390.605	404.75
390.984	433
391.363	411.3
391.743	419.89
392.122	411.3
392.501	431.64
392.881	429.16
393.26	453.56
393.639	449.27
394.018	425.99
394.397	434.35
394.776	423.28
395.155	429.16
395.534	433.22
395.913	428.7
396.292	435.71
396.671	455.6
397.05	429.61
397.429	437.97
397.808	459.66
398.186	458.53
398.565	473.22
398.944	455.14
399.323	463.28
399.701	461.7
400.08	480.91
400.458	507.8
400.837	470.28
401.215	494.46
401.594	483.17
401.972	511.41
402.351	517.29
402.729	527.01
403.107	494.46
403.486	513.67
403.864	489.49
404.242	510.06
404.62	510.74
404.999	520.23
405.377	543.95
405.755	529.94
406.133	554.8
406.511	540.79
406.889	549.83
407.267	553.45
407.645	555.03
408.023	550.06
408.401	564.29
408.779	562.71
409.156	575.59
409.534	601.81
409.912	592.99
410.29	579.21
410.667	572.2
411.045	574.24
411.422	603.84
411.8	611.3
412.178	604.07
412.555	616.95
412.933	621.47
413.31	630.28
413.687	649.26
414.065	645.42
414.442	663.05
414.819	655.14
415.197	674.12
415.574	647.45
415.951	668.92
416.328	678.41
416.705	680.9
417.082	688.58
417.46	702.82
417.837	714.35
418.214	684.97
418.591	711.63
418.967	698.75
419.344	713.22
419.721	713.22
420.098	719.09
420.475	748.24
420.852	748.7
421.228	734.01
421.605	774.91
421.982	757.51
422.358	758.19
422.735	789.6
423.111	765.42
423.488	785.08
423.864	764.74
424.241	778.3
424.617	818.07
424.994	802.48
425.37	809.03
425.746	807
426.123	827.34
426.499	820.11
426.875	848.35
427.251	851.07
427.627	862.82
428.003	885.41
428.379	866.21
428.756	903.49
429.132	905.75
429.507	901.46
429.883	925.41
430.259	909.37
430.635	935.13
431.011	963.6
431.387	980.33
431.763	988.91
432.138	968.8
432.514	972.64
432.89	978.75
433.265	1001.57
433.641	1007.22
434.016	1019.2
434.392	1056.94
434.767	1052.19
435.143	1049.48
435.518	1091.96
435.894	1068.01
436.269	1121.57
436.644	1106.88
437.02	1082.7
437.395	1118.85
437.77	1127.44
438.145	1136.26
438.52	1155.92
438.895	1177.38
439.271	1177.38
439.646	1178.51
440.021	1184.39
440.395	1182.81
440.77	1181.23
441.145	1217.16
441.52	1200.43
441.895	1246.99
442.27	1236.14
442.645	1234.33
443.019	1250.6
443.394	1269.81
443.769	1227.55
444.143	1276.14
444.518	1267.33
444.892	1287.44
445.267	1303.03
445.641	1323.6
446.016	1310.26
446.39	1315.23
446.764	1311.39
447.139	1302.58
447.513	1370.6
447.887	1337.15
448.262	1359.98
448.636	1353.88
449.01	1401.33
449.384	1370.83
449.758	1405.85
450.132	1393.88
450.506	1424.84
450.88	1429.81
451.254	1438.39
451.628	1437.72
452.002	1456.47
452.376	1488.79
452.75	1471.61
453.123	1504.16
453.497	1516.36
453.871	1522.23
454.244	1561.55
454.618	1580.31
454.992	1568.11
455.365	1612.85
455.739	1605.4
456.112	1643.13
456.486	1648.56
456.859	1644.04
457.232	1668.9
457.606	1702.79
457.979	1716.81
458.352	1755.45
458.725	1783.92
459.099	1801.77
459.472	1788.44
459.845	1807.88
460.218	1848.33
460.591	1845.39
460.964	1893.52
461.337	1891.94
461.71	1907.99
462.083	1944.14
462.456	1956.8
462.829	1985.05
463.201	2004.93
463.574	2039.73
463.947	2046.97
464.32	2105.95
464.692	2072.95
465.065	2082.67
465.438	2133.52
465.81	2152.05
466.183	2200.86
466.555	2247.19
466.928	2242.22
467.3	2204.93
467.672	2280.86
468.045	2336.45
468.417	2340.07
468.789	2365.83
469.161	2357.47
469.534	2443.34
469.906	2470.46
470.278	2489.67
470.65	2504.36
471.022	2498.93
471.394	2569.89
471.766	2632.26
472.138	2609.89
472.51	2673.39
472.882	2725.82
473.253	2748.19
473.625	2784.8
473.997	2853.95
474.369	2834.74
474.74	2856.44
475.112	2907.06
475.484	2990.44
475.855	3053.49
476.227	3052.14
476.598	3156.32
476.97	3149.99
477.341	3203.09
477.713	3263.21
478.084	3335.97
478.455	3401.96
478.827	3396.31
479.198	3479.92
479.569	3528.51
479.94	3611.44
480.311	3650.99
480.682	3697.32
481.053	3785.9
481.424	3801.27
481.795	3871.55
482.166	3918.56
482.537	4013.02
482.908	4042.39
483.279	4106.57
483.65	4173.46
484.021	4221.6
484.391	4242.84
484.762	4287.13
485.133	4327.58
485.503	4400.58
485.874	4489.39
486.244	4563.96
486.615	4638.76
486.985	4648.03
487.356	4756.05
487.726	4799.66
488.097	4889.15
488.467	4895.7
488.837	4996.94
489.207	5052.76
489.578	5166.88
489.948	5189.93
490.318	5222.02
490.688	5260.89
491.058	5297.28
491.428	5398.52
491.798	5417.5
492.168	5569.13
492.538	5577.27
492.908	5650.49
493.278	5708.34
493.648	5746.98
494.017	5763.48
494.387	5798.51
494.757	5902.46
495.126	5937.26
495.496	5969.8
495.866	6043.02
496.235	6083.02
496.605	6148.33
496.974	6168.89
497.344	6229.23
497.713	6293.41
498.082	6316.46
498.452	6354.65
498.821	6367.98
499.19	6370.02
499.559	6503.8
499.928	6567.98
500.298	6623.57
500.667	6650.69
501.036	6672.38
501.405	6708.76
501.774	6773.62
502.143	6815.88
502.512	6841.42
502.88	6876.44
503.249	6866.73
503.618	6937.46
503.987	7015.2
504.356	7086.83
504.724	7116.44
505.093	7155.08
505.462	7176.32
505.83	7186.04
506.199	7301.52
506.567	7346.71
506.936	7385.36
507.304	7478.69
507.672	7525.92
508.041	7520.27
508.409	7632.58
508.777	7618.12
509.145	7745.57
509.514	7689.76
509.882	7793.93
510.25	7833.48
510.618	7820.37
510.986	7849.3
511.354	8015.62
511.722	8092.91
512.09	8138.78
512.458	8131.55
512.826	8227.37
513.193	8271.44
513.561	8286.58
513.929	8387.36
514.297	8416.29
514.664	8475.05
515.032	8487.7
515.4	8618.77
515.767	8602.27
516.135	8671.88
516.502	8653.8
516.869	8838.88
517.237	8836.39
517.604	8827.8
517.972	8969.04
518.339	9070.51
518.706	9025.09
519.073	9131.98
519.44	9182.82
519.808	9261.47
520.175	9313.22
520.542	9365.19
520.909	9506.66
521.276	9496.71
521.643	9556.6
522.009	9662.81
522.376	9720.89
522.743	9758.18
523.11	9873.43
523.477	10010.82
523.843	10063.03
524.21	10134.44
524.577	10239.29
524.943	10206.3
525.31	10324.49
525.676	10392.28
526.043	10451.04
526.409	10525.61
526.776	10638.38
527.142	10627.53
527.508	10778.04
527.874	10811.71
528.241	10854.19
528.607	10968.77
528.973	11008.54
529.339	11084.24
529.705	11106.61
530.071	11224.13
530.437	11237.46
530.803	11359.94
531.169	11428.64
531.535	11467.28
531.901	11465.93
532.267	11538.69
532.632	11659.37
532.998	11628.86
533.364	11775.98
533.73	11798.12
534.095	11856.88
534.461	11808.29
534.826	12036.76
535.192	12013.71
535.557	12086.02
535.923	12190.43
536.288	12181.39
536.653	12255.74
537.019	12257.77
537.384	12314.94
537.749	12352.91
538.114	12427.48
538.479	12507.93
538.845	12568.72
539.21	12539.35
539.575	12602.62
539.94	12603.98
540.305	12606.24
540.67	12639.91
541.034	12705.67
541.399	12797.19
541.764	12825.21
542.129	12829.51
542.494	12890.07
542.858	12987.02
543.223	12919.67
543.587	13002.16
543.952	12969.39
544.316	13006
544.681	12982.72
545.045	13120.35
545.41	13193.34
545.774	13183.17
546.138	13271.53
546.503	13327.8
546.867	13386.78
547.231	13542.71
547.595	13487.57
547.959	13531.18
548.324	13572.31
548.688	13560.34
549.052	13594.46
549.416	13605.53
549.779	13744.51
550.143	13799.2
550.507	13814.79
550.871	13896.37
551.235	13883.94
551.599	13987.22
551.962	13975.47
552.326	14119.64
552.689	14143.6
553.053	14066.76
553.417	14106.31
553.78	14354.44
554.143	14316.47
554.507	14402.35
554.87	14464.27
555.234	14587.43
555.597	14537.48
555.96	14594.88
556.323	14690.25
556.686	14717.59
557.05	14767.31
557.413	14781.55
557.776	14825.84
558.139	14926.4
558.502	15051.6
558.865	15033.52
559.228	15132.27
559.59	15134.98
559.953	15245.49
560.316	15428.76
560.679	15358.93
561.041	15454.75
561.404	15596.89
561.767	15658.36
562.129	15554.86
562.492	15781.07
562.854	15738.13
563.217	15785.81
563.579	15823.55
563.941	16010.21
564.304	16024.45
564.666	16142.41
565.028	16121.17
565.39	16249.3
565.753	16292.92
566.115	16293.6
566.477	16400.94
566.839	16517.55
567.201	16644.1
567.563	16554.16
567.925	16785.79
568.287	16642.06
568.648	16666.24
569.01	16819.23
569.372	16949.4
569.734	16907.14
570.095	17002.96
570.457	17154.37
570.819	17153.01
571.18	17135.16
571.542	17301.48
571.903	17294.7
572.265	17362.95
572.626	17525.88
572.987	17459.89
573.349	17453.11
573.71	17481.81
574.071	17529.5
574.432	17596.84
574.794	17817.62
575.155	17770.39
575.516	17640.45
575.877	17675.48
576.238	17774.46
576.599	17867.34
576.96	17821.24
577.32	17865.53
577.681	18002.03
578.042	18102.14
578.403	18108.92
578.763	18127.22
579.124	18146.43
579.485	18216.48
579.845	18211.06
580.206	18159.76
580.566	18203.83
580.927	18238.63
581.287	18218.74
581.648	18180.33
582.008	18284.51
582.368	18170.16
582.728	18318.85
583.089	18137.16
583.449	18235.47
583.809	18368.34
584.169	18245.18
584.529	18254.68
584.889	18436.59
585.249	18169.03
585.609	18265.97
585.969	18404.05
586.329	18315.92
586.688	18401.56
587.048	18300.78
587.408	18241.12
587.768	18309.59
588.127	18317.27
588.487	18330.61
588.846	18447.66
589.206	18251.29
589.565	18203.6
589.925	18304.62
590.284	18292.41
590.643	18349.81
591.003	18398.4
591.362	18400.43
591.721	18415.8
592.08	18378.97
592.44	18413.99
592.799	18476.14
593.158	18440.66
593.517	18360.44
593.876	18430.49
594.235	18402.92
594.593	18382.58
594.952	18420.77
595.311	18430.26
595.67	18466.42
596.029	18485.86
596.387	18531.73
596.746	18512.52
597.104	18454.44
597.463	18456.7
597.822	18554.55
598.18	18341.45
598.538	18438.85
598.897	18588.45
599.255	18398.4
599.613	18716.13
599.972	18578.28
600.33	18648.34
600.688	18598.4
601.046	18617.83
601.404	18657.15
601.762	18671.39
602.12	18820.76
602.478	18698.51
602.836	18705.51
603.194	18613.76
603.552	18709.13
603.91	18688.56
604.268	18730.82
604.625	18677.72
604.983	18708.22
605.341	18690.37
605.698	18708
606.056	18714.32
606.413	18716.81
606.771	18750.48
607.128	18816.92
607.485	18779.18
607.843	18838.39
608.2	18900.08
608.557	19007.88
608.914	18919.74
609.272	18933.75
609.629	18986.18
609.986	19002.23
610.343	19002.45
610.7	19091.49
611.057	19129.23
611.414	19105.05
611.771	19237.02
612.127	19171.71
612.484	19096.01
612.841	19107.76
613.198	19166.06
613.554	19206.51
613.911	19398.37
614.267	19283.12
614.624	19250.81
614.98	19179.4
615.337	19244.03
615.693	19391.59
616.05	19305.5
616.406	19373.74
616.762	19432.05
617.118	19306.63
617.475	19355.66
617.831	19472.04
618.187	19454.19
618.543	19481.31
618.899	19646.73
619.255	19569.9
619.611	19488.09
619.967	19558.14
620.323	19646.73
620.678	19506.62
621.034	19407.41
621.39	19505.49
621.746	19455.55
622.101	19671.14
622.457	19466.85
622.812	19555.66
623.168	19693.51
623.523	19637.92
623.879	19721.76
624.234	19571.7
624.589	19606.73
624.945	19530.8
625.3	19611.48
625.655	19639.27
626.01	19580.97
626.365	19571.25
626.72	19626.16
627.075	19556.79
627.43	19451.03
627.785	19583.91
628.14	19605.6
628.495	19586.62
628.85	19543.46
629.205	19521.76
629.559	19507.52
629.914	19452.61
630.269	19411.93
630.623	19469.78
630.978	19428.66
631.332	19488.77
631.687	19648.31
632.041	19478.82
632.396	19474.08
632.75	19444.47
633.104	19479.95
633.459	19327.64
633.813	19217.81
634.167	19350.24
634.521	19350.24
634.875	19328.77
635.229	19303.69
635.583	19205.38
635.937	19304.14
636.291	19148.66
636.645	18982.57
636.999	18975.33
637.352	19092.62
637.706	18898.27
638.06	18930.82
638.413	19026.86
638.767	18888.78
639.121	19039.74
639.474	18806.53
639.828	18854.89
640.181	19011.49
640.534	18873.87
640.888	18771.5
641.241	18706.19
641.594	18729.47
641.947	18709.35
642.301	18655.12
642.654	18748.9
643.007	18606.76
643.36	18560.88
643.713	18620.09
644.066	18705.29
644.419	18570.15
644.771	18436.59
645.124	18279.08
645.477	18282.02
645.83	18091.29
646.182	17988.69
646.535	17933.78
646.888	17942.82
647.24	17823.27
647.593	18001.12
647.945	17818.75
648.298	17682.94
648.65	17733.79
649.002	17749.15
649.355	17815.59
649.707	17782.15
650.059	17869.6
650.411	18065.75
650.763	18154.79
651.115	18226.88
651.467	18250.16
651.819	18232.08
652.171	18017.17
652.523	18115.92
652.875	18120.89
653.227	17980.11
653.578	18206.77
653.93	18055.58
654.282	18003.61
654.633	17988.69
654.985	17932.88
655.337	17904.85
655.688	18001.35
656.039	17972.87
656.391	17793.44
656.742	17812.65
657.094	17840
657.445	17918.41
657.796	17830.05
658.147	17841.35
658.498	17957.06
658.849	17891.52
659.2	17894.91
659.551	17796.83
659.902	17917.51
660.253	17858.75
660.604	17809.04
660.955	17849.71
661.306	17764.74
661.656	17684.52
662.007	17677.52
662.358	17778.53
662.708	17687.68
663.059	17666.44
663.409	17474.13
663.76	17663.73
664.11	17653.34
664.461	17742.37
664.811	17696.05
665.161	17667.35
665.511	17528.59
665.862	17549.61
666.212	17544.86
666.562	17618.31
666.912	17517.75
667.262	17562.04
667.612	17574.69
667.962	17640
668.312	17443.85
668.662	17491.31
669.011	17355.26
669.361	17465.32
669.711	17389.61
670.06	17395.26
670.41	17274.36
670.76	17266.9
671.109	17398.43
671.459	17367.47
671.808	17255.38
672.157	17369.95
672.507	17209.05
672.856	17181.26
673.205	17185.78
673.554	17299.67
673.904	17196.17
674.253	17280.01
674.602	17328.37
674.951	16947.59
675.3	16819.91
675.649	17147.13
675.998	17134.48
676.346	17201.37
676.695	17236.4
677.044	17076.18
677.393	17149.62
677.741	17048.61
678.09	16974.03
678.438	17043.18
678.787	17033.46
679.135	17065.1
679.484	16887.25
679.832	17099
680.181	16851.1
680.529	16976.06
680.877	16944.65
681.225	16837.54
681.573	17020.36
681.922	16739.46
682.27	16745.79
682.618	16839.57
682.966	16839.12
683.314	16816.07
683.661	16796.86
684.009	16587.83
684.357	16683.42
684.705	16620.82
685.053	16581.73
685.4	16542.4
685.748	16520.94
686.095	16523.87
686.443	16319.59
686.79	16270.77
687.138	16359.58
687.485	16315.29
687.832	16330.88
688.18	16346.7
688.527	16195.29
688.874	16172.02
689.221	16169.31
689.568	16210.89
689.915	16103.32
690.262	16144
690.609	16059.25
690.956	15928.63
691.303	15884.79
691.65	15753.95
691.997	15870.33
692.344	15711.24
692.69	15808.86
693.037	15724.57
693.383	15632.82
693.73	15760.28
694.077	15712.37
694.423	15650.68
694.769	15583.79
695.116	15511.02
695.462	15494.07
695.808	15426.95
696.155	15392.6
696.501	15264.7
696.847	15407.07
697.193	15201.87
697.539	15273.51
697.885	15158.26
698.231	15055.44
698.577	15060.41
698.923	15090.69
699.269	15035.1
699.614	14906.97
699.96	14925.95
700.306	14949.68
700.651	14812.28
700.997	14814.54
701.342	14730.47
701.688	14728.44
702.033	14649.57
702.379	14678.05
702.724	14539.74
703.069	14707.88
703.415	14518.73
703.76	14508.33
704.105	14565.96
704.45	14493.87
704.795	14421.1
705.14	14424.95
705.485	14321.9
705.83	14311.73
706.175	14336.36
706.52	14279.86
706.865	14140.43
707.209	14165.97
707.554	14139.3
707.899	14149.02
708.243	14030.83
708.588	14035.35
708.932	14055.46
709.277	13966.65
709.621	13952.42
709.966	14012.08
710.31	13983.83
710.654	13736.83
710.998	13790.84
711.342	13852.76
711.687	13785.19
712.031	13678.07
712.375	13688.92
712.719	13721.46
713.063	13641.24
713.407	13624.29
713.75	13635.14
714.094	13542.93
714.438	13460.68
714.782	13517.17
715.125	13391.53
715.469	13427.68
715.812	13313.79
716.156	13256.39
716.499	13251.87
716.843	13272.21
717.186	13188.37
717.53	13227.01
717.873	13183.62
718.216	13200.35
718.559	13273.79
718.902	13043.96
719.246	13216.62
719.589	13128.71
719.932	13121.03
720.275	13077.86
720.617	13117.86
720.96	13006
721.303	12945.44
721.646	12995.38
721.989	12882.61
722.331	12954.93
722.674	12846
723.016	12857.3
723.359	12841.48
723.701	12864.99
724.044	12823.41
724.386	12829.28
724.729	12766.23
725.071	12752.45
725.413	12702.73
725.755	12727.82
726.097	12707.48
726.439	12615.5
726.782	12546.8
727.124	12597.87
727.465	12585.9
727.807	12547.71
728.149	12527.37
728.491	12505.45
728.833	12443.3
729.175	12492.12
729.516	12363.76
729.858	12375.96
730.199	12398.78
730.541	12415.28
730.882	12343.42
731.224	12404.43
731.565	12329.41
731.906	12313.59
732.248	12338.22
732.589	12274.72
732.93	12234.95
733.271	12213.7
733.612	12206.7
733.953	12273.82
734.294	12114.5
734.635	12149.75
734.976	12135.29
735.317	12195.63
735.658	12128.28
735.999	12044.67
736.339	12129.19
736.68	12050.54
737.021	12033.6
737.361	11888.29
737.702	12067.49
738.042	12004.44
738.383	11911.79
738.723	12030.88
739.063	11904.56
739.404	11971.45
739.744	11848.29
740.084	11780.72
740.424	11878.35
740.764	11744.79
741.104	11780.5
741.444	11712.02
741.784	11750.21
742.124	11734.17
742.464	11760.61
742.804	11622.31
743.143	11645.36
743.483	11631.8
743.823	11617.56
744.162	11552.93
744.502	11664.79
744.841	11651.01
745.181	11655.75
745.52	11578.92
745.86	11628.41
746.199	11608.07
746.538	11522.2
746.877	11498.69
747.216	11364.91
747.556	11387.96
747.895	11394.29
748.234	11416.44
748.573	11340.73
748.911	11292.15
749.25	11332.37
749.589	11328.98
749.928	11246.27
750.267	11314.74
750.605	11198.82
750.944	11207.63
751.283	11196.56
751.621	11225.48
751.96	11160.62
752.298	11147.52
752.636	11117.46
752.975	11078.82
753.313	10997.01
753.651	11142.77
753.989	11027.97
754.327	10921.99
754.666	10871.82
755.004	10915.21
755.342	10877.24
755.679	10908.43
756.017	10802.44
756.355	10819.84
