Data from black_plastic_tray_FLMS001491_005.txt Node
Date: Tue Feb 07 10:39:10 GMT 2017
User: dcchb
Spectrometer: FLMS00149
Trigger mode: 0
Integration Time (sec): 2.000000E-2
Scans to average: 10
Electric dark correction enabled: true
Nonlinearity correction enabled: false
Boxcar width: 0
XAxis mode: Wavelengths
Number of Pixels in Spectrum: 2048
>>>>>Begin Spectral Data<<<<<
341.393	-21.24
341.776	-21.24
342.16	-21.24
342.543	-55.59
342.927	-58.53
343.31	-72.31
343.693	-69.83
344.077	-69.38
344.46	-47.23
344.843	-50.85
345.226	-40.45
345.61	-44.74
345.993	4.29
346.376	-17.17
346.759	13.33
347.142	26.21
347.525	39.77
347.908	67.12
348.291	65.54
348.674	90.17
349.057	105.53
349.44	119.77
349.823	134.69
350.206	155.7
350.588	181.01
350.971	194.35
351.354	210.84
351.737	213.55
352.119	216.72
352.502	236.83
352.884	279.54
353.267	242.71
353.65	267.56
354.032	275.02
354.414	297.85
354.797	322.03
355.179	292.65
355.562	318.41
355.944	294.68
356.326	319.99
356.709	309.6
357.091	308.47
357.473	340.78
357.855	322.7
358.238	313.44
358.62	343.49
359.002	341.46
359.384	326.32
359.766	324.06
360.148	327.22
360.53	313.89
360.912	333.32
361.294	330.84
361.676	303.95
362.057	309.6
362.439	305.08
362.821	300.56
363.203	307.11
363.584	304.62
363.966	292.65
364.348	320.22
364.729	317.96
365.111	315.7
365.493	310.27
365.874	312.31
366.256	311.4
366.637	300.11
367.019	304.62
367.4	303.95
367.781	308.47
368.163	310.95
368.544	292.2
368.925	302.59
369.306	322.48
369.688	296.04
370.069	309.14
370.45	274.57
370.831	301.46
371.212	290.39
371.593	294.91
371.974	291.97
372.355	299.88
372.736	295.13
373.117	301.69
373.498	291.07
373.879	295.13
374.26	319.31
374.641	323.38
375.021	314.34
375.402	325.42
375.783	303.49
376.163	338.3
376.544	316.83
376.925	313.66
377.305	320.9
377.686	327.45
378.066	316.15
378.447	299.88
378.827	325.42
379.208	324.06
379.588	315.25
379.968	327.67
380.349	318.64
380.729	334.91
381.109	335.58
381.489	333.78
381.87	354.57
382.25	329.93
382.63	318.18
383.01	336.94
383.39	331.97
383.77	340.1
384.15	315.92
384.53	329.03
384.91	327.22
385.29	344.62
385.67	371.74
386.049	350.95
386.429	345.98
386.809	332.87
387.189	342.36
387.568	338.75
387.948	345.3
388.328	373.78
388.707	352.99
389.087	362.25
389.466	357.28
389.846	369.48
390.225	385.75
390.605	352.76
390.984	356.83
391.363	355.24
391.743	363.61
392.122	381.23
392.501	379.88
392.881	380.33
393.26	357.73
393.639	385.3
394.018	411.97
394.397	390.72
394.776	386.43
395.155	387.79
395.534	381.46
395.913	383.27
396.292	388.92
396.671	405.64
397.05	388.92
397.429	384.4
397.808	396.15
398.186	396.6
398.565	395.92
398.944	389.14
399.323	393.21
399.701	385.75
400.08	383.72
400.458	394.57
400.837	436.82
401.215	436.6
401.594	420.78
401.972	417.62
402.351	422.59
402.729	437.5
403.107	438.63
403.486	427.79
403.864	424.17
404.242	465.07
404.62	432.31
404.999	438.63
405.377	435.92
405.755	426.66
406.133	442.93
406.511	465.52
406.889	446.77
407.267	451.29
407.645	464.39
408.023	464.85
408.401	457.39
408.779	448.35
409.156	476.37
409.534	470.5
409.912	483.6
410.29	452.64
410.667	481.34
411.045	497.16
411.422	483.38
411.8	491.96
412.178	476.15
412.555	486.09
412.933	508.46
413.31	515.24
413.687	506.43
414.065	500.1
414.442	538.52
414.819	540.32
415.197	533.09
415.574	538.52
415.951	544.84
416.328	523.83
416.705	524.51
417.082	538.06
417.46	539.87
417.837	581.23
418.214	575.8
418.591	566.99
418.967	540.1
419.344	560.89
419.721	559.08
420.098	585.07
420.475	564.73
420.852	585.3
421.228	585.07
421.605	595.01
421.982	587.56
422.358	580.55
422.735	595.46
423.111	619.19
423.488	599.31
423.864	595.69
424.241	611.96
424.617	622.58
424.994	612.87
425.37	610.61
425.746	635.24
426.123	649.7
426.499	630.72
426.875	646.31
427.251	644.95
427.627	651.73
428.003	677.27
428.379	669.59
428.756	690.38
429.132	693.77
429.507	695.57
429.883	710.49
430.259	700.55
430.635	716.37
431.011	705.52
431.387	753.43
431.763	739.64
432.138	731.05
432.514	753.43
432.89	746.87
433.265	762.01
433.641	758.85
434.016	793.2
434.392	772.18
434.767	776.7
435.143	779.41
435.518	797.49
435.894	797.49
436.269	823.26
436.644	808.79
437.02	817.38
437.395	841.33
437.77	838.17
438.145	831.39
438.52	844.27
438.895	881.33
439.271	845.18
439.646	888.56
440.021	862.12
440.395	876.59
440.77	889.47
441.145	893.08
441.52	916.36
441.895	919.75
442.27	928.11
442.645	916.81
443.019	885.63
443.394	906.87
443.769	936.47
444.143	919.75
444.518	928.79
444.892	931.5
445.267	933.76
445.641	971.73
446.016	950.03
446.39	951.84
446.764	953.87
447.139	992.74
447.513	991.84
447.887	1000.65
448.262	990.03
448.636	996.36
449.01	1008.79
449.384	999.52
449.758	999.75
450.132	1021.44
450.506	1042.46
450.88	1020.54
451.254	1009.92
451.628	1054.89
452.002	1071.38
452.376	1060.99
452.75	1054.66
453.123	1075.23
453.497	1085.17
453.871	1119.52
454.244	1106.41
454.618	1134.89
454.992	1147.77
455.365	1114.77
455.739	1173.53
456.112	1206.07
456.486	1179.18
456.859	1207.2
457.232	1196.35
457.606	1216.69
457.979	1230.48
458.352	1216.69
458.725	1261.89
459.099	1243.81
459.472	1286.97
459.845	1296.01
460.218	1286.97
460.591	1308.89
460.964	1310.93
461.337	1337.59
461.71	1375.56
462.083	1371.94
462.456	1380.3
462.829	1353.64
463.201	1426.63
463.574	1400.42
463.947	1446.52
464.32	1452.62
464.692	1459.62
465.065	1474.09
465.438	1476.8
465.81	1484.25
466.183	1544.14
466.555	1556.12
466.928	1545.27
467.3	1558.15
467.672	1590.24
468.045	1627.75
468.417	1617.36
468.789	1638.6
469.161	1665.94
469.534	1700.29
469.906	1696.9
470.278	1712.5
470.65	1739.84
471.022	1762.44
471.394	1800.18
471.766	1817.13
472.138	1857.35
472.51	1851.02
472.882	1903.68
473.253	1880.63
473.625	1921.08
473.997	1950.91
474.369	1974.19
474.74	1981.19
475.112	2011.25
475.484	2057.35
475.855	2077.01
476.227	2094.63
476.598	2159.04
476.97	2155.42
477.341	2225.7
477.713	2244.23
478.084	2241.75
478.455	2305.93
478.827	2296.66
479.198	2387.28
479.569	2398.58
479.94	2492.59
480.311	2470.44
480.682	2480.61
481.053	2594.06
481.424	2556.99
481.795	2623.66
482.166	2650.1
482.537	2698.23
482.908	2746.59
483.279	2776.2
483.65	2858.68
484.021	2874.5
484.391	2900.94
484.762	2945.01
485.133	2953.82
485.503	2993.37
485.874	3034.27
486.244	3062.52
486.615	3155.4
486.985	3160.59
487.356	3204.44
487.726	3226.58
488.097	3313.59
488.467	3299.8
488.837	3363.3
489.207	3408.05
489.578	3444.2
489.948	3462.28
490.318	3497.31
490.688	3511.09
491.058	3561.04
491.428	3602.62
491.798	3659.11
492.168	3739.56
492.538	3749.51
492.908	3810.52
493.278	3820.24
493.648	3832.44
494.017	3841.48
494.387	3932.33
494.757	3921.03
495.126	4012.32
495.496	4003.96
495.866	4025.43
496.235	4074.7
496.605	4093.45
496.974	4104.07
497.344	4170.74
497.713	4200.79
498.082	4214.13
498.452	4292.09
498.821	4284.18
499.19	4292.99
499.559	4328.02
499.928	4370.28
500.298	4423.39
500.667	4420.67
501.036	4421.58
501.405	4486.44
501.774	4485.08
502.143	4532.54
502.512	4564.85
502.88	4601.91
503.249	4584.29
503.618	4690.27
503.987	4706.77
504.356	4714
504.724	4736.15
505.093	4781.34
505.462	4779.76
505.83	4803.26
506.199	4820.89
506.567	4908.12
506.936	4945.18
507.304	4988.57
507.672	4991.28
508.041	5022.47
508.409	5040.09
508.777	5071.51
509.145	5134.1
509.514	5116.48
509.882	5161.67
510.25	5201.45
510.618	5218.62
510.986	5256.13
511.354	5239.86
511.722	5303.14
512.09	5419.07
512.458	5412.29
512.826	5412.51
513.193	5504.49
513.561	5492.51
513.929	5567.09
514.297	5591.94
514.664	5636.91
515.032	5663.58
515.4	5719.17
515.767	5744.93
516.135	5749.45
516.502	5711.04
516.869	5869.9
517.237	5833.52
517.604	5876.46
517.972	5933.18
518.339	5925.27
518.706	5957.36
519.073	5985.83
519.44	6030.58
519.808	6102.44
520.175	6110.35
520.542	6215.66
520.909	6253.85
521.276	6241.64
521.643	6353.05
522.009	6396.22
522.376	6445.71
522.743	6511.69
523.11	6483.67
523.477	6571.8
523.843	6660.16
524.21	6652.48
524.577	6737
524.943	6734.51
525.31	6834.17
525.676	6881.63
526.043	6896.54
526.409	6931.34
526.776	7045.24
527.142	7004.34
527.508	7052.47
527.874	7125.24
528.241	7163.88
528.607	7184.67
528.973	7275.29
529.339	7235.74
529.705	7363.87
530.071	7354.83
530.437	7405.23
530.803	7472.8
531.169	7534.94
531.535	7480.03
531.901	7569.29
532.267	7676.41
532.632	7673.24
532.998	7694.03
533.364	7705.11
533.73	7828.49
534.095	7816.52
534.461	7879.57
534.826	7896.74
535.192	7982.39
535.557	8008.38
535.923	8028.26
536.288	8076.62
536.653	8047.92
537.019	8075.72
537.384	8075.27
537.749	8113.46
538.114	8170.18
538.479	8181.93
538.845	8171.99
539.21	8212.44
539.575	8224.19
539.94	8267.13
540.305	8292.66
540.67	8290.63
541.034	8354.13
541.399	8346.22
541.764	8462.38
542.129	8478.42
542.494	8525.43
542.858	8528.14
543.223	8496.05
543.587	8547.57
543.952	8583.28
544.316	8606.1
544.681	8664.86
545.045	8688.59
545.41	8741.92
545.774	8730.62
546.138	8832.31
546.503	8838.64
546.867	8833.89
547.231	8886.32
547.595	8990.72
547.959	8966.77
548.324	8941.46
548.688	8959.76
549.052	9000.22
549.416	8977.62
549.779	9016.26
550.143	9029.82
550.507	9131.29
550.871	9082.02
551.235	9132.87
551.599	9241.34
551.962	9249.02
552.326	9263.26
552.689	9263.26
553.053	9190.72
553.417	9326.99
553.78	9385.74
554.143	9398.62
554.507	9448.34
554.87	9500.99
555.234	9623.93
555.597	9474.78
555.96	9559.07
556.323	9641.78
556.686	9692.17
557.05	9760.2
557.413	9731.27
557.776	9787.77
558.139	9844.94
558.502	9895.33
558.865	9929.91
559.228	10010.58
559.59	10011.71
559.953	10055.1
560.316	10138.72
560.679	10138.26
561.041	10248.32
561.404	10200.86
561.767	10251.48
562.129	10266.85
562.492	10348.88
562.854	10387.07
563.217	10307.3
563.579	10443.34
563.941	10511.59
564.304	10493.51
564.666	10516.79
565.028	10526.28
565.39	10642.88
565.753	10652.6
566.115	10630.45
566.477	10682.66
566.839	10839.71
567.201	10883.56
567.563	10846.49
567.925	10963.78
568.287	10925.14
568.648	10976.89
569.01	11049.43
569.372	11130.78
569.734	11047.17
570.095	11175.3
570.457	11315.63
570.819	11260.72
571.18	11301.17
571.542	11373.71
571.903	11444.44
572.265	11419.36
572.626	11405.58
572.987	11479.25
573.349	11567.83
573.71	11486.93
574.071	11543.43
574.432	11544.56
574.794	11585.23
575.155	11600.6
575.516	11646.02
575.877	11635.17
576.238	11654.38
576.599	11683.53
576.96	11675.4
577.32	11711.78
577.681	11710.65
578.042	11733.25
578.403	11719.01
578.763	11775.74
579.124	11889.63
579.485	11887.82
579.845	11909.07
580.206	11933.47
580.566	11807.37
580.927	11915.62
581.287	11936.18
581.648	11867.26
582.008	11987.93
582.368	11932.12
582.728	11998.1
583.089	12054.15
583.449	11974.6
583.809	12067.25
584.169	11907.03
584.529	11984.77
584.889	12154.71
585.249	11995.16
585.609	11975.28
585.969	12057.08
586.329	12076.52
586.688	12074.26
587.048	12033.13
587.408	12036.07
587.768	12094.6
588.127	12054.37
588.487	12001.49
588.846	12063.19
589.206	11912.46
589.565	11975.05
589.925	11969.4
590.284	12036.75
590.643	11994.49
591.003	11999.46
591.362	11981.15
591.721	12024.99
592.08	11964.66
592.44	11991.32
592.799	11985
593.158	12029.51
593.517	12077.42
593.876	12023.19
594.235	12082.39
594.593	12018.22
594.952	12097.76
595.311	11951.55
595.67	12006.92
596.029	12090.98
596.387	12157.19
596.746	12167.59
597.104	12155.61
597.463	12165.78
597.822	12192.9
598.18	12127.59
598.538	12243.75
598.897	12206.91
599.255	12152.9
599.613	12347.02
599.972	12260.47
600.33	12315.38
600.688	12232.67
601.046	12286.91
601.404	12290.52
601.762	12316.29
602.12	12361.26
602.478	12359.9
602.836	12395.15
603.194	12254.37
603.552	12320.58
603.91	12229.73
604.268	12300.69
604.625	12293.69
604.983	12292.56
605.341	12203.52
605.698	12288.94
606.056	12328.72
606.413	12252.11
606.771	12313.8
607.128	12365.78
607.485	12361.93
607.843	12301.37
608.2	12413.46
608.557	12434.02
608.914	12401.26
609.272	12507.24
609.629	12474.7
609.986	12466.79
610.343	12488.49
610.7	12580.23
611.057	12568.48
611.414	12505.43
611.771	12567.35
612.127	12605.54
612.484	12590.18
612.841	12683.96
613.198	12631.08
613.554	12645.77
613.911	12632.44
614.267	12751.08
614.624	12706.11
614.98	12738.65
615.337	12735.94
615.693	12746.11
616.05	12692.32
616.406	12853.67
616.762	12746.78
617.118	12687.35
617.475	12686.67
617.831	12720.57
618.187	12749.72
618.543	12737.52
618.899	12823.62
619.255	12805.76
619.611	12833.79
619.967	12855.26
620.323	12863.62
620.678	12764.41
621.034	12734.81
621.39	12769.38
621.746	12762.15
622.101	12869.04
622.457	12824.75
622.812	12794.69
623.168	12835.14
623.523	12890.28
623.879	12893.9
624.234	12786.78
624.589	12762.38
624.945	12858.87
625.3	12829.27
625.655	12843.96
626.01	12898.19
626.365	12910.62
626.72	12780.68
627.075	12846.67
627.43	12829.04
627.785	12772.55
628.14	12858.42
628.495	12959.43
628.85	12813.9
629.205	12756.95
629.559	12830.85
629.914	12828.59
630.269	12796.27
630.623	12828.14
630.978	12716.95
631.332	12828.14
631.687	12855.93
632.041	12802.83
632.396	12737.74
632.75	12667.46
633.104	12754.01
633.459	12634.47
633.813	12669.05
634.167	12592.66
634.521	12632.44
634.875	12608.48
635.229	12597.41
635.583	12573.23
635.937	12562.83
636.291	12510.63
636.645	12573
636.999	12438.77
637.352	12444.64
637.706	12500.24
638.06	12448.94
638.413	12455.72
638.767	12388.83
639.121	12424.76
639.474	12354.7
639.828	12385.66
640.181	12367.13
640.534	12317.87
640.888	12298.43
641.241	12312.67
641.594	12230.86
641.947	12340.92
642.301	12332.11
642.654	12264.99
643.007	12293.69
643.36	12258.66
643.713	12287.13
644.066	12326.46
644.419	12190.64
644.771	12090.3
645.124	12123.07
645.477	12052.11
645.83	11968.27
646.182	11820.03
646.535	11860.25
646.888	11806.92
647.24	11867.94
647.593	11913.81
647.945	11730.99
648.298	11708.39
648.65	11700.94
649.002	11645.12
649.355	11734.15
649.707	11621.84
650.059	11747.49
650.411	11913.59
650.763	11934.38
651.115	12013.47
651.467	11941.38
651.819	11953.36
652.171	11908.16
652.523	11865.68
652.875	11834.27
653.227	11806.47
653.578	11958.56
653.93	11897.31
654.282	11795.62
654.633	11800.37
654.985	11809.41
655.337	11798.79
655.688	11792.23
656.039	11902.96
656.391	11772.8
656.742	11798.11
657.094	11817.54
657.445	11846.47
657.796	11754.49
658.147	11814.38
658.498	11759.01
658.849	11793.81
659.2	11790.2
659.551	11799.46
659.902	11800.37
660.253	11762.63
660.604	11725.57
660.955	11755.62
661.306	11788.84
661.656	11684.89
662.007	11745.23
662.358	11681.95
662.708	11661.39
663.059	11625.01
663.409	11606.47
663.76	11620.03
664.11	11637.43
664.461	11700.48
664.811	11641.73
665.161	11584.78
665.511	11648.28
665.862	11552.24
666.212	11637.43
666.562	11570.32
666.912	11529.87
667.262	11571
667.612	11553.37
667.962	11451
668.312	11513.14
668.662	11557.21
669.011	11514.73
669.361	11537.32
669.711	11448.29
670.06	11526.25
670.41	11444.22
670.76	11382.3
671.109	11474.5
671.459	11468.85
671.808	11450.77
672.157	11375.07
672.507	11387.72
672.856	11482.41
673.205	11401.96
673.554	11465.91
673.904	11489.64
674.253	11463.43
674.602	11349.98
674.951	11222.3
675.3	11102.31
675.649	11321.06
675.998	11345.24
676.346	11467.5
676.695	11379.59
677.044	11337.78
677.393	11319.48
677.741	11365.35
678.09	11353.83
678.438	11210.1
678.787	11334.62
679.135	11250.1
679.484	11241.96
679.832	11299.14
680.181	11191.34
680.529	11202.42
680.877	11169.65
681.225	11164.45
681.573	11228.18
681.922	11160.84
682.27	11138.92
682.618	11146.6
682.966	11089.88
683.314	11101.63
683.661	11014.85
684.009	11033.38
684.357	10979.82
684.705	10946.83
685.053	10947.73
685.4	10942.31
685.748	10864.57
686.095	10820.05
686.443	10870.67
686.79	10812.6
687.138	10822.09
687.485	10740.73
687.832	10728.31
688.18	10781.41
688.527	10646.27
688.874	10667.52
689.221	10705.71
689.568	10610.57
689.915	10677.91
690.262	10596.56
690.609	10555.65
690.956	10611.92
691.303	10528.76
691.65	10474.3
691.997	10535.09
692.344	10444.7
692.69	10381.42
693.037	10441.76
693.383	10340.07
693.73	10418.48
694.077	10390.91
694.423	10390.24
694.769	10361.54
695.116	10385.49
695.462	10266.62
695.808	10240.63
696.155	10220.75
696.501	10196.12
696.847	10150.47
697.193	10110.02
697.539	10058.04
697.885	10089.9
698.231	9991.38
698.577	10009.68
698.923	10018.72
699.269	9911.15
699.614	9915.67
699.96	9879.51
700.306	9859.85
700.651	9843.13
700.997	9793.87
701.342	9803.13
701.688	9770.36
702.033	9741.66
702.379	9695.56
702.724	9703.7
703.069	9718.39
703.415	9625.74
703.76	9597.71
704.105	9540.99
704.45	9562.91
704.795	9530.14
705.14	9503.25
705.485	9480.88
705.83	9476.14
706.175	9430.26
706.52	9415.12
706.865	9406.98
707.209	9432.97
707.554	9340.32
707.899	9315.24
708.243	9271.39
708.588	9339.19
708.932	9243.37
709.277	9192.53
709.621	9246.99
709.966	9221.9
710.31	9223.03
710.654	9151.17
710.998	9163.37
711.342	9186.43
711.687	9213.54
712.031	9110.72
712.375	9100.55
712.719	9098.29
713.063	9064.85
713.407	8980.78
713.75	9044.06
714.094	9125.86
714.438	8982.81
714.782	8982.36
715.125	8972.19
715.469	8924.06
715.812	8888.58
716.156	8815.81
716.499	8824.63
716.843	8869.6
717.186	8819.66
717.53	8888.13
717.873	8847
718.216	8924.96
718.559	8800.45
718.902	8684.07
719.246	8720.67
719.589	8693.78
719.932	8723.84
720.275	8644.74
720.617	8644.07
720.96	8581.47
721.303	8620.79
721.646	8710.73
721.989	8565.42
722.331	8532.88
722.674	8598.19
723.016	8586.89
723.359	8509.83
723.701	8498.76
724.044	8499.66
724.386	8425.09
724.729	8487.69
725.071	8423.06
725.413	8474.35
725.755	8459.89
726.097	8357.75
726.439	8395.94
726.782	8406.56
727.124	8425.09
727.465	8387.12
727.807	8361.36
728.149	8303.06
728.491	8295.38
728.833	8361.36
729.175	8270.74
729.516	8249.95
729.858	8284.75
730.199	8291.31
730.541	8305.54
730.882	8269.61
731.224	8233
731.565	8192.78
731.906	8240.46
732.248	8268.03
732.589	8170.86
732.93	8192.78
733.271	8206.56
733.612	8137.41
733.953	8138.32
734.294	8117.75
734.635	8054.03
734.976	8152.78
735.317	8064.42
735.658	8115.04
735.999	8082.05
736.339	8056.29
736.68	8072.78
737.021	7998.66
737.361	7960.24
737.702	8023.97
738.042	8024.65
738.383	7969.73
738.723	8021.94
739.063	7965.21
739.404	7956.17
739.744	7934.93
740.084	7915.95
740.424	7871.21
740.764	7892.22
741.104	7892.67
741.444	7863.07
741.784	7858.55
742.124	7857.19
742.464	7850.64
742.804	7829.85
743.143	7786.91
743.483	7698.55
743.823	7721.38
744.162	7731.55
744.502	7696.29
744.841	7743.75
745.181	7722.28
745.52	7668.72
745.86	7727.25
746.199	7684.54
746.538	7651.55
746.877	7649.06
747.216	7629.4
747.556	7638.67
747.895	7664.43
748.234	7591.89
748.573	7547.15
748.911	7543.76
749.25	7614.49
749.589	7525.9
749.928	7539.46
750.267	7551.21
750.605	7444.55
750.944	7504.21
751.283	7454.27
751.621	7499.69
751.96	7536.07
752.298	7408.84
752.636	7437.32
752.975	7432.12
753.313	7383.99
753.651	7478.9
753.989	7358.9
754.327	7314.61
754.666	7327.26
755.004	7323.88
755.342	7304.67
755.679	7198.45
756.017	7205.91
756.355	7240.04
756.693	7174.05
757.031	7244.1
757.368	7159.81
757.706	7150.09
758.044	7142.86
758.381	7112.58
758.719	7064.45
759.056	7173.14
759.394	7020.15
759.731	7038.68
760.068	7057.89
760.405	6991
760.743	6967.5
761.08	7023.09
761.417	7006.37
761.754	6972.25
762.091	6969.08
