Data from black_metal_pc_casing_FLMS001491_00050.txt Node
Date: Wed Feb 08 14:32:46 GMT 2017
User: dcchb
Spectrometer: FLMS00149
Trigger mode: 0
Integration Time (sec): 2.000000E-2
Scans to average: 10
Electric dark correction enabled: true
Nonlinearity correction enabled: false
Boxcar width: 0
XAxis mode: Wavelengths
Number of Pixels in Spectrum: 2048
>>>>>Begin Spectral Data<<<<<
341.393	2.51
341.776	2.51
342.16	2.51
342.543	-75.68
342.927	-64.6
343.31	-62.57
343.693	-58.28
344.077	-60.54
344.46	-50.14
344.843	-58.95
345.226	-51.5
345.61	-20.31
345.993	-20.99
346.376	-7.88
346.759	5.23
347.142	21.5
347.525	52.68
347.908	37.54
348.291	66.92
348.674	94.04
349.057	113.25
349.44	120.7
349.823	137.88
350.206	157.31
350.588	175.62
350.971	198.67
351.354	208.16
351.737	221.94
352.119	253.58
352.502	248.84
352.884	269.85
353.267	259.46
353.65	262.85
354.032	282.73
354.414	282.28
354.797	289.29
355.179	301.04
355.562	307.59
355.944	310.75
356.326	337.19
356.709	313.24
357.091	321.83
357.473	334.48
357.855	327.93
358.238	317.53
358.62	320.92
359.002	320.92
359.384	328.61
359.766	331.77
360.148	309.17
360.53	334.93
360.912	329.29
361.294	322.51
361.676	336.52
362.057	299.46
362.439	315.95
362.821	321.83
363.203	337.19
363.584	315.5
363.966	304.43
364.348	307.36
364.729	318.89
365.111	296.52
365.493	314.14
365.874	291.32
366.256	283.86
366.637	295.16
367.019	297.65
367.4	294.71
367.781	315.05
368.163	314.82
368.544	300.36
368.925	300.36
369.306	319.57
369.688	292.45
370.069	286.12
370.45	306.69
370.831	288.38
371.212	281.6
371.593	294.71
371.974	289.96
372.355	300.13
372.736	283.64
373.117	305.1
373.498	302.39
373.879	300.36
374.26	299.46
374.641	290.42
375.021	304.43
375.402	313.47
375.783	303.52
376.163	303.07
376.544	307.59
376.925	330.42
377.305	323.64
377.686	325.9
378.066	299.23
378.447	318.21
378.827	318.66
379.208	318.44
379.588	306.69
379.968	307.82
380.349	330.87
380.729	318.89
381.109	335.84
381.489	324.09
381.87	318.44
382.25	320.7
382.63	329.96
383.01	329.96
383.39	335.16
383.77	331.54
384.15	319.34
384.53	347.36
384.91	332
385.29	338.55
385.67	340.36
386.049	336.74
386.429	358.21
386.809	327.03
387.189	333.8
387.568	343.97
387.948	355.73
388.328	350.08
388.707	333.58
389.087	367.7
389.466	365.89
389.846	362.28
390.225	370.87
390.605	372
390.984	355.5
391.363	365.22
391.743	353.69
392.122	357.08
392.501	339.91
392.881	351.43
393.26	353.69
393.639	339.91
394.018	348.49
394.397	371.09
394.776	377.42
395.155	381.04
395.534	372.9
395.913	370.19
396.292	390.53
396.671	379.45
397.05	379
397.429	385.1
397.808	370.87
398.186	374.26
398.565	400.24
398.944	393.24
399.323	367.25
399.701	371.09
400.08	389.62
400.458	373.35
400.837	388.49
401.215	375.84
401.594	389.17
401.972	389.4
402.351	384.65
402.729	398.21
403.107	390.3
403.486	420.58
403.864	414.71
404.242	402.96
404.62	419.68
404.999	404.54
405.377	397.76
405.755	417.87
406.133	423.29
406.511	442.05
406.889	428.49
407.267	415.38
407.645	437.98
408.023	442.95
408.401	437.3
408.779	426.68
409.156	452.9
409.534	460.13
409.912	438.21
410.29	453.58
410.667	447.93
411.045	453.12
411.422	479.34
411.8	472.78
412.178	481.37
412.555	447.25
412.933	472.11
413.31	467.81
413.687	492.22
414.065	472.56
414.442	477.76
414.819	486.57
415.197	476.85
415.574	500.35
415.951	476.63
416.328	477.08
416.705	489.51
417.082	484.31
417.46	477.53
417.837	482.28
418.214	493.12
418.591	493.57
418.967	507.81
419.344	502.84
419.721	486.12
420.098	507.36
420.475	522.95
420.852	521.37
421.228	531.99
421.605	520.92
421.982	541.93
422.358	530.41
422.735	539.9
423.111	560.47
423.488	532.44
423.864	538.09
424.241	559.34
424.617	545.55
424.994	548.94
425.37	578.77
425.746	561.6
426.123	566.12
426.499	560.47
426.875	581.26
427.251	568.6
427.627	597.98
428.003	597.98
428.379	579.67
428.756	599.33
429.132	601.37
429.507	597.98
429.883	608.37
430.259	609.28
430.635	570.86
431.011	614.48
431.387	641.59
431.763	638.66
432.138	643.85
432.514	644.53
432.89	637.07
433.265	660.12
433.641	670.07
434.016	639.56
434.392	683.17
434.767	681.59
435.143	659.9
435.518	684.76
435.894	681.82
436.269	693.12
436.644	705.55
437.02	698.99
437.395	706.45
437.77	710.07
438.145	730.63
438.52	715.94
438.895	696.28
439.271	720.46
439.646	741.7
440.021	745.55
440.395	750.97
440.77	764.75
441.145	764.3
441.52	803.4
441.895	765.21
442.27	778.31
442.645	778.54
443.019	790.52
443.394	765.88
443.769	792.78
444.143	794.58
444.518	789.61
444.892	793
445.267	798.88
445.641	798.65
446.016	778.09
446.39	813.79
446.764	800.69
447.139	812.66
447.513	821.25
447.887	832.32
448.262	813.79
448.636	844.3
449.01	833.68
449.384	845.66
449.758	825.09
450.132	856.28
450.506	849.05
450.88	882.94
451.254	854.92
451.628	854.7
452.002	887.69
452.376	892.43
452.75	884.07
453.123	894.02
453.497	903.06
453.871	922.72
454.244	917.74
454.618	920
454.992	945.99
455.365	931.53
455.739	963.17
456.112	974.69
456.486	967.23
456.859	988.25
457.232	1000
457.606	991.64
457.979	987.57
458.352	1047.46
458.725	1038.65
459.099	1040.68
459.472	1042.03
459.845	1039.1
460.218	1057.18
460.591	1078.64
460.964	1082.26
461.337	1102.15
461.71	1114.12
462.083	1132.65
462.456	1114.12
462.829	1140.79
463.201	1141.69
463.574	1161.58
463.947	1148.92
464.32	1175.59
464.692	1205.19
465.065	1196.38
465.438	1213.78
465.81	1224.18
466.183	1224.85
466.555	1272.09
466.928	1274.35
467.3	1237.96
467.672	1261.69
468.045	1304.17
468.417	1306.21
468.789	1322.71
469.161	1328.81
469.534	1361.8
469.906	1355.92
470.278	1385.3
470.65	1397.51
471.022	1410.84
471.394	1441.12
471.766	1423.95
472.138	1456.04
472.51	1487.67
472.882	1493.77
473.253	1523.83
473.625	1521.8
473.997	1557.73
474.369	1588.91
474.74	1595.69
475.112	1577.61
475.484	1621.45
475.855	1639.99
476.227	1673.88
476.598	1738.06
476.97	1697.38
477.341	1700.32
477.713	1766.08
478.084	1745.52
478.455	1810.38
478.827	1853.31
479.198	1899.64
479.569	1901
479.94	1937.6
480.311	1940.99
480.682	1939.64
481.053	1997.72
481.424	2009.69
481.795	2039.3
482.166	2043.36
482.537	2108.67
482.908	2144.15
483.279	2188.67
483.65	2201.78
484.021	2240.2
484.391	2285.39
484.762	2252.4
485.133	2302.57
485.503	2325.39
485.874	2389.8
486.244	2399.06
486.615	2408.55
486.985	2441.77
487.356	2472.96
487.726	2485.84
488.097	2536.46
488.467	2557.25
488.837	2597.47
489.207	2634.76
489.578	2639.28
489.948	2709.11
490.318	2719.28
490.688	2739.17
491.058	2796.11
491.428	2798.6
491.798	2855.77
492.168	2887.18
492.538	2894.64
492.908	2938.93
493.278	2978.71
493.648	2963.57
494.017	2990.46
494.387	3004.24
494.757	3027.52
495.126	3051.02
495.496	3110
495.866	3145.03
496.235	3152.49
496.605	3168.31
496.974	3211.47
497.344	3227.97
497.713	3208.53
498.082	3267.96
498.452	3287.85
498.821	3368.75
499.19	3344.57
499.559	3373.05
499.928	3364.23
500.298	3378.47
500.667	3397.91
501.036	3400.39
501.405	3498.24
501.774	3467.51
502.143	3468.19
502.512	3529.43
502.88	3517.68
503.249	3552.25
503.618	3635.86
503.987	3591.57
504.356	3629.31
504.724	3658.92
505.093	3638.12
505.462	3667.05
505.83	3672.47
506.199	3745.69
506.567	3793.83
506.936	3803.77
507.304	3820.94
507.672	3784.79
508.041	3848.74
508.409	3859.14
508.777	3912.02
509.145	3931.45
509.514	3948.17
509.882	3954.95
510.25	3957.21
510.618	3970.32
510.986	4030.43
511.354	4074.72
511.722	4047.38
512.09	4118.79
512.458	4087.6
512.826	4149.75
513.193	4192.23
513.561	4183.87
513.929	4256.87
514.297	4288.05
514.664	4352.46
515.032	4291.44
515.4	4372.79
515.767	4328.28
516.135	4386.81
516.502	4361.95
516.869	4469.06
517.237	4486.46
517.604	4489.18
517.972	4507.71
518.339	4564.2
518.706	4608.49
519.073	4632.45
519.44	4672.22
519.808	4685.1
520.175	4714.93
520.542	4737.53
520.909	4822.05
521.276	4796.74
521.643	4833.12
522.009	4900.46
522.376	4897.75
522.743	4924.42
523.11	4959.45
523.477	5035.83
523.843	5063.4
524.21	5090.74
524.577	5083.06
524.943	5088.71
525.31	5215.71
525.676	5228.82
526.043	5251.42
526.409	5321.7
526.776	5340.68
527.142	5381.36
527.508	5420.68
527.874	5460.22
528.241	5429.49
528.607	5471.07
528.973	5506.55
529.339	5557.17
529.705	5621.12
530.071	5569.15
530.437	5615.25
530.803	5681.01
531.169	5658.64
531.535	5704.74
531.901	5749.93
532.267	5727.34
532.632	5779.31
532.998	5799.88
533.364	5842.59
533.73	5861.12
534.095	5921.91
534.461	5959.65
534.826	5955.58
535.192	6004.39
535.557	6057.5
535.923	5975.92
536.288	6073.54
536.653	6075.8
537.019	6097.95
537.384	6095.69
537.749	6126.19
538.114	6172.52
538.479	6205.97
538.845	6210.03
539.21	6158.74
539.575	6286.64
539.94	6262.46
540.305	6238.73
540.67	6298.39
541.034	6298.17
541.399	6367.09
541.764	6396.92
542.129	6406.41
542.494	6405.51
542.858	6466.52
543.223	6465.85
543.587	6493.87
543.952	6484.15
544.316	6534.77
544.681	6495.22
545.045	6537.48
545.41	6589.91
545.774	6619.06
546.138	6629.23
546.503	6673.07
546.867	6635.33
547.231	6721.21
547.595	6705.39
547.959	6745.84
548.324	6777.93
548.688	6745.39
549.052	6723.24
549.416	6788.32
549.779	6839.85
550.143	6809.34
550.507	6845.27
550.871	6895.44
551.235	6916.46
551.599	6938.15
551.962	7021.09
552.326	7019.5
552.689	7025.15
553.053	7085.72
553.417	7077.13
553.78	7137.24
554.143	7090.69
554.507	7123.68
554.87	7150.35
555.234	7203.45
555.597	7223.79
555.96	7225.15
556.323	7238.71
556.686	7280.74
557.05	7325.71
557.413	7388.53
557.776	7371.81
558.139	7449.78
558.502	7444.13
558.865	7515.99
559.228	7506.5
559.59	7513.5
559.953	7567.96
560.316	7625.36
560.679	7586.72
561.041	7714.85
561.404	7649.54
561.767	7801.18
562.129	7774.06
562.492	7828.3
562.854	7807.05
563.217	7853.38
563.579	7860.61
563.941	7928.86
564.304	7966.6
564.666	8018.12
565.028	8049.08
565.39	8032.81
565.753	8136.31
566.115	8152.13
566.477	8170.43
566.839	8178.57
567.201	8264.22
567.563	8240.26
567.925	8325.46
568.287	8332.69
568.648	8345.35
569.01	8398.68
569.372	8453.59
569.734	8439.58
570.095	8493.14
570.457	8585.57
570.819	8527.49
571.18	8593.25
571.542	8565.68
571.903	8530.88
572.265	8552.57
572.626	8609.07
572.987	8673.47
573.349	8662.4
573.71	8717.99
574.071	8672.12
574.432	8740.14
574.794	8800.7
575.155	8751.21
575.516	8720.7
575.877	8814.03
576.238	8874.37
576.599	8855.84
576.96	8884.99
577.32	8827.82
577.681	8900.59
578.042	8922.96
578.403	8997.08
578.763	8944.88
579.124	8947.59
579.485	9038.21
579.845	9018.1
580.206	8990.3
580.566	9026.91
580.927	8998.21
581.287	9087.92
581.648	8979.91
582.008	8998.44
582.368	9046.8
582.728	9059.45
583.089	9082.5
583.449	9025.1
583.809	9059.23
584.169	9107.59
584.529	9021.94
584.889	9162.95
585.249	9077.53
585.609	9066.23
585.969	9149.84
586.329	9128.38
586.688	9132.22
587.048	9049.28
587.408	9088.83
587.768	9141.26
588.127	9112.11
588.487	9079.34
588.846	9136.29
589.206	9110.07
589.565	9120.01
589.925	9164.99
590.284	9147.13
590.643	9128.6
591.003	9143.52
591.362	9162.05
591.721	9235.49
592.08	9157.75
592.44	9210.86
592.799	9178.54
593.158	9212.44
593.517	9248.37
593.876	9173.35
594.235	9129.28
594.593	9217.64
594.952	9167.24
595.311	9235.49
595.67	9239.79
596.029	9305.77
596.387	9215.83
596.746	9242.95
597.104	9242.27
597.463	9254.25
597.822	9269.84
598.18	9186.91
598.538	9199.56
598.897	9249.95
599.255	9195.49
599.613	9318.65
599.972	9265.32
600.33	9275.49
600.688	9256.96
601.046	9321.59
601.404	9336.51
601.762	9286.11
602.12	9381.7
602.478	9371.76
602.836	9400.01
603.194	9291.76
603.552	9317.98
603.91	9318.65
604.268	9355.26
604.625	9338.31
604.983	9389.61
605.341	9323.85
605.698	9346.68
606.056	9364.3
606.413	9393.45
606.771	9393.91
607.128	9432.32
607.485	9470.97
607.843	9401.14
608.2	9514.13
608.557	9487.69
608.914	9455.15
609.272	9491.08
609.629	9505.77
609.986	9555.71
610.343	9520.46
610.7	9574.24
611.057	9597.29
611.414	9550.29
611.771	9511.87
612.127	9615.59
612.484	9566.56
612.841	9627.12
613.198	9615.14
613.554	9639.55
613.911	9587.8
614.267	9701.24
614.624	9591.19
614.98	9634.13
615.337	9652.2
615.693	9705.76
616.05	9697.63
616.406	9750.05
616.762	9656.72
617.118	9633
617.475	9696.27
617.831	9751.18
618.187	9662.37
618.543	9759.77
618.899	9781.69
619.255	9753.22
619.611	9796.15
619.967	9783.27
620.323	9807
620.678	9792.09
621.034	9788.02
621.39	9756.16
621.746	9751.86
622.101	9879.09
622.457	9766.33
622.812	9736.27
623.168	9819.43
623.523	9819.43
623.879	9825.76
624.234	9772.88
624.589	9823.95
624.945	9856.27
625.3	9882.48
625.655	9767.23
626.01	9765.87
626.365	9841.58
626.72	9751.18
627.075	9770.39
627.43	9798.19
627.785	9782.37
628.14	9828.24
628.495	9868.47
628.85	9767.91
629.205	9724.97
629.559	9762.26
629.914	9759.32
630.269	9737.63
630.623	9815.36
630.978	9764.07
631.332	9757.51
631.687	9746.44
632.041	9714.8
632.396	9827.79
632.75	9704.18
633.104	9658.53
633.459	9644.52
633.813	9648.81
634.167	9658.53
634.521	9660.34
634.875	9694.01
635.229	9619.89
635.583	9550.29
635.937	9612.66
636.291	9574.01
636.645	9634.35
636.999	9530.63
637.352	9578.31
637.706	9529.04
638.06	9571.08
638.413	9471.87
638.767	9481.81
639.121	9494.24
639.474	9439.78
639.828	9496.95
640.181	9512.09
640.534	9477.29
640.888	9433.9
641.241	9390.97
641.594	9393.68
641.947	9463.51
642.301	9393.91
642.654	9343.29
643.007	9346.68
643.36	9339.9
643.713	9354.13
644.066	9367.01
644.419	9311.65
644.771	9294.7
645.124	9281.59
645.477	9211.31
645.83	9125.66
646.182	9113.01
646.535	9071.43
646.888	9078.43
647.24	9028.27
647.593	9014.48
647.945	8979.23
648.298	9016.06
648.65	8957.08
649.002	8902.17
649.355	8947.36
649.707	9004.99
650.059	9017.19
650.411	9155.95
650.763	9076.85
651.115	9147.36
651.467	9142.16
651.819	9155.72
652.171	9188.94
652.523	9138.77
652.875	9131.31
653.227	9081.6
653.578	9059.45
653.93	9110.98
654.282	9023.97
654.633	8999.57
654.985	9094.93
655.337	9115.04
655.688	9034.37
656.039	9035.5
656.391	9035.04
656.742	9083.18
657.094	9037.3
657.445	9111.43
657.796	9014.48
658.147	9017.64
658.498	8994.82
658.849	9011.09
659.2	9068.72
659.551	8967.93
659.902	9074.82
660.253	8964.31
660.604	9082.95
660.955	9005.89
661.306	9058.77
661.656	8955.05
662.007	8921.38
662.358	8980.13
662.708	8986.01
663.059	8906.46
663.409	8846.12
663.76	8995.95
664.11	8946.01
664.461	8968.61
664.811	8962.28
665.161	8964.99
665.511	8958.66
665.862	8935.84
666.212	8991.66
666.562	8948.04
666.912	8913.92
667.262	8934.03
667.612	8922.51
667.962	8942.39
668.312	8887.93
668.662	8981.04
669.011	8896.29
669.361	8885.44
669.711	8924.31
670.06	8832.56
670.41	8852.22
670.76	8798.67
671.109	8916.86
671.459	8863.75
671.808	8804.77
672.157	8820.36
672.507	8826.01
672.856	8817.2
673.205	8852.9
673.554	8819.68
673.904	8819.01
674.253	8848.61
674.602	8814.71
674.951	8666.47
675.3	8579.24
675.649	8767.93
675.998	8749.85
676.346	8728.39
676.695	8798.21
677.044	8772.23
677.393	8761.83
677.741	8774.26
678.09	8665.56
678.438	8756.63
678.787	8685.45
679.135	8696.3
679.484	8685.45
679.832	8764.09
680.181	8624.89
680.529	8712.12
680.877	8630.99
681.225	8662.63
681.573	8699.69
681.922	8625.79
682.27	8567.71
682.618	8574.72
682.966	8528.84
683.314	8587.83
683.661	8516.87
684.009	8493.59
684.357	8520.26
684.705	8543.08
685.053	8556.41
685.4	8546.02
685.748	8402.29
686.095	8459.01
686.443	8337.89
686.79	8340.83
687.138	8422.41
687.485	8413.14
687.832	8338.57
688.18	8416.76
688.527	8379.47
688.874	8269.19
689.221	8330.66
689.568	8322.52
689.915	8254.5
690.262	8261.51
690.609	8272.81
690.956	8167.95
691.303	8177.67
691.65	8170.43
691.997	8154.39
692.344	8060.16
692.69	8109.42
693.037	8062.87
693.383	7994.85
693.73	8095.63
694.077	8046.82
694.423	7954.85
694.769	8005.47
695.116	7994.85
695.462	7958.46
695.808	7897.67
696.155	7946.03
696.501	7810.44
696.847	7872.82
697.193	7836.43
697.539	7871.01
697.885	7804.79
698.231	7758.69
698.577	7718.7
698.923	7713.72
699.269	7733.61
699.614	7646.15
699.96	7715.76
700.306	7698.58
700.651	7638.25
700.997	7705.14
701.342	7642.77
701.688	7554.18
702.033	7574.97
702.379	7593.05
702.724	7560.73
703.069	7555.76
703.415	7445.71
703.76	7524.58
704.105	7493.62
704.45	7518.7
704.795	7443.9
705.14	7393.96
705.485	7412.26
705.83	7287.75
706.175	7380.85
706.52	7315.99
706.865	7329.55
707.209	7353.96
707.554	7257.24
707.899	7334.52
708.243	7252.27
708.588	7245.04
708.932	7223.79
709.277	7276.9
709.621	7236.67
709.966	7168.88
710.31	7213.4
710.654	7170.01
710.998	7161.2
711.342	7172.5
711.687	7160.07
712.031	7141.99
712.375	7060.18
712.719	7111.25
713.063	7080.97
713.407	7066.51
713.75	7054.08
714.094	7026.06
714.438	6991.93
714.782	6952.61
715.125	7003.01
715.469	6972.27
715.812	6942.44
716.156	6898.15
716.499	6913.97
716.843	6955.78
717.186	6856.8
717.53	6921.43
717.873	6906.06
718.216	6865.38
718.559	6827.19
718.902	6799.85
719.246	6863.35
719.589	6849.57
719.932	6777.25
720.275	6772.05
720.617	6815.44
720.96	6776.12
721.303	6751.04
721.646	6751.94
721.989	6716.46
722.331	6760.98
722.674	6744.03
723.016	6727.53
723.359	6652.96
723.701	6661.77
724.044	6647.31
724.386	6649.8
724.729	6693.19
725.071	6674.2
725.413	6627.42
725.755	6615.22
726.097	6621.78
726.439	6574.09
726.782	6587.88
727.124	6535.45
727.465	6578.61
727.807	6567.31
728.149	6507.43
728.491	6541.33
728.833	6531.38
729.175	6485.28
729.516	6516.69
729.858	6487.77
730.199	6512.4
730.541	6489.8
730.882	6439.41
731.224	6507.2
731.565	6441.89
731.906	6435.79
732.248	6469.91
732.589	6436.47
732.93	6365.96
733.271	6412.52
733.612	6374.78
733.953	6419.52
734.294	6416.58
734.635	6335
734.976	6296.59
735.317	6348.79
735.658	6368.45
735.999	6374.55
736.339	6313.99
736.68	6333.65
737.021	6330.71
737.361	6308.11
737.702	6330.03
738.042	6225.85
738.383	6279.41
738.723	6212.29
739.063	6264.5
739.404	6311.05
739.744	6275.12
740.084	6223.37
740.424	6233.54
740.764	6169.13
741.104	6193.31
741.444	6187.44
741.784	6175.01
742.124	6160.54
742.464	6156.93
742.804	6130.26
743.143	6133.43
743.483	6149.92
743.823	6063.82
744.162	6100.43
744.502	6123.48
744.841	6053.43
745.181	6108.12
745.52	6053.43
745.86	6054.11
746.199	6083.94
746.538	6055.46
746.877	6060.21
747.216	6064.73
747.556	6026.31
747.895	5992.19
748.234	6000.77
748.573	5973.2
748.911	5996.48
749.25	5972.98
749.589	5939.76
749.928	5975.01
750.267	5997.84
750.605	5924.62
750.944	5867.44
751.283	5906.54
751.621	5939.53
751.96	5876.03
752.298	5887.11
752.636	5897.05
752.975	5782.7
753.313	5817.28
753.651	5815.47
753.989	5785.19
754.327	5798.29
754.666	5767.56
755.004	5770.72
755.342	5800.55
755.679	5789.71
756.017	5737.73
756.355	5734.11
756.693	5709.71
757.031	5724.85
757.368	5670.84
757.706	5670.61
758.044	5659.09
758.381	5688.69
758.719	5648.02
759.056	5650.73
759.394	5598.75
759.731	5549.94
760.068	5532.31
760.405	5598.53
760.743	5558.75
761.08	5523.05
761.417	5548.81
761.754	5507.45
762.091	5492.54
762.428	5497.96
762.765	5406.67
763.102	5433.33
763.438	5440.11
763.775	5400.34
764.112	5376.84
764.449	5404.63
764.785	5423.39
765.122	5358.98
765.458	5338.64
765.795	5340
766.131	5304.97
766.467	5317.85
766.804	5304.52
767.14	5257.97
767.476	5258.42
767.812	5252.32
768.148	5257.29
768.485	5192.66
768.821	5219.55
769.157	5214.81
769.492	5141.59
769.828	5119.44
770.164	5143.17
770.5	5085.32
