Data from black_plastic_tray_FLMS001491_038.txt Node
Date: Tue Feb 07 10:39:43 GMT 2017
User: dcchb
Spectrometer: FLMS00149
Trigger mode: 0
Integration Time (sec): 2.000000E-2
Scans to average: 10
Electric dark correction enabled: true
Nonlinearity correction enabled: false
Boxcar width: 0
XAxis mode: Wavelengths
Number of Pixels in Spectrum: 2048
>>>>>Begin Spectral Data<<<<<
341.393	-17.27
341.776	-17.27
342.16	-17.27
342.543	-65.63
342.927	-70.15
343.31	-59.31
343.693	-76.48
344.077	-44.39
344.46	-74.67
344.843	-55.46
345.226	-47.78
345.61	-40.32
345.993	-3.49
346.376	-10.27
346.759	-1.68
347.142	20.92
347.525	60.24
347.908	64.76
348.291	57.98
348.674	98.66
349.057	111.31
349.44	100.92
349.823	122.38
350.206	163.96
350.588	196.73
350.971	198.54
351.354	223.85
351.737	224.3
352.119	257.3
352.502	236.51
352.884	244.64
353.267	276.05
353.65	267.92
354.032	313.79
354.414	295.71
354.797	298.42
355.179	308.59
355.562	316.95
355.944	336.84
356.326	319.21
356.709	321.47
357.091	321.02
357.473	344.98
357.855	317.41
358.238	327.58
358.62	321.7
359.002	324.64
359.384	341.59
359.766	333.9
360.148	328.25
360.53	335.03
360.912	325.99
361.294	334.13
361.676	314.02
362.057	317.18
362.439	319.21
362.821	317.18
363.203	314.47
363.584	335.71
363.966	318.31
364.348	343.62
364.729	333
365.111	318.76
365.493	338.65
365.874	302.94
366.256	307.46
366.637	329.38
367.019	320.34
367.4	320.12
367.781	301.59
368.163	307.01
368.544	316.5
368.925	297.75
369.306	325.32
369.688	323.28
370.069	305.88
370.45	316.73
370.831	326.9
371.212	307.92
371.593	288.03
371.974	321.7
372.355	311.76
372.736	311.31
373.117	307.92
373.498	306.11
373.879	317.41
374.26	322.6
374.641	310.63
375.021	326.22
375.402	319.89
375.783	312.44
376.163	346.56
376.544	333.45
376.925	353.56
377.305	338.88
377.686	347.01
378.066	345.88
378.447	338.2
378.827	344.07
379.208	340.01
379.588	324.41
379.968	342.94
380.349	337.07
380.729	345.65
381.109	345.2
381.489	347.46
381.87	347.01
382.25	370.51
382.63	354.24
383.01	354.02
383.39	368.25
383.77	379.78
384.15	359.89
384.53	377.97
384.91	378.87
385.29	365.77
385.67	385.65
386.049	401.92
386.429	382.04
386.809	383.62
387.189	395.37
387.568	362.15
387.948	388.59
388.328	385.88
388.707	398.53
389.087	407.35
389.466	398.31
389.846	400.57
390.225	407.8
390.605	406.9
390.984	415.03
391.363	405.31
391.743	412.77
392.122	406.67
392.501	420
392.881	422.04
393.26	425.88
393.639	415.94
394.018	439.44
394.397	424.07
394.776	462.94
395.155	440.57
395.534	435.6
395.913	443.96
396.292	448.02
396.671	437.18
397.05	461.36
397.429	460.45
397.808	445.54
398.186	465.88
398.565	444.86
398.944	462.04
399.323	486.44
399.701	473.56
400.08	460.68
400.458	484.86
400.837	486.22
401.215	468.14
401.594	501.13
401.972	486.44
402.351	482.6
402.729	504.97
403.107	498.19
403.486	494.35
403.864	521.47
404.242	510.85
404.62	512.43
404.999	525.99
405.377	513.33
405.755	520.57
406.133	528.25
406.511	518.53
406.889	535.93
407.267	536.84
407.645	556.27
408.023	532.77
408.401	570.51
408.779	579.77
409.156	571.86
409.534	551.3
409.912	571.41
410.29	586.55
410.667	588.59
411.045	599.21
411.422	577.74
411.8	616.16
412.178	642.6
412.555	621.58
412.933	635.14
413.31	633.78
413.687	613.22
414.065	641.47
414.442	641.01
414.819	623.61
415.197	640.56
415.574	670.84
415.951	643.05
416.328	672.2
416.705	645.76
417.082	678.98
417.46	674.23
417.837	699.09
418.214	690.05
418.591	712.65
418.967	704.97
419.344	724.4
419.721	722.59
420.098	733.67
420.475	724.63
420.852	723.27
421.228	738.19
421.605	744.74
421.982	767.34
422.358	759.43
422.735	789.71
423.111	788.35
423.488	772.54
423.864	776.15
424.241	766.21
424.617	788.35
424.994	811.18
425.37	818.41
425.746	825.64
426.123	824.06
426.499	825.64
426.875	843.95
427.251	848.92
427.627	849.82
428.003	875.13
428.379	867.22
428.756	877.62
429.132	878.07
429.507	899.09
429.883	928.24
430.259	917.39
430.635	907.22
431.011	932.31
431.387	945.41
431.763	951.06
432.138	965.53
432.514	1000.78
432.89	1012.08
433.265	995.58
433.641	991.97
434.016	1022.7
434.392	1022.7
434.767	1049.14
435.143	1027.67
435.518	1053.66
435.894	1071.06
436.269	1091.62
436.644	1096.37
437.02	1110.38
437.395	1114.9
437.77	1101.79
438.145	1144.5
438.52	1152.64
438.895	1158.51
439.271	1150.38
439.646	1182.47
440.021	1189.25
440.395	1202.13
440.77	1206.65
441.145	1198.74
441.52	1222.02
441.895	1236.48
442.27	1230.6
442.645	1215.46
443.019	1265.86
443.394	1245.29
443.769	1235.57
444.143	1270.38
444.518	1290.71
444.892	1270.38
445.267	1278.29
445.641	1299.75
446.016	1311.73
446.39	1326.42
446.764	1337.27
447.139	1306.08
447.513	1333.43
447.887	1346.08
448.262	1337.04
448.636	1368.45
449.01	1369.81
449.384	1366.87
449.758	1395.8
450.132	1422.46
450.506	1374.78
450.88	1414.1
451.254	1398.96
451.628	1420.43
452.002	1459.3
452.376	1471.27
452.75	1487.77
453.123	1479.86
453.497	1519.41
453.871	1499.75
454.244	1551.95
454.618	1528.9
454.992	1548.11
455.365	1575.9
455.739	1630.59
456.112	1601.67
456.486	1664.04
456.859	1659.07
457.232	1681.66
457.606	1706.3
457.979	1722.79
458.352	1724.15
458.725	1769.8
459.099	1778.39
459.472	1795.79
459.845	1817.93
460.218	1806.63
460.591	1835.11
460.964	1858.16
461.337	1888.67
461.71	1933.41
462.083	1956.01
462.456	1959.62
462.829	1944.48
463.201	1983.8
463.574	2012.28
463.947	2054.31
464.32	2066.74
464.692	2105.38
465.065	2089.11
465.438	2137.47
465.81	2150.35
466.183	2168.66
466.555	2223.8
466.928	2242.1
467.3	2259.95
467.672	2249.79
468.045	2305.38
468.417	2357.81
468.789	2313.74
469.161	2389.67
469.534	2415.2
469.906	2426.5
470.278	2434.19
470.65	2473.28
471.022	2525.03
471.394	2581.53
471.766	2582.88
472.138	2613.39
472.51	2640.28
472.882	2688.42
473.253	2717.8
473.625	2814.74
473.997	2833.27
474.369	2843.89
474.74	2922.08
475.112	2937
475.484	2952.37
475.855	3034.4
476.227	3012.93
476.598	3096.77
476.97	3170.44
477.341	3211.57
477.713	3288.63
478.084	3259.48
478.455	3373.37
478.827	3404.11
479.198	3488.4
479.569	3526.36
479.94	3585.8
480.311	3588.96
480.682	3674.61
481.053	3757.09
481.424	3819.24
481.795	3843.64
482.166	3895.84
482.537	3979.23
482.908	4004.77
483.279	4110.53
483.65	4106.69
484.021	4217.64
484.391	4266.68
484.762	4320.24
485.133	4347.13
485.503	4435.04
485.874	4529.05
486.244	4516.62
486.615	4622.83
486.985	4713.45
487.356	4705.77
487.726	4771.75
488.097	4882.26
488.467	4865.76
488.837	4974.01
489.207	5016.94
489.578	5103.5
489.948	5166.09
490.318	5212.19
490.688	5279.54
491.058	5296.03
491.428	5400.21
491.798	5442.24
492.168	5571.51
492.538	5522.02
492.908	5641.79
493.278	5700.99
493.648	5734.89
494.017	5805.62
494.387	5811.5
494.757	5862.8
495.126	5923.59
495.496	5977.15
495.866	6039.97
496.235	6128.1
496.605	6153.19
496.974	6158.38
497.344	6201.09
497.713	6297.81
498.082	6290.13
498.452	6337.59
498.821	6401.54
499.19	6444.03
499.559	6467.75
499.928	6562.67
500.298	6599.5
500.667	6656.45
501.036	6626.17
501.405	6759.05
501.774	6657.58
502.143	6762.66
502.512	6871.13
502.88	6878.59
503.249	6930.11
503.618	6991.36
503.987	6990.68
504.356	7010.34
504.724	7108.41
505.093	7133.5
505.462	7199.26
505.83	7227.96
506.199	7272.03
506.567	7373.04
506.936	7382.31
507.304	7484.45
507.672	7473.83
508.041	7503.43
508.409	7581.4
508.777	7595.63
509.145	7713.6
509.514	7759.92
509.882	7725.8
510.25	7838.11
510.618	7897.77
510.986	7843.54
511.354	8001.05
511.722	8053.25
512.09	8121.95
512.458	8147.94
512.826	8208.27
513.193	8225
513.561	8292.34
513.929	8389.29
514.297	8438.1
514.664	8466.12
515.032	8455.27
515.4	8590.18
515.767	8589.73
516.135	8718.54
516.502	8591.77
516.869	8808.71
517.237	8758.77
517.604	8769.16
517.972	8961.7
518.339	8989.5
518.706	9055.26
519.073	9031.08
519.44	9142.26
519.808	9331.86
520.175	9339.54
520.542	9425.87
520.909	9516.71
521.276	9507.22
521.643	9607.33
522.009	9596.94
522.376	9695.01
522.743	9783.15
523.11	9850.26
523.477	9936.81
523.843	10000.54
524.21	10104.49
524.577	10163.7
524.943	10176.36
525.31	10310.36
525.676	10468.33
526.043	10487.31
526.409	10583.13
526.776	10638.04
527.142	10650.47
527.508	10707.19
527.874	10751.93
528.241	10878.26
528.607	10901.31
528.973	11014.07
529.339	11104.92
529.705	11155.77
530.071	11210
530.437	11274.63
530.803	11363.44
531.169	11440.96
531.535	11419.49
531.901	11439.83
532.267	11572.48
532.632	11659.93
532.998	11669.88
533.364	11704
533.73	11758.46
534.095	11869.19
534.461	11908.74
534.826	12004.56
535.192	11979.47
535.557	12057.44
535.923	12076.65
536.288	12075.74
536.653	12215.17
537.019	12187.38
537.384	12271.67
537.749	12325.23
538.114	12370.2
538.479	12347.6
538.845	12501.27
539.21	12487.93
539.575	12571.77
539.94	12582.4
540.305	12686.8
540.67	12666.01
541.034	12712.56
541.399	12699.45
541.764	12807.02
542.129	12815.61
542.494	12912.33
542.858	12887.25
543.223	12933.57
543.587	12976.06
543.952	12985.32
544.316	13037.07
544.681	13015.38
545.045	13132.44
545.41	13176.96
545.774	13275.48
546.138	13253.79
546.503	13340.34
546.867	13309.38
547.231	13468.47
547.595	13436.16
547.959	13547.12
548.324	13500.79
548.688	13490.62
549.052	13583.5
549.416	13646.32
549.779	13621.92
550.143	13727.68
550.507	13798.18
550.871	13833.66
551.235	13831.18
551.599	13963.15
551.962	13928.35
552.326	13987.1
552.689	14081.11
553.053	14141
553.417	14168.57
553.78	14263.48
554.143	14289.69
554.507	14420.76
554.87	14378.05
555.234	14655.56
555.597	14536.24
555.96	14637.93
556.323	14648.56
556.686	14641.78
557.05	14706.86
557.413	14746.41
557.776	14826.18
558.139	14913.18
558.502	14952.5
558.865	15043.12
559.228	15229.11
559.59	15254.42
559.953	15256
560.316	15432.94
560.679	15393.17
561.041	15444.92
561.404	15470.23
561.767	15623.45
562.129	15566.72
562.492	15706.83
562.854	15794.29
563.217	15772.59
563.579	15829.99
563.941	16009.2
564.304	16029.76
564.666	16126.48
565.028	16066.37
565.39	16217.33
565.753	16237.89
566.115	16373.26
566.477	16408.28
566.839	16405.57
567.201	16474.27
567.563	16621.16
567.925	16700.25
568.287	16671.78
568.648	16663.64
569.01	16852.11
569.372	16946.8
569.734	16906.58
570.095	17044.88
570.457	17061.6
570.819	17113.8
571.18	17156.51
571.542	17302.5
571.903	17313.34
572.265	17455.04
572.626	17487.58
572.987	17481.93
573.349	17383.17
573.71	17566.9
574.071	17645.31
574.432	17638.31
574.794	17733.45
575.155	17742.71
575.516	17693.67
575.877	17720.34
576.238	17879.88
576.599	17869.04
576.96	17896.15
577.32	17816.83
577.681	18028.81
578.042	18102.02
578.403	18165.98
578.763	18143.6
579.124	18221.12
579.485	18210.27
579.845	18242.13
580.206	18144.96
580.566	18186.54
580.927	18153.32
581.287	18186.32
581.648	18133.21
582.008	18266.09
582.368	18239.42
582.728	18224.05
583.089	18393.09
583.449	18249.36
583.809	18305.18
584.169	18271.96
584.529	18200.33
584.889	18420.89
585.249	18263.83
585.609	18262.47
585.969	18300.44
586.329	18254.79
586.688	18367.55
587.048	18307.67
587.408	18307.44
587.768	18255.92
588.127	18372.75
588.487	18298.63
588.846	18304.05
589.206	18254.79
589.565	18236.94
589.925	18282.36
590.284	18250.72
590.643	18326.42
591.003	18360.77
591.362	18396.48
591.721	18363.71
592.08	18358.51
592.44	18359.64
592.799	18384.28
593.158	18385.63
593.517	18337.5
593.876	18433.31
594.235	18422.69
594.593	18443.71
594.952	18429.93
595.311	18438.74
595.67	18489.58
596.029	18486.87
596.387	18599.64
596.746	18469.47
597.104	18470.15
597.463	18457.72
597.822	18517.61
598.18	18395.12
598.538	18445.74
598.897	18561.67
599.255	18401.68
599.613	18605.97
599.972	18617.04
600.33	18563.03
600.688	18569.36
601.046	18549.7
601.404	18697.49
601.762	18695.45
602.12	18772.51
602.478	18706.53
602.836	18809.35
603.194	18549.47
603.552	18779.97
603.91	18659.52
604.268	18769.35
604.625	18567.55
604.983	18736.81
605.341	18654.1
605.698	18725.28
606.056	18802.8
606.413	18687.32
606.771	18775.45
607.128	18757.37
607.485	18720.31
607.843	18762.8
608.2	18821.33
608.557	18910.82
608.914	18849.8
609.272	18991.94
609.629	18949.23
609.986	18978.16
610.343	18979.97
610.7	19125.5
611.057	19068.33
611.414	19085.5
611.771	19106.29
612.127	19203.92
612.484	19221.32
612.841	19231.26
613.198	19140.41
613.554	19197.81
613.911	19412.05
614.267	19200.3
614.624	19182.45
614.98	19276.23
615.337	19338.38
615.693	19269.22
616.05	19275.78
616.406	19364.36
616.762	19361.2
617.118	19300.64
617.475	19300.41
617.831	19387.19
618.187	19427.64
618.543	19445.49
618.899	19553.74
619.255	19589.89
619.611	19463.8
619.967	19611.36
620.323	19630.57
620.678	19560.52
621.034	19493.17
621.39	19521.87
621.746	19343.35
622.101	19680.74
622.457	19525.49
622.812	19696.11
623.168	19527.98
623.523	19532.27
623.879	19711.7
624.234	19513.06
624.589	19662.66
624.945	19576.11
625.3	19664.02
625.655	19619.27
626.01	19564.36
626.365	19621.76
626.72	19610.68
627.075	19603.68
627.43	19532.49
627.785	19461.08
628.14	19563
628.495	19633.51
628.85	19561.87
629.205	19531.14
629.559	19560.06
629.914	19457.69
630.269	19558.03
630.623	19418.6
630.978	19445.04
631.332	19531.82
631.687	19520.29
632.041	19508.77
632.396	19463.8
632.75	19360.52
633.104	19429.67
633.459	19337.92
633.813	19239.4
634.167	19281.2
634.521	19272.39
634.875	19287.3
635.229	19237.81
635.583	19189.23
635.937	19124.14
636.291	19064.26
636.645	19037.82
636.999	18967.54
637.352	18990.59
637.706	18878.5
638.06	19102.22
638.413	18994.88
638.767	18987.2
639.121	18931.61
639.474	18880.08
639.828	18920.31
640.181	18987.88
640.534	18872.17
640.888	18740.43
641.241	18667.43
641.594	18716.92
641.947	18834.21
642.301	18659.98
642.654	18726.41
643.007	18610.26
643.36	18665.85
643.713	18571.39
644.066	18604.84
644.419	18506.76
644.771	18563.48
645.124	18268.57
645.477	18213.66
645.83	18085.08
646.182	18016.15
646.535	17929.37
646.888	17991.74
647.24	17817.96
647.593	17959.43
647.945	17861.13
648.298	17853.89
648.65	17801.24
649.002	17714.01
649.355	17796.04
649.707	17842.14
650.059	17937.96
650.411	18042.59
650.763	18136.83
651.115	18198.97
651.467	18229.25
651.819	18169.14
652.171	18143.83
652.523	17994.91
652.875	18079.65
653.227	18033.78
653.578	18125.53
653.93	18103.83
654.282	17988.35
654.633	17936.15
654.985	17941.12
655.337	17971.41
655.688	17997.39
656.039	17996.72
656.391	17874.91
656.742	17854.35
657.094	17845.08
657.445	17980.45
657.796	17914.01
658.147	17904.97
658.498	17825.2
658.849	17996.26
659.2	17852.31
659.551	17817.29
659.902	17932.76
660.253	17881.46
660.604	17862.26
660.955	17741.81
661.306	17752.88
661.656	17671.3
662.007	17661.81
662.358	17670.17
662.708	17641.25
663.059	17626.1
663.409	17528.93
663.76	17699.1
664.11	17694.8
664.461	17712.43
664.811	17686.22
665.161	17687.57
665.511	17633.56
665.862	17568.25
666.212	17547.91
666.562	17549.04
666.912	17677.18
667.262	17481.93
667.612	17415.94
667.962	17493.68
668.312	17365.77
668.662	17549.27
669.011	17462.94
669.361	17432.21
669.711	17448.71
670.06	17355.6
670.41	17308.37
670.76	17215.95
671.109	17312.44
671.459	17354.7
671.808	17250.75
672.157	17347.02
672.507	17230.18
672.856	17247.58
673.205	17260.01
673.554	17254.36
673.904	17261.59
674.253	17394.92
674.602	17226.34
674.951	17006.69
675.3	16793.58
675.649	17223.63
675.998	17154.93
676.346	17292.78
676.695	17288.71
677.044	17119.68
677.393	17148.38
677.741	17077.87
678.09	16984.54
678.438	16968.72
678.787	17058.44
679.135	16987.93
679.484	16956.07
679.832	17080.13
680.181	17024.09
680.529	17027.48
680.877	16922.85
681.225	16849.18
681.573	17070.41
681.922	16795.84
682.27	16683.98
682.618	16864.32
682.966	16788.16
683.314	16892.79
683.661	16737.77
684.009	16617.77
684.357	16516.3
684.705	16627.03
685.053	16610.09
685.4	16617.32
685.748	16590.88
686.095	16406.25
686.443	16338.23
686.79	16351.11
687.138	16313.82
687.485	16334.61
687.832	16213.94
688.18	16262.3
688.527	16120.83
688.874	16163.32
689.221	16183.66
689.568	16209.42
689.915	16010.78
690.262	16166.03
690.609	15995.64
690.956	15983.89
691.303	15938.69
691.65	15853.27
691.997	15760.62
692.344	15761.52
692.69	15836.55
693.037	15720.17
693.383	15631.35
693.73	15749.77
694.077	15668.64
694.423	15646.04
694.769	15560.17
695.116	15562.66
695.462	15483.34
695.808	15427.07
696.155	15488.99
696.501	15356.56
696.847	15367.86
697.193	15256.22
697.539	15271.36
697.885	15115.66
698.231	15017.13
698.577	15007.42
698.923	15043.35
699.269	14956.57
699.614	14908.66
699.96	14908.66
700.306	14844.03
700.651	14903.46
700.997	14765.39
701.342	14779.85
701.688	14691.72
702.033	14712.28
702.379	14713.64
702.724	14569.01
703.069	14690.81
703.415	14578.5
703.76	14559.29
704.105	14524.72
704.45	14535.79
704.795	14414.21
705.14	14382.8
705.485	14325.63
705.83	14220.77
706.175	14317.49
706.52	14228
706.865	14185.06
707.209	14235.01
707.554	14098.74
707.899	14215.35
708.243	14033.43
708.588	14109.59
708.932	14017.84
709.277	13979.19
709.621	13959.76
709.966	13956.6
710.31	13917.28
710.654	13796.6
710.998	13812.19
711.342	13752.31
711.687	13764.96
712.031	13736.49
712.375	13663.04
712.719	13658.07
713.063	13604.74
713.407	13616.49
713.75	13595.02
714.094	13547.34
714.438	13482.71
714.782	13540.79
715.125	13385.54
715.469	13358.42
715.812	13300.12
716.156	13261.25
716.499	13278.87
716.843	13223.28
717.186	13155.26
717.53	13222.6
717.873	13240
718.216	13162.72
718.559	13224.86
718.902	13070.07
719.246	13154.58
719.589	13150.74
719.932	13150.74
720.275	13069.39
720.617	13011.99
720.96	12977.86
721.303	12960.01
721.646	12977.41
721.989	12879.34
722.331	13031.2
722.674	12839.56
723.016	12813.8
723.359	12881.37
723.701	12891.99
724.044	12809.28
724.386	12731.54
724.729	12779.23
725.071	12665.33
725.413	12670.08
725.755	12676.18
726.097	12535.84
726.439	12602.28
726.782	12535.39
727.124	12603.19
727.465	12590.3
727.807	12604.32
728.149	12642.05
728.491	12475.96
728.833	12473.02
729.175	12382.85
729.516	12399.8
729.858	12446.58
730.199	12430.99
730.541	12416.07
730.882	12348.5
731.224	12409.29
731.565	12311.67
731.906	12348.5
732.248	12292.46
732.589	12250.88
732.93	12188.28
733.271	12318
733.612	12221.95
733.953	12205
734.294	12139.24
734.635	12107.38
734.976	12149.19
735.317	12118.9
735.658	12054.05
735.999	12115.06
736.339	12054.73
736.68	12094.95
737.021	12040.71
737.361	12028.96
737.702	12022.64
738.042	11969.08
738.383	11991.68
738.723	11937.44
739.063	11920.72
739.404	11867.39
739.744	11887.5
740.084	11757.33
740.424	11811.12
740.764	11723.89
741.104	11852.92
741.444	11709.65
741.784	11741.97
742.124	11807.05
742.464	11785.81
742.804	11577.22
743.143	11645.02
743.483	11641.18
743.823	11625.13
744.162	11672.36
744.502	11656.09
744.841	11564.57
745.181	11638.69
745.52	11605.92
745.86	11627.62
746.199	11492.03
746.538	11551.01
746.877	11466.49
747.216	11448.19
747.556	11307.63
747.895	11365.03
748.234	11377.91
748.573	11302.2
748.911	11344.24
749.25	11312.37
749.589	11350.11
749.928	11272.83
750.267	11264.24
750.605	11293.16
750.944	11221.08
751.283	11123
751.621	11175.2
751.96	11140.17
752.298	11146.5
752.636	11146.27
752.975	11065.6
753.313	11045.94
753.651	10997.13
753.989	11080.74
754.327	10949.22
754.666	10895.66
755.004	10969.56
755.342	10876
755.679	10833.97
756.017	10733.86
756.355	10803.91
756.693	10704.03
