Data from black_plastic_tray_FLMS001491_041.txt Node
Date: Tue Feb 07 10:39:55 GMT 2017
User: dcchb
Spectrometer: FLMS00149
Trigger mode: 0
Integration Time (sec): 2.000000E-2
Scans to average: 10
Electric dark correction enabled: true
Nonlinearity correction enabled: false
Boxcar width: 0
XAxis mode: Wavelengths
Number of Pixels in Spectrum: 2048
>>>>>Begin Spectral Data<<<<<
341.393	0.48
341.776	0.48
342.16	0.48
342.543	-56.69
342.927	-67.09
343.31	-54.21
343.693	-44.72
344.077	-53.3
344.46	-57.15
344.843	-70.7
345.226	-50.59
345.61	-13.3
345.993	-22.57
346.376	-21.89
346.759	23.08
347.142	32.12
347.525	23.76
347.908	70.99
348.291	56.75
348.674	70.99
349.057	110.76
349.44	124.54
349.823	147.14
350.206	172
350.588	192.11
350.971	206.35
351.354	209.74
351.737	234.6
352.119	236.63
352.502	266.01
352.884	266.91
353.267	283.18
353.65	294.26
354.032	310.08
354.414	283.64
354.797	316.18
355.179	318.89
355.562	301.94
355.944	317.31
356.326	324.09
356.709	341.94
357.091	333.35
357.473	311.43
357.855	347.59
358.238	331.54
358.62	340.58
359.002	343.75
359.384	333.13
359.766	346.46
360.148	332.22
360.53	328.16
360.912	345.56
361.294	327.48
361.676	345.33
362.057	334.71
362.439	331.09
362.821	336.74
363.203	331.09
363.584	343.3
363.966	318.44
364.348	312.11
364.729	331.09
365.111	316.18
365.493	284.54
365.874	329.51
366.256	332.45
366.637	328.61
367.019	320.7
367.4	320.7
367.781	327.03
368.163	315.5
368.544	300.81
368.925	338.1
369.306	307.36
369.688	317.08
370.069	336.74
370.45	328.16
370.831	318.21
371.212	342.17
371.593	319.12
371.974	338.1
372.355	315.27
372.736	319.57
373.117	317.76
373.498	326.35
373.879	339.45
374.26	340.58
374.641	323.18
375.021	326.12
375.402	354.14
375.783	349.4
376.163	350.98
376.544	367.25
376.925	348.04
377.305	360.92
377.686	327.25
378.066	362.5
378.447	366.12
378.827	339
379.208	364.54
379.588	353.01
379.968	383.75
380.349	363.41
380.729	372.67
381.109	367.48
381.489	380.58
381.87	377.65
382.25	355.73
382.63	385.33
383.01	375.61
383.39	371.77
383.77	389.17
384.15	391.88
384.53	408.61
384.91	394.14
385.29	394.14
385.67	399.57
386.049	408.83
386.429	388.72
386.809	393.46
387.189	400.92
387.568	397.53
387.948	424.42
388.328	432.11
388.707	406.57
389.087	412.9
389.466	411.32
389.846	426.23
390.225	426.23
390.605	410.86
390.984	429.17
391.363	427.36
391.743	437.3
392.122	447.7
392.501	458.32
392.881	470.3
393.26	435.72
393.639	456.06
394.018	457.87
394.397	465.33
394.776	476.85
395.155	456.74
395.534	478.43
395.913	471.2
396.292	480.24
396.671	484.08
397.05	469.17
397.429	494.7
397.808	495.38
398.186	485.67
398.565	480.69
398.944	515.27
399.323	518.66
399.701	499.68
400.08	505.1
400.458	503.97
400.837	497.42
401.215	532.9
401.594	519.56
401.972	546.45
402.351	514.59
402.729	523.18
403.107	554.59
403.486	540.35
403.864	543.74
404.242	554.82
404.62	576.74
404.999	561.14
405.377	574.7
405.755	564.53
406.133	549.17
406.511	577.87
406.889	597.53
407.267	591.2
407.645	596.17
408.023	576.28
408.401	605.89
408.779	615.83
409.156	622.38
409.534	590.52
409.912	621.25
410.29	632.1
410.667	660.12
411.045	645.89
411.422	639.56
411.8	651.31
412.178	660.58
412.555	681.37
412.933	684.98
413.31	694.02
413.687	699.22
414.065	707.81
414.442	714.81
414.819	718.2
415.197	721.82
415.574	730.86
415.951	716.17
416.328	743.96
416.705	728.82
417.082	736.96
417.46	750.29
417.837	781.48
418.214	748.48
418.591	773.57
418.967	763.85
419.344	783.06
419.721	790.29
420.098	806.56
420.475	810.63
420.852	792.55
421.228	822.38
421.605	830.29
421.982	850.4
422.358	835.03
422.735	842.94
423.111	847.01
423.488	852.44
423.864	881.59
424.241	877.07
424.617	893.11
424.994	901.02
425.37	887.69
425.746	902.15
426.123	915.03
426.499	915.03
426.875	931.76
427.251	929.72
427.627	943.96
428.003	948.7
428.379	957.97
428.756	980.79
429.132	987.12
429.507	1026.89
429.883	1023.96
430.259	1048.14
430.635	1036.39
431.011	1049.04
431.387	1075.48
431.763	1075.03
432.138	1075.48
432.514	1103.05
432.89	1119.55
433.265	1118.19
433.641	1142.82
434.016	1127.23
434.392	1189.15
434.767	1192.09
435.143	1162.71
435.518	1188.02
435.894	1204.97
436.269	1238.19
436.644	1235.48
437.02	1237.74
437.395	1250.16
437.77	1277.06
438.145	1298.75
438.52	1311.63
438.895	1292.2
439.271	1321.35
439.646	1318.19
440.021	1339.43
440.395	1372.87
440.77	1357.73
441.145	1323.16
441.52	1355.25
441.895	1394.79
442.27	1398.86
442.645	1363.61
443.019	1410.61
443.394	1414.91
443.769	1437.05
444.143	1417.17
444.518	1475.7
444.892	1455.81
445.267	1476.37
445.641	1484.96
446.016	1488.35
446.39	1484.73
446.764	1503.72
447.139	1470.95
447.513	1532.19
447.887	1528.8
448.262	1504.85
448.636	1523.15
449.01	1576.71
449.384	1571.06
449.758	1599.99
450.132	1585.07
450.506	1597.05
450.88	1609.7
451.254	1629.36
451.628	1651.28
452.002	1658.97
452.376	1695.12
452.75	1677.05
453.123	1691.96
453.497	1712.53
453.871	1723.6
454.244	1759.53
454.618	1772.41
454.992	1788.23
455.365	1836.59
455.739	1858.06
456.112	1889.02
456.486	1877.49
456.859	1863.48
457.232	1924.95
457.606	1910.71
457.979	1959.3
458.352	1970.37
458.725	2035
459.099	2049.01
459.472	2080.88
459.845	2102.12
460.218	2103.02
460.591	2110.93
460.964	2141.89
461.337	2160.42
461.71	2188.22
462.083	2212.4
462.456	2226.18
462.829	2256.92
463.201	2292.4
463.574	2285.39
463.947	2339.63
464.32	2428.44
464.692	2398.84
465.065	2426.63
465.438	2420.53
465.81	2511.37
466.183	2499.4
466.555	2538.94
466.928	2566.29
467.3	2574.2
467.672	2617.59
468.045	2672.27
468.417	2672.73
468.789	2717.47
469.161	2706.4
469.534	2771.03
469.906	2853.29
470.278	2836.11
470.65	2872.5
471.022	2942.78
471.394	2931.48
471.766	3008.31
472.138	3027.75
472.51	3086.05
472.882	3167.85
473.253	3197.91
473.625	3195.2
473.997	3258.25
474.369	3323.33
474.74	3334.63
475.112	3418.92
475.484	3428.41
475.855	3492.37
476.227	3565.81
476.598	3632.48
476.97	3621.63
477.341	3742.53
477.713	3777.78
478.084	3767.84
478.455	3923.09
478.827	3928.74
479.198	4045.57
479.569	4060.49
479.94	4147.49
480.311	4168.05
480.682	4255.74
481.053	4369.18
481.424	4401.49
481.795	4409.18
482.166	4523.3
482.537	4542.51
482.908	4675.39
483.279	4732.33
483.65	4800.13
484.021	4875.83
484.391	4916.51
484.762	4925.32
485.133	4983.85
485.503	5112.66
485.874	5208.7
486.244	5229.5
486.615	5341.58
486.985	5432.2
487.356	5508.81
487.726	5568.24
488.097	5633.33
488.467	5612.99
488.837	5789.25
489.207	5819.31
489.578	5908.35
489.948	5974.33
490.318	6068.57
490.688	6079.87
491.058	6177.49
491.428	6198.06
491.798	6315.34
492.168	6424.94
492.538	6463.81
492.908	6530.48
493.278	6622.68
493.648	6610.02
494.017	6718.04
494.387	6758.04
494.757	6772.96
495.126	6859.73
495.496	6912.39
495.866	7022.44
496.235	7060.63
496.605	7173.85
496.974	7144.25
497.344	7214.53
497.713	7266.96
498.082	7318.93
498.452	7426.95
498.821	7429.21
499.19	7408.42
499.559	7553.05
499.928	7648.19
500.298	7675.98
500.667	7752.14
501.036	7714.18
501.405	7797.11
501.774	7810.22
502.143	7908.97
502.512	7959.82
502.88	7955.75
503.249	8030.78
503.618	8094.96
503.987	8167.05
504.356	8183.99
504.724	8261.28
505.093	8289.75
505.462	8336.31
505.83	8371.79
506.199	8495.85
506.567	8579.69
506.936	8575.62
507.304	8692.23
507.672	8727.48
508.041	8712.79
508.409	8837.76
508.777	8857.42
509.145	8984.2
509.514	8981.49
509.882	9059.45
510.25	9095.38
510.618	9141.48
510.986	9164.53
511.354	9269.16
511.722	9357.52
512.09	9469.84
512.458	9507.12
512.826	9488.14
513.193	9569.72
513.561	9602.94
513.929	9759.55
514.297	9814.46
514.664	9907.34
515.032	9940.56
515.4	10033.89
515.767	10078.41
516.135	10122.02
516.502	10080.67
516.869	10296.03
517.237	10204.28
517.604	10291.28
517.972	10426.42
518.339	10510.03
518.706	10555.23
519.073	10653.08
519.44	10729.01
519.808	10779.86
520.175	10802.23
520.542	10982.11
520.909	11045.61
521.276	11127.87
521.643	11251.71
522.009	11244.25
522.376	11277.7
522.743	11387.53
523.11	11580.97
523.477	11611.25
523.843	11681.3
524.21	11753.62
524.577	11870.68
524.943	11922.2
525.31	12025.93
525.676	12104.12
526.043	12227.28
526.409	12257.11
526.776	12377.1
527.142	12450.55
527.508	12515.18
527.874	12573.26
528.241	12607.61
528.607	12800.14
528.973	12867.94
529.339	12869.07
529.705	13022.28
530.071	13074.71
530.437	13122.17
530.803	13217.08
531.169	13311.32
531.535	13314.48
531.901	13394.93
532.267	13397.64
532.632	13557.19
532.998	13605.09
533.364	13583.63
533.73	13749.95
534.095	13861.36
534.461	13899.1
534.826	13958.53
535.192	14039.89
535.557	14149.71
535.923	14109.94
536.288	14207.79
536.653	14252.99
537.019	14192.65
537.384	14358.29
537.749	14422.47
538.114	14455.02
538.479	14476.94
538.845	14562.36
539.21	14574.33
539.575	14704.95
539.94	14717.61
540.305	14705.63
540.67	14722.8
541.034	14738.17
541.399	14889.81
541.764	14931.84
542.129	14975.45
542.494	15039.63
542.858	14957.15
543.223	15036.02
543.587	15149.23
543.952	15119.63
544.316	15244.15
544.681	15271.27
545.045	15367.31
545.41	15486.17
545.774	15442.33
546.138	15387.87
546.503	15514.87
546.867	15534.31
547.231	15669.22
547.595	15684.36
547.959	15774.75
548.324	15825.37
548.688	15868.31
549.052	15950.12
549.416	15896.79
549.779	15930.68
550.143	16014.07
550.507	16182.88
550.871	16198.02
551.235	16212.94
551.599	16270.11
551.962	16385.81
552.326	16391.24
552.689	16460.61
553.053	16420.84
553.417	16587.84
553.78	16727.05
554.143	16664.22
554.507	16796.65
554.87	16861.28
555.234	17024.89
555.597	16897.21
555.96	16973.14
556.323	17047.04
556.686	17010.2
557.05	17241.61
557.413	17271.44
557.776	17310.76
558.139	17459.23
558.502	17447.71
558.865	17508.04
559.228	17628.49
559.59	17697.64
559.953	17814.02
560.316	17950.52
560.679	17936.05
561.041	18042.27
561.404	18084.98
561.767	18156.16
562.129	18089.27
562.492	18333.56
562.854	18380.11
563.217	18430.28
563.579	18581.46
563.941	18573.78
564.304	18625.98
564.666	18792.75
565.028	18753.89
565.39	18889.7
565.753	18950.04
566.115	19040.21
566.477	19162.01
566.839	19100.32
567.201	19313.19
567.563	19326.53
567.925	19439.52
568.287	19396.81
568.648	19534.2
569.01	19734.65
569.372	19741.2
569.734	19681.32
570.095	19974.64
570.457	20009.45
570.819	19948.66
571.18	20040.86
571.542	20170.12
571.903	20227.52
572.265	20195.2
572.626	20230.23
572.987	20292.15
573.349	20358.14
573.71	20481.75
574.071	20371.7
574.432	20482.88
574.794	20629.32
575.155	20597.9
575.516	20510.22
575.877	20643.78
576.238	20632.25
576.599	20761.74
576.96	20640.39
577.32	20801.29
577.681	20919.03
578.042	20967.16
578.403	21024.33
578.763	21074.5
579.124	21103.43
579.485	21144.11
579.845	21124.44
580.206	21103.88
580.566	21058.91
580.927	21186.36
581.287	21215.52
581.648	21048.29
582.008	21241.05
582.368	21119.47
582.728	21297.77
583.089	21242.18
583.449	21152.69
583.809	21259.58
584.169	21241.05
584.529	21185.69
584.889	21328.96
585.249	21272.24
585.609	21226.59
585.969	21324.21
586.329	21109.3
586.688	21231.11
587.048	21266.59
587.408	21168.29
587.768	21261.16
588.127	21257.77
588.487	21233.14
588.846	21401.05
589.206	21038.57
589.565	21127.83
589.925	21218.45
590.284	21090.32
590.643	21201.73
591.003	21298.23
591.362	21298.23
591.721	21175.29
592.08	21174.84
592.44	21332.8
592.799	21308.62
593.158	21370.31
593.517	21270.2
593.876	21439.69
594.235	21355.17
594.593	21360.37
594.952	21421.61
595.311	21353.37
595.67	21421.61
596.029	21474.49
596.387	21499.35
596.746	21537.32
597.104	21395.17
597.463	21562.4
597.822	21530.31
598.18	21320.82
598.538	21324.44
598.897	21471.33
599.255	21393.82
599.613	21613.7
599.972	21478.79
600.33	21601.04
600.688	21452.57
601.046	21602.4
601.404	21631.32
601.762	21650.98
602.12	21711.77
602.478	21708.16
602.836	21802.39
603.194	21616.18
603.552	21676.97
603.91	21639.69
604.268	21760.81
604.625	21635.17
604.983	21738.89
605.341	21632.68
605.698	21798.1
606.056	21816.63
606.413	21741.6
606.771	21747.48
607.128	21793.58
607.485	21660.48
607.843	21756.97
608.2	21792.22
608.557	21948.6
608.914	21921.94
609.272	21906.8
609.629	22021.6
609.986	22050.97
610.343	21899.11
610.7	22185.21
611.057	22180.46
611.414	22164.87
611.771	22209.61
612.127	22192.89
612.484	22142.5
612.841	22324.19
613.198	22260.46
613.554	22231.08
613.911	22439.66
614.267	22335.71
614.624	22245.32
614.98	22232.66
615.337	22316.5
615.693	22384.07
616.05	22215.04
616.406	22415.03
616.762	22266.11
617.118	22341.81
617.475	22472.43
617.831	22366.22
618.187	22588.36
618.543	22533.67
618.899	22697.96
619.255	22573.45
619.611	22611.86
619.967	22636.95
620.323	22749.94
620.678	22619.32
621.034	22568.7
621.39	22543.62
621.746	22462.04
622.101	22822.25
622.457	22612.54
622.812	22676.49
623.168	22687.57
623.523	22743.39
623.879	22868.13
624.234	22510.62
624.589	22591.52
624.945	22661.35
625.3	22701.35
625.655	22719.2
626.01	22605.76
626.365	22532.09
626.72	22579.77
627.075	22605.99
627.43	22550.4
627.785	22545.42
628.14	22591.3
628.495	22647.79
628.85	22590.17
629.205	22624.29
629.559	22626.33
629.914	22614.57
630.269	22597.63
630.623	22495.93
630.978	22362.83
631.332	22405.09
631.687	22607.8
632.041	22485.99
632.396	22521.92
632.75	22432.21
633.104	22375.03
633.459	22309.27
633.813	22298.65
634.167	22283.96
634.521	22332.32
634.875	22247.8
635.229	22157.86
635.583	22176.62
635.937	22063.85
636.291	21955.38
636.645	22021.14
636.999	21912.22
637.352	21937.76
637.706	21876.97
638.06	21912.22
638.413	21882.62
638.767	21797.42
639.121	21915.84
639.474	21744.77
639.828	21819.34
640.181	21765.11
640.534	21775.05
640.888	21615.96
641.241	21563.98
641.594	21571.66
641.947	21581.16
642.301	21533.02
642.654	21563.53
643.007	21471.1
643.36	21554.04
643.713	21353.59
644.066	21519.46
644.419	21395.17
644.771	21271.11
645.124	21065.69
645.477	21085.58
645.83	20800.84
646.182	20794.06
646.535	20676.55
646.888	20747.05
647.24	20625.02
647.593	20733.72
647.945	20726.49
648.298	20611.46
648.65	20461.41
649.002	20452.37
649.355	20517
649.707	20455.54
650.059	20666.83
650.411	20874.51
650.763	21089.42
651.115	21193.82
651.467	21140.94
651.819	21073.82
652.171	21059.14
652.523	20975.52
652.875	20967.16
653.227	20673.38
653.578	21025.69
653.93	20959.48
654.282	20844.68
654.633	20698.24
654.985	20759.71
655.337	20735.53
655.688	20745.02
656.039	20795.87
656.391	20537.12
656.742	20561.07
657.094	20648.07
657.445	20704.12
657.796	20763.1
658.147	20748.86
658.498	20750.9
658.849	20678.81
659.2	20634.74
659.551	20701.18
659.902	20814.85
660.253	20615.08
660.604	20656.66
660.955	20484.24
661.306	20605.14
661.656	20484.01
662.007	20398.59
662.358	20409.21
662.708	20543.67
663.059	20490.11
663.409	20359.49
663.76	20546.83
664.11	20563.56
664.461	20531.47
664.811	20463.67
665.161	20421.86
665.511	20367.85
665.862	20306.84
666.212	20373.05
666.562	20402.88
666.912	20392.49
667.262	20285.14
667.612	20360.17
667.962	20274.98
668.312	20264.58
668.662	20340.51
669.011	20247.18
669.361	20182.1
669.711	20156.56
670.06	20192.72
670.41	20106.17
670.76	20081.08
671.109	20124.24
671.459	20104.36
671.808	20138.93
672.157	20206.28
672.507	19982.33
672.856	19920.63
673.205	19978.26
673.554	20030.24
673.904	19910.01
674.253	20097.8
674.602	19971.71
674.951	19641.77
675.3	19495.79
675.649	19853.07
675.998	19873.18
676.346	19865.95
676.695	19942.33
677.044	19837.92
677.393	19908.66
677.741	19775.55
678.09	19762.67
678.438	19734.2
678.787	19823.01
679.135	19754.09
679.484	19665.5
679.832	19647.2
680.181	19603.58
680.529	19632.96
680.877	19563.13
681.225	19653.3
681.573	19666.18
681.922	19421.66
682.27	19386.41
682.618	19413.08
682.966	19441.78
683.314	19491.72
683.661	19312.51
684.009	19282.23
684.357	19090.83
684.705	19137.15
685.053	19174.44
685.4	19152.97
685.748	19114.33
686.095	19068
686.443	18813.54
686.79	18825.75
687.138	18885.41
687.485	18867.78
687.832	18923.37
688.18	18785.97
688.527	18631.85
688.874	18662.59
689.221	18697.62
689.568	18538.3
689.915	18625.75
690.262	18586.66
690.609	18451.29
690.956	18395.93
691.303	18430.5
691.65	18259.89
691.997	18196.61
692.344	18163.17
692.69	18129.95
693.037	18113.68
693.383	18113.68
693.73	18149.38
694.077	18026.22
694.423	18142.6
694.769	17969.27
695.116	17841.82
695.462	17866.68
695.808	17836.4
696.155	17809.28
696.501	17691.31
696.847	17705.55
697.193	17580.58
697.539	17626.46
697.885	17481.83
698.231	17487.25
698.577	17371.1
698.923	17344.43
699.269	17378.78
699.614	17264.66
699.96	17235.96
700.306	17241.38
700.651	17101.27
700.997	16939.92
701.342	16923.43
701.688	16984.21
702.033	16911.67
702.379	16960.26
702.724	16958.68
703.069	16950.32
703.415	16781.51
703.76	16724.56
704.105	16733.15
704.45	16736.99
704.795	16578.58
705.14	16564.34
705.485	16657.22
705.83	16514.62
706.175	16466.49
706.52	16415.42
706.865	16365.25
707.209	16356.43
707.554	16278.02
707.899	16341.75
708.243	16271.92
708.588	16234.63
708.932	16203.22
709.277	16104.01
709.621	16178.81
709.966	15999.83
710.31	16108.31
710.654	15897.69
710.998	15930.68
711.342	15895.66
711.687	15912.15
712.031	15720.97
712.375	15662.89
712.719	15596.68
713.063	15577.25
713.407	15645.04
713.75	15562.33
714.094	15520.98
714.438	15448.44
714.782	15477.36
715.125	15467.19
715.469	15476.23
715.812	15360.53
716.156	15273.75
716.499	15220.64
716.843	15284.37
717.186	15189.01
717.53	15196.01
717.873	15245.96
718.216	15362.34
718.559	15211.38
718.902	15224.71
719.246	15132.74
719.589	15177.48
719.932	15097.48
720.275	15010.71
720.617	15007.54
720.96	14923.7
721.303	14968.22
721.646	15000.99
721.989	14845.29
722.331	14875.57
722.674	14817.27
723.016	14806.19
723.359	14821.56
723.701	14734.1
724.044	14704.5
724.386	14567.1
724.729	14638.51
725.071	14516.48
725.413	14452.53
725.755	14548.57
726.097	14472.42
726.439	14346.77
726.782	14407.33
727.124	14406.43
727.465	14425.19
727.807	14443.94
728.149	14336.83
728.491	14340.22
728.833	14333.66
729.175	14263.83
729.516	14195.59
729.858	14265.42
730.199	14224.51
730.541	14223.61
730.882	14205.98
731.224	14205.3
731.565	14062.94
731.906	14144.29
732.248	14034.24
732.589	13973.45
732.93	13929.83
733.271	13948.14
733.612	14019.77
733.953	14059.77
734.294	13890.51
734.635	13877.63
734.976	13943.39
735.317	13869.95
735.658	14016.38
735.999	13903.39
736.339	13788.59
736.68	13788.82
737.021	13681.48
737.361	13688.26
737.702	13721.7
738.042	13690.06
738.383	13722.38
738.723	13664.08
739.063	13640.57
739.404	13594.47
739.744	13570.07
740.084	13431.99
740.424	13580.46
740.764	13489.62
741.104	13527.58
741.444	13439.45
741.784	13415.04
742.124	13473.8
742.464	13318.32
742.804	13375.27
743.143	13326.23
743.483	13329.17
743.823	13317.64
744.162	13250.08
744.502	13272.45
744.841	13298.21
745.181	13333.24
745.52	13277.87
745.86	13351.32
746.199	13280.81
746.538	13158.78
746.877	13175.28
747.216	13096.18
747.556	13034.04
747.895	13085.33
748.234	13051.44
748.573	13084.66
748.911	13015.28
749.25	12986.81
749.589	12953.36
749.928	12960.59
750.267	12955.62
750.605	12896.64
750.944	12836.3
751.283	12824.78
751.621	12827.04
751.96	12773.25
752.298	12814.61
752.636	12741.39
752.975	12667.27
753.313	12631.79
753.651	12667.27
753.989	12632.24
754.327	12489.42
754.666	12515.18
755.004	12528.06
755.342	12538.46
