Data from black_plastic_tray_FLMS001491_015.txt Node
Date: Tue Feb 07 10:39:21 GMT 2017
User: dcchb
Spectrometer: FLMS00149
Trigger mode: 0
Integration Time (sec): 2.000000E-2
Scans to average: 10
Electric dark correction enabled: true
Nonlinearity correction enabled: false
Boxcar width: 0
XAxis mode: Wavelengths
Number of Pixels in Spectrum: 2048
>>>>>Begin Spectral Data<<<<<
341.393	2.27
341.776	2.27
342.16	2.27
342.543	-51.51
342.927	-70.94
343.31	-75.69
343.693	-72.07
344.077	-75.01
344.46	-70.49
344.843	-47.89
345.226	-24.17
345.61	-36.37
345.993	-15.8
346.376	-3.83
346.759	36.62
347.142	32.33
347.525	33.46
347.908	56.74
348.291	64.19
348.674	83.18
349.057	114.81
349.44	114.14
349.823	125.43
350.206	162.5
350.588	181.03
350.971	196.39
351.354	216.51
351.737	218.77
352.119	220.57
352.502	242.49
352.884	258.09
353.267	258.54
353.65	278.88
354.032	297.86
354.414	299.44
354.797	280.46
355.179	308.25
355.562	309.16
355.944	305.09
356.326	302.38
356.709	310.97
357.091	311.64
357.473	317.75
357.855	320.91
358.238	353
358.62	325.43
359.002	318.88
359.384	320.68
359.766	311.42
360.148	320.91
360.53	323.62
360.912	308.25
361.294	316.16
361.676	292.21
362.057	324.98
362.439	308.48
362.821	292.44
363.203	317.75
363.584	311.19
363.966	318.65
364.348	318.65
364.729	296.73
365.111	284.53
365.493	301.48
365.874	313.9
366.256	300.35
366.637	294.7
367.019	275.49
367.4	299.22
367.781	284.3
368.163	303.06
368.544	283.4
368.925	302.83
369.306	303.06
369.688	279.78
370.069	294.24
370.45	308.48
370.831	301.25
371.212	310.97
371.593	308.93
371.974	280.91
372.355	284.07
372.736	294.47
373.117	317.07
373.498	303.28
373.879	303.96
374.26	302.61
374.641	287.24
375.021	286.33
375.402	286.33
375.783	296.96
376.163	329.27
376.544	312.55
376.925	327.46
377.305	311.64
377.686	316.16
378.066	313.45
378.447	311.64
378.827	308.03
379.208	296.05
379.588	296.73
379.968	313.45
380.349	302.15
380.729	315.94
381.109	318.88
381.489	326.11
381.87	331.3
382.25	338.31
382.63	324.3
383.01	326.79
383.39	336.05
383.77	334.69
384.15	345.32
384.53	349.61
384.91	328.37
385.29	344.41
385.67	350.06
386.049	343.73
386.429	339.21
386.809	328.82
387.189	339.67
387.568	353.9
387.948	321.14
388.328	361.36
388.707	336.73
389.087	358.42
389.466	345.09
389.846	352.77
390.225	365.43
390.605	347.8
390.984	343.28
391.363	365.88
391.743	364.07
392.122	343.28
392.501	363.62
392.881	347.35
393.26	378.99
393.639	373.56
394.018	385.31
394.397	376.28
394.776	376.95
395.155	373.11
395.534	364.52
395.913	397.74
396.292	371.3
396.671	391.19
397.05	388.03
397.429	385.99
397.808	361.36
398.186	374.24
398.565	407.69
398.944	366.33
399.323	377.63
399.701	399.33
400.08	387.12
400.458	399.78
400.837	387.12
401.215	387.57
401.594	416.5
401.972	399.78
402.351	388.03
402.729	410.62
403.107	395.94
403.486	394.81
403.864	413.79
404.242	398.42
404.62	407.91
404.999	422.83
405.377	424.41
405.755	420.34
406.133	425.99
406.511	438.87
406.889	438.65
407.267	425.54
407.645	432.55
408.023	423.96
408.401	450.85
408.779	433.68
409.156	425.09
409.534	463.5
409.912	446.78
410.29	443.62
410.667	460.79
411.045	477.97
411.422	474.13
411.8	459.44
412.178	468.93
412.555	466.44
412.933	471.19
413.31	472.54
413.687	491.75
414.065	484.97
414.442	468.93
414.819	508.25
415.197	506.22
415.574	496.95
415.951	499.66
416.328	504.86
416.705	501.92
417.082	498.08
417.46	502.15
417.837	512.77
418.214	527.23
418.591	519.55
418.967	519.1
419.344	512.32
419.721	543.73
420.098	525.88
420.475	529.04
420.852	534.46
421.228	552.09
421.605	552.99
421.982	556.61
422.358	554.12
422.735	547.57
423.111	556.38
423.488	563.84
423.864	534.92
424.241	582.82
424.617	580.56
424.994	580.11
425.37	569.94
425.746	592.31
426.123	581.92
426.499	594.8
426.875	585.76
427.251	613.11
427.627	634.35
428.003	616.5
428.379	603.61
428.756	628.47
429.132	638.64
429.507	614.91
429.883	637.51
430.259	673.22
430.635	646.78
431.011	633.44
431.387	653.56
431.763	674.35
432.138	661.92
432.514	648.13
432.89	650.17
433.265	691.75
433.641	688.36
434.016	696.72
434.392	714.35
434.767	700.33
435.143	717.28
435.518	692.65
435.894	735.36
436.269	727
436.644	752.31
437.02	745.98
437.395	744.63
437.77	739.66
438.145	769.49
438.52	757.51
438.895	772.42
439.271	780.33
439.646	789.6
440.021	825.08
440.395	779.43
440.77	790.28
441.145	789.6
441.52	780.78
441.895	796.15
442.27	822.82
442.645	808.35
443.019	821.69
443.394	808.13
443.769	834.57
444.143	822.59
444.518	852.42
444.892	837.73
445.267	850.16
445.641	843.16
446.016	864.85
446.39	859.43
446.764	891.29
447.139	866.88
447.513	845.42
447.887	873.44
448.262	876.83
448.636	872.08
449.01	890.39
449.384	910.27
449.758	898.3
450.132	914.11
450.506	909.37
450.88	919.99
451.254	940.55
451.628	934.23
452.002	925.87
452.376	968.35
452.75	947.11
453.123	961.12
453.497	949.82
453.871	971.29
454.244	986.88
454.618	980.33
454.992	1006.54
455.365	1012.87
455.739	1023.94
456.112	1047.22
456.486	1032.53
456.859	1041.12
457.232	1064.39
457.606	1068.23
457.979	1065.52
458.352	1101
458.725	1126.99
459.099	1111.62
459.472	1115.47
459.845	1114.79
460.218	1147.33
460.591	1146.2
460.964	1153.43
461.337	1206.08
461.71	1212.86
462.083	1166.09
462.456	1221.9
462.829	1208.57
463.201	1222.35
463.574	1243.82
463.947	1252.86
464.32	1263.94
464.692	1276.36
465.065	1308.23
465.438	1311.39
465.81	1315.46
466.183	1351.62
466.555	1340.77
466.928	1363.37
467.3	1384.61
467.672	1374.22
468.045	1404.95
468.417	1424.84
468.789	1413.99
469.161	1427.32
469.534	1450.15
469.906	1464.83
470.278	1486.75
470.65	1518.39
471.022	1534.44
471.394	1580.99
471.766	1579.63
472.138	1572.18
472.51	1598.84
472.882	1635.45
473.253	1624.83
473.625	1673.42
473.997	1679.52
474.369	1726.75
474.74	1738.95
475.112	1776.01
475.484	1773.3
475.855	1799.51
476.227	1790.48
476.598	1861.89
476.97	1858.72
477.341	1896.91
477.713	1929.23
478.084	1949.34
478.455	2017.59
478.827	1998.83
479.198	2067.08
479.569	2086.29
479.94	2101.65
480.311	2152.73
480.682	2173.97
481.053	2220.97
481.424	2234.53
481.795	2273.17
482.166	2277.02
482.537	2307.3
482.908	2373.96
483.279	2427.97
483.65	2432.72
484.021	2495.09
484.391	2520.85
484.762	2520.4
485.133	2538.03
485.503	2589.78
485.874	2608.99
486.244	2654.41
486.615	2681.75
486.985	2706.16
487.356	2777.34
487.726	2781.18
488.097	2827.51
488.467	2855.98
488.837	2891.46
489.207	2935.3
489.578	2936.66
489.948	2975.76
490.318	3033.38
490.688	3054.62
491.058	3082.64
491.428	3124.68
491.798	3131.23
492.168	3210.1
492.538	3217.56
492.908	3263.43
493.278	3324.45
493.648	3316.09
494.017	3321.73
494.387	3368.51
494.757	3383.43
495.126	3385.01
495.496	3456.87
495.866	3485.35
496.235	3536.64
496.605	3545.01
496.974	3556.3
497.344	3541.62
497.713	3637.43
498.082	3639.24
498.452	3647.15
498.821	3705
499.19	3689.86
499.559	3742.06
499.928	3740.48
500.298	3797.2
500.667	3834.94
501.036	3827.26
501.405	3887.14
501.774	3832.91
502.143	3928.72
502.512	3941.15
502.88	3957.2
503.249	3952.23
503.618	4000.81
503.987	4042.85
504.356	4079
504.724	4038.1
505.093	4084.2
505.462	4120.36
505.83	4132.79
506.199	4163.07
506.567	4227.25
506.936	4198.32
507.304	4286.23
507.672	4273.57
508.041	4274.25
508.409	4314.93
508.777	4395.38
509.145	4421.82
509.514	4400.58
509.882	4430.18
510.25	4452.33
510.618	4484.42
510.986	4518.99
511.354	4586.79
511.722	4630.63
512.09	4616.39
512.458	4627.69
512.826	4625.88
513.193	4711.75
513.561	4763.73
513.929	4751.08
514.297	4794.01
514.664	4806.67
515.032	4852.09
515.4	4865.42
515.767	4892.54
516.135	4935.7
516.502	4982.03
516.869	4994.23
517.237	5043.05
517.604	5064.29
517.972	5097.96
518.339	5132.53
518.706	5153.32
519.073	5151.52
519.44	5254.57
519.808	5300.67
520.175	5244.62
520.542	5367.1
520.909	5380.21
521.276	5392.64
521.643	5462.24
522.009	5443.71
522.376	5493.88
522.743	5545.86
523.11	5584.5
523.477	5644.84
523.843	5666.53
524.21	5735.68
524.577	5793.99
524.943	5794.89
525.31	5862.46
525.676	5926.86
526.043	5919.41
526.409	5986.52
526.776	6046.63
527.142	6040.53
527.508	6067.43
527.874	6132.06
528.241	6196.24
528.607	6220.19
528.973	6263.58
529.339	6343.8
529.705	6314.88
530.071	6381.77
530.437	6433.07
530.803	6421.31
531.169	6503.8
531.535	6501.31
531.901	6539.28
532.267	6531.37
532.632	6563.23
532.998	6653.17
533.364	6635.77
533.73	6688.43
534.095	6681.87
534.461	6743.34
534.826	6783.79
535.192	6793.73
535.557	6836.67
535.923	6825.37
536.288	6899.72
536.653	6929.32
537.019	6894.07
537.384	6911.92
537.749	7001.86
538.114	7049.77
538.479	7003.22
538.845	7070.56
539.21	7062.65
539.575	7087.06
539.94	7112.82
540.305	7134.52
540.67	7140.39
541.034	7171.58
541.399	7233.04
541.764	7279.14
542.129	7268.07
542.494	7321.63
542.858	7312.59
543.223	7293.83
543.587	7360.72
543.952	7378.13
544.316	7370.67
544.681	7442.76
545.045	7469.87
545.41	7470.33
545.774	7490.44
546.138	7500.83
546.503	7569.76
546.867	7549.42
547.231	7710.09
547.595	7646.82
547.959	7694.73
548.324	7728.85
548.688	7656.08
549.052	7755.06
549.416	7761.39
549.779	7768.17
550.143	7806.81
550.507	7879.35
550.871	7867.15
551.235	7848.17
551.599	7973.59
551.962	7971.1
552.326	7986.02
552.689	8044.1
553.053	8023.53
553.417	8070.31
553.78	8116.41
554.143	8167.48
554.507	8173.13
554.87	8198.22
555.234	8261.72
555.597	8200.48
555.96	8255.16
556.323	8256.97
556.686	8303.52
557.05	8383.97
557.413	8389.17
557.776	8459.68
558.139	8518.21
558.502	8496.29
558.865	8494.93
559.228	8651.99
559.59	8632.1
559.953	8663.52
560.316	8732.21
560.679	8735.38
561.041	8823.96
561.404	8772.21
561.767	8867.35
562.129	8877.52
562.492	8974.24
562.854	8908.48
563.217	8978.31
563.579	8976.05
563.941	9096.5
564.304	9093.56
564.666	9156.16
565.028	9175.59
565.39	9246.32
565.753	9184.86
566.115	9298.53
566.477	9284.52
566.839	9394.34
567.201	9368.13
567.563	9423.95
567.925	9437.28
568.287	9445.19
568.648	9508.46
569.01	9531.29
569.372	9533.32
569.734	9561.12
570.095	9712.3
570.457	9732.41
570.819	9658.74
571.18	9682.7
571.542	9814.67
571.903	9834.11
572.265	9885.18
572.626	9841.11
572.987	9828.23
573.349	9921.34
573.71	9893.09
574.071	10023.48
574.432	9953.2
574.794	10046.3
575.155	10077.72
575.516	9964.95
575.877	10071.39
576.238	10035.46
576.599	10151.84
576.96	10059.18
577.32	10147.77
577.681	10152.06
578.042	10215.79
578.403	10204.04
578.763	10249.91
579.124	10277.71
579.485	10301.44
579.845	10306.41
580.206	10259.41
580.566	10284.04
580.927	10291.95
581.287	10256.69
581.648	10272.96
582.008	10365.62
582.368	10336.47
582.728	10367.88
583.089	10329.91
583.449	10301.44
583.809	10331.04
584.169	10398.38
584.529	10341.44
584.889	10473.64
585.249	10387.54
585.609	10391.61
585.969	10417.82
586.329	10383.02
586.688	10391.15
587.048	10370.59
587.408	10306.18
587.768	10362.91
588.127	10378.05
588.487	10385.73
588.846	10428.89
589.206	10365.17
589.565	10375.79
589.925	10418.5
590.284	10398.38
590.643	10460.53
591.003	10445.62
591.362	10445.84
591.721	10458.95
592.08	10379.4
592.44	10498.72
592.799	10428.21
593.158	10380.08
593.517	10436.58
593.876	10499.63
594.235	10389.57
594.593	10481.77
594.952	10508.66
595.311	10437.48
595.67	10482.9
596.029	10511.83
596.387	10526.52
596.746	10526.07
597.104	10446.29
597.463	10485.84
597.822	10550.47
598.18	10485.16
598.538	10439.51
598.897	10535.56
599.255	10514.31
599.613	10670.92
599.972	10575.1
600.33	10639.51
600.688	10540.98
601.046	10586.4
601.404	10653.75
601.762	10606.06
602.12	10708.66
602.478	10740.75
602.836	10637.7
603.194	10634.54
603.552	10631.6
603.91	10594.76
604.268	10677.02
604.625	10703.46
604.983	10747.98
605.341	10655.78
605.698	10690.58
606.056	10711.37
606.413	10672.73
606.771	10688.77
607.128	10702.56
607.485	10690.13
607.843	10678.15
608.2	10728.09
608.557	10823.68
608.914	10742.1
609.272	10812.84
609.629	10746.17
609.986	10819.16
610.343	10736.45
610.7	10865.04
611.057	10837.92
611.414	10832.27
611.771	10818.03
612.127	10782.33
612.484	10847.86
612.841	10932.83
613.198	10825.72
613.554	10955.21
613.911	10967.18
614.267	10938.03
614.624	10948.2
614.98	10933.96
615.337	11070.46
615.693	11027.97
616.05	10972.83
616.406	11060.06
616.762	10993.17
617.118	11058.25
617.475	10977.35
617.831	11088.54
618.187	11051.25
618.543	11054.41
618.899	11079.95
619.255	11106.39
619.611	11096.9
619.967	11150.68
620.323	11162.66
620.678	11093.73
621.034	11061.64
621.39	11110.68
621.746	11038.14
622.101	11151.36
622.457	11054.64
622.812	11095.32
623.168	11106.84
623.523	11141.42
623.879	11094.64
624.234	11075.2
624.589	11085.15
624.945	11132.15
625.3	11184.13
625.655	11085.15
626.01	11098.93
626.365	11093.96
626.72	11158.82
627.075	11092.38
627.43	11039.5
627.785	11042.89
628.14	11113.85
628.495	11125.82
628.85	11141.19
629.205	11033.17
629.559	11139.83
629.914	11108.42
630.269	11110.46
630.623	11076.79
630.978	11030.23
631.332	11130.34
631.687	11032.04
632.041	11026.39
632.396	11095.77
632.75	11003.34
633.104	11030.91
633.459	10973.96
633.813	11041.53
634.167	10965.6
634.521	10932.38
634.875	10930.8
635.229	10885.6
635.583	10864.36
635.937	10874.3
636.291	10888.99
636.645	10817.36
636.999	10799.73
637.352	10757.92
637.706	10797.02
638.06	10746.62
638.413	10762.67
638.767	10761.99
639.121	10701.88
639.474	10703.69
639.828	10710.24
640.181	10734.65
640.534	10643.8
640.888	10634.99
641.241	10621.66
641.594	10655.1
641.947	10724.25
642.301	10558.61
642.654	10611.94
643.007	10607.42
643.36	10632.95
643.713	10595.67
644.066	10612.16
644.419	10489
644.771	10523.81
645.124	10501.21
645.477	10414.88
645.83	10336.92
646.182	10217.6
646.535	10241.1
646.888	10233.64
647.24	10169.24
647.593	10204.04
647.945	10225.28
648.298	10106.42
648.65	10115
649.002	10112.52
649.355	10060.09
649.707	10121.33
650.059	10152.52
650.411	10308.9
650.763	10336.92
651.115	10405.16
651.467	10391.83
651.819	10355.45
652.171	10420.53
652.523	10357.03
652.875	10293.98
653.227	10300.99
653.578	10340.99
653.93	10255.56
654.282	10272.29
654.633	10261.89
654.985	10235.45
655.337	10239.52
655.688	10256.47
656.039	10258.05
656.391	10150.03
656.742	10191.38
657.094	10237.49
657.445	10264.83
657.796	10138.5
658.147	10190.93
658.498	10203.81
658.849	10194.77
659.2	10177.37
659.551	10140.99
659.902	10217.82
660.253	10178.96
660.604	10181.67
660.955	10104.61
661.306	10178.73
661.656	10116.58
662.007	10086.08
662.358	10053.76
662.708	10035
663.059	10166.98
663.409	10028
663.76	10139.18
664.11	10101.22
664.461	10102.57
664.811	10091.95
665.161	10093.08
665.511	10047.89
665.862	10035.23
666.212	10067.32
666.562	10066.64
666.912	10035.68
667.262	10070.48
667.612	10037.49
667.962	10045.85
668.312	10037.49
668.662	10102.8
669.011	10065.74
669.361	9966.98
669.711	10034.33
670.06	9952.75
670.41	9964.95
670.76	9920.88
671.109	9966.98
671.459	9999.3
671.808	9972.63
672.157	9941.22
672.507	9859.64
672.856	9920.43
673.205	9898.74
673.554	9918.85
673.904	9863.94
674.253	9890.38
674.602	9889.7
674.951	9780.32
675.3	9704.62
675.649	9859.64
675.998	9808.8
676.346	9899.41
676.695	9957.04
677.044	9884.27
677.393	9874.56
677.741	9845.4
678.09	9824.84
678.438	9758.18
678.787	9841.11
679.135	9806.54
679.484	9680.66
679.832	9713.43
680.181	9717.05
680.529	9606.09
680.877	9716.59
681.225	9689.93
681.573	9757.27
681.922	9610.16
682.27	9648.12
682.618	9729.7
682.966	9550.72
683.314	9604.73
683.661	9628.01
684.009	9566.54
684.357	9567.22
684.705	9543.94
685.053	9565.19
685.4	9489.26
685.748	9478.63
686.095	9473.21
686.443	9454.23
686.79	9377.39
687.138	9412.2
687.485	9381.46
687.832	9318.87
688.18	9366.77
688.527	9262.82
688.874	9360.45
689.221	9348.47
689.568	9311.41
689.915	9293.33
690.262	9229.83
690.609	9225.08
690.956	9212.2
691.303	9164.74
691.65	9136.27
691.997	9129.49
692.344	9082.49
692.69	9092.88
693.037	9034.35
693.383	9027.57
693.73	9079.55
694.077	9074.13
694.423	8979.44
694.769	8932.43
695.116	8997.52
695.462	8910.06
695.808	8897.41
696.155	8926.79
696.501	8792.33
696.847	8852.66
697.193	8777.18
697.539	8733.8
697.885	8673.68
698.231	8765.66
698.577	8671.42
698.923	8668.49
699.269	8695.83
699.614	8579.9
699.96	8645.44
700.306	8578.09
700.651	8494.25
700.997	8492.9
701.342	8454.48
701.688	8461.49
702.033	8485.67
702.379	8496.06
702.724	8442.73
703.069	8442.28
703.415	8397.53
703.76	8397.08
704.105	8418.78
704.45	8352.11
704.795	8287.48
705.14	8332.45
705.485	8317.76
705.83	8227.14
706.175	8253.13
706.52	8243.41
706.865	8195.96
707.209	8136.3
707.554	8128.39
707.899	8093.81
708.243	8064.43
708.588	8094.26
708.932	8039.12
709.277	8075.28
709.621	8061.95
709.966	7980.14
710.31	8038.22
710.654	7939.47
710.998	7984.66
711.342	7946.25
711.687	7982.4
712.031	7909.41
712.375	7920.26
712.719	7880.26
713.063	7884.78
713.407	7875.06
713.75	7788.28
714.094	7785.12
714.438	7795.74
714.782	7784.22
715.125	7710.09
715.469	7745.12
715.812	7683.65
716.156	7654.05
716.499	7685.01
716.843	7646.59
717.186	7630.55
717.53	7725.46
717.873	7652.47
718.216	7604.11
718.559	7626.71
718.902	7524.34
719.246	7585.13
719.589	7607.95
719.932	7578.57
720.275	7593.26
720.617	7532.92
720.96	7564.34
721.303	7553.26
721.646	7582.64
721.989	7512.13
722.331	7458.58
722.674	7402.53
723.016	7457.22
723.359	7459.25
723.701	7511.46
724.044	7425.58
724.386	7354.62
724.729	7389.88
725.071	7403.66
725.413	7340.61
725.755	7351.23
726.097	7245.93
726.439	7244.57
726.782	7233.95
727.124	7298.35
727.465	7224.46
727.807	7193.27
728.149	7224
728.491	7248.64
728.833	7209.32
729.175	7185.59
729.516	7172.25
729.858	7175.87
730.199	7184.91
730.541	7152.37
730.882	7097.68
731.224	7118.7
731.565	7068.53
731.906	7118.02
732.248	7101.52
732.589	7049.77
732.93	7098.81
733.271	7004.58
733.612	7079.83
733.953	7025.82
734.294	7059.26
734.635	7038.25
734.976	7000.96
735.317	6945.14
735.658	6968.42
735.999	6914.63
736.339	6969.32
736.68	6959.61
737.021	6970.45
737.361	6873.73
737.702	6929.1
738.042	6931.13
738.383	6910.34
738.723	6898.82
739.063	6866.73
739.404	6892.26
739.744	6895.43
740.084	6815.65
740.424	6849.1
740.764	6871.25
741.104	6817.46
741.444	6826.95
741.784	6802.77
742.124	6832.6
742.464	6798.25
742.804	6776.33
743.143	6815.65
743.483	6744.02
743.823	6778.14
744.162	6734.3
744.502	6704.02
744.841	6716.67
745.181	6730.23
745.52	6697.92
745.86	6709.67
746.199	6648.65
746.538	6626.73
746.877	6683.45
747.216	6657.01
747.556	6618.82
747.895	6594.19
748.234	6593.74
748.573	6548.32
748.911	6546.06
749.25	6568.88
749.589	6542.67
749.928	6513.29
750.267	6550.35
750.605	6517.81
750.944	6515.32
751.283	6462.9
751.621	6522.55
751.96	6504.7
752.298	6493.63
752.636	6504.48
752.975	6407.08
753.313	6406.17
753.651	6433.29
753.989	6351.49
754.327	6373.41
754.666	6290.02
755.004	6325.27
755.342	6337.02
755.679	6307.87
756.017	6282.11
756.355	6283.24
756.693	6230.58
757.031	6298.61
757.368	6235.33
757.706	6233.3
758.044	6204.37
758.381	6185.61
758.719	6226.74
759.056	6167.99
759.394	6199.17
759.731	6119.85
760.068	6099.06
760.405	6061.1
760.743	6099.74
761.08	6105.16
761.417	5996.92
761.754	6032.85
762.091	6003.7
762.428	5954.89
762.765	5924.38
763.102	5995.34
763.438	6010.25
763.775	5960.76
764.112	5886.19
764.449	5899.07
764.785	5872.63
765.122	5842.35
