Data from black_plastic_tray_FLMS001491_032.txt Node
Date: Tue Feb 07 10:39:41 GMT 2017
User: dcchb
Spectrometer: FLMS00149
Trigger mode: 0
Integration Time (sec): 2.000000E-2
Scans to average: 10
Electric dark correction enabled: true
Nonlinearity correction enabled: false
Boxcar width: 0
XAxis mode: Wavelengths
Number of Pixels in Spectrum: 2048
>>>>>Begin Spectral Data<<<<<
341.393	-26.47
341.776	-26.47
342.16	-26.47
342.543	-52
342.927	-76.18
343.31	-66.02
343.693	-75.05
344.077	-44.55
344.46	-66.24
344.843	-49.74
345.226	-40.93
345.61	-25.79
345.993	-1.61
346.376	-24.21
346.759	19.63
347.142	13.98
347.525	47.43
347.908	49.91
348.291	75.22
348.674	98.95
349.057	89.01
349.44	126.07
349.823	136.24
350.206	168.33
350.588	203.13
350.971	208.33
351.354	220.98
351.737	235.67
352.119	233.86
352.502	251.04
352.884	271.6
353.267	277.7
353.65	279.51
354.032	285.16
354.414	305.05
354.797	290.36
355.179	300.08
355.562	315.9
355.944	322.22
356.326	321.55
356.709	312.28
357.091	327.42
357.473	337.14
357.855	338.04
358.238	350.7
358.62	353.41
359.002	363.8
359.384	331.71
359.766	343.01
360.148	318.38
360.53	328.55
360.912	317.25
361.294	332.62
361.676	341.43
362.057	335.1
362.439	333.3
362.821	336.23
363.203	333.75
363.584	316.57
363.966	337.36
364.348	327.65
364.729	343.92
365.111	331.04
365.493	319.51
365.874	331.26
366.256	314.77
366.637	315.44
367.019	316.57
367.4	319.29
367.781	315.22
368.163	326.97
368.544	305.05
368.925	304.37
369.306	312.51
369.688	312.73
370.069	329.91
370.45	335.78
370.831	329.91
371.212	322.22
371.593	315.22
371.974	339.62
372.355	345.27
372.736	321.77
373.117	314.99
373.498	327.87
373.879	330.58
374.26	331.04
374.641	326.06
375.021	338.72
375.402	330.36
375.783	345.95
376.163	337.14
376.544	344.14
376.925	351.15
377.305	319.74
377.686	341.88
378.066	340.98
378.447	329.91
378.827	345.27
379.208	340.98
379.588	348.66
379.968	345.73
380.349	362.9
380.729	355.44
381.109	339.4
381.489	360.19
381.87	357.48
382.25	360.19
382.63	356.57
383.01	373.97
383.39	369.45
383.77	349.79
384.15	355.89
384.53	387.31
384.91	386.85
385.29	394.99
385.67	388.66
386.049	383.01
386.429	384.59
386.809	401.32
387.189	383.69
387.568	397.48
387.948	387.76
388.328	386.18
388.707	398.15
389.087	399.74
389.466	411.49
389.846	409.68
390.225	404.48
390.605	425.5
390.984	410.13
391.363	419.4
391.743	424.82
392.122	418.72
392.501	415.1
392.881	441.54
393.26	395.67
393.639	456.46
394.018	444.03
394.397	425.27
394.776	441.77
395.155	438.6
395.534	441.54
395.913	468.66
396.292	460.3
396.671	439.73
397.05	438.38
397.429	455.55
397.808	464.37
398.186	454.2
398.565	464.59
398.944	467.98
399.323	473.86
399.701	472.05
400.08	470.92
400.458	499.62
400.837	502.56
401.215	479.28
401.594	481.99
401.972	496.68
402.351	500.3
402.729	487.64
403.107	476.8
403.486	502.33
403.864	517.7
404.242	518.83
404.62	522.22
404.999	510.47
405.377	547.53
405.755	520.64
406.133	532.39
406.511	539.84
406.889	556.12
407.267	520.86
407.645	548.66
408.023	570.35
408.401	564.48
408.779	560.18
409.156	573.06
409.534	590.69
409.912	566.96
410.29	578.26
410.667	600.63
411.045	630.92
411.422	613.06
411.8	595.21
412.178	610.58
412.555	649.22
412.933	629.79
413.31	641.99
413.687	635.44
414.065	631.82
414.442	642.21
414.819	676.34
415.197	657.58
415.574	652.16
415.951	676.11
416.328	663.01
416.705	689.22
417.082	680.63
417.46	708.88
417.837	712.5
418.214	685.38
418.591	694.64
418.967	718.37
419.344	718.6
419.721	714.76
420.098	736
420.475	741.42
420.852	762.21
421.228	754.3
421.605	725.83
421.982	759.73
422.358	768.77
422.735	758.82
423.111	762.44
423.488	779.39
423.864	768.54
424.241	803.57
424.617	830.01
424.994	801.53
425.37	830.46
425.746	809.44
426.123	837.01
426.499	844.24
426.875	855.54
427.251	859.84
427.627	874.98
428.003	893.06
428.379	868.42
428.756	889.44
429.132	911.81
429.507	890.8
429.883	925.6
430.259	917.91
430.635	950.23
431.011	923.11
431.387	972.83
431.763	957.69
432.138	974.41
432.514	1014.86
432.89	975.54
433.265	994.07
433.641	1031.81
434.016	1029.1
434.392	1042.66
434.767	1030.45
435.143	1041.53
435.518	1088.76
435.894	1079.94
436.269	1082.2
436.644	1106.61
437.02	1123.33
437.395	1110.9
437.77	1141.64
438.145	1131.47
438.52	1151.58
438.895	1161.52
439.271	1170.56
439.646	1168.75
440.021	1205.82
440.395	1194.06
440.77	1228.64
441.145	1207.62
441.52	1229.77
441.895	1207.17
442.27	1219.83
442.645	1244.23
443.019	1253.5
443.394	1263.22
443.769	1256.21
444.143	1253.72
444.518	1268.41
444.892	1251.01
445.267	1271.58
445.641	1292.14
446.016	1291.69
446.39	1303.21
446.764	1291.01
447.139	1298.69
447.513	1348.18
447.887	1353.38
448.262	1341.18
448.636	1394.06
449.01	1363.55
449.384	1366.94
449.758	1399.48
450.132	1392.03
450.506	1413.95
450.88	1404.91
451.254	1392.03
451.628	1451.91
452.002	1464.79
452.376	1485.13
452.75	1471.12
453.123	1480.16
453.497	1552.02
453.871	1509.54
454.244	1563.09
454.618	1580.72
454.992	1579.59
455.365	1578.69
455.739	1632.02
456.112	1613.26
456.486	1649.42
456.859	1661.4
457.232	1688.06
457.606	1695.97
457.979	1736.65
458.352	1763.77
458.725	1767.83
459.099	1759.7
459.472	1814.39
459.845	1831.11
460.218	1863.88
460.591	1835.63
460.964	1839.47
461.337	1932.35
461.71	1927.83
462.083	1970.32
462.456	1966.47
462.829	1979.58
463.201	1993.37
463.574	2022.52
463.947	2031.56
464.32	2044.66
464.692	2091.67
465.065	2105
465.438	2118.79
465.81	2151.1
466.183	2179.35
466.555	2194.72
466.928	2232.46
467.3	2246.47
467.672	2288.95
468.045	2360.36
468.417	2330.31
468.789	2336.41
469.161	2402.17
469.534	2375.95
469.906	2435.84
470.278	2512
470.65	2525.1
471.022	2577.08
471.394	2601.71
471.766	2572.79
472.138	2594.93
472.51	2671.99
472.882	2740.46
473.253	2747.47
473.625	2776.17
473.997	2862.72
474.369	2883.06
474.74	2894.13
475.112	2931.19
475.484	3001.02
475.855	3026.78
476.227	3079.44
476.598	3153.34
476.97	3153.56
477.341	3227.01
477.713	3272.43
478.084	3328.47
478.455	3360.56
478.827	3435.14
479.198	3485.53
479.569	3508.13
479.94	3597.17
480.311	3629.25
480.682	3706.09
481.053	3787.22
481.424	3823.15
481.795	3887.33
482.166	3929.81
482.537	4019.08
482.908	4066.08
483.279	4064.05
483.65	4182.23
484.021	4237.15
484.391	4297.49
484.762	4311.04
485.133	4362.79
485.503	4432.4
485.874	4497.03
486.244	4542
486.615	4664.71
486.985	4689.34
487.356	4744.71
487.726	4771.37
488.097	4911.48
488.467	4923.46
488.837	5003
489.207	5044.36
489.578	5118.71
489.948	5177.91
490.318	5219.72
490.688	5259.95
491.058	5343.56
491.428	5404.35
491.798	5457.23
492.168	5550.56
492.538	5598.47
492.908	5636.21
493.278	5756.43
493.648	5718.24
494.017	5828.52
494.387	5853.83
494.757	5868.97
495.126	5968.63
495.496	6012.92
495.866	6019.93
496.235	6133.14
496.605	6166.14
496.974	6201.39
497.344	6243.65
497.713	6232.35
498.082	6361.61
498.452	6416.75
498.821	6355.51
499.19	6430.99
499.559	6538.1
499.928	6523.64
500.298	6623.75
500.667	6695.39
501.036	6698.78
501.405	6722.51
501.774	6784.65
502.143	6811.09
502.512	6779
502.88	6900.58
503.249	6899.45
503.618	6941.94
503.987	6979.45
504.356	7066.68
504.724	7076.17
505.093	7146.9
505.462	7188.48
505.83	7197.97
506.199	7265.32
506.567	7364.98
506.936	7322.27
507.304	7467.35
507.672	7517.06
508.041	7541.69
508.409	7504.86
508.777	7684.06
509.145	7702.37
509.514	7730.39
509.882	7816.26
510.25	7802.25
510.618	7870.73
510.986	7890.84
511.354	8010.16
511.722	8124.5
512.09	8141.68
512.458	8139.64
512.826	8125.63
513.193	8233.88
513.561	8263.71
513.929	8335.57
514.297	8422.58
514.664	8473.87
515.032	8484.04
515.4	8582.12
515.767	8605.85
516.135	8704.38
516.502	8715.45
516.869	8834.09
517.237	8833.64
517.604	8794.09
517.972	8980.07
518.339	9029.56
518.706	9093.52
519.073	9122.22
519.44	9115.89
519.808	9233.18
520.175	9381.19
520.542	9478.59
520.909	9432.94
521.276	9467.07
521.643	9539.61
522.009	9686.5
522.376	9682.43
522.743	9735.99
523.11	9906.6
523.477	10060.95
523.843	10070.44
524.21	10104.56
524.577	10247.61
524.943	10278.8
525.31	10352.02
525.676	10484.89
526.043	10422.07
526.409	10548.85
526.776	10642.86
527.142	10728.28
527.508	10753.81
527.874	10786.35
528.241	10873.58
528.607	10932.57
528.973	10996.07
529.339	11040.36
529.705	11135.72
530.071	11215.72
530.437	11282.84
530.803	11370.97
531.169	11421.37
531.535	11475.38
531.901	11544.75
532.267	11622.94
532.632	11564.64
532.998	11662.72
533.364	11702.26
533.73	11812.32
534.095	11895.48
534.461	11895.25
534.826	11959.43
535.192	12052.99
535.557	12056.15
535.923	12129.82
536.288	12234.23
536.653	12210.27
537.019	12173.44
537.384	12370.95
537.749	12375.24
538.114	12380.44
538.479	12422.7
538.845	12561.9
539.21	12553.54
539.575	12610.49
539.94	12589.02
540.305	12742.46
540.67	12612.97
541.034	12722.12
541.399	12772.52
541.764	12839.18
542.129	12854.55
542.494	12921.89
542.858	12869.69
543.223	12919.86
543.587	12983.36
543.952	13022.68
544.316	13063.81
544.681	13036.69
545.045	13220.87
545.41	13242.56
545.774	13261.77
546.138	13253.63
546.503	13331.15
546.867	13314.65
547.231	13521.2
547.595	13586.06
547.959	13565.94
548.324	13562.33
548.688	13581.54
549.052	13673.28
549.416	13661.99
549.779	13657.92
550.143	13793.28
550.507	13801.19
550.871	13915.54
551.235	13910.57
551.599	14021.07
551.962	14021.3
552.326	14061.97
552.689	14186.04
553.053	14117.11
553.417	14168.64
553.78	14294.51
554.143	14307.39
554.507	14433.26
554.87	14477.11
555.234	14649.76
555.597	14542.19
555.96	14576.99
556.323	14700.83
556.686	14656.54
557.05	14834.84
557.413	14786.02
557.776	14849.98
558.139	14934.72
558.502	15020.37
558.865	15061.5
559.228	15122.29
559.59	15260.14
559.953	15293.81
560.316	15445.67
560.679	15390.98
561.041	15530.64
561.404	15463.75
561.767	15574.93
562.129	15553.69
562.492	15750.52
562.854	15826.22
563.217	15760.91
563.579	15909.84
563.941	15989.38
564.304	16103.73
564.666	16123.62
565.028	16116.61
565.39	16274.35
565.753	16258.75
566.115	16333.33
566.477	16528.35
566.839	16491.06
567.201	16503.27
567.563	16531.97
567.925	16673.66
568.287	16743.03
568.648	16688.35
569.01	16809.25
569.372	16924.05
569.734	16902.8
570.095	17009.92
570.457	17177.37
570.819	17201.1
571.18	17204.94
571.542	17387.54
571.903	17324.94
572.265	17354.54
572.626	17480.42
572.987	17478.38
573.349	17471.6
573.71	17548.21
574.071	17625.27
574.432	17632.73
574.794	17710.92
575.155	17811.25
575.516	17616.01
575.877	17881.31
576.238	17881.99
576.599	17927.86
576.96	17989.78
577.32	17821.42
577.681	18034.75
578.042	18032.27
578.403	18098.48
578.763	18126.73
579.124	18220.51
579.485	18233.84
579.845	18253.73
580.206	18165.6
580.566	18131.92
580.927	18172.6
581.287	18183.22
581.648	18244.24
582.008	18247.85
582.368	18233.16
582.728	18335.53
583.089	18290.11
583.449	18301.19
583.809	18261.41
584.169	18188.42
584.529	18314.29
584.889	18430.9
585.249	18273.16
585.609	18202.43
585.969	18340.51
586.329	18432.71
586.688	18368.3
587.048	18277.91
587.408	18276.55
587.768	18263.67
588.127	18283.33
588.487	18293.73
588.846	18448.75
589.206	18294.41
589.565	18240.4
589.925	18337.12
590.284	18293.73
590.643	18298.47
591.003	18435.19
591.362	18420.28
591.721	18343.22
592.08	18314.74
592.44	18487.85
592.799	18450.33
593.158	18423.89
593.517	18388.64
593.876	18467.06
594.235	18490.11
594.593	18472.48
594.952	18426.15
595.311	18314.07
595.67	18462.31
596.029	18578.24
596.387	18541.18
596.746	18604.23
597.104	18521.07
597.463	18498.69
597.822	18570.56
598.18	18418.47
598.538	18398.13
598.897	18627.05
599.255	18480.62
599.613	18691.68
599.972	18537.34
600.33	18578.47
600.688	18624.79
601.046	18742.98
601.404	18691.91
601.762	18601.74
602.12	18718.12
602.478	18736.65
602.836	18699.14
603.194	18628.18
603.552	18711.34
603.91	18710.89
604.268	18736.2
604.625	18603.1
604.983	18783.21
605.341	18666.37
605.698	18840.15
606.056	18731.46
606.413	18782.75
606.771	18832.24
607.128	18803.55
607.485	18732.59
607.843	18810.32
608.2	18869.98
608.557	18985.91
608.914	18935.75
609.272	18942.52
609.629	19018.45
609.986	18994.5
610.343	18971
610.7	19086.48
611.057	19036.08
611.414	19186.13
611.771	19234.49
612.127	19211.9
612.484	19159.69
612.841	19216.87
613.198	19288.96
613.554	19223.87
613.911	19330.08
614.267	19302.52
614.624	19180.94
614.98	19188.17
615.337	19269.75
615.693	19336.41
616.05	19323.08
616.406	19412.34
616.762	19228.39
617.118	19337.32
617.475	19377.32
617.831	19456.41
618.187	19476.75
618.543	19412.79
618.899	19675.16
619.255	19553.58
619.611	19650.98
619.967	19664.77
620.323	19671.77
620.678	19529.18
621.034	19468.84
621.39	19479.01
621.746	19514.03
622.101	19789.06
622.457	19495.73
622.812	19623.18
623.168	19648.27
623.523	19643.98
623.879	19716.06
624.234	19531.21
624.589	19614.15
624.945	19665.9
625.3	19619.79
625.655	19584.54
626.01	19547.03
626.365	19599.91
626.72	19573.02
627.075	19637.2
627.43	19533.7
627.785	19535.05
628.14	19564.2
628.495	19595.84
628.85	19642.39
629.205	19480.59
629.559	19569.17
629.914	19421.83
630.269	19530.53
630.623	19498.67
630.978	19444.88
631.332	19621.83
631.687	19521.27
632.041	19421.61
632.396	19544.54
632.75	19374.6
633.104	19450.99
633.459	19348.62
633.813	19323.98
634.167	19297.77
634.521	19238.79
634.875	19325.11
635.229	19270.43
635.583	19199.24
635.937	19148.39
636.291	19105.01
636.645	19138
636.999	18987.72
637.352	19046.48
637.706	18919.47
638.06	19023.65
638.413	18939.36
638.767	18931.23
639.121	18964.67
639.474	18915.41
639.828	18904.33
640.181	18895.07
640.534	18873.6
640.888	18825.47
641.241	18700.05
641.594	18712.47
641.947	18711.12
642.301	18749.54
642.654	18772.81
643.007	18638.13
643.36	18621.4
643.713	18609.43
644.066	18702.53
644.419	18645.36
644.771	18476.77
645.124	18399.49
645.477	18286.5
645.83	18107.97
646.182	18047.18
646.535	17925.6
646.888	18072.26
647.24	17823.91
647.593	17927.18
647.945	17857.81
648.298	17764.48
648.65	17693.07
649.002	17639.28
649.355	17835.43
649.707	17710.01
650.059	17910.01
650.411	18079.04
650.763	18060.97
651.115	18239.94
651.467	18228.19
651.819	18153.62
652.171	18171.92
652.523	18148.2
652.875	18121.53
653.227	18054.86
653.578	18117.69
653.93	18141.42
654.282	17996.79
654.633	18022.77
654.985	17942.32
655.337	18015.32
655.688	18009.44
656.039	17975.09
656.391	17773.29
656.742	17849.45
657.094	17836.11
657.445	17911.82
657.796	17939.16
658.147	17846.51
658.498	17920.4
658.849	17968.09
659.2	17882.21
659.551	17837.47
659.902	17898.71
660.253	17876.34
660.604	17801.76
660.955	17827.98
661.306	17708.43
661.656	17585.72
662.007	17632.05
662.358	17696
662.708	17680.86
663.059	17700.52
663.409	17593.18
663.76	17692.61
664.11	17744.59
664.461	17758.37
664.811	17748.21
665.161	17630.69
665.511	17682.67
665.862	17575.78
666.212	17647.64
666.562	17653.97
666.912	17592.96
667.262	17542.56
667.612	17527.65
667.962	17501.66
668.312	17443.81
668.662	17454.43
669.011	17386.18
669.361	17430.25
669.711	17392.06
670.06	17391.6
670.41	17364.49
670.76	17320.65
671.109	17330.14
671.459	17270.25
671.808	17254.21
672.157	17355.9
672.507	17272.96
672.856	17317.71
673.205	17253.76
673.554	17251.5
673.904	17204.04
674.253	17331.49
674.602	17241.78
674.951	16906.19
675.3	16926.98
675.649	17147.77
675.998	17136.7
676.346	17167.66
676.695	17343.7
677.044	17061.44
677.393	17267.09
677.741	17167.66
678.09	17070.26
678.438	17017.15
678.787	17046.53
679.135	17114.1
679.484	16946.19
679.832	16997.72
680.181	16915.46
680.529	17020.99
680.877	16923.59
681.225	16856.93
681.573	16987.55
681.922	16844.5
682.27	16760.21
682.618	16784.39
682.966	16799.3
683.314	16713.43
683.661	16723.37
684.009	16695.58
684.357	16644.96
684.705	16536.49
685.053	16645.64
685.4	16631.85
685.748	16524.28
686.095	16435.02
686.443	16382.59
686.79	16292.2
687.138	16274.57
687.485	16472.98
687.832	16247.68
688.18	16328.58
688.527	16231.18
688.874	16199.77
689.221	16235.25
689.568	16124.97
689.915	16104.18
690.262	16152.32
690.609	16013.34
690.956	16018.08
691.303	15875.49
691.65	15819.22
691.997	15770.4
692.344	15703.06
692.69	15744.19
693.037	15782.38
693.383	15601.14
693.73	15704.64
694.077	15673.23
694.423	15622.61
694.769	15607.92
695.116	15542.39
695.462	15444.54
695.808	15374.48
696.155	15392.79
696.501	15363.86
696.847	15347.82
697.193	15207.93
697.539	15324.31
697.885	15112.79
698.231	15147.37
698.577	14993.02
698.923	15077.54
699.269	14999.8
699.614	14989.18
699.96	14957.32
700.306	14909.64
700.651	14802.29
700.997	14812.24
701.342	14760.26
701.688	14703.31
702.033	14686.14
702.379	14700.83
702.724	14701.96
703.069	14804.33
703.415	14569.08
703.76	14585.12
704.105	14584.9
704.45	14464.9
704.795	14395.75
705.14	14397.79
705.485	14355.53
705.83	14238.02
706.175	14203.21
706.52	14270.56
706.865	14177.68
707.209	14126.61
707.554	14096.1
707.899	14104.01
708.243	14061.97
708.588	14028.76
708.932	13989.21
709.277	13977.68
709.621	14002.09
709.966	13908.76
710.31	13977.23
710.654	13839.61
710.998	13822.89
711.342	13847.29
711.687	13736.56
712.031	13715.32
712.375	13626.96
712.719	13683.45
713.063	13531.59
713.407	13623.79
713.75	13536.79
714.094	13506.28
714.438	13497.92
714.782	13482.1
715.125	13423.12
715.469	13497.7
715.812	13355.78
716.156	13218.83
716.499	13257.7
716.843	13293.18
717.186	13174.09
717.53	13279.4
717.873	13304.71
718.216	13253.41
718.559	13200.75
718.902	13058.61
719.246	13143.35
719.589	13145.61
719.932	13158.5
720.275	13079.85
720.617	13076.24
720.96	12966.18
721.303	13064.04
721.646	12996.47
721.989	13036.92
722.331	13073.3
722.674	12888.9
723.016	12870.59
723.359	12864.27
723.701	12878.05
724.044	12836.92
724.386	12744.95
724.729	12751.5
725.071	12751.5
725.413	12732.29
725.755	12622.01
726.097	12618.17
726.439	12672.63
726.782	12598.51
727.124	12622.24
727.465	12497.95
727.807	12577.27
728.149	12646.87
728.491	12512.64
728.833	12474.9
729.175	12476.03
729.516	12436.71
729.858	12400.55
730.199	12403.49
730.541	12402.13
730.882	12451.62
731.224	12440.1
731.565	12318.29
731.906	12322.13
732.248	12318.07
732.589	12221.35
732.93	12286.43
733.271	12210.72
733.612	12225.86
733.953	12211.85
734.294	12195.58
734.635	12196.94
734.976	12121.23
735.317	12187.9
735.658	12118.07
735.999	12080.11
736.339	12061.58
736.68	12116.94
737.021	12093.89
737.361	11976.15
737.702	12059.77
738.042	11923.27
738.383	11968.7
738.723	11959.66
739.063	11850.96
739.404	11965.31
739.744	11901.35
740.084	11809.83
740.424	11873.78
740.764	11709.49
741.104	11801.92
741.444	11757.18
741.784	11718.99
742.124	11705.2
742.464	11706.33
742.804	11699.78
743.143	11651.64
743.483	11654.58
743.823	11625.88
744.162	11715.37
744.502	11647.58
744.841	11655.94
745.181	11681.92
745.52	11613.23
745.86	11528.71
746.199	11574.81
746.538	11557.41
746.877	11479.9
747.216	11434.93
747.556	11370.29
747.895	11410.29
748.234	11407.13
748.573	11419.33
748.911	11342.27
749.25	11325.55
749.589	11343.18
749.928	11294.14
750.267	11327.58
750.605	11238.09
750.944	11242.61
751.283	11210.07
751.621	11249.62
751.96	11159.9
752.298	11217.76
752.636	11129.4
752.975	11056.63
753.313	11033.35
753.651	11110.87
753.989	11039.23
754.327	10920.59
754.666	10901.83
755.004	10973.92
755.342	10857.31
755.679	10806.92
756.017	10822.74
