Data from black_plastic_tray_FLMS001491_048.txt Node
Date: Tue Feb 07 10:39:57 GMT 2017
User: dcchb
Spectrometer: FLMS00149
Trigger mode: 0
Integration Time (sec): 2.000000E-2
Scans to average: 10
Electric dark correction enabled: true
Nonlinearity correction enabled: false
Boxcar width: 0
XAxis mode: Wavelengths
Number of Pixels in Spectrum: 2048
>>>>>Begin Spectral Data<<<<<
341.393	-13.14
341.776	-13.14
342.16	-13.14
342.543	-78.44
342.927	-50.2
343.31	-81.38
343.693	-66.02
344.077	-56.52
344.46	-69.63
344.843	-52.46
345.226	-60.14
345.61	-36.41
345.993	-10.2
346.376	-4.32
346.759	29.12
347.142	21.21
347.525	37.94
347.908	64.15
348.291	75.22
348.674	91.27
349.057	118.16
349.44	129.69
349.823	149.12
350.206	172.4
350.588	202.9
350.971	192.28
351.354	209.23
351.737	235.22
352.119	232.96
352.502	244.49
352.884	267.54
353.267	271.15
353.65	291.49
354.032	297.59
354.414	306.18
354.797	292.62
355.179	314.09
355.562	313.41
355.944	310.7
356.326	315.67
356.709	336.46
357.091	313.64
357.473	347.76
357.855	334.2
358.238	326.29
358.62	344.37
359.002	331.71
359.384	347.31
359.766	339.62
360.148	340.08
360.53	332.17
360.912	330.36
361.294	334.2
361.676	339.17
362.057	326.74
362.439	308.44
362.821	341.88
363.203	323.35
363.584	326.06
363.966	336.23
364.348	317.25
364.729	328.78
365.111	306.86
365.493	332.84
365.874	323.58
366.256	327.65
366.637	335.33
367.019	340.53
367.4	326.06
367.781	327.87
368.163	322.45
368.544	322.9
368.925	318.83
369.306	337.36
369.688	328.55
370.069	335.56
370.45	329.45
370.831	321.77
371.212	338.04
371.593	341.88
371.974	335.78
372.355	336.01
372.736	340.53
373.117	348.44
373.498	335.33
373.879	334.65
374.26	316.57
374.641	346.18
375.021	341.88
375.402	333.3
375.783	334.65
376.163	351.83
376.544	356.12
376.925	360.19
377.305	320.42
377.686	348.44
378.066	343.69
378.447	346.63
378.827	373.07
379.208	367.42
379.588	356.35
379.968	361.77
380.349	348.89
380.729	376.69
381.109	354.31
381.489	351.6
381.87	379.85
382.25	384.14
382.63	366.74
383.01	372.39
383.39	381.88
383.77	396.8
384.15	394.76
384.53	388.66
384.91	402.45
385.29	402
385.67	391.6
386.049	393.63
386.429	410.13
386.809	409
387.189	399.74
387.568	414.2
387.948	430.47
388.328	403.58
388.707	421.2
389.087	401.77
389.466	409.68
389.846	427.98
390.225	434.31
390.605	449.23
390.984	441.32
391.363	445.38
391.743	449.68
392.122	440.86
392.501	436.34
392.881	439.73
393.26	447.64
393.639	462.78
394.018	463.01
394.397	478.83
394.776	468.66
395.155	458.94
395.534	477.02
395.913	475.89
396.292	472.95
396.671	476.12
397.05	489.68
397.429	515.89
397.808	470.24
398.186	508.88
398.565	494.87
398.944	475.67
399.323	480.64
399.701	480.19
400.08	488.55
400.458	520.64
400.837	498.49
401.215	511.14
401.594	519.28
401.972	531.26
402.351	523.57
402.729	527.42
403.107	545.49
403.486	560.86
403.864	535.55
404.242	529.68
404.62	549.56
404.999	575.78
405.377	590.01
405.755	552.73
406.133	588.88
406.511	534.42
406.889	578.26
407.267	583.01
407.645	578.71
408.023	587.75
408.401	604.48
408.779	616.68
409.156	622.55
409.534	636.34
409.912	628.66
410.29	628.88
410.667	651.93
411.045	629.11
411.422	670.91
411.8	682.21
412.178	681.08
412.555	680.63
412.933	680.18
413.31	682.44
413.687	694.87
414.065	697.81
414.442	696
414.819	724.92
415.197	696.68
415.574	750.69
415.951	727.64
416.328	763.79
416.705	729.22
417.082	728.54
417.46	745.26
417.837	763.12
418.214	769.9
418.591	791.82
418.967	772.15
419.344	781.42
419.721	807.18
420.098	801.31
420.475	795.88
420.852	816.9
421.228	811.02
421.605	836.56
421.982	833.62
422.358	850.57
422.735	835.2
423.111	831.36
423.488	872.04
423.864	873.62
424.241	868.2
424.617	874.75
424.994	889.21
425.37	874.07
425.746	912.49
426.123	906.61
426.499	914.07
426.875	925.15
427.251	958.14
427.627	959.27
428.003	976.67
428.379	975.99
428.756	1004.24
429.132	981.41
429.507	1033.39
429.883	1029.1
430.259	1016.89
430.635	1036.55
431.011	1057.57
431.387	1048.08
431.763	1079.49
432.138	1084.69
432.514	1104.35
432.89	1112.71
433.265	1135.08
433.641	1137.57
434.016	1137.34
434.392	1151.81
434.767	1160.85
435.143	1176.44
435.518	1171.01
435.894	1201.3
436.269	1226.15
436.644	1253.5
437.02	1241.3
437.395	1267.51
437.77	1258.24
438.145	1285.81
438.52	1288.3
438.895	1301.18
439.271	1301.63
439.646	1335.98
440.021	1339.15
440.395	1340.5
440.77	1336.66
441.145	1333.04
441.52	1386.83
441.895	1383.21
442.27	1372.37
442.645	1389.77
443.019	1420.73
443.394	1397.68
443.769	1428.41
444.143	1433.83
444.518	1422.76
444.892	1460.5
445.267	1466.37
445.641	1444.23
446.016	1489.42
446.39	1497.11
446.764	1506.82
447.139	1510.44
447.513	1507.28
447.887	1514.73
448.262	1513.6
448.636	1534.39
449.01	1545.02
449.384	1561.29
449.758	1555.41
450.132	1584.11
450.506	1604.45
450.88	1596.09
451.254	1623.43
451.628	1653.26
452.002	1674.28
452.376	1686.71
452.75	1669.31
453.123	1684
453.497	1720.6
453.871	1749.3
454.244	1776.2
454.618	1768.06
454.992	1797.66
455.365	1801.73
455.739	1851.45
456.112	1855.06
456.486	1891.45
456.859	1909.07
457.232	1934.84
457.606	1915.63
457.979	1959.47
458.352	1974.84
458.725	2025.91
459.099	2043.31
459.472	2066.81
459.845	2099.8
460.218	2060.48
460.591	2130.99
460.964	2137.54
461.337	2199.46
461.71	2212.34
462.083	2266.13
462.456	2237.65
462.829	2221.83
463.201	2335.73
463.574	2288.95
463.947	2336.86
464.32	2359.23
464.692	2400.59
465.065	2399.68
465.438	2464.31
465.81	2466.12
466.183	2513.58
466.555	2545.67
466.928	2546.35
467.3	2566.91
467.672	2603.97
468.045	2677.19
468.417	2678.32
468.789	2705.89
469.161	2723.74
469.534	2754.48
469.906	2835.6
470.278	2830.41
470.65	2843.96
471.022	2916.96
471.394	2980.23
471.766	3016.62
472.138	3030.63
472.51	3083.73
472.882	3187.23
473.253	3122.15
473.625	3214.12
473.997	3274.91
474.369	3293.9
474.74	3365.76
475.112	3410.73
475.484	3435.36
475.855	3465.64
476.227	3509.26
476.598	3604.62
476.97	3656.6
477.341	3713.77
477.713	3798.52
478.084	3769.82
478.455	3909.47
478.827	3923.03
479.198	4048.68
479.569	4057.04
479.94	4168.45
480.311	4182.69
480.682	4254.78
481.053	4327.32
481.424	4395.56
481.795	4465.17
482.166	4549.46
482.537	4584.26
482.908	4711.49
483.279	4760.75
483.65	4801.2
484.021	4812.05
484.391	4914.19
484.762	4986.28
485.133	5015.66
485.503	5078.93
485.874	5199.84
486.244	5239.83
486.615	5360.28
486.985	5394.41
487.356	5519.37
487.726	5569.77
488.097	5592.14
488.467	5605.47
488.837	5763.66
489.207	5821.51
489.578	5876.88
489.948	6020.38
490.318	6047.5
490.688	6073.71
491.058	6205.46
491.428	6203.42
491.798	6290.88
492.168	6411.78
492.538	6417.66
492.908	6469.18
493.278	6603.87
493.648	6649.06
494.017	6705.11
494.387	6766.35
494.757	6829.4
495.126	6943.29
495.496	6853.8
495.866	6930.19
496.235	7088.37
496.605	7083.85
496.974	7176.28
497.344	7156.17
497.713	7291.76
498.082	7308.25
498.452	7390.96
498.821	7439.1
499.19	7455.37
499.559	7550.96
499.928	7569.26
500.298	7666.89
500.667	7772.87
501.036	7719.32
501.405	7813.1
501.774	7794.57
502.143	7901.23
502.512	8016.26
502.88	8035.01
503.249	8075.24
503.618	8129.7
503.987	8169.7
504.356	8204.05
504.724	8222.58
505.093	8293.31
505.462	8295.35
505.83	8358.62
506.199	8472.52
506.567	8574.44
506.936	8547.54
507.304	8643.59
507.672	8661.89
508.041	8723.36
508.409	8831.38
508.777	8866.63
509.145	8928.1
509.514	8969.45
509.882	9054.2
510.25	9060.3
510.618	9124.03
510.986	9180.75
511.354	9260.29
511.722	9390.46
512.09	9484.92
512.458	9465.49
512.826	9505.48
513.193	9601.3
513.561	9669.77
513.929	9701.41
514.297	9768.98
514.664	9867.06
515.032	9936.89
515.4	10009.43
515.767	10035.64
516.135	10109.08
516.502	10100.72
516.869	10183.66
517.237	10199.03
517.604	10265.24
517.972	10475.18
518.339	10459.58
518.706	10524.89
519.073	10639.69
519.44	10700.48
519.808	10887.14
520.175	10866.13
520.542	10933.47
520.909	11069.29
521.276	11086.01
521.643	11234.93
522.009	11273.57
522.376	11303.18
522.743	11358.54
523.11	11528.71
523.477	11661.13
523.843	11662.94
524.21	11815.71
524.577	11888.47
524.943	11833.11
525.31	11985.65
525.676	12081.91
526.043	12209.82
526.409	12181.12
526.776	12283.72
527.142	12450.27
527.508	12492.75
527.874	12633.09
528.241	12603.03
528.607	12776.36
528.973	12895.9
529.339	12836.92
529.705	12907.65
530.071	13059.52
530.437	13171.83
530.803	13167.76
531.169	13292.96
531.535	13323.46
531.901	13389.22
532.267	13425.16
532.632	13547.19
532.998	13588.09
533.364	13571.14
533.73	13688.65
534.095	13802.77
534.461	13873.73
534.826	13933.39
535.192	14043.9
535.557	14097.91
535.923	14069.66
536.288	14165.02
536.653	14261.97
537.019	14104.69
537.384	14393.49
537.749	14359.14
538.114	14412.7
538.479	14421.29
538.845	14619.47
539.21	14571.11
539.575	14662.41
539.94	14664.44
540.305	14788.06
540.67	14708.74
541.034	14726.36
541.399	14880.03
541.764	14935.62
542.129	15001.61
542.494	14955.28
542.858	15134.26
543.223	15011.33
543.587	15125.9
543.952	15088.16
544.316	15254.71
544.681	15171.1
545.045	15311.89
545.41	15386.01
545.774	15385.33
546.138	15376.06
546.503	15529.73
546.867	15534.03
547.231	15695.15
547.595	15762.5
547.959	15843.4
548.324	15771.31
548.688	15810.4
549.052	15953.45
549.416	16007.46
549.779	16005.88
550.143	16099.44
550.507	16036.39
550.871	16196.83
551.235	16120
551.599	16248.81
551.962	16350.28
552.326	16404.74
552.689	16470.05
553.053	16421.23
553.417	16497.84
553.78	16714.11
554.143	16616.03
554.507	16766.99
554.87	16751.17
555.234	16968.11
555.597	16943.71
555.96	17003.59
556.323	16976.47
556.686	17088.79
557.05	17229.12
557.413	17288.78
557.776	17213.3
558.139	17379.4
558.502	17490.13
558.865	17477.7
559.228	17697.81
559.59	17673.18
559.953	17791.37
560.316	17907.3
560.679	17946.84
561.041	18054.19
561.404	17972.38
561.767	18082.21
562.129	18135.99
562.492	18340.51
562.854	18376.89
563.217	18411.24
563.579	18494.85
563.941	18598.13
564.304	18638.8
564.666	18627.28
565.028	18748.86
565.39	18833.37
565.753	18940.26
566.115	19031.11
566.477	19084.44
566.839	19250.99
567.201	19270.65
567.563	19335.06
567.925	19312.91
568.287	19381.38
568.648	19413.47
569.01	19526.01
569.372	19714.26
569.734	19702.28
570.095	19872.9
570.457	19968.49
570.819	19921.71
571.18	20119.22
571.542	20135.71
571.903	20199.89
572.265	20129.39
572.626	20215.03
572.987	20204.86
573.349	20257.29
573.71	20351.75
574.071	20421.36
574.432	20476.04
574.794	20691.63
575.155	20605.98
575.516	20508.59
575.877	20573.89
576.238	20655.7
576.599	20584.97
576.96	20634.23
577.32	20772.08
577.681	20833.77
578.042	20951.96
578.403	21049.59
578.763	21025.18
579.124	21174.56
579.485	21155.12
579.845	21151.28
580.206	20986.31
580.566	21034.67
580.927	20996.93
581.287	21164.61
581.648	20998.97
582.008	21223.37
582.368	21112.64
582.728	21179.08
583.089	21182.47
583.449	21102.24
583.809	21162.13
584.169	21207.55
584.529	21118.06
584.889	21270.6
585.249	21139.98
585.609	21071.73
585.969	21137.5
586.329	21151.05
586.688	21177.95
587.048	21216.36
587.408	21132.75
587.768	21156.03
588.127	21135.91
588.487	21154.44
588.846	21371.84
589.206	21055.46
589.565	21073.32
589.925	21209.81
590.284	21139.75
590.643	21228.57
591.003	21229.47
591.362	21250.94
591.721	21185.18
592.08	21219.53
592.44	21341.78
592.799	21247.32
593.158	21255.23
593.517	21337.94
593.876	21360.09
594.235	21349.69
594.593	21383.36
594.952	21396.7
595.311	21291.84
595.67	21372.74
596.029	21503.14
596.387	21393.76
596.746	21565.73
597.104	21283.93
597.463	21393.99
597.822	21502.01
598.18	21359.64
598.538	21285.06
598.897	21557.15
599.255	21312.86
599.613	21588.56
599.972	21510.37
600.33	21629.69
600.688	21458.62
601.046	21542
601.404	21602.79
601.762	21497.94
602.12	21730.93
602.478	21696.35
602.836	21665.39
603.194	21641.89
603.552	21697.71
603.91	21634.88
604.268	21739.74
604.625	21659.52
604.983	21701.1
605.341	21611.38
605.698	21701.1
606.056	21677.37
606.413	21620.19
606.771	21690.25
607.128	21764.6
607.485	21644.37
607.843	21647.54
608.2	21785.16
608.557	21852.28
608.914	21786.07
609.272	22057.47
609.629	21985.38
609.986	21959.62
610.343	22036.45
610.7	21992.39
611.057	22054.08
611.414	22015.21
611.771	22178.6
612.127	22277.58
612.484	22140.63
612.841	22226.96
613.198	22243.91
613.554	22342.89
613.911	22353.51
614.267	22251.82
614.624	22192.38
614.98	22293.62
615.337	22188.99
615.693	22239.61
616.05	22174.08
616.406	22356.9
616.762	22238.71
617.118	22224.7
617.475	22268.99
617.831	22345.15
618.187	22460.62
618.543	22507.63
618.899	22613.16
619.255	22589.66
619.611	22637.12
619.967	22688.41
620.323	22727.28
620.678	22485.71
621.034	22519.38
621.39	22490
621.746	22434.64
622.101	22731.35
622.457	22453.62
622.812	22616.55
623.168	22681.86
623.523	22699.26
623.879	22724.57
624.234	22517.57
624.589	22515.09
624.945	22622.2
625.3	22611.13
625.655	22596.21
626.01	22568.87
626.365	22517.35
626.72	22636.21
627.075	22602.99
627.43	22588.08
627.785	22584.46
628.14	22556.44
628.495	22491.58
628.85	22535.42
629.205	22494.75
629.559	22678.7
629.914	22487.52
630.269	22503.11
630.623	22512.6
630.978	22409.55
631.332	22466.05
631.687	22473.96
632.041	22534.29
632.396	22568.64
632.75	22417.24
633.104	22358.25
633.459	22348.54
633.813	22263.34
634.167	22288.43
634.521	22161.42
634.875	22273.06
635.229	22124.81
635.583	22056.11
635.937	22028.32
636.291	21885.72
636.645	21876.23
636.999	21782.22
637.352	21889.57
637.706	21711.49
638.06	21934.08
638.413	21750.13
638.767	21877.14
639.121	21826.74
639.474	21723.47
639.828	21873.75
640.181	21729.57
640.534	21795.78
640.888	21584.71
641.241	21496.81
641.594	21547.2
641.947	21511.04
642.301	21434.44
642.654	21429.24
643.007	21457.49
643.36	21456.13
643.713	21358.73
644.066	21469.24
644.419	21328.22
644.771	21249.36
645.124	21127.33
645.477	21024.28
645.83	20850.5
646.182	20779.31
646.535	20614.34
646.888	20821.35
647.24	20508.36
647.593	20743.16
647.945	20659.77
648.298	20596.04
648.65	20451.19
649.002	20433.78
649.355	20529.6
649.707	20476.27
650.059	20570.28
650.411	20880.33
650.763	20957.84
651.115	21118.06
651.467	21101.79
651.819	21092.75
652.171	20864.96
652.523	20869.48
652.875	20858.86
653.227	20818.63
653.578	20922.13
653.93	20908.35
654.282	20689.6
654.633	20668.13
654.985	20714.23
655.337	20835.13
655.688	20749.48
656.039	20742.93
656.391	20561.24
656.742	20599.66
657.094	20638.98
657.445	20691.63
657.796	20720.78
658.147	20666.1
658.498	20574.12
658.849	20694.12
659.2	20636.72
659.551	20534.8
659.902	20639.88
660.253	20655.7
660.604	20583.16
660.955	20513.1
661.306	20566.89
661.656	20399.21
662.007	20424.52
662.358	20418.42
662.708	20394.69
663.059	20434.69
663.409	20346.56
663.76	20473.33
664.11	20518.3
664.461	20441.69
664.811	20514.69
665.161	20414.58
665.511	20461.81
665.862	20367.8
666.212	20339.32
666.562	20280.12
666.912	20286.9
667.262	20409.38
667.612	20308.14
667.962	20258.87
668.312	20167.13
668.662	20307.91
669.011	20186.33
669.361	20121.93
669.711	20125.54
670.06	20073.79
670.41	20070.4
670.76	19960.8
671.109	20118.31
671.459	20024.76
671.808	20008.94
672.157	20120.8
672.507	19932.33
672.856	19930.07
673.205	19917.41
673.554	19959.67
673.904	19964.87
674.253	19992.21
674.602	19976.4
674.951	19670.41
675.3	19483.75
675.649	19811.43
675.998	19832.67
676.346	19924.65
676.695	19990.63
677.044	19795.16
677.393	19825.67
677.741	19873.35
678.09	19757.64
678.438	19699.57
678.787	19775.05
679.135	19767.59
679.484	19499.8
679.832	19729.85
680.181	19593.81
680.529	19565.33
680.877	19476.07
681.225	19576.18
681.573	19666.8
681.922	19413.02
682.27	19457.09
682.618	19388.61
682.966	19255.96
683.314	19429.52
683.661	19294.38
684.009	19227.71
684.357	19117.89
684.705	19081.5
685.053	19228.39
685.4	19183.42
685.748	19047.61
686.095	19015.97
686.443	18873.83
686.79	18833.37
687.138	18864.56
687.485	18833.37
687.832	18774.85
688.18	18743.89
688.527	18655.98
688.874	18611.46
689.221	18538.02
689.568	18603.55
689.915	18508.19
690.262	18502.31
690.609	18467.96
690.956	18298.25
691.303	18260.51
691.65	18239.72
691.997	18153.39
692.344	18039.72
692.69	18099.16
693.037	18128.31
693.383	18024.36
693.73	18223.22
694.077	17995.88
694.423	17956.56
694.769	17972.83
695.116	17905.26
695.462	17908.43
695.808	17701.65
696.155	17763.8
696.501	17695.55
696.847	17585.27
697.193	17584.59
697.539	17623.69
697.885	17431.83
698.231	17418.27
698.577	17390.93
698.923	17353.19
699.269	17318.84
699.614	17248.56
699.96	17164.94
700.306	17162.46
700.651	17048.34
700.997	17035
701.342	17050.6
701.688	16917.04
702.033	16964.5
702.379	16898.51
702.724	16906.42
703.069	17012.18
703.415	16780.1
703.76	16713.2
704.105	16788.68
704.45	16719.31
704.795	16599.54
705.14	16593.43
705.485	16597.73
705.83	16527.9
706.175	16405.87
706.52	16381.91
706.865	16345.76
707.209	16324.97
707.554	16252.88
707.899	16353.89
708.243	16231.86
708.588	16221.24
708.932	16103.28
709.277	16077.97
709.621	16078.19
709.966	16013.34
710.31	16040
710.654	15971.3
710.998	15863.96
711.342	15895.37
711.687	15870.51
712.031	15715.49
712.375	15672.55
712.719	15705.77
713.063	15703.97
713.407	15568.6
713.75	15590.97
714.094	15450.64
714.438	15438.21
714.782	15399.79
715.125	15379.68
715.469	15487.47
715.812	15397.98
716.156	15317.54
716.499	15270.3
716.843	15296.07
717.186	15174.49
717.53	15247.03
717.873	15276.86
718.216	15287.48
718.559	15217.42
718.902	15036.41
719.246	15147.14
719.589	15100.82
719.932	14975.85
720.275	14976.08
720.617	14966.58
720.96	14944.66
721.303	14938.79
721.646	14869.86
721.989	14821.5
722.331	14807.27
722.674	14740.38
723.016	14817.66
723.359	14767.95
723.701	14708.06
724.044	14647.04
724.386	14602.75
724.729	14577.44
725.071	14557.56
725.413	14630.32
725.755	14464.68
726.097	14461.74
726.439	14358.46
726.782	14440.95
727.124	14423.1
727.465	14415.41
727.807	14423.32
728.149	14343.55
728.491	14296.54
728.833	14310.78
729.175	14236.89
729.516	14246.15
729.858	14266.72
730.199	14277.34
730.541	14226.26
730.882	14215.64
731.224	14195.08
731.565	14060.39
731.906	14041.41
732.248	14095.87
732.589	13996.44
732.93	14038.92
733.271	14062.65
733.612	14052.94
733.953	14019.72
734.294	13946.5
734.635	13963.67
734.976	14006.84
735.317	13755.99
735.658	13911.92
735.999	13837.8
736.339	13696.33
736.68	13755.09
737.021	13772.94
737.361	13671.7
737.702	13734.53
738.042	13762.77
738.383	13791.25
738.723	13564.36
739.063	13664.25
739.404	13629.22
739.744	13610.24
740.084	13513.51
740.424	13584.02
740.764	13530.69
741.104	13493.85
741.444	13490.01
741.784	13418.38
742.124	13400.98
742.464	13381.99
742.804	13282.56
743.143	13299.28
743.483	13311.26
743.823	13247.53
744.162	13275.55
744.502	13323.24
744.841	13294.31
745.181	13289.34
745.52	13324.14
745.86	13306.51
746.199	13164.15
746.538	13229.91
746.877	13218.38
747.216	13099.51
747.556	13026.3
747.895	13059.97
748.234	13051.83
748.573	13006.86
748.911	12939.74
749.25	12904.72
749.589	12919.18
749.928	12833.53
750.267	12902.46
750.605	12891.84
750.944	12931.38
751.283	12789.47
751.621	12774.1
751.96	12754.21
752.298	12827.88
752.636	12789.47
752.975	12651.84
753.313	12631.05
753.651	12717.38
753.989	12607.32
754.327	12554.67
754.666	12532.52
755.004	12421.11
755.342	12452.3
755.679	12464.05
