Data from black_plastic_tray_FLMS001491_022.txt Node
Date: Tue Feb 07 10:39:30 GMT 2017
User: dcchb
Spectrometer: FLMS00149
Trigger mode: 0
Integration Time (sec): 2.000000E-2
Scans to average: 10
Electric dark correction enabled: true
Nonlinearity correction enabled: false
Boxcar width: 0
XAxis mode: Wavelengths
Number of Pixels in Spectrum: 2048
>>>>>Begin Spectral Data<<<<<
341.393	-13.86
341.776	-13.86
342.16	-13.86
342.543	-54.31
342.927	-61.76
343.31	-65.15
343.693	-72.16
344.077	-54.98
344.46	-57.47
344.843	-61.31
345.226	-42.1
345.61	-25.83
345.993	-20.64
346.376	2.87
346.759	-9.11
347.142	32.47
347.525	30.21
347.908	56.2
348.291	64.33
348.674	108.85
349.057	113.82
349.44	126.25
349.823	145.46
350.206	149.3
350.588	210.55
350.971	198.79
351.354	198.79
351.737	229.53
352.119	218.68
352.502	260.04
352.884	256.87
353.267	268.17
353.65	281.05
354.032	289.87
354.414	300.71
354.797	301.84
355.179	301.16
355.562	319.02
355.944	318.57
356.326	316.76
356.709	325.34
357.091	327.38
357.473	328.06
357.855	345.46
358.238	332.35
358.62	355.17
359.002	348.85
359.384	325.12
359.766	333.48
360.148	339.58
360.53	332.8
360.912	338.9
361.294	327.6
361.676	318.57
362.057	317.66
362.439	334.16
362.821	322.41
363.203	324.67
363.584	330.54
363.966	314.05
364.348	318.79
364.729	302.75
365.111	300.26
365.493	325.34
365.874	319.24
366.256	300.49
366.637	313.37
367.019	301.16
367.4	317.66
367.781	308.85
368.163	318.34
368.544	307.72
368.925	315.18
369.306	329.19
369.688	304.1
370.069	302.29
370.45	327.38
370.831	303.65
371.212	323.99
371.593	307.72
371.974	314.72
372.355	319.02
372.736	322.86
373.117	323.99
373.498	305.01
373.879	312.24
374.26	326.7
374.641	321.28
375.021	314.5
375.402	319.24
375.783	317.44
376.163	318.34
376.544	323.31
376.925	346.36
377.305	344.55
377.686	326.93
378.066	329.64
378.447	341.62
378.827	340.03
379.208	316.53
379.588	328.28
379.968	333.48
380.349	346.59
380.729	346.36
381.109	342.97
381.489	356.08
381.87	349.98
382.25	365.12
382.63	337.77
383.01	357.66
383.39	323.31
383.77	343.42
384.15	347.94
384.53	371.9
384.91	368.51
385.29	369.86
385.67	359.02
386.049	400.14
386.429	373.48
386.809	382.29
387.189	347.26
387.568	388.39
387.948	385.46
388.328	388.62
388.707	363.76
389.087	378.9
389.466	368.06
389.846	392.91
390.225	388.85
390.605	403.31
390.984	389.98
391.363	396.08
391.743	365.57
392.122	399.01
392.501	387.72
392.881	395.4
393.26	395.85
393.639	392.69
394.018	400.37
394.397	423.65
394.776	424.55
395.155	430.65
395.534	426.81
395.913	403.76
396.292	451.22
396.671	424.78
397.05	417.55
397.429	407.6
397.808	412.57
398.186	432.01
398.565	430.43
398.944	432.23
399.323	436.08
399.701	430.88
400.08	453.7
400.458	411.9
400.837	453.7
401.215	440.82
401.594	435.4
401.972	447.15
402.351	454.83
402.729	462.74
403.107	446.02
403.486	481.95
403.864	462.06
404.242	488.73
404.62	471.78
404.999	490.76
405.377	462.29
405.755	493.93
406.133	468.84
406.511	481.95
406.889	488.5
407.267	492.12
407.645	499.58
408.023	486.92
408.401	518.33
408.779	501.16
409.156	520.14
409.534	530.08
409.912	501.39
410.29	506.13
410.667	528.96
411.045	525.57
411.422	545.45
411.8	546.58
412.178	531.44
412.555	564.43
412.933	558.56
413.31	540.03
413.687	559.01
414.065	562.85
414.442	559.91
414.819	582.06
415.197	564.21
415.574	590.2
415.951	586.35
416.328	583.42
416.705	597.65
417.082	599.24
417.46	625
417.837	596.3
418.214	589.29
418.591	613.47
418.967	601.5
419.344	605.56
419.721	617.54
420.098	611.66
420.475	615.28
420.852	646.01
421.228	644.43
421.605	650.99
421.982	649.18
422.358	648.05
422.735	667.71
423.111	650.08
423.488	655.51
423.864	672.68
424.241	678.33
424.617	684.66
424.994	696.86
425.37	675.17
425.746	685.34
426.123	688.05
426.499	701.61
426.875	752
427.251	711.78
427.627	736.41
428.003	728.27
428.379	707.71
428.756	757.88
429.132	752.68
429.507	777.76
429.883	766.24
430.259	787.93
430.635	781.6
431.011	805.11
431.387	824.09
431.763	828.38
432.138	826.35
432.514	827.93
432.89	818.89
433.265	846.91
433.641	847.59
434.016	902.96
434.392	869.51
434.767	886.23
435.143	893.92
435.518	889.85
435.894	910.87
436.269	907.93
436.644	917.65
437.02	897.53
437.395	929.4
437.77	955.16
438.145	940.02
438.52	965.1
438.895	974.82
439.271	965.1
439.646	970.07
440.021	993.35
440.395	996.29
440.77	955.84
441.145	976.85
441.52	1014.59
441.895	1016.85
442.27	993.58
442.645	1020.69
443.019	1002.84
443.394	1042.84
443.769	1050.98
444.143	1032.67
444.518	1090.75
444.892	1057.08
445.267	1070.64
445.641	1067.92
446.016	1071.77
446.39	1102.5
446.764	1111.99
447.139	1071.09
447.513	1106.79
447.887	1123.29
448.262	1133.23
448.636	1130.97
449.01	1152.44
449.384	1148.83
449.758	1142.95
450.132	1169.84
450.506	1149.96
450.88	1165.1
451.254	1154.48
451.628	1197.41
452.002	1194.7
452.376	1214.13
452.75	1187.02
453.123	1241.03
453.497	1240.35
453.871	1281.25
454.244	1287.13
454.618	1305.21
454.992	1298.88
455.365	1286.68
455.739	1321.48
456.112	1328.93
456.486	1342.72
456.859	1336.84
457.232	1391.98
457.606	1381.59
457.979	1404.19
458.352	1416.84
458.725	1443.06
459.099	1403.06
459.472	1466.33
459.845	1474.47
460.218	1477.86
460.591	1486.67
460.964	1531.41
461.337	1540.23
461.71	1542.26
462.083	1601.24
462.456	1593.79
462.829	1612.54
463.201	1623.16
463.574	1613.22
463.947	1657.51
464.32	1661.35
464.692	1680.56
465.065	1711.3
465.438	1707
465.81	1741.13
466.183	1770.05
466.555	1788.13
466.928	1803.05
467.3	1816.38
467.672	1849.82
468.045	1886.43
468.417	1867.45
468.789	1874.91
469.161	1893.44
469.534	1920.56
469.906	2007.33
470.278	1942.93
470.65	1998.07
471.022	2045.53
471.394	2068.12
471.766	2059.76
472.138	2075.36
472.51	2147.22
472.882	2176.37
473.253	2199.87
473.625	2219.31
473.997	2284.84
474.369	2302.47
474.74	2299.98
475.112	2348.57
475.484	2405.29
475.855	2421.56
476.227	2440.09
476.598	2479.64
476.97	2504.27
477.341	2583.82
477.713	2590.14
478.084	2627.43
478.455	2658.84
478.827	2730.25
479.198	2757.82
479.569	2797.82
479.94	2859.52
480.311	2880.98
480.682	2923.02
481.053	2984.94
481.424	3035.78
481.795	3080.07
482.166	3055.89
482.537	3160.3
482.908	3181.77
483.279	3193.74
483.65	3298.37
484.021	3329.79
484.391	3344.02
484.762	3413.17
485.133	3449.56
485.503	3513.28
485.874	3584.02
486.244	3593.06
486.615	3677.8
486.985	3685.93
487.356	3763.45
487.726	3767.51
488.097	3804.8
488.467	3816.33
488.837	3907.85
489.207	3946.04
489.578	4065.36
489.948	4054.06
490.318	4141.52
490.688	4147.62
491.058	4230.1
491.428	4225.58
491.798	4290.44
492.168	4336.54
492.538	4334.73
492.908	4398.68
493.278	4465.57
493.648	4506.93
494.017	4524.78
494.387	4591
494.757	4626.02
495.126	4698.11
495.496	4724.1
495.866	4708.51
496.235	4761.16
496.605	4790.09
496.974	4828.28
497.344	4857.65
497.713	4910.31
498.082	4936.75
498.452	5007.26
498.821	4993.92
499.19	5053.36
499.559	5110.08
499.928	5118.66
500.298	5196.18
500.667	5262.62
501.036	5266.68
501.405	5199.34
501.774	5242.96
502.143	5341.48
502.512	5319.56
502.88	5379.67
503.249	5435.72
503.618	5437.98
503.987	5461.03
504.356	5472.33
504.724	5582.83
505.093	5587.81
505.462	5585.32
505.83	5628.03
506.199	5681.36
506.567	5767.24
506.936	5791.19
507.304	5839.55
507.672	5876.39
508.041	5896.5
508.409	5899.21
508.777	5953.67
509.145	6029.6
509.514	5974.69
509.882	6073.44
510.25	6091.07
510.618	6150.5
510.986	6164.29
511.354	6238.86
511.722	6346.66
512.09	6295.58
512.458	6318.18
512.826	6419.65
513.193	6365.86
513.561	6451.06
513.929	6455.13
514.297	6573.09
514.664	6648.79
515.032	6675.23
515.4	6688.34
515.767	6708.91
516.135	6799.07
516.502	6751.16
516.869	6849.24
517.237	6935.34
517.604	6925.62
517.972	7031.38
518.339	7016.02
518.706	6981.67
519.073	7081.55
519.44	7154.32
519.808	7236.58
520.175	7218.27
520.542	7329
520.909	7331.26
521.276	7363.8
521.643	7431.37
522.009	7586.62
522.376	7617.81
522.743	7628.2
523.11	7734.19
523.477	7736.45
523.843	7802.89
524.21	7824.58
524.577	7904.58
524.943	7959.95
525.31	7990.68
525.676	8088.98
526.043	8150
526.409	8146.16
526.776	8324.46
527.142	8247.62
527.508	8325.81
527.874	8418.47
528.241	8479.25
528.607	8504.56
528.973	8586.37
529.339	8596.54
529.705	8625.69
530.071	8703.66
530.437	8766.93
530.803	8791.56
531.169	8881.05
531.535	8897.32
531.901	8947.94
532.267	9007.38
532.632	9028.62
532.998	9046.47
533.364	9164.43
533.73	9147.03
534.095	9240.36
534.461	9284.88
534.826	9265.9
535.192	9281.27
535.557	9362.85
535.923	9398.33
536.288	9397.2
536.653	9543.18
537.019	9436.97
537.384	9549.51
537.749	9556.51
538.114	9642.61
538.479	9656.4
538.845	9705.66
539.21	9690.97
539.575	9757.86
539.94	9784.76
540.305	9851.87
540.67	9855.49
541.034	9848.94
541.399	9897.07
541.764	9925.32
542.129	9991.76
542.494	9961.25
542.858	10077.18
543.223	10023.62
543.587	10072.88
543.952	10074.47
544.316	10172.32
544.681	10140.91
545.045	10185.88
545.41	10314.46
545.774	10255.93
546.138	10326.21
546.503	10326.89
546.867	10332.54
547.231	10453.21
547.595	10491.4
547.959	10511.07
548.324	10531.4
548.688	10521.91
549.052	10614.57
549.416	10579.76
549.779	10598.07
550.143	10634
550.507	10704.51
550.871	10758.29
551.235	10777.05
551.599	10888.46
551.962	10896.59
552.326	10901.56
552.689	10969.58
553.053	10962.35
553.417	10995.35
553.78	11120.09
554.143	11120.99
554.507	11133.65
554.87	11165.74
555.234	11251.84
555.597	11209.8
555.96	11234.21
556.323	11372.96
556.686	11317.6
557.05	11429.91
557.413	11484.6
557.776	11458.16
558.139	11527.54
558.502	11617.93
558.865	11626.74
559.228	11736.57
559.59	11813.63
559.953	11799.62
560.316	11925.04
560.679	11898.83
561.041	11924.14
561.404	11953.51
561.767	12033.74
562.129	12039.61
562.492	12217.69
562.854	12214.98
563.217	12215.2
563.579	12289.32
563.941	12437.12
564.304	12361.41
564.666	12468.75
565.028	12486.15
565.39	12484.8
565.753	12564.34
566.115	12652.48
566.477	12658.81
566.839	12734.74
567.201	12769.31
567.563	12779.48
567.925	12899.03
568.287	12880.72
568.648	12929.31
569.01	12988.06
569.372	13088.17
569.734	13107.83
570.095	13218.11
570.457	13193.25
570.819	13246.81
571.18	13161.62
571.542	13340.6
571.903	13340.6
572.265	13390.31
572.626	13431.21
572.987	13400.26
573.349	13513.47
573.71	13520.48
574.071	13508.5
574.432	13650.87
574.794	13623.75
575.155	13668.72
575.516	13585.79
575.877	13699.46
576.238	13721.15
576.599	13755.05
576.96	13783.75
577.32	13751.21
577.681	13838.89
578.042	13882.73
578.403	13949.39
578.763	13972.44
579.124	13969.51
579.485	13952.33
579.845	13951.2
580.206	13966.34
580.566	13978.77
580.927	14011.09
581.287	13970.64
581.648	14015.38
582.008	14075.04
582.368	14015.61
582.728	14018.54
583.089	14059.67
583.449	14034.59
583.809	14068.26
584.169	14090.18
584.529	14116.17
584.889	14163.17
585.249	14112.1
585.609	14004.08
585.969	14098.32
586.329	14126.11
586.688	14190.74
587.048	14125.43
587.408	14047.02
587.768	14092.44
588.127	14109.61
588.487	14020.35
588.846	14100.35
589.206	14122.95
589.565	13974.48
589.925	14140.12
590.284	14085.43
590.643	14108.26
591.003	14107.36
591.362	14208.14
591.721	14120.01
592.08	14229.61
592.44	14162.27
592.799	14200.91
593.158	14180.35
593.517	14237.52
593.876	14202.04
594.235	14190.06
594.593	14169.27
594.952	14204.08
595.311	14132.21
595.67	14281.59
596.029	14209.95
596.387	14265.99
596.746	14285.2
597.104	14248.59
597.463	14172.66
597.822	14211.31
598.18	14118.65
598.538	14149.84
598.897	14257.63
599.255	14060.58
599.613	14412.43
599.972	14268.93
600.33	14354.35
600.688	14256.5
601.046	14280.91
601.404	14381.02
601.762	14354.35
602.12	14519.77
602.478	14438.65
602.836	14404.07
603.194	14414.24
603.552	14348.03
603.91	14377.18
604.268	14443.17
604.625	14320.68
604.983	14423.96
605.341	14339.44
605.698	14442.04
606.056	14393.68
606.413	14451.07
606.771	14444.75
607.128	14429.38
607.485	14389.83
607.843	14534.91
608.2	14512.77
608.557	14565.65
608.914	14587.57
609.272	14607.23
609.629	14572.2
609.986	14691.52
610.343	14528.81
610.7	14640.67
611.057	14686.1
611.414	14676.61
611.771	14662.14
612.127	14717.96
612.484	14671.63
612.841	14782.37
613.198	14785.53
613.554	14745.3
613.911	14817.84
614.267	14815.59
614.624	14715.25
614.98	14836.83
615.337	14828.92
615.693	14895.36
616.05	14774.68
616.406	14922.25
616.762	14888.58
617.118	14893.78
617.475	14892.65
617.831	14907.79
618.187	14876.37
618.543	14958.18
618.899	15070.49
619.255	15027.1
619.611	14980.78
619.967	14990.27
620.323	14998.63
620.678	14981.46
621.034	14941.91
621.39	14940.78
621.746	14874.57
622.101	15114.56
622.457	14961.8
622.812	14964.28
623.168	15045.86
623.523	15042.7
623.879	15006.09
624.234	14867.34
624.589	15033.43
624.945	15036.37
625.3	15102.81
625.655	15096.03
626.01	15037.73
626.365	15123.83
626.72	15141.45
627.075	15049.48
627.43	14963.38
627.785	14946.88
628.14	14972.42
628.495	15045.86
628.85	14997.73
629.205	15015.35
629.559	15045.86
629.914	14903.72
630.269	14969.03
630.623	14975.81
630.978	14921.34
631.332	14964.28
631.687	14935.58
632.041	14933.1
632.396	14946.43
632.75	14928.12
633.104	14905.98
633.459	14871.4
633.813	14750.5
634.167	14788.24
634.521	14788.24
634.875	14711.63
635.229	14734.68
635.583	14709.6
635.937	14603.39
636.291	14577.17
636.645	14630.51
636.999	14579.66
637.352	14622.6
637.706	14519.55
638.06	14559.09
638.413	14548.47
638.767	14578.3
639.121	14490.85
639.474	14444.97
639.828	14477.51
640.181	14491.3
640.534	14545.99
640.888	14374.47
641.241	14347.8
641.594	14422.38
641.947	14433
642.301	14364.52
642.654	14331.08
643.007	14332.66
643.36	14335.15
643.713	14289.72
644.066	14365.65
644.419	14164.75
644.771	14143.74
645.124	14077.3
645.477	14044.76
645.83	13916.85
646.182	13842.96
646.535	13662.62
646.888	13749.4
647.24	13651.77
647.593	13776.97
647.945	13682.06
648.298	13689.96
648.65	13660.81
649.002	13653.81
649.355	13684.54
649.707	13669.63
650.059	13745.33
650.411	13810.87
650.763	13895.84
651.115	14104.19
651.467	13942.16
651.819	14001.14
652.171	13968.15
652.523	13855.16
652.875	13822.16
653.227	13795.72
653.578	13902.16
653.93	13928.15
654.282	13749.62
654.633	13631.66
654.985	13732.22
655.337	13817.65
655.688	13766.12
656.039	13844.99
656.391	13709.17
656.742	13630.31
657.094	13704.2
657.445	13781.26
657.796	13784.43
658.147	13704.88
658.498	13779.45
658.849	13744.43
659.2	13739.23
659.551	13722.73
659.902	13679.34
660.253	13630.76
660.604	13641.83
660.955	13621.72
661.306	13662.62
661.656	13656.97
662.007	13647.71
662.358	13582.4
662.708	13636.18
663.059	13633.92
663.409	13540.82
663.76	13637.99
664.11	13613.36
664.461	13604.09
664.811	13619.01
665.161	13573.36
665.511	13534.71
665.862	13588.27
666.212	13643.64
666.562	13660.59
666.912	13508.5
667.262	13532.23
667.612	13446.58
667.962	13481.38
668.312	13460.59
668.662	13467.6
669.011	13427.82
669.361	13446.81
669.711	13412.01
670.06	13418.79
670.41	13380.14
670.76	13422.85
671.109	13358.9
671.459	13334.04
671.808	13329.3
672.157	13354.83
672.507	13274.38
672.856	13308.51
673.205	13269.64
673.554	13319.58
673.904	13269.64
674.253	13375.85
674.602	13349.63
674.951	13105.57
675.3	13058.12
675.649	13263.54
675.998	13256.98
676.346	13279.58
676.695	13400.71
677.044	13274.61
677.393	13221.5
677.741	13229.19
678.09	13228.51
678.438	13182.63
678.787	13157.1
679.135	13104.44
679.484	13040.72
679.832	13047.5
680.181	13041.62
680.529	13030.77
680.877	13125.46
681.225	13006.82
681.573	13119.36
681.922	13000.49
682.27	12982.64
682.618	12972.47
682.966	13028.97
683.314	13055.86
683.661	12981.96
684.009	12938.57
684.357	12856.99
684.705	12845.92
685.053	12921.62
685.4	12793.27
685.748	12769.54
686.095	12783.55
686.443	12587.17
686.79	12569.54
687.138	12624.91
687.485	12647.73
687.832	12651.12
688.18	12525.93
688.527	12548.75
688.874	12499.26
689.221	12413.84
689.568	12448.42
689.915	12327.74
690.262	12389.43
690.609	12389.43
690.956	12350.57
691.303	12281.87
691.65	12206.84
691.997	12254.3
692.344	12148.08
692.69	12162.32
693.037	12139.05
693.383	12082.55
693.73	12157.35
694.077	12045.94
694.423	12057.01
694.769	12021.08
695.116	12079.84
695.462	11948.09
695.808	11898.15
696.155	11954.64
696.501	11838.49
696.847	11865.61
697.193	11724.59
697.539	11777.25
697.885	11745.38
698.231	11674.2
698.577	11692.28
698.923	11639.17
699.269	11565.95
699.614	11566.86
699.96	11447.54
700.306	11476.69
700.651	11411.38
700.997	11358.5
701.342	11382
701.688	11393.75
702.033	11331.16
702.379	11351.04
702.724	11286.19
703.069	11387.88
703.415	11232.4
703.76	11212.06
704.105	11200.09
704.45	11213.87
704.795	11133.87
705.14	11048.68
705.485	11159.18
705.83	11095.68
706.175	11011.84
706.52	11027.21
706.865	11001.22
707.209	10950.6
707.554	10872.64
707.899	10908.12
708.243	10884.39
708.588	10860.43
708.932	10741.79
709.277	10801.23
709.621	10791.51
709.966	10754
710.31	10803.49
710.654	10613.89
710.998	10662.7
711.342	10741.57
711.687	10675.35
712.031	10630.84
712.375	10581.57
712.719	10599.2
713.063	10504.74
713.407	10545.64
713.75	10557.84
714.094	10472.65
714.438	10341.13
714.782	10406.44
715.125	10341.13
715.469	10381.8
715.812	10264.07
716.156	10257.06
716.499	10197.85
716.843	10320.34
717.186	10247.34
717.53	10315.36
717.873	10273.78
718.216	10229.94
718.559	10196.05
718.902	10195.59
719.246	10196.95
719.589	10191.3
719.932	10168.02
720.275	10179.1
720.617	10091.64
720.96	10082.83
721.303	10085.09
721.646	10092.55
721.989	10006.9
722.331	10033.79
722.674	10054.13
723.016	9955.6
723.359	9973.68
723.701	10024.3
724.044	9954.24
724.386	9917.41
724.729	9855.04
725.071	9818.2
725.413	9889.61
725.755	9846
726.097	9754.48
726.439	9662.73
726.782	9761.25
727.124	9788.6
727.465	9756.73
727.807	9774.14
728.149	9809.84
728.491	9759.67
728.833	9702.95
729.175	9618.89
729.516	9713.8
729.858	9569.4
730.199	9673.57
730.541	9617.76
730.882	9516.74
731.224	9616.63
731.565	9545.67
731.906	9512
732.248	9570.75
732.589	9531.66
732.93	9499.34
733.271	9511.32
733.612	9463.86
733.953	9486.91
734.294	9527.36
734.635	9376.86
734.976	9420.92
735.317	9372.34
735.658	9443.52
735.999	9381.83
736.339	9352
736.68	9268.39
737.021	9366.46
737.361	9282.4
737.702	9270.42
738.042	9317.2
738.383	9268.39
738.723	9302.51
739.063	9199.69
739.404	9220.48
739.744	9191.1
740.084	9121.72
740.424	9136.19
740.764	9157.2
741.104	9133.47
741.444	9115.62
741.784	9132.8
742.124	9071.78
742.464	9094.15
742.804	9092.8
743.143	9056.41
743.483	9075.85
743.823	8968.51
744.162	9019.81
744.502	9005.12
744.841	9060.71
745.181	9040.6
745.52	8989.3
745.86	9047.15
746.199	9081.05
746.538	8923.31
746.877	8996.53
747.216	8892.8
747.556	8817.78
747.895	8898.68
748.234	8846.02
748.573	8858.23
748.911	8787.49
749.25	8836.08
749.589	8754.05
749.928	8737.33
750.267	8773.03
750.605	8741.17
750.944	8775.29
751.283	8718.57
751.621	8706.82
751.96	8692.58
752.298	8676.99
752.636	8694.16
752.975	8661.62
753.313	8646.26
753.651	8664.56
753.989	8531.91
754.327	8514.28
754.666	8558.8
755.004	8458.92
755.342	8584.11
755.679	8494.17
756.017	8382.08
756.355	8395.87
756.693	8398.58
757.031	8488.75
757.368	8405.81
757.706	8321.52
758.044	8336.43
758.381	8300.95
758.719	8309.32
759.056	8304.57
759.394	8235.87
759.731	8263.44
760.068	8226.38
