Data from black_metal_pc_casing_FLMS001491_00059.txt Node
Date: Wed Feb 08 14:33:05 GMT 2017
User: dcchb
Spectrometer: FLMS00149
Trigger mode: 0
Integration Time (sec): 2.000000E-2
Scans to average: 10
Electric dark correction enabled: true
Nonlinearity correction enabled: false
Boxcar width: 0
XAxis mode: Wavelengths
Number of Pixels in Spectrum: 2048
>>>>>Begin Spectral Data<<<<<
341.393	-6.79
341.776	-6.79
342.16	-6.79
342.543	-48.83
342.927	-66.45
343.31	-72.55
343.693	-56.96
344.077	-53.8
344.46	-54.93
344.843	-49.5
345.226	-40.24
345.61	-33.23
345.993	-22.84
346.376	-21.93
346.759	14.9
347.142	34.79
347.525	39.31
347.908	46.31
348.291	77.27
348.674	90.15
349.057	103.26
349.44	127.21
349.823	149.36
350.206	157.95
350.588	176.7
350.971	201.11
351.354	211.51
351.737	231.62
352.119	244.05
352.502	238.62
352.884	244.05
353.267	280.43
353.65	261.22
354.032	281.56
354.414	286.53
354.797	311.16
355.179	308.9
355.562	315.68
355.944	318.85
356.326	324.72
356.709	319.53
357.091	325.63
357.473	333.54
357.855	309.81
358.238	329.92
358.62	308.68
359.002	309.36
359.384	327.43
359.766	329.24
360.148	327.43
360.53	333.54
360.912	339.86
361.294	299.41
361.676	320.66
362.057	300.99
362.439	314.55
362.821	303.93
363.203	334.67
363.584	304.38
363.966	320.66
364.348	304.16
364.729	318.62
365.111	307.55
365.493	307.77
365.874	302.58
366.256	313.42
366.637	299.86
367.019	306.87
367.4	316.36
367.781	303.03
368.163	298.96
368.544	311.39
368.925	291.73
369.306	309.36
369.688	300.99
370.069	288.11
370.45	308.23
370.831	295.8
371.212	314.55
371.593	319.75
371.974	298.51
372.355	309.58
372.736	307.55
373.117	304.84
373.498	313.65
373.879	292.41
374.26	307.55
374.641	306.42
375.021	318.85
375.402	313.88
375.783	325.18
376.163	296.93
376.544	325.18
376.925	345.29
377.305	314.55
377.686	322.24
378.066	345.74
378.447	336.25
378.827	319.75
379.208	344.61
379.588	340.54
379.968	319.3
380.349	328.56
380.729	331.73
381.109	348.9
381.489	337.6
381.87	324.5
382.25	354.1
382.63	352.07
383.01	356.13
383.39	351.39
383.77	353.42
384.15	348.23
384.53	351.39
384.91	361.11
385.29	370.37
385.67	352.52
386.049	366.76
386.429	344.84
386.809	361.11
387.189	382.57
387.568	373.54
387.948	370.82
388.328	385.96
388.707	392.52
389.087	370.37
389.466	372.63
389.846	347.1
390.225	384.16
390.605	379.86
390.984	373.31
391.363	373.31
391.743	378.73
392.122	410.82
392.501	391.16
392.881	379.18
393.26	395.46
393.639	403.14
394.018	402.91
394.397	415.12
394.776	385.29
395.155	396.36
395.534	401.33
395.913	428.22
396.292	407.43
396.671	418.73
397.05	423.48
397.429	425.74
397.808	411.95
398.186	420.99
398.565	414.66
398.944	432.06
399.323	420.77
399.701	403.59
400.08	423.25
400.458	439.75
400.837	452.18
401.215	440.2
401.594	434.32
401.972	434.55
402.351	452.63
402.729	436.81
403.107	444.95
403.486	476.13
403.864	451.73
404.242	452.4
404.62	462.12
404.999	439.52
405.377	465.74
405.755	468.9
406.133	457.83
406.511	478.84
406.889	491.5
407.267	470.26
407.645	497.83
408.023	478.39
408.401	496.47
408.779	508.45
409.156	510.03
409.534	509.13
409.912	496.7
410.29	508.9
410.667	527.66
411.045	512.74
411.422	523.36
411.8	532.85
412.178	540.08
412.555	560.2
412.933	564.94
413.31	540.54
413.687	559.29
414.065	555
414.442	545.73
414.819	571.27
415.197	559.07
415.574	588.22
415.951	547.77
416.328	586.64
416.705	566.3
417.082	563.36
417.46	570.82
417.837	568.56
418.214	599.29
418.591	602.68
418.967	598.39
419.344	616.24
419.721	608.78
420.098	594.55
420.475	619.86
420.852	613.08
421.228	627.31
421.605	639.52
421.982	627.77
422.358	638.61
422.735	648.78
423.111	655.11
423.488	643.58
423.864	646.3
424.241	668.89
424.617	674.77
424.994	677.26
425.37	685.39
425.746	672.06
426.123	704.15
426.499	703.02
426.875	672.28
427.251	695.56
427.627	707.99
428.003	715.67
428.379	713.87
428.756	719.06
429.132	739.63
429.507	731.94
429.883	764.94
430.259	756.35
430.635	780.98
431.011	788.89
431.387	774.88
431.763	773.75
432.138	796.12
432.514	771.72
432.89	783.69
433.265	801.09
433.641	790.25
434.016	818.95
434.392	834.09
434.767	834.31
435.143	832.28
435.518	816.69
435.894	878.61
436.269	879.51
436.644	887.42
437.02	877.93
437.395	897.14
437.77	883.58
438.145	912.28
438.52	913.86
438.895	901.88
439.271	923.8
439.646	927.87
440.021	946.4
440.395	942.33
440.77	937.36
441.145	959.51
441.52	959.51
441.895	951.37
442.27	982.56
442.645	955.44
443.019	976.01
443.394	985.95
443.769	972.39
444.143	995.21
444.518	1006.74
444.892	988.21
445.267	1025.27
445.641	1030.02
446.016	1023.46
446.39	1040.41
446.764	1021.43
447.139	1037.47
447.513	1041.54
447.887	1049
448.262	1047.42
448.636	1023.24
449.01	1082.44
449.384	1095.1
449.758	1085.61
450.132	1083.8
450.506	1108.21
450.88	1088.77
451.254	1134.19
451.628	1124.7
452.002	1122.89
452.376	1155.44
452.75	1121.31
453.123	1154.76
453.497	1150.46
453.871	1187.53
454.244	1212.16
454.618	1217.81
454.992	1234.76
455.365	1249.22
455.739	1235.43
456.112	1259.16
456.486	1293.51
456.859	1263
457.232	1302.55
457.606	1281.08
457.979	1325.15
458.352	1342.78
458.725	1346.39
459.099	1352.72
459.472	1367.41
459.845	1378.71
460.218	1367.86
460.591	1417.35
460.964	1393.17
461.337	1451.02
461.71	1471.13
462.083	1500.29
462.456	1460.74
462.829	1492.38
463.201	1503.45
463.574	1506.84
463.947	1521.75
464.32	1587.29
464.692	1571.02
465.065	1586.84
465.438	1632.49
465.81	1626.38
466.183	1627.29
466.555	1688.98
466.928	1668.42
467.3	1641.98
467.672	1691.92
468.045	1714.52
468.417	1757.45
468.789	1732.6
469.161	1779.83
469.534	1828.19
469.906	1816.89
470.278	1832.71
470.65	1862.31
471.022	1901.86
471.394	1936.66
471.766	1914.96
472.138	1957
472.51	2009.65
472.882	2008.52
473.253	2018.92
473.625	2055.53
473.997	2086.48
474.369	2093.26
474.74	2156.77
475.112	2168.52
475.484	2187.27
475.855	2240.6
476.227	2234.96
476.598	2309.76
476.97	2331.22
477.341	2375.29
477.713	2370.77
478.084	2434.5
478.455	2442.41
478.827	2501.84
479.198	2546.81
479.569	2552.69
479.94	2649.63
480.311	2628.62
480.682	2676.3
481.053	2754.72
481.424	2768.27
481.795	2809.18
482.166	2854.83
482.537	2887.37
482.908	2930.53
483.279	2957.87
483.65	2993.35
484.021	3056.4
484.391	3089.17
484.762	3125.78
485.133	3181.15
485.503	3204.2
485.874	3252.33
486.244	3327.13
486.615	3347.47
486.985	3382.5
487.356	3459.56
487.726	3483.28
488.097	3541.59
488.467	3542.94
488.837	3578.87
489.207	3635.82
489.578	3682.6
489.948	3777.51
490.318	3764.18
490.688	3757.4
491.058	3852.77
491.428	3891.41
491.798	3898.87
492.168	3993.33
492.538	3984.29
492.908	4064.96
493.278	4111.52
493.648	4131.18
494.017	4161.23
494.387	4186.99
494.757	4284.62
495.126	4261.12
495.496	4272.42
495.866	4313.32
496.235	4339.76
496.605	4398.74
496.974	4417.27
497.344	4480.09
497.713	4480.77
498.082	4517.16
498.452	4555.8
498.821	4617.94
499.19	4621.56
499.559	4672.63
499.928	4667.89
500.298	4699.07
500.667	4744.04
501.036	4757.15
501.405	4819.07
501.774	4813.87
502.143	4861.33
502.512	4886.64
502.88	4923.47
503.249	4913.3
503.618	4990.59
503.987	4987.65
504.356	5058.38
504.724	5063.13
505.093	5066.97
505.462	5132.28
505.83	5116.91
506.199	5224.26
506.567	5263.8
506.936	5278.72
507.304	5328.66
507.672	5363.23
508.041	5317.13
508.409	5404.82
508.777	5492.27
509.145	5488.43
509.514	5511.48
509.882	5549.44
510.25	5557.13
510.618	5613.17
510.986	5612.27
511.354	5702.43
511.722	5755.77
512.09	5795.99
512.458	5738.59
512.826	5834.18
513.193	5921.86
513.561	5889.32
513.929	5959.15
514.297	5951.92
514.664	6016.55
515.032	6058.13
515.4	6139.03
515.767	6122.76
516.135	6155.3
516.502	6188.52
516.869	6257.67
517.237	6282.76
517.604	6282.31
517.972	6447.05
518.339	6425.58
518.706	6430.1
519.073	6496.99
519.44	6504.9
519.808	6632.81
520.175	6562.3
520.542	6733.37
520.909	6688.4
521.276	6722.75
521.643	6798.23
522.009	6847.94
522.376	6910.31
522.743	6974.49
523.11	7029.86
523.477	7067.82
523.843	7179.46
524.21	7193.92
524.577	7196.41
524.943	7296.74
525.31	7288.83
525.676	7435.04
526.043	7445.21
526.409	7462.39
526.776	7485.89
527.142	7617.64
527.508	7633.46
527.874	7689.5
528.241	7679.11
528.607	7754.13
528.973	7782.38
529.339	7865.09
529.705	7963.84
530.071	8018.76
530.437	7997.52
530.803	8073.45
531.169	8103.95
531.535	8162.71
531.901	8170.39
532.267	8195.48
532.632	8262.14
532.998	8282.93
533.364	8339.2
533.73	8355.47
534.095	8402.7
534.461	8447.22
534.826	8488.58
535.192	8529.71
535.557	8608.8
535.923	8606.54
536.288	8623.94
536.653	8689.93
537.019	8668.46
537.384	8761.56
537.749	8772.64
538.114	8808.79
538.479	8853.99
538.845	8828.45
539.21	8852.86
539.575	8891.73
539.94	8879.98
540.305	9006.53
540.67	8979.18
541.034	9001.33
541.399	9131.5
541.764	9087.43
542.129	9163.13
542.494	9154.55
542.858	9214.88
543.223	9214.66
543.587	9252.85
543.952	9290.14
544.316	9362.23
544.681	9368.55
545.045	9379.17
545.41	9482
545.774	9492.62
546.138	9442.22
546.503	9495.1
546.867	9536.23
547.231	9634.76
547.595	9649.22
547.959	9592.05
548.324	9747.07
548.688	9683.12
549.052	9726.96
549.416	9764.02
549.779	9765.38
550.143	9846.51
550.507	9895.32
550.871	9913.85
551.235	9790.01
551.599	9948.42
551.962	10031.13
552.326	10009.44
552.689	10050.8
553.053	10039.95
553.417	10082.43
553.78	10262.99
554.143	10176.22
554.507	10259.15
554.87	10280.62
555.234	10458.02
555.597	10338.7
555.96	10325.36
556.323	10466.83
556.686	10449.43
557.05	10493.04
557.413	10635.86
557.776	10591.8
558.139	10633.6
558.502	10713.6
558.865	10752.92
559.228	10783.88
559.59	10833.37
559.953	10899.81
560.316	10980.26
560.679	10911.56
561.041	11019.13
561.404	11087.83
561.767	11112.24
562.129	11175.06
562.492	11291.89
562.854	11253.48
563.217	11324.66
563.579	11394.94
563.941	11464.54
564.304	11482.4
564.666	11558.55
565.028	11548.61
565.39	11640.36
565.753	11661.6
566.115	11711.32
566.477	11785.44
566.839	11777.53
567.201	11923.97
567.563	11897.53
567.925	11941.82
568.287	11882.39
568.648	12005.55
569.01	12039.9
569.372	12088.26
569.734	12010.52
570.095	12192.66
570.457	12205.54
570.819	12228.14
571.18	12283.96
571.542	12435.82
571.903	12435.37
572.265	12455.25
572.626	12420.9
572.987	12534.35
573.349	12582.93
573.71	12625.19
574.071	12597.62
574.432	12606.21
574.794	12729.37
575.155	12684.17
575.516	12700.22
575.877	12787.22
576.238	12762.14
576.599	12804.62
576.96	12783.38
577.32	12845.07
577.681	12991.73
578.042	12918.97
578.403	12947.67
578.763	12946.76
579.124	12899.99
579.485	13050.26
579.845	13079.19
580.206	13061.34
580.566	13092.97
580.927	13041.45
581.287	13091.85
581.648	13045.07
582.008	13117.83
582.368	13191.73
582.728	13145.18
583.089	13079.64
583.449	13144.95
583.809	13204.16
584.169	13138.4
584.529	13213.65
584.889	13298.39
585.249	13138.85
585.609	13125.52
585.969	13274.21
586.329	13227.21
586.688	13204.84
587.048	13243.03
587.408	13103.37
587.768	13174.78
588.127	13182.46
588.487	13163.71
588.846	13281.22
589.206	13198.51
589.565	13171.16
589.925	13171.16
590.284	13169.81
590.643	13234.67
591.003	13215.68
591.362	13322.8
591.721	13249.13
592.08	13260.65
592.44	13301.78
592.799	13245.97
593.158	13230.37
593.517	13264.27
593.876	13266.3
594.235	13334.1
594.593	13302.91
594.952	13292.74
595.311	13280.09
595.67	13374.32
596.029	13418.84
596.387	13378.39
596.746	13436.24
597.104	13357.15
597.463	13349.92
597.822	13421.78
598.18	13283.48
598.538	13319.64
598.897	13435.79
599.255	13295.68
599.613	13555.34
599.972	13446.19
600.33	13445.28
600.688	13457.26
601.046	13450.03
601.404	13551.72
601.762	13474.89
602.12	13603.47
602.478	13562.79
602.836	13485.06
603.194	13537.03
603.552	13539.06
603.91	13480.31
604.268	13598.95
604.625	13555.34
604.983	13673.07
605.341	13534.55
605.698	13657.93
606.056	13667.88
606.413	13624.03
606.771	13662.45
607.128	13752.84
607.485	13640.98
607.843	13680.98
608.2	13720.76
608.557	13810.24
608.914	13764.82
609.272	13806.4
609.629	13839.17
609.986	13927.08
610.343	13771.6
610.7	13852.05
611.057	13831.94
611.414	13888.66
611.771	13943.35
612.127	13881.2
612.484	13967.98
612.841	13937.02
613.198	13887.76
613.554	13962.56
613.911	14039.62
614.267	14079.62
614.624	14000.52
614.98	13974.31
615.337	14076.68
615.693	13928.66
616.05	13930.47
616.406	14056.34
616.762	14063.12
617.118	14029.67
617.475	14054.31
617.831	14096.79
618.187	14103.57
618.543	14114.19
618.899	14280.97
619.255	14164.13
619.611	14128.88
619.967	14124.81
620.323	14259.27
620.678	14211.14
621.034	14120.07
621.39	14179.95
621.746	14121.2
622.101	14378.14
622.457	14235.09
622.812	14226.73
623.168	14186.51
623.523	14236
623.879	14230.12
624.234	14149.67
624.589	14243
624.945	14213.17
625.3	14213.62
625.655	14252.04
626.01	14243
626.365	14279.61
626.72	14214.08
627.075	14229.22
627.43	14261.98
627.785	14190.57
628.14	14301.76
628.495	14222.44
628.85	14137.24
629.205	14269.22
629.559	14277.58
629.914	14168.2
630.269	14199.39
630.623	14199.16
630.978	14115.32
631.332	14202.55
631.687	14159.39
632.041	14125.49
632.396	14120.97
632.75	13998.49
633.104	14110.12
633.459	14094.08
633.813	14035.32
634.167	14078.26
634.521	14075.1
634.875	14092.5
635.229	14047.53
635.583	13996
635.937	13968.66
636.291	13922.56
636.645	13907.42
636.999	13909.68
637.352	13950.81
637.706	13875.55
638.06	13880.52
638.413	13908.09
638.767	13826.06
639.121	13970.24
639.474	13874.42
639.828	13796.91
640.181	13818.15
640.534	13768.66
640.888	13778.15
641.241	13751.26
641.594	13774.31
641.947	13797.36
642.301	13730.7
642.654	13753.97
643.007	13693.19
643.36	13646.63
643.713	13607.31
644.066	13663.58
644.419	13651.15
644.771	13536.13
645.124	13323.25
645.477	13340.43
645.83	13260.43
646.182	13245.06
646.535	13213.88
646.888	13183.59
647.24	13109.92
647.593	13188.57
647.945	13179.07
648.298	13075.35
648.65	13085.97
649.002	13125.97
649.355	13048
649.707	12994.67
650.059	13145.63
650.411	13299.98
650.763	13307.88
651.115	13386.75
651.467	13419.97
651.819	13354.44
652.171	13342.91
652.523	13308.79
652.875	13250.71
653.227	13242.8
653.578	13323.03
653.93	13271.5
654.282	13225.85
654.633	13222.69
654.985	13266.08
655.337	13235.34
655.688	13269.24
656.039	13229.69
656.391	13057.27
656.742	13135.69
657.094	13086.42
657.445	13185.18
657.796	13167.32
658.147	13126.65
658.498	13160.77
658.849	13078.29
659.2	13125.74
659.551	13072.64
659.902	13144.95
660.253	13078.96
660.604	13157.83
660.955	13077.83
661.306	13136.59
661.656	12997.16
662.007	13042.13
662.358	13055.46
662.708	13116.93
663.059	13053.2
663.409	12965.97
663.76	12988.8
664.11	13035.12
664.461	13014.11
664.811	13024.73
665.161	12979.53
665.511	12965.07
665.862	13028.8
666.212	12990.83
666.562	12972.75
666.912	12965.97
667.262	12997.61
667.612	12887.1
667.962	13033.99
668.312	12878.97
668.662	13016.37
669.011	12962.13
669.361	12882.58
669.711	12892.3
670.06	12925.97
670.41	12911.74
670.76	12918.74
671.109	12897.27
671.459	12894.34
671.808	12810.04
672.157	12832.42
672.507	12817.05
672.856	12804.62
673.205	12759.2
673.554	12808.69
673.904	12806.43
674.253	12849.82
674.602	12819.54
674.951	12614.34
675.3	12484.4
675.649	12770.05
675.998	12711.29
676.346	12741.35
676.695	12821.8
677.044	12703.38
677.393	12633.1
677.741	12728.24
678.09	12686.88
678.438	12646.21
678.787	12679.2
679.135	12707.67
679.484	12613.21
679.832	12695.02
680.181	12557.85
680.529	12571.41
680.877	12562.37
681.225	12528.24
681.573	12644.63
681.922	12501.13
682.27	12501.8
682.618	12528.47
682.966	12431.07
683.314	12438.75
683.661	12464.97
684.009	12391.75
684.357	12352.43
684.705	12329.38
685.053	12346.1
685.4	12333.67
685.748	12308.14
686.095	12237.86
686.443	12276.95
686.79	12269.49
687.138	12204.41
687.485	12285.31
687.832	12125.54
688.18	12230.4
688.527	12110.18
688.874	12091.65
689.221	12126.67
689.568	12042.83
689.915	12027.92
690.262	12007.35
690.609	11996.51
690.956	11971.42
691.303	11885.1
691.65	11878.09
691.997	11897.53
692.344	11772.78
692.69	11781.82
693.037	11806.46
693.383	11648.04
693.73	11707.93
694.077	11666.35
694.423	11607.14
694.769	11529.17
695.116	11568.27
695.462	11632.45
695.808	11577.76
696.155	11558.33
696.501	11403.08
696.847	11454.37
697.193	11429.29
697.539	11408.95
697.885	11369.63
698.231	11250.99
698.577	11280.59
698.923	11276.75
699.269	11159.92
699.614	11136.19
699.96	11176.42
700.306	11146.36
700.651	11095.06
700.997	11107.94
701.342	11002.86
701.688	11014.84
702.033	10992.47
702.379	11004.67
702.724	10980.49
703.069	10924.9
703.415	10835.18
703.76	10885.12
704.105	10764.67
704.45	10804.22
704.795	10732.59
705.14	10651.01
705.485	10716.31
705.83	10662.98
706.175	10704.79
706.52	10607.84
706.865	10597.45
707.209	10630.89
707.554	10536.66
707.899	10601.74
708.243	10535.3
708.588	10489.43
708.932	10445.59
709.277	10435.64
709.621	10452.82
709.966	10434.97
710.31	10334.63
710.654	10266.61
710.998	10339.15
711.342	10320.62
711.687	10314.52
712.031	10322.2
712.375	10224.12
712.719	10289.66
713.063	10201.53
713.407	10270.45
713.75	10233.39
714.094	10136.22
714.438	10143.45
714.782	10163.56
715.125	10085.82
715.469	10149.55
715.812	10083.56
716.156	10011.7
716.499	9996.33
716.843	10055.09
717.186	10028.2
717.53	9968.76
717.873	9977.8
718.216	9977.58
718.559	9894.87
718.902	9828.88
719.246	9962.21
719.589	9870.23
719.932	9796.56
720.275	9771.03
720.617	9791.82
720.96	9722.44
721.303	9818.26
721.646	9728.32
721.989	9708.66
722.331	9723.35
722.674	9764.93
723.016	9651.48
723.359	9685.15
723.701	9702.78
724.044	9628.66
724.386	9582.11
724.729	9676.34
725.071	9597.47
725.413	9615.55
725.755	9596.57
726.097	9521.77
726.439	9534.42
726.782	9453.3
727.124	9522.22
727.465	9519.51
727.807	9471.38
728.149	9510.47
728.491	9477.7
728.833	9479.28
729.175	9448.1
729.516	9425.05
729.858	9410.81
730.199	9438.38
730.541	9351.38
730.882	9356.35
731.224	9341.89
731.565	9284.04
731.906	9282
732.248	9356.35
732.589	9280.19
732.93	9211.95
733.271	9247.88
733.612	9190.93
733.953	9254.66
734.294	9203.36
734.635	9151.38
734.976	9232.29
735.317	9086.75
735.658	9166.75
735.999	9131.27
736.339	9088.79
736.68	9196.58
737.021	9109.58
737.361	9081.1
737.702	9073.42
738.042	9161.33
738.383	9048.56
738.723	9032.74
739.063	8976.92
739.404	8959.07
739.744	9033.87
740.084	8950.94
740.424	8994.1
740.764	8979.18
741.104	8985.29
741.444	8994.78
741.784	8956.81
742.124	8903.03
742.464	8942.8
742.804	8895.12
743.143	8852.63
743.483	8824.39
743.823	8767.44
744.162	8795.69
744.502	8782.58
744.841	8792.07
745.181	8853.31
745.52	8801.34
745.86	8771.28
746.199	8740.55
746.538	8729.7
746.877	8704.39
747.216	8677.5
747.556	8642.24
747.895	8669.81
748.234	8637.95
748.573	8576.03
748.911	8673.43
749.25	8574.9
749.589	8561.57
749.928	8583.26
750.267	8619.65
750.605	8556.37
750.944	8553.89
751.283	8458.75
751.621	8534.9
751.96	8465.98
752.298	8456.49
752.636	8484.06
752.975	8418.52
753.313	8438.18
753.651	8404.96
753.989	8404.51
754.327	8402.02
754.666	8310.5
755.004	8365.19
755.342	8401.35
755.679	8302.37
756.017	8278.86
756.355	8311.63
756.693	8267.57
757.031	8302.14
757.368	8196.15
757.706	8248.36
758.044	8223.27
758.381	8232.09
758.719	8149.38
759.056	8172.2
759.394	8104.41
759.731	8050.85
760.068	8065.54
760.405	8007.91
760.743	7991.41
