Data from black_plastic_tray_FLMS001491_091.txt Node
Date: Tue Feb 07 10:41:02 GMT 2017
User: dcchb
Spectrometer: FLMS00149
Trigger mode: 0
Integration Time (sec): 2.000000E-2
Scans to average: 10
Electric dark correction enabled: true
Nonlinearity correction enabled: false
Boxcar width: 0
XAxis mode: Wavelengths
Number of Pixels in Spectrum: 2048
>>>>>Begin Spectral Data<<<<<
341.393	-6.14
341.776	-6.14
342.16	-6.14
342.543	-56.31
342.927	-59.48
343.31	-75.97
343.693	-70.55
344.077	-70.77
344.46	-100.38
344.843	-54.5
345.226	-46.59
345.61	-38.46
345.993	-16.77
346.376	24.82
346.759	13.52
347.142	30.92
347.525	51.26
347.908	71.82
348.291	72.72
348.674	101.2
349.057	107.75
349.44	123.8
349.823	120.86
350.206	153.17
350.588	179.16
350.971	206.05
351.354	194.08
351.737	243.12
352.119	237.01
352.502	245.83
352.884	235.88
353.267	268.2
353.65	279.05
354.032	252.61
354.414	284.92
354.797	288.76
355.179	324.02
355.562	283.11
355.944	297.12
356.326	307.29
356.709	291.7
357.091	325.6
357.473	317.01
357.855	319.95
358.238	330.12
358.62	325.6
359.002	312.04
359.384	320.63
359.766	328.76
360.148	321.08
360.53	303.9
360.912	316.11
361.294	300.97
361.676	307.75
362.057	326.95
362.439	311.36
362.821	308.2
363.203	295.77
363.584	313.17
363.966	318.14
364.348	316.56
364.729	312.72
365.111	294.19
365.493	309.1
365.874	311.59
366.256	315.2
366.637	294.64
367.019	280.63
367.4	298.48
367.781	291.93
368.163	304.58
368.544	285.6
368.925	308.2
369.306	305.49
369.688	324.24
370.069	298.48
370.45	309.55
370.831	291.02
371.212	327.18
371.593	291.48
371.974	307.75
372.355	285.6
372.736	285.15
373.117	293.28
373.498	295.09
373.879	274.07
374.26	305.71
374.641	305.71
375.021	322.66
375.402	314.75
375.783	314.98
376.163	293.28
376.544	312.72
376.925	332.38
377.305	321.76
377.686	310.91
378.066	326.95
378.447	308.88
378.827	310.46
379.208	324.24
379.588	309.33
379.968	306.39
380.349	325.82
380.729	324.02
381.109	347.52
381.489	348.42
381.87	322.21
382.25	325.6
382.63	303.45
383.01	325.15
383.39	315.66
383.77	341.64
384.15	335.54
384.53	344.81
384.91	355.43
385.29	330.57
385.67	349.33
386.049	328.54
386.429	327.63
386.809	344.13
387.189	328.08
387.568	347.07
387.948	325.82
388.328	347.52
388.707	340.97
389.087	368.54
389.466	340.29
389.846	348.42
390.225	342.1
390.605	345.03
390.984	345.03
391.363	354.98
391.743	338.93
392.122	338.25
392.501	360.63
392.881	359.95
393.26	375.77
393.639	361.98
394.018	353.39
394.397	365.37
394.776	355.43
395.155	388.87
395.534	364.24
395.913	368.76
396.292	382.55
396.671	375.54
397.05	371.7
397.429	369.44
397.808	364.24
398.186	367.63
398.565	366.73
398.944	387.07
399.323	397.01
399.701	383.45
400.08	377.12
400.458	375.54
400.837	392.04
401.215	376.67
401.594	399.5
401.972	391.81
402.351	391.59
402.729	404.47
403.107	387.07
403.486	414.18
403.864	396.11
404.242	391.13
404.62	420.74
404.999	401.3
405.377	430
405.755	417.57
406.133	424.35
406.511	411.7
406.889	398.14
407.267	420.51
407.645	425.26
408.023	431.13
408.401	432.94
408.779	425.94
409.156	423.9
409.534	433.39
409.912	458.7
410.29	466.16
410.667	456.89
411.045	467.29
411.422	473.84
411.8	480.85
412.178	454.86
412.555	446.95
412.933	477.01
413.31	463.45
413.687	468.65
414.065	485.82
414.442	467.74
414.819	480.17
415.197	483.56
415.574	510
415.951	492.15
416.328	482.2
416.705	484.24
417.082	519.04
417.46	484.01
417.837	488.53
418.214	499.61
418.591	514.52
418.967	495.31
419.344	507.06
419.721	522.43
420.098	499.38
420.475	520.4
420.852	505.03
421.228	543.45
421.605	531.47
421.982	529.66
422.358	534.41
422.735	566.04
423.111	542.54
423.488	540.51
423.864	554.29
424.241	545.25
424.617	553.62
424.994	557.23
425.37	555.65
425.746	565.82
426.123	563.33
426.499	572.6
426.875	575.99
427.251	584.35
427.627	561.98
428.003	568.76
428.379	587.96
428.756	624.8
429.132	609.89
429.507	611.69
429.883	604.91
430.259	615.31
430.635	618.25
431.011	607.63
431.387	619.38
431.763	653.27
432.138	653.05
432.514	639.04
432.89	636.33
433.265	645.59
433.641	671.13
434.016	683.33
434.392	684.46
434.767	684.46
435.143	688.53
435.518	674.52
435.894	687.17
436.269	710.45
436.644	709.54
437.02	700.5
437.395	714.06
437.77	724.23
438.145	724.91
438.52	728.53
438.895	737.79
439.271	753.38
439.646	742.99
440.021	740.96
440.395	749.99
440.77	739.15
441.145	734.18
441.52	760.39
441.895	774.63
442.27	760.62
442.645	783.21
443.019	776.21
443.394	792.93
443.769	797.22
444.143	800.39
444.518	806.49
444.892	792.03
445.267	790.22
445.641	794.96
446.016	799.71
446.39	813.95
446.764	777.79
447.139	791.35
447.513	811.24
447.887	821.18
448.262	834.74
448.636	825.47
449.01	856.21
449.384	864.12
449.758	855.98
450.132	865.25
450.506	870.22
450.88	863.44
451.254	858.47
451.628	879.71
452.002	886.71
452.376	884.23
452.75	896.21
453.123	870.22
453.497	862.08
453.871	931.68
454.244	950.44
454.618	937.11
454.992	954.06
455.365	935.75
455.739	972.14
456.112	971.23
456.486	987.05
456.859	1015.3
457.232	1014.39
457.606	972.14
457.979	1007.61
458.352	1023.21
458.725	1017.11
459.099	1033.83
459.472	1048.07
459.845	1039.03
460.218	1062.3
460.591	1094.62
460.964	1100.27
461.337	1130.1
461.71	1114.5
462.083	1131.45
462.456	1112.02
462.829	1140.72
463.201	1140.04
463.574	1171.68
463.947	1216.87
464.32	1196.31
464.692	1198.8
465.065	1178.46
465.438	1220.49
465.81	1245.57
466.183	1225.69
466.555	1269.75
466.928	1259.81
467.3	1281.28
467.672	1310.66
468.045	1338.45
468.417	1340.94
468.789	1329.19
469.161	1327.61
469.534	1358.11
469.906	1387.49
470.278	1356.76
470.65	1420.03
471.022	1436.76
471.394	1468.39
471.766	1476.53
472.138	1488.05
472.51	1474.04
472.882	1518.56
473.253	1536.64
473.625	1537.32
473.997	1582.51
474.369	1578
474.74	1598.11
475.112	1644.89
475.484	1664.09
475.855	1653.93
476.227	1683.98
476.598	1726.47
476.97	1740.93
477.341	1780.25
477.713	1783.41
478.084	1816.41
478.455	1853.24
478.827	1837.2
479.198	1895.5
479.569	1904.99
479.94	1932.56
480.311	1959.45
480.682	2007.36
481.053	1999
481.424	2051.66
481.795	2081.26
482.166	2127.59
482.537	2132.56
482.908	2185.44
483.279	2213.68
483.65	2246
484.021	2263.17
484.391	2279.9
484.762	2296.85
485.133	2346.79
485.503	2361.03
485.874	2412.55
486.244	2409.84
486.615	2490.06
486.985	2465.88
487.356	2549.04
487.726	2564.18
488.097	2558.08
488.467	2604.41
488.837	2669.04
489.207	2645.76
489.578	2700.9
489.948	2721.92
490.318	2780.22
490.688	2757.85
491.058	2797.85
491.428	2834.01
491.798	2881.69
492.168	2924.17
492.538	2944.29
492.908	2975.92
493.278	2985.19
493.648	3012.99
494.017	3031.29
494.387	3085.3
494.757	3137.73
495.126	3101.8
495.496	3141.12
495.866	3148.8
496.235	3180.44
496.605	3227.22
496.974	3264.5
497.344	3268.12
497.713	3287.78
498.082	3340.43
498.452	3360.1
498.821	3344.05
499.19	3347.67
499.559	3405.97
499.928	3422.24
500.298	3468.12
500.667	3508.11
501.036	3483.48
501.405	3525.74
501.774	3501.33
502.143	3572.52
502.512	3559.41
502.88	3595.8
503.249	3577.26
503.618	3619.98
503.987	3660.65
504.356	3703.82
504.724	3697.26
505.093	3725.51
505.462	3763.02
505.83	3779.29
506.199	3800.99
506.567	3816.13
506.936	3835.56
507.304	3856.13
507.672	3868.1
508.041	3939.74
508.409	3939.06
508.777	3940.64
509.145	3998.27
509.514	3991.49
509.882	4050.92
510.25	4075.33
510.618	4078.27
510.986	4063.13
511.354	4185.84
511.722	4185.16
512.09	4191.26
512.458	4163.01
512.826	4253.41
513.193	4233.29
513.561	4231.71
513.929	4314.19
514.297	4339.73
514.664	4346.74
515.032	4433.51
515.4	4386.28
515.767	4427.41
516.135	4446.17
516.502	4478.26
516.869	4531.59
517.237	4583.57
517.604	4600.51
517.972	4669.67
518.339	4663.11
518.706	4681.42
519.073	4708.08
519.44	4779.27
519.808	4810.45
520.175	4821.3
520.542	4824.46
520.909	4906.95
521.276	4895.2
521.643	4940.84
522.009	4986.27
522.376	5012.48
522.743	5017.9
523.11	5066.94
523.477	5122.99
523.843	5120.05
524.21	5214.74
524.577	5198.69
524.943	5229.88
525.31	5328.18
525.676	5313.04
526.043	5351.46
526.409	5396.43
526.776	5464.22
527.142	5468.29
527.508	5522.52
527.874	5594.16
528.241	5584.22
528.607	5589.87
528.973	5680.03
529.339	5659.7
529.705	5709.41
530.071	5754.16
530.437	5734.27
530.803	5837.32
531.169	5845.45
531.535	5818.34
531.901	5864.21
532.267	5925.68
532.632	5968.39
532.998	5967.26
533.364	5999.35
533.73	6020.59
534.095	6073.47
534.461	6096.52
534.826	6058.78
535.192	6144.2
535.557	6167.93
535.923	6182.17
536.288	6220.13
536.653	6256.97
537.019	6274.14
537.384	6250.64
537.749	6293.8
538.114	6296.74
538.479	6368.15
538.845	6328.83
539.21	6401.6
539.575	6424.2
539.94	6450.18
540.305	6489.96
540.67	6445.44
541.034	6529.96
541.399	6567.47
541.764	6560.46
542.129	6540.35
542.494	6614.02
542.858	6649.95
543.223	6616.96
543.587	6678.2
543.952	6682.72
544.316	6710.74
544.681	6779.44
545.045	6814.47
545.41	6805.43
545.774	6811.76
546.138	6853.56
546.503	6785.32
546.867	6816.28
547.231	6899.21
547.595	6868.93
547.959	6919.78
548.324	6939.66
548.688	6952.54
549.052	7005.2
549.416	7008.36
549.779	7042.26
550.143	7085.42
550.507	7152.31
550.871	7116.61
551.235	7134.46
551.599	7177.62
551.962	7121.35
552.326	7193.67
552.689	7256.26
553.053	7236.15
553.417	7182.37
553.78	7365.41
554.143	7341.01
554.507	7370.84
554.87	7433.43
555.234	7394.57
555.597	7464.62
555.96	7463.26
556.323	7523.6
556.686	7499.87
557.05	7559.08
557.413	7603.83
557.776	7572.87
558.139	7675.46
558.502	7730.15
558.865	7712.07
559.228	7844.05
559.59	7810.37
559.953	7894.21
560.316	7932.4
560.679	7857.38
561.041	7942.8
561.404	7955.91
561.767	8037.49
562.129	8010.14
562.492	8096.92
562.854	8063.25
563.217	8122
563.579	8127.88
563.941	8198.61
564.304	8211.95
564.666	8269.57
565.028	8265.95
565.39	8297.82
565.753	8359.74
566.115	8365.16
566.477	8401.32
566.839	8448.1
567.201	8538.04
567.563	8545.5
567.925	8552.5
568.287	8561.31
568.648	8635.21
569.01	8675.66
569.372	8696.68
569.734	8631.37
570.095	8740.07
570.457	8785.72
570.819	8759.95
571.18	8790.01
571.542	8766.96
571.903	8855.09
572.265	8888.31
572.626	8879.95
572.987	8912.72
573.349	8923.56
573.71	8998.37
574.071	9010.12
574.432	9067.29
574.794	9124.01
575.155	9063.9
575.516	9056.89
575.877	9099.83
576.238	9151.58
576.599	9140.73
576.96	9168.3
577.32	9222.54
577.681	9163.33
578.042	9302.54
578.403	9281.97
578.763	9299.37
579.124	9319.71
579.485	9359.49
579.845	9353.16
580.206	9328.3
580.566	9299.15
580.927	9363.55
581.287	9426.6
581.648	9375.08
582.008	9414.17
582.368	9411.69
582.728	9351.58
583.089	9378.24
583.449	9389.54
583.809	9347.28
584.169	9418.92
584.529	9429.54
584.889	9460.27
585.249	9409.88
585.609	9358.36
585.969	9408.52
586.329	9457.56
586.688	9493.49
587.048	9436.09
587.408	9430.44
587.768	9453.27
588.127	9463.66
588.487	9411.91
588.846	9482.65
589.206	9415.98
589.565	9435.19
589.925	9439.26
590.284	9365.14
590.643	9417.56
591.003	9467.96
591.362	9503.89
591.721	9438.13
592.08	9464.57
592.44	9483.32
592.799	9481.29
593.158	9461.86
593.517	9519.93
593.876	9485.58
594.235	9458.01
594.593	9475.87
594.952	9620.5
595.311	9464.57
595.67	9558.12
596.029	9546.37
596.387	9540.05
596.746	9515.19
597.104	9543.44
597.463	9600.38
597.822	9499.37
598.18	9516.77
598.538	9488.97
598.897	9578.24
599.255	9466.38
599.613	9662.75
599.972	9577.33
600.33	9603.09
600.688	9538.01
601.046	9591.12
601.404	9658.46
601.762	9597.67
602.12	9707.05
602.478	9735.97
602.836	9647.84
603.194	9658.69
603.552	9664.79
603.91	9643.55
604.268	9707.27
604.625	9649.87
604.983	9752.24
605.341	9659.59
605.698	9720.83
606.056	9676.09
606.413	9695.3
606.771	9785.24
607.128	9762.19
607.485	9674.05
607.843	9682.41
608.2	9739.14
608.557	9773.71
608.914	9766.25
609.272	9776.65
609.629	9787.27
609.986	9806.03
610.343	9813.71
610.7	9911.11
611.057	9905.23
611.414	9882.41
611.771	9910.88
612.127	9938.45
612.484	9953.59
612.841	10031.11
613.198	9932.13
613.554	9954.05
613.911	10012.58
614.267	10054.83
614.624	9922.63
614.98	9975.51
615.337	10053.03
615.693	9961.05
616.05	9979.36
616.406	10045.12
616.762	9991.33
617.118	10048.06
617.475	10011.9
617.831	10023.65
618.187	10069.75
618.543	10067.49
618.899	10114.27
619.255	10107.26
619.611	10157.66
619.967	10185.68
620.323	10138.22
620.678	10064.33
621.034	10135.74
621.39	10082.86
621.746	10091.9
622.101	10171.22
622.457	10058.68
622.812	10070.2
623.168	10188.16
623.523	10153.36
623.879	10147.71
624.234	10070.43
624.589	10111.78
624.945	10186.81
625.3	10201.5
625.655	10128.28
626.01	10167.83
626.365	10111.33
626.72	10150.43
627.075	10126.25
627.43	10168.05
627.785	10205.79
628.14	10140.93
628.495	10130.99
628.85	10168.96
629.205	10114.27
629.559	10172.35
629.914	10123.31
630.269	10073.14
630.623	10121.73
630.978	10062.74
631.332	10192.91
631.687	10154.04
632.041	10112.91
632.396	10115.4
632.75	10080.37
633.104	10090.99
633.459	9975.06
633.813	10050.31
634.167	10020.26
634.521	9923.31
634.875	9950.43
635.229	10055.06
635.583	9939.36
635.937	9924.89
636.291	9868.17
636.645	9923.54
636.999	9848.74
637.352	9869.75
637.706	9772.36
638.06	9841.96
638.413	9853.71
638.767	9759.7
639.121	9801.28
639.474	9782.53
639.828	9866.36
640.181	9773.03
640.534	9733.94
640.888	9710.66
641.241	9677.22
641.594	9666.37
641.947	9752.24
642.301	9724.22
642.654	9750.21
643.007	9747.95
643.36	9645.58
643.713	9715.18
644.066	9752.24
644.419	9628.18
644.771	9578.69
645.124	9474.74
645.477	9468.41
645.83	9375.98
646.182	9387.51
646.535	9419.37
646.888	9304.12
647.24	9258.25
647.593	9344.34
647.945	9344.12
648.298	9287.17
648.65	9297.57
649.002	9178.93
649.355	9297.57
649.707	9267.96
650.059	9310
650.411	9429.54
650.763	9474.74
651.115	9546.37
651.467	9481.52
651.819	9500.05
652.171	9424.57
652.523	9364.23
652.875	9449.65
653.227	9388.41
653.578	9506.37
653.93	9431.57
654.282	9346.38
654.633	9409.43
654.985	9420.27
655.337	9427.96
655.688	9394.74
656.039	9395.87
656.391	9359.03
656.742	9349.09
657.094	9334.85
657.445	9337.79
657.796	9368.75
658.147	9374.17
658.498	9323.33
658.849	9357.45
659.2	9362.42
659.551	9404.46
659.902	9310.67
660.253	9311.58
660.604	9340.95
660.955	9295.98
661.306	9377.56
661.656	9275.19
662.007	9254.86
662.358	9301.63
662.708	9224.57
663.059	9256.44
663.409	9130.79
663.76	9283.33
664.11	9205.82
664.461	9277.91
664.811	9306.83
665.161	9311.35
665.511	9270
665.862	9206.95
666.212	9224.12
666.562	9254.4
666.912	9202.43
667.262	9218.47
667.612	9204.91
667.962	9182.32
668.312	9159.26
668.662	9168.76
669.011	9135.99
669.361	9204.01
669.711	9123.33
670.06	9061.87
670.41	9102.54
670.76	9131.69
671.109	9140.06
671.459	9080.85
671.808	9105.71
672.157	9070.23
672.507	9131.02
672.856	9023.68
673.205	9060.28
673.554	9128.76
673.904	9117.91
674.253	9112.26
674.602	9076.78
674.951	8874.98
675.3	8901.19
675.649	9067.97
675.998	9058.7
676.346	9002.21
676.695	9101.41
677.044	9004.01
677.393	9025.93
677.741	9013.96
678.09	8983.45
678.438	9046.27
678.787	8998.14
679.135	8922.66
679.484	8931.02
679.832	8985.71
680.181	8912.27
680.529	9022.77
680.877	8890.12
681.225	8948.87
681.573	8975.31
681.922	8946.62
682.27	8872.94
682.618	8911.59
682.966	8886.05
683.314	8868.2
683.661	8823.91
684.009	8768.31
684.357	8747.75
684.705	8735.1
685.053	8838.37
685.4	8793.62
685.748	8683.35
686.095	8693.51
686.443	8630.24
686.79	8701.88
687.138	8676.79
687.485	8692.38
687.832	8630.24
688.18	8677.7
688.527	8587.98
688.874	8548.89
689.221	8555.21
689.568	8533.97
689.915	8524.93
690.262	8467.08
690.609	8482.9
690.956	8424.82
691.303	8460.75
691.65	8412.17
691.997	8352.05
692.344	8329.46
692.69	8342.79
693.037	8390.47
693.383	8282.9
693.73	8358.83
694.077	8267.99
694.423	8348.21
694.769	8322.9
695.116	8281.1
695.462	8197.03
695.808	8189.57
696.155	8180.08
696.501	8119.07
696.847	8141.66
697.193	8050.14
697.539	8162.45
697.885	8037.71
698.231	8058.95
698.577	8023.93
698.923	7999.75
699.269	7940.77
699.614	7954.1
699.96	7958.84
700.306	7930.37
700.651	7903.48
700.997	7866.87
701.342	7864.84
701.688	7891.28
702.033	7847.66
702.379	7832.75
702.724	7884.95
703.069	7834.1
703.415	7766.53
703.76	7759.08
704.105	7743.26
704.45	7735.35
704.795	7689.92
705.14	7625.97
705.485	7621
705.83	7544.84
706.175	7629.81
706.52	7557.27
706.865	7497.84
707.209	7582.36
707.554	7512.75
707.899	7548.23
708.243	7491.29
708.588	7540.78
708.932	7453.77
709.277	7467.78
709.621	7413.77
709.966	7362.48
710.31	7380.55
710.654	7356.6
710.998	7323.83
711.342	7332.87
711.687	7407.22
712.031	7345.75
712.375	7307.34
712.719	7348.24
713.063	7309.14
713.407	7331.74
713.75	7275.47
714.094	7274.34
714.438	7202.48
714.782	7224.17
715.125	7137.62
715.469	7179.66
715.812	7187.34
716.156	7112.09
716.499	7114.8
716.843	7104.4
717.186	7087.23
717.53	7089.94
717.873	7120.67
718.216	7068.92
718.559	7074.8
718.902	7019.66
719.246	7080.9
719.589	7069.38
719.932	6962.71
720.275	7008.36
720.617	6983.28
720.96	6953.9
721.303	6969.27
721.646	6972.88
721.989	6876.16
722.331	6905.31
722.674	6900.79
723.016	6889.49
723.359	6926.56
723.701	6831.64
724.044	6855.6
724.386	6840.68
724.729	6839.1
725.071	6792.55
725.413	6791.64
725.755	6807.69
726.097	6751.19
726.439	6734.92
726.782	6744.41
727.124	6761.81
727.465	6757.29
727.807	6771.98
728.149	6742.61
728.491	6753
728.833	6716.39
729.175	6656.05
729.516	6659.67
729.858	6691.53
730.199	6662.61
730.541	6669.84
730.882	6692.66
731.224	6720.68
731.565	6604.08
731.906	6623.51
732.248	6653.57
732.589	6582.61
732.93	6660.35
733.271	6538.32
733.612	6617.41
733.953	6573.12
734.294	6534.93
734.635	6530.63
734.976	6577.64
735.317	6470.75
735.658	6520.24
735.999	6488.6
736.339	6495.15
736.68	6550.52
737.021	6461.03
737.361	6462.61
737.702	6451.09
738.042	6456.06
738.383	6432.56
738.723	6452.9
739.063	6442.95
739.404	6444.53
739.744	6384.2
740.084	6380.13
740.424	6366.57
740.764	6413.8
741.104	6360.47
741.444	6388.04
741.784	6305.55
742.124	6324.76
742.464	6293.58
742.804	6276.4
743.143	6292.22
743.483	6303.97
743.823	6278.66
744.162	6303.97
744.502	6255.16
744.841	6204.54
745.181	6213.13
745.52	6270.08
745.86	6261.71
746.199	6187.37
746.538	6227.14
746.877	6231.88
747.216	6225.33
747.556	6203.18
747.895	6194.82
748.234	6200.7
748.573	6178.55
748.911	6148.72
749.25	6136.52
749.589	6084.32
749.928	6082.51
750.267	6115.28
750.605	6107.37
750.944	6120.93
751.283	6091.1
751.621	6103.75
751.96	6032.34
752.298	6022.4
752.636	6002.06
752.975	6041.83
753.313	5975.17
753.651	5997.09
753.989	5986.69
754.327	5942.85
754.666	5935.17
755.004	5978.11
755.342	5952.34
755.679	5908.73
756.017	5901.95
756.355	5914.83
756.693	5878.22
757.031	5859.46
757.368	5889.75
757.706	5839.35
758.044	5800.48
758.381	5820.37
758.719	5792.12
759.056	5856.53
759.394	5786.92
759.731	5723.65
760.068	5725.91
760.405	5732.24
760.743	5720.26
761.08	5663.99
761.417	5675.74
761.754	5651.56
762.091	5631
762.428	5618.34
762.765	5647.72
763.102	5640.71
763.438	5604.56
763.775	5547.83
764.112	5510.55
764.449	5582.64
764.785	5535.86
765.122	5523.88
765.458	5481.62
765.795	5498.34
766.131	5483.43
766.467	5451.57
766.804	5408.18
767.14	5402.98
767.476	5412.7
767.812	5364.79
768.148	5368.63
768.485	5292.02
768.821	5314.62
769.157	5294.73
769.492	5280.72
