Data from black_metal_pc_casing_FLMS001491_00073.txt Node
Date: Wed Feb 08 14:33:28 GMT 2017
User: dcchb
Spectrometer: FLMS00149
Trigger mode: 0
Integration Time (sec): 2.000000E-2
Scans to average: 10
Electric dark correction enabled: true
Nonlinearity correction enabled: false
Boxcar width: 0
XAxis mode: Wavelengths
Number of Pixels in Spectrum: 2048
>>>>>Begin Spectral Data<<<<<
341.393	0.48
341.776	0.48
342.16	0.48
342.543	-48.56
342.927	-71.83
343.31	-67.77
343.693	-75.9
344.077	-64.38
344.46	-53.98
344.843	-55.34
345.226	-50.14
345.61	-39.74
345.993	-27.77
346.376	18.11
346.759	7.71
347.142	18.33
347.525	56.75
347.908	24.43
348.291	93.59
348.674	107.37
349.057	108.73
349.44	122.06
349.823	133.58
350.206	150.76
350.588	192.57
350.971	207.03
351.354	223.3
351.737	216.75
352.119	258.55
352.502	237.76
352.884	279.34
353.267	289.74
353.65	309.17
354.032	293.81
354.414	285.44
354.797	303.52
355.179	295.39
355.562	306.23
355.944	309.17
356.326	324.77
356.709	334.48
357.091	303.52
357.473	339.45
357.855	335.61
358.238	338.78
358.62	333.8
359.002	346.01
359.384	346.69
359.766	331.32
360.148	324.09
360.53	335.61
360.912	331.54
361.294	353.92
361.676	332.9
362.057	325.22
362.439	318.89
362.821	334.93
363.203	331.77
363.584	326.35
363.966	322.51
364.348	307.82
364.729	342.39
365.111	319.57
365.493	324.54
365.874	316.4
366.256	317.76
366.637	320.7
367.019	323.64
367.4	327.48
367.781	309.62
368.163	314.6
368.544	311.43
368.925	301.94
369.306	323.18
369.688	299
370.069	306.69
370.45	302.17
370.831	308.72
371.212	308.27
371.593	314.6
371.974	303.3
372.355	319.57
372.736	332
373.117	323.64
373.498	301.49
373.879	325.22
374.26	334.48
374.641	334.71
375.021	304.2
375.402	317.53
375.783	339.91
376.163	367.02
376.544	341.04
376.925	335.39
377.305	341.94
377.686	330.19
378.066	348.49
378.447	330.42
378.827	350.75
379.208	356.18
379.588	342.62
379.968	360.24
380.349	366.35
380.729	341.49
381.109	353.47
381.489	357.31
381.87	352.34
382.25	353.24
382.63	330.19
383.01	361.15
383.39	367.93
383.77	362.5
384.15	366.12
384.53	379
384.91	387.14
385.29	368.61
385.67	364.76
386.049	379.45
386.429	359.11
386.809	378.32
387.189	376.97
387.568	383.97
387.948	347.82
388.328	364.09
388.707	395.5
389.087	381.49
389.466	404.76
389.846	379
390.225	389.4
390.605	403.63
390.984	395.27
391.363	398.66
391.743	385.55
392.122	397.76
392.501	414.71
392.881	395.05
393.26	417.64
393.639	386.46
394.018	416.29
394.397	420.13
394.776	410.64
395.155	403.41
395.534	417.64
395.913	413.35
396.292	437.08
396.671	438.43
397.05	444.31
397.429	413.12
397.808	433.69
398.186	447.47
398.565	423.97
398.944	432.11
399.323	449.51
399.701	435.72
400.08	466.23
400.458	481.82
400.837	447.47
401.215	474.37
401.594	467.13
401.972	442.5
402.351	464.42
402.729	473.69
403.107	462.39
403.486	454.71
403.864	481.82
404.242	478.89
404.62	465.1
404.999	477.53
405.377	483.18
405.755	480.69
406.133	475.5
406.511	483.86
406.889	488.38
407.267	489.51
407.645	500.81
408.023	506.91
408.401	522.5
408.779	507.13
409.156	498.77
409.534	539
409.912	532.44
410.29	531.31
410.667	524.53
411.045	523.86
411.422	529.05
411.8	526.57
412.178	565.21
412.555	551.43
412.933	553.46
413.31	578.54
413.687	563.18
414.065	571.76
414.442	588.49
414.819	568.15
415.197	577.87
415.574	611.76
415.951	602.5
416.328	592.78
416.705	604.53
417.082	609.05
417.46	612.67
417.837	615.61
418.214	601.82
418.591	599.56
418.967	614.48
419.344	629.39
419.721	625.32
420.098	627.36
420.475	659.9
420.852	648.6
421.228	644.98
421.605	655.38
421.982	667.36
422.358	673.46
422.735	679.56
423.111	698.54
423.488	669.39
423.864	691.54
424.241	686.79
424.617	710.29
424.994	716.62
425.37	683.85
425.746	698.99
426.123	708.26
426.499	686.34
426.875	718.43
427.251	730.86
427.627	751.87
428.003	768.14
428.379	762.49
428.756	753
429.132	779.67
429.507	784.87
429.883	773.57
430.259	803.62
430.635	806.56
431.011	796.84
431.387	839.1
431.763	802.49
432.138	824.41
432.514	830.51
432.89	832.1
433.265	851.53
433.641	869.61
434.016	867.58
434.392	876.84
434.767	880.91
435.143	892.89
435.518	913.68
435.894	923.62
436.269	899.67
436.644	928.59
437.02	954.13
437.395	922.94
437.77	936.05
438.145	956.39
438.52	969.72
438.895	976.95
439.271	969.04
439.646	989.38
440.021	997.29
440.395	1007.23
440.77	996.84
441.145	1001.58
441.52	1029.38
441.895	1018.31
442.27	1017.4
442.645	1019.89
443.019	1064.18
443.394	1033
443.769	1059.89
444.143	1044.07
444.518	1058.76
444.892	1060.57
445.267	1052.66
445.641	1077.97
446.016	1058.53
446.39	1080
446.764	1092.43
447.139	1095.14
447.513	1093.11
447.887	1130.85
448.262	1138.76
448.636	1126.33
449.01	1134.91
449.384	1125.42
449.758	1159.55
450.132	1166.1
450.506	1150.05
450.88	1164.97
451.254	1189.6
451.628	1209.04
452.002	1209.04
452.376	1220.34
452.75	1227.79
453.123	1237.96
453.497	1242.26
453.871	1238.41
454.244	1280.9
454.618	1309.37
454.992	1271.18
455.365	1302.82
455.739	1312.76
456.112	1309.15
456.486	1334.68
456.859	1345.08
457.232	1372.87
457.606	1374.46
457.979	1376.72
458.352	1439.76
458.725	1399.77
459.099	1431.18
459.472	1467.79
459.845	1476.6
460.218	1466.2
460.591	1493.1
460.964	1506.88
461.337	1541.46
461.71	1554.79
462.083	1560.67
462.456	1588.01
462.829	1580.1
463.201	1594.56
463.574	1646.99
463.947	1626.2
464.32	1649.48
464.692	1689.02
465.065	1656.03
465.438	1716.37
465.81	1722.24
466.183	1738.97
466.555	1779.19
466.928	1806.31
467.3	1743.26
467.672	1801.79
468.045	1837.49
468.417	1837.72
468.789	1867.78
469.161	1905.74
469.534	1857.61
469.906	1944.38
470.278	1947.32
470.65	1986.64
471.022	2003.37
471.394	2038.17
471.766	2060.09
472.138	2097.83
472.51	2113.42
472.882	2164.27
473.253	2186.41
473.625	2202.68
473.997	2253.53
474.369	2255.34
474.74	2253.3
475.112	2283.13
475.484	2353.41
475.855	2390.25
476.227	2416.46
476.598	2483.35
476.97	2478.38
477.341	2488.78
477.713	2569.23
478.084	2553.63
478.455	2634.31
478.827	2639.51
479.198	2711.37
479.569	2712.5
479.94	2805.38
480.311	2821.87
480.682	2903.91
481.053	2930.57
481.424	2964.7
481.795	2997.01
482.166	3060.74
482.537	3102.32
482.908	3112.49
483.279	3186.84
483.65	3239.04
484.021	3283.78
484.391	3383.67
484.762	3326.04
485.133	3357
485.503	3446.94
485.874	3519.71
486.244	3509.99
486.615	3616.88
486.985	3602.65
487.356	3686.03
487.726	3696.43
488.097	3783.66
488.467	3788.86
488.837	3811.91
489.207	3907.04
489.578	3954.5
489.948	3999.25
490.318	4046.25
490.688	4064.1
491.058	4096.64
491.428	4148.85
491.798	4224.55
492.168	4291.21
492.538	4289.63
492.908	4333.93
493.278	4388.39
493.648	4404.21
494.017	4452.34
494.387	4516.07
494.757	4560.59
495.126	4622.73
495.496	4563.52
495.866	4671.77
496.235	4674.26
496.605	4728.04
496.974	4757.87
497.344	4781.6
497.713	4834.25
498.082	4854.14
498.452	4915.83
498.821	4964.42
499.19	4958.54
499.559	5002.61
499.928	5071.76
500.298	5148.37
500.667	5070.63
501.036	5132.32
501.405	5165.77
501.774	5235.6
502.143	5238.53
502.512	5213.45
502.88	5351.07
503.249	5337.97
503.618	5339.77
503.987	5327.12
504.356	5428.36
504.724	5455.03
505.093	5467.91
505.462	5491.41
505.83	5614.12
506.199	5630.39
506.567	5644.85
506.936	5663.83
507.304	5737.05
507.672	5751.52
508.041	5784.28
508.409	5815.69
508.777	5798.75
509.145	5919.19
509.514	5950.15
509.882	5940.44
510.25	5898.4
510.618	6036.03
510.986	6057.72
511.354	6097.27
511.722	6204.61
512.09	6233.31
512.458	6224.72
512.826	6269.02
513.193	6315.34
513.561	6338.39
513.929	6399.63
514.297	6473.98
514.664	6503.81
515.032	6479.63
515.4	6582.68
515.767	6580.42
516.135	6589.69
516.502	6637.82
516.869	6734.77
517.237	6762.34
517.604	6770.92
517.972	6913.74
518.339	6921.2
518.706	6914.42
519.073	6960.3
519.44	6990.8
519.808	7047.75
520.175	7083.68
520.542	7163.91
520.909	7260.85
521.276	7179.05
521.643	7353.06
522.009	7340.17
522.376	7418.36
522.743	7480.28
523.11	7550.34
523.477	7609.77
523.843	7638.25
524.21	7698.81
524.577	7775.42
524.943	7815.42
525.31	7892.93
525.676	8016.54
526.043	8023.55
526.409	8095.63
526.776	8153.03
527.142	8149.19
527.508	8212.02
527.874	8290.21
528.241	8347.15
528.607	8359.36
528.973	8424.21
529.339	8398.23
529.705	8508.73
530.071	8579.24
530.437	8605
530.803	8638.9
531.169	8725.9
531.535	8642.06
531.901	8773.58
532.267	8763.64
532.632	8882.51
532.998	8886.8
533.364	8915.05
533.73	9016.74
534.095	9041.6
534.461	9102.61
534.826	9189.62
535.192	9255.6
535.557	9307.35
535.923	9292.89
536.288	9265.55
536.653	9380.8
537.019	9357.97
537.384	9347.35
537.749	9420.8
538.114	9463.96
538.479	9469.16
538.845	9554.81
539.21	9589.83
539.575	9564.3
539.94	9633
540.305	9708.7
540.67	9650.62
541.034	9674.35
541.399	9796.15
541.764	9841.35
542.129	9799.54
542.494	9886.1
542.858	9879.99
543.223	9921.12
543.587	10059.65
543.952	9975.36
544.316	10013.1
544.681	9980.78
545.045	10111.63
545.41	10110.27
545.774	10139.42
546.138	10278.18
546.503	10272.75
546.867	10220.78
547.231	10362.69
547.595	10395.69
547.959	10359.76
548.324	10358.85
548.688	10444.73
549.052	10389.36
549.416	10475.23
549.779	10517.04
550.143	10492.63
550.507	10602.01
550.871	10627.09
551.235	10608.79
551.599	10769.24
551.962	10750.71
552.326	10845.39
552.689	10894.66
553.053	10840.87
553.417	10894.43
553.78	11048.1
554.143	10958.38
554.507	10984.6
554.87	11028.66
555.234	11225.27
555.597	11160.64
555.96	11201.09
556.323	11177.14
556.686	11270.69
557.05	11356.11
557.413	11346.62
557.776	11423.23
558.139	11447.41
558.502	11507.52
558.865	11488.54
559.228	11657.35
559.59	11624.81
559.953	11593.85
560.316	11756.56
560.679	11718.59
561.041	11945.02
561.404	11933.73
561.767	11979.83
562.129	11919.04
562.492	12072.03
562.854	12045.14
563.217	12117.22
563.579	12118.13
563.941	12217.11
564.304	12301.63
564.666	12357.22
565.028	12381.85
565.39	12452.81
565.753	12561.05
566.115	12536.87
566.477	12611.45
566.839	12715.17
567.201	12758.56
567.563	12767.15
567.925	12852.35
568.287	12839.46
568.648	12817.32
569.01	12969.4
569.372	13014.6
569.734	13055.28
570.095	13088.05
570.457	13097.76
570.819	13049.18
571.18	13116.97
571.542	13278.55
571.903	13308.6
572.265	13260.92
572.626	13379.34
572.987	13384.54
573.349	13449.17
573.71	13546.11
574.071	13505.44
574.432	13548.37
574.794	13668.14
575.155	13642.61
575.516	13673.79
575.877	13703.62
576.238	13650.97
576.599	13723.74
576.96	13816.84
577.32	13828.37
577.681	13873.11
578.042	13948.14
578.403	13862.49
578.763	13886.22
579.124	13889.15
579.485	14030.62
579.845	13996.27
580.206	13944.07
580.566	13968.7
580.927	13980
581.287	14093.67
581.648	14060.45
582.008	14084.18
582.368	14016.83
582.728	14097.96
583.089	14136.61
583.449	14124.4
583.809	14102.26
584.169	14172.76
584.529	14107.23
584.889	14198.07
585.249	14177.28
585.609	14038.53
585.969	14233.78
586.329	14103.61
586.688	14135.93
587.048	14148.36
587.408	14204.17
587.768	14182.71
588.127	14139.32
588.487	14145.87
588.846	14257.05
589.206	14187.9
589.565	14144.97
589.925	14172.31
590.284	14222.25
590.643	14242.14
591.003	14276.94
591.362	14179.77
591.721	14187.23
592.08	14271.07
592.44	14288.24
592.799	14287.34
593.158	14194.68
593.517	14328.47
593.876	14267.45
594.235	14185.64
594.593	14178.19
594.952	14287.79
595.311	14257.73
595.67	14242.82
596.029	14340.67
596.387	14412.98
596.746	14421.34
597.104	14329.59
597.463	14271.52
597.822	14413.21
598.18	14357.84
598.538	14379.54
598.897	14400.55
599.255	14294.57
599.613	14563.26
599.972	14424.73
600.33	14457.73
600.688	14409.59
601.046	14545.86
601.404	14565.29
601.762	14461.79
602.12	14473.55
602.478	14615.24
602.836	14570.27
603.194	14533.88
603.552	14502.47
603.91	14466.77
604.268	14534.34
604.625	14554.9
604.983	14612.53
605.341	14581.11
605.698	14644.84
606.056	14729.13
606.413	14631.28
606.771	14695.46
607.128	14692.75
607.485	14571.85
607.843	14692.52
608.2	14811.16
608.557	14771.84
608.914	14717.61
609.272	14836.47
609.629	14760.77
609.986	14832.86
610.343	14772.07
610.7	14925.51
611.057	14871.5
611.414	14826.76
611.771	14814.33
612.127	14961.67
612.484	14878.06
612.841	15000.76
613.198	15007.09
613.554	14901.11
613.911	14964.83
614.267	15000.09
614.624	14954.89
614.98	15111.04
615.337	15125.05
615.693	15063.14
616.05	15103.59
616.406	15124.15
616.762	15132.74
617.118	15065.17
617.475	15084.83
617.831	15171.38
618.187	15117.37
618.543	15164.83
618.899	15246.63
619.255	15239.63
619.611	15162.79
619.967	15283.69
620.323	15318.04
620.678	15204.15
621.034	15176.13
621.39	15209.35
621.746	15202.34
622.101	15274.65
622.457	15208.44
622.812	15235.79
623.168	15284.15
623.523	15233.07
623.879	15356.91
624.234	15225.62
624.589	15324.6
624.945	15324.6
625.3	15347.2
625.655	15157.14
626.01	15230.36
626.365	15246.86
626.72	15271.04
627.075	15252.96
627.43	15256.58
627.785	15226.07
628.14	15277.37
628.495	15249.34
628.85	15255.9
629.205	15196.92
629.559	15284.82
629.914	15176.8
630.269	15186.75
630.623	15140.65
630.978	15067.43
631.332	15240.76
631.687	15226.97
632.041	15130.93
632.396	15110.14
632.75	15095.68
633.104	15072.4
633.459	15060.42
633.813	15110.14
634.167	15038.05
634.521	14955.34
634.875	15038.5
635.229	15102.91
635.583	14904.5
635.937	14935.91
636.291	14881.22
636.645	14932.29
636.999	14902.01
637.352	15009.35
637.706	14874.44
638.06	14902.69
638.413	14883.03
638.767	14786.31
639.121	14889.58
639.474	14742.47
639.828	14782.46
640.181	14810.26
640.534	14797.38
640.888	14772.52
641.241	14669.7
641.594	14723.93
641.947	14746.08
642.301	14661.34
642.654	14731.39
643.007	14663.15
643.36	14712.86
643.713	14633.09
644.066	14615.24
644.419	14523.94
644.771	14535.92
645.124	14246.43
645.477	14274.68
645.83	14142.93
646.182	14129.37
646.535	14034.24
646.888	14123.27
647.24	13942.49
647.593	14094.12
647.945	14111.75
648.298	14034.91
648.65	13876.5
649.002	13903.17
649.355	14016.83
649.707	13990.62
650.059	13962.15
650.411	14238.3
650.763	14238.75
651.115	14392.19
651.467	14284.85
651.819	14286.43
652.171	14304.51
652.523	14219.09
652.875	14168.02
653.227	14086.89
653.578	14276.26
653.93	14176.15
654.282	14111.07
654.633	14067
654.985	14121.24
655.337	14166.89
655.688	14119.43
656.039	14190.39
656.391	14111.3
656.742	14100
657.094	14005.31
657.445	14140.67
657.796	14142.93
658.147	14030.62
658.498	14014.35
658.849	14051.18
659.2	14045.08
659.551	13950.4
659.902	14050.51
660.253	13982.03
660.604	13991.3
660.955	13933.67
661.306	13982.49
661.656	13917.18
662.007	13950.85
662.358	13891.87
662.708	13902.04
663.059	13941.81
663.409	13845.77
663.76	13961.92
664.11	13923.96
664.461	13928.93
664.811	13902.04
665.161	13919.44
665.511	13829.95
665.862	13815.03
666.212	13902.04
666.562	13897.74
666.912	13822.26
667.262	13847.35
667.612	13772.32
667.962	13952.66
668.312	13879.89
668.662	13906.56
669.011	13923.05
669.361	13830.4
669.711	13801.47
670.06	13746.11
670.41	13756.95
670.76	13783.85
671.109	13874.69
671.459	13829.72
671.808	13762.38
672.157	13806.44
672.507	13665.21
672.856	13721.48
673.205	13765.32
673.554	13777.75
673.904	13714.02
674.253	13777.52
674.602	13706.11
674.951	13550.63
675.3	13452.78
675.649	13668.37
675.998	13616.62
676.346	13724.19
676.695	13643.96
677.044	13589.28
677.393	13626.79
677.741	13528.71
678.09	13578.43
678.438	13555.6
678.787	13515.61
679.135	13522.16
679.484	13431.99
679.832	13551.99
680.181	13433.12
680.529	13533.68
680.877	13484.65
681.225	13444.42
681.573	13473.12
681.922	13441.71
682.27	13348.38
682.618	13422.95
682.966	13348.83
683.314	13327.14
683.661	13362.16
684.009	13204.2
684.357	13283.97
684.705	13228.61
685.053	13236.29
685.4	13177.76
685.748	13102.28
686.095	13159.46
686.443	13125.78
686.79	13032.91
687.138	13145.9
687.485	13107.03
687.832	12932.8
688.18	13000.14
688.527	12989.29
688.874	12947.26
689.221	12909.75
689.568	12913.81
689.915	12897.77
690.262	12836.53
690.609	12857.09
690.956	12795.4
691.303	12778.45
691.65	12696.87
691.997	12605.8
692.344	12594.05
692.69	12578.91
693.037	12582.07
693.383	12484.22
693.73	12585.23
694.077	12480.38
694.423	12443.54
694.769	12469.53
695.116	12417.78
695.462	12323.32
695.808	12358.57
696.155	12365.35
696.501	12239.93
696.847	12274.28
697.193	12179.37
697.539	12257.79
697.885	12012.14
698.231	11993.39
698.577	12027.28
698.923	11978.92
699.269	11975.76
699.614	11913.84
699.96	11924.01
700.306	11937.57
700.651	11891.69
700.997	11883.33
701.342	11804.69
701.688	11712.94
702.033	11695.77
702.379	11687.18
702.724	11675.65
703.069	11679.5
703.415	11553.17
703.76	11550.68
704.105	11608.76
704.45	11573.06
704.795	11507.52
705.14	11456
705.485	11419.16
705.83	11431.14
706.175	11405.6
706.52	11433.85
706.865	11301.2
707.209	11334.19
707.554	11311.37
707.899	11342.1
708.243	11270.92
708.588	11282.67
708.932	11235.67
709.277	11150.47
709.621	11190.47
709.966	11106.85
710.31	11129.68
710.654	10966.75
710.998	11125.16
711.342	11032.51
711.687	11028.44
712.031	10957.25
712.375	10932.62
712.719	10945.96
713.063	10954.77
713.407	10983.47
713.75	10887.43
714.094	10918.16
714.438	10792.06
714.782	10850.59
715.125	10746.19
715.469	10770.82
715.812	10751.16
716.156	10688.11
716.499	10717.03
716.843	10656.02
717.186	10706.41
717.53	10669.35
717.873	10691.05
718.216	10644.95
718.559	10555.68
718.902	10531.95
719.246	10556.59
719.589	10565.63
719.932	10523.82
720.275	10479.75
720.617	10430.94
720.96	10461.22
721.303	10386.2
721.646	10406.76
721.989	10359.98
722.331	10427.78
722.674	10472.97
723.016	10371.96
723.359	10373.31
723.701	10384.84
724.044	10225.52
724.386	10265.52
724.729	10242.02
725.071	10300.77
725.413	10261.45
725.755	10235.92
726.097	10220.32
726.439	10084.96
726.782	10211.29
727.124	10237.27
727.465	10170.38
727.807	10139.65
728.149	10113.89
728.491	10086.09
728.833	10128.8
729.175	10039.99
729.516	10012.19
729.858	10029.37
730.199	9992.53
730.541	10025.08
730.882	10035.92
731.224	10001.35
731.565	9897.4
731.906	9949.15
732.248	9882.03
732.589	9868.24
732.93	9852.2
733.271	9875.93
733.612	9946.66
733.953	9860.56
734.294	9890.84
734.635	9761.13
734.976	9922.25
735.317	9842.03
735.658	9761.81
735.999	9834.8
736.339	9698.98
736.68	9853.78
737.021	9775.59
737.361	9739.21
737.702	9764.97
738.042	9687.01
738.383	9673.9
738.723	9647.68
739.063	9625.09
739.404	9587.8
739.744	9624.86
740.084	9607.01
740.424	9649.94
740.764	9542.38
741.104	9613.79
741.444	9587.12
741.784	9452.21
742.124	9522.49
742.464	9478.65
742.804	9505.99
743.143	9451.08
743.483	9437.52
743.823	9452.44
744.162	9387.8
744.502	9456.73
744.841	9388.93
745.181	9453.34
745.52	9370.86
745.86	9370.63
746.199	9390.52
746.538	9343.74
746.877	9359.33
747.216	9402.27
747.556	9303.06
747.895	9269.39
748.234	9340.35
748.573	9253.8
748.911	9313.91
749.25	9218.32
749.589	9183.29
749.928	9173.35
750.267	9168.83
750.605	9162.05
750.944	9164.31
751.283	9118.88
751.621	9093.8
751.96	9091.31
752.298	9023.97
752.636	9025.1
752.975	8991.66
753.313	9027.59
753.651	9013.8
753.989	8960.92
754.327	8926.57
754.666	8861.04
755.004	8893.13
755.342	8919.79
755.679	8899
756.017	8842.06
756.355	8852.22
756.693	8869.17
757.031	8853.35
757.368	8796.86
757.706	8720.25
758.044	8743.53
758.381	8741.27
758.719	8648.84
759.056	8665.79
759.394	8650.65
759.731	8574.49
