Data from black_plastic_tray_FLMS001491_072.txt Node
Date: Tue Feb 07 10:40:34 GMT 2017
User: dcchb
Spectrometer: FLMS00149
Trigger mode: 0
Integration Time (sec): 2.000000E-2
Scans to average: 10
Electric dark correction enabled: true
Nonlinearity correction enabled: false
Boxcar width: 0
XAxis mode: Wavelengths
Number of Pixels in Spectrum: 2048
>>>>>Begin Spectral Data<<<<<
341.393	-8.77
341.776	-8.77
342.16	-8.77
342.543	-53.29
342.927	-51.71
343.31	-54.19
343.693	-79.28
344.077	-78.37
344.46	-53.06
344.843	-61.65
345.226	-37.92
345.61	-13.52
345.993	-25.72
346.376	0.95
346.759	18.57
347.142	5.47
347.525	42.53
347.908	52.92
348.291	79.81
348.674	98.8
349.057	104.67
349.44	123.2
349.823	132.47
350.206	158.23
350.588	187.61
350.971	199.81
351.354	224.67
351.737	219.7
352.119	240.49
352.502	233.48
352.884	253.14
353.267	279.13
353.65	274.39
354.032	270.32
354.414	321.84
354.797	318.9
355.179	298.11
355.562	301.73
355.944	309.41
356.326	317.1
356.709	331.79
357.091	333.59
357.473	331.79
357.855	341.5
358.238	307.38
358.62	317.77
359.002	333.14
359.384	317.55
359.766	358.23
360.148	325.23
360.53	334.72
360.912	325.91
361.294	323.88
361.676	322.29
362.057	312.35
362.439	327.94
362.821	327.27
363.203	312.35
363.584	321.39
363.966	326.36
364.348	320.71
364.729	306.25
365.111	295.63
365.493	318.68
365.874	315.51
366.256	315.51
366.637	308.06
367.019	318.45
367.4	296.53
367.781	307.83
368.163	318.68
368.544	310.54
368.925	303.99
369.306	309.19
369.688	316.64
370.069	292.46
370.45	313.03
370.831	315.74
371.212	307.15
371.593	309.41
371.974	305.57
372.355	315.74
372.736	309.19
373.117	303.76
373.498	302.18
373.879	314.16
374.26	300.6
374.641	298.11
375.021	321.84
375.402	311.9
375.783	307.15
376.163	331.79
376.544	328.17
376.925	342.41
377.305	333.14
377.686	335.63
378.066	310.09
378.447	339.47
378.827	333.59
379.208	322.07
379.588	338.11
379.968	356.87
380.349	339.92
380.729	355.06
381.109	329.07
381.489	321.62
381.87	334.27
382.25	334.27
382.63	344.21
383.01	331.56
383.39	353.71
383.77	349.64
384.15	361.84
384.53	360.48
384.91	352.8
385.29	356.87
385.67	371.33
386.049	362.52
386.429	354.38
386.809	349.64
387.189	362.52
387.568	366.59
387.948	372.69
388.328	391.9
388.707	385.57
389.087	376.98
389.466	354.38
389.846	410.43
390.225	362.29
390.605	390.54
390.984	404.78
391.363	406.59
391.743	398
392.122	379.92
392.501	403.42
392.881	387.6
393.26	418.34
393.639	415.62
394.018	409.3
394.397	401.39
394.776	414.95
395.155	409.75
395.534	410.2
395.913	427.38
396.292	415.17
396.671	406.59
397.05	438.67
397.429	430.31
397.808	426.47
398.186	421.95
398.565	422.18
398.944	445.45
399.323	439.35
399.701	432.8
400.08	432.12
400.458	414.27
400.837	435.51
401.215	443.65
401.594	443.19
401.972	454.04
402.351	470.31
402.729	467.83
403.107	475.06
403.486	485.23
403.864	493.14
404.242	492.68
404.62	498.79
404.999	471.67
405.377	461.27
405.755	499.92
406.133	479.8
406.511	503.76
406.889	491.55
407.267	508.28
407.645	505.79
408.023	508.5
408.401	522.97
408.779	511.67
409.156	522.74
409.534	512.57
409.912	529.97
410.29	574.26
410.667	547.15
411.045	527.03
411.422	545.56
411.8	565.23
412.178	564.77
412.555	567.03
412.933	567.49
413.31	570.42
413.687	562.74
414.065	597.09
414.442	595.05
414.819	608.16
415.197	585.34
415.574	600.03
415.951	608.84
416.328	614.26
416.705	607.94
417.082	605
417.46	601.16
417.837	613.13
418.214	625.56
418.591	645.68
418.967	652.23
419.344	665.34
419.721	645
420.098	629.86
420.475	652.23
420.852	659.01
421.228	688.16
421.605	653.13
421.982	678.44
422.358	686.13
422.735	650.87
423.111	673.02
423.488	689.97
423.864	699.01
424.241	699.23
424.617	702.62
424.994	707.37
425.37	724.09
425.746	734.71
426.123	749.4
426.499	732.68
426.875	763.86
427.251	745.79
427.627	772.23
428.003	776.07
428.379	764.77
428.756	762.28
429.132	794.82
429.507	816.97
429.883	790.76
430.259	816.07
430.635	827.14
431.011	833.24
431.387	869.4
431.763	856.07
432.138	861.49
432.514	848.61
432.89	869.85
433.265	894.03
433.641	890.19
434.016	898.78
434.392	917.31
434.767	904.65
435.143	928.38
435.518	937.19
435.894	961.37
436.269	939.45
436.644	938.1
437.02	954.82
437.395	995.72
437.77	1004.31
438.145	1000.92
438.52	1004.99
438.895	1004.31
439.271	1023.97
439.646	1056.06
440.021	1047.02
440.395	1053.12
440.77	1020.35
441.145	1054.48
441.52	1038.89
441.895	1064.65
442.27	1070.97
442.645	1067.13
443.019	1075.49
443.394	1070.3
443.769	1104.42
444.143	1126.79
444.518	1123.18
444.892	1120.69
445.267	1125.89
445.641	1132.22
446.016	1140.8
446.39	1157.75
446.764	1167.47
447.139	1167.24
447.513	1181.25
447.887	1164.08
448.262	1173.34
448.636	1187.81
449.01	1191.2
449.384	1197.3
449.758	1204.98
450.132	1223.29
450.506	1228.48
450.88	1245.21
451.254	1244.98
451.628	1256.05
452.002	1260.57
452.376	1288.6
452.75	1317.75
453.123	1291.53
453.497	1313.23
453.871	1330.85
454.244	1336.05
454.618	1380.8
454.992	1383.28
455.365	1376.28
455.739	1379.22
456.112	1414.69
456.486	1424.64
456.859	1451.3
457.232	1439.78
457.606	1439.33
457.979	1470.96
458.352	1508.48
458.725	1528.36
459.099	1549.61
459.472	1564.07
459.845	1532.88
460.218	1591.19
460.591	1602.71
460.964	1613.56
461.337	1639.32
461.71	1627.57
462.083	1669.38
462.456	1735.59
462.829	1687.23
463.201	1723.16
463.574	1718.19
463.947	1736.04
464.32	1767.68
464.692	1788.7
465.065	1813.78
465.438	1824.63
465.81	1845.87
466.183	1858.07
466.555	1898.98
466.928	1931.97
467.3	1922.03
467.672	1929.26
468.045	1989.37
468.417	2002.48
468.789	2013.1
469.161	2035.7
469.534	2071.4
469.906	2090.61
470.278	2108.01
470.65	2134
471.022	2175.58
471.394	2228.91
471.766	2246.31
472.138	2240.21
472.51	2297.84
472.882	2323.82
473.253	2370.83
473.625	2409.24
473.997	2424.84
474.369	2451.73
474.74	2466.42
475.112	2532.86
475.484	2531.95
475.855	2623.02
476.227	2556.13
476.598	2685.4
476.97	2683.81
477.341	2761.1
477.713	2781.44
478.084	2808.56
478.455	2855.79
478.827	2923.36
479.198	2956.57
479.569	2999.29
479.94	3051.71
480.311	3080.41
480.682	3153.86
481.053	3208.55
481.424	3258.49
481.795	3288.09
482.166	3350.46
482.537	3417.13
482.908	3455.77
483.279	3461.42
483.65	3509.55
484.021	3576.9
484.391	3617.57
484.762	3641.08
485.133	3726.5
485.503	3763.56
485.874	3815.54
486.244	3844.24
486.615	3931.69
486.985	3985.25
487.356	4032.03
487.726	4079.94
488.097	4144.34
488.467	4187.73
488.837	4218.91
489.207	4289.42
489.578	4340.95
489.948	4415.97
490.318	4430.89
490.688	4472.47
491.058	4542.52
491.428	4554.95
491.798	4603.76
492.168	4710.2
492.538	4701.84
492.908	4786.13
493.278	4831.78
493.648	4863.87
494.017	4864.32
494.387	4939.12
494.757	4999.46
495.126	5048.95
495.496	5081.49
495.866	5110.64
496.235	5140.47
496.605	5238.77
496.974	5260.47
497.344	5316.29
497.713	5244.88
498.082	5323.97
498.452	5380.47
498.821	5380.47
499.19	5460.01
499.559	5491.42
499.928	5595.83
500.298	5544.98
500.667	5626.34
501.036	5624.3
501.405	5638.99
501.774	5728.71
502.143	5776.39
502.512	5750.85
502.88	5812.54
503.249	5856.61
503.618	5897.51
503.987	5912.88
504.356	5913.11
504.724	6029.49
505.093	6015.7
505.462	6048.47
505.83	6090.73
506.199	6126.89
506.567	6190.84
506.936	6220.22
507.304	6275.36
507.672	6351.51
508.041	6351.06
508.409	6361.68
508.777	6449.59
509.145	6471.51
509.514	6516.26
509.882	6568.46
510.25	6613.65
510.618	6612.75
510.986	6611.85
511.354	6765.06
511.722	6766.87
512.09	6779.3
512.458	6864.72
512.826	6919.41
513.193	6995.56
513.561	7029.01
513.929	7002.8
514.297	7106.07
514.664	7139.06
515.032	7178.16
515.4	7236.46
515.767	7310.13
516.135	7366.63
516.502	7314.88
516.869	7404.82
517.237	7474.65
517.604	7514.2
517.972	7643.46
518.339	7612.5
518.706	7705.6
519.073	7727.07
519.44	7727.07
519.808	7844.58
520.175	7834.41
520.542	8012.49
520.909	7980.4
521.276	8016.55
521.643	8149.43
522.009	8103.78
522.376	8266.04
522.743	8271.46
523.11	8399.6
523.477	8438.69
523.843	8454.51
524.21	8590.32
524.577	8619.93
524.943	8685.01
525.31	8702.86
525.676	8778.79
526.043	8842.52
526.409	8945.57
526.776	8927.72
527.142	8939.24
527.508	9102.63
527.874	9101.72
528.241	9136.53
528.607	9191.67
528.973	9335.84
529.339	9324.32
529.705	9422.85
530.071	9510.07
530.437	9541.71
530.803	9614.48
531.169	9619.22
531.535	9667.81
531.901	9650.64
532.267	9753.68
532.632	9764.53
532.998	9808.37
533.364	9948.93
533.73	9936.05
534.095	10089.27
534.461	10051.08
534.826	10068.03
535.192	10134.24
535.557	10241.58
535.923	10221.02
536.288	10259.66
536.653	10337.17
537.019	10309.15
537.384	10369.49
537.749	10492.42
538.114	10480.67
538.479	10527.9
538.845	10553.66
539.21	10532.65
539.575	10588.92
539.94	10634.11
540.305	10687.67
540.67	10750.27
541.034	10738.07
541.399	10812.64
541.764	10829.14
542.129	10826.42
542.494	10883.6
542.858	10964.95
543.223	10917.72
543.587	10972.86
543.952	10955.69
544.316	11068.68
544.681	11090.82
545.045	11115.46
545.41	11222.12
545.774	11156.36
546.138	11184.83
546.503	11253.08
546.867	11302.8
547.231	11356.81
547.595	11392.96
547.959	11416.01
548.324	11463.47
548.688	11492.4
549.052	11486.07
549.416	11537.82
549.779	11592.51
550.143	11657.14
550.507	11722.9
550.871	11781.88
551.235	11764.48
551.599	11810.35
551.962	11854.19
552.326	11926.28
552.689	12006.73
553.053	11893.51
553.417	12005.6
553.78	12168.99
554.143	12149.78
554.507	12225.26
554.87	12218.7
555.234	12373.5
555.597	12284.01
555.96	12340.51
556.323	12345.71
556.686	12357.91
557.05	12523.33
557.413	12591.35
557.776	12575.08
558.139	12717
558.502	12639.71
558.865	12771.91
559.228	12827.28
559.59	12853.49
559.953	12902.08
560.316	13026.37
560.679	13036.54
561.041	13094.16
561.404	13143.2
561.767	13232.91
562.129	13169.19
562.492	13296.19
562.854	13336.41
563.217	13359.47
563.579	13409.63
563.941	13516.52
564.304	13582.06
564.666	13549.06
565.028	13704.54
565.39	13757.87
565.753	13775.5
566.115	13856.4
566.477	13934.37
566.839	13948.6
567.201	14040.58
567.563	13990.86
567.925	14129.16
568.287	14219.78
568.648	14119.22
569.01	14215.49
569.372	14292.1
569.734	14284.41
570.095	14483.5
570.457	14529.83
570.819	14561.69
571.18	14607.79
571.542	14648.47
571.903	14685.31
572.265	14659.09
572.626	14747.23
572.987	14800.78
573.349	14762.37
573.71	14878.52
574.071	14825.64
574.432	14983.15
574.794	15005.07
575.155	15012.98
575.516	14898.86
575.877	14964.62
576.238	15085.75
576.599	15100.89
576.96	15196.7
577.32	15127.55
577.681	15205.52
578.042	15248.23
578.403	15330.49
578.763	15336.14
579.124	15383.37
579.485	15435.12
579.845	15389.02
580.206	15334.33
580.566	15404.84
580.927	15326.19
581.287	15476.7
581.648	15399.86
582.008	15430.82
582.368	15462.69
582.728	15462.46
583.089	15561.67
583.449	15487.09
583.809	15494.32
584.169	15552.4
584.529	15508.11
584.889	15614.1
585.249	15520.54
585.609	15532.29
585.969	15575.9
586.329	15552.85
586.688	15562.8
587.048	15549.24
587.408	15524.61
587.768	15478.73
588.127	15461.78
588.487	15602.12
588.846	15548.33
589.206	15454.78
589.565	15492.29
589.925	15521.89
590.284	15514.89
590.643	15621.78
591.003	15616.81
591.362	15633.76
591.721	15531.84
592.08	15581.1
592.44	15642.57
592.799	15626.07
593.158	15589.24
593.517	15693.64
593.876	15763.7
594.235	15721.66
594.593	15684.15
594.952	15727.76
595.311	15600.54
595.67	15706.07
596.029	15820.64
596.387	15711.27
596.746	15697.03
597.104	15733.87
597.463	15755.33
597.822	15696.8
598.18	15680.76
598.538	15674.21
598.897	15822.23
599.255	15676.24
599.613	15888.66
599.972	15838.95
600.33	15840.98
600.688	15733.87
601.046	15793.75
601.404	15940.64
601.762	15860.87
602.12	15852.96
602.478	15892.28
602.836	15932.28
603.194	15895.44
603.552	15921.88
603.91	15866.74
604.268	15928.89
604.625	15788.78
604.983	15918.04
605.341	15886.18
605.698	15931.83
606.056	15947.19
606.413	15933.18
606.771	16002.79
607.128	15980.87
607.485	15976.57
607.843	15939.74
608.2	16109.45
608.557	16188.09
608.914	16173.4
609.272	16120.75
609.629	16174.76
609.986	16272.38
610.343	16083.91
610.7	16174.31
611.057	16259.28
611.414	16213.4
611.771	16235.32
612.127	16262.44
612.484	16224.25
612.841	16352.15
613.198	16285.72
613.554	16372.04
613.911	16440.29
614.267	16353.28
614.624	16332.49
614.98	16374.3
615.337	16438.25
615.693	16467.86
616.05	16407.75
616.406	16490.23
616.762	16372.27
617.118	16525.48
617.475	16477.35
617.831	16521.42
618.187	16527.52
618.543	16632.15
618.899	16674.18
619.255	16624.24
619.611	16550.34
619.967	16709.43
620.323	16621.75
620.678	16592.15
621.034	16612.03
621.39	16671.92
621.746	16469.44
622.101	16704.24
622.457	16551.02
622.812	16624.46
623.168	16693.16
623.523	16587.63
623.879	16724.8
624.234	16584.24
624.589	16632.37
624.945	16646.84
625.3	16680.28
625.655	16680.06
626.01	16704.69
626.365	16646.84
626.72	16646.61
627.075	16606.84
627.43	16624.92
627.785	16642.09
628.14	16734.97
628.495	16761.18
628.85	16640.06
629.205	16593.73
629.559	16586.27
629.914	16542.66
630.269	16588.53
630.623	16510.57
630.978	16415.43
631.332	16623.11
631.687	16668.3
632.041	16405.26
632.396	16546.27
632.75	16371.14
633.104	16494.07
633.459	16349.89
633.813	16453.62
634.167	16402.55
634.521	16418.82
634.875	16358.48
635.229	16398.26
635.583	16284.13
635.937	16223.34
636.291	16160.07
636.645	16176.79
636.999	16112.61
637.352	16214.53
637.706	16019.96
638.06	16120.75
638.413	16101.77
638.767	16167.75
639.121	16193.97
639.474	16051.82
639.828	16038.04
640.181	16052.28
640.534	16059.28
640.888	15857.25
641.241	15861.77
641.594	15906.97
641.947	15930.47
642.301	15870.36
642.654	15902
643.007	15903.8
643.36	15837.14
643.713	15822.23
644.066	15880.53
644.419	15792.62
644.771	15648.67
645.124	15628.11
645.477	15551.95
645.83	15458.39
646.182	15234.9
646.535	15263.6
646.888	15299.75
647.24	15169.36
647.593	15255.46
647.945	15219.53
648.298	15188.34
648.65	15117.61
649.002	15032.42
649.355	15173.2
649.707	15013.66
650.059	15189.02
650.411	15384.72
650.763	15410.48
651.115	15507.88
651.467	15509.69
651.819	15446.42
652.171	15436.92
652.523	15380.2
652.875	15398.96
653.227	15357.38
653.578	15448.45
653.93	15444.38
654.282	15402.35
654.633	15278.51
654.985	15384.27
655.337	15369.36
655.688	15303.59
656.039	15351.73
656.391	15205.74
656.742	15233.31
657.094	15197.38
657.445	15269.92
657.796	15254.78
658.147	15175.01
658.498	15194.9
658.849	15341.56
659.2	15309.92
659.551	15256.14
659.902	15261.34
660.253	15181.11
660.604	15250.94
660.955	15168.68
661.306	15100.89
661.656	15036.48
662.007	15016.6
662.358	15050.27
662.708	15085.97
663.059	15006.43
663.409	14983.6
663.76	15022.25
664.11	15108.57
664.461	15116.48
664.811	15115.13
665.161	14974.79
665.511	14997.16
665.862	14956.03
666.212	15012.75
666.562	14982.93
666.912	14985.41
667.262	14899.09
667.612	14951.51
667.962	15051.62
668.312	14964.62
668.662	15032.64
669.011	14994.45
669.361	14919.42
669.711	14926.2
670.06	14818.86
670.41	14850.27
670.76	14801.01
671.109	14852.08
671.459	14751.07
671.808	14898.41
672.157	14874.45
672.507	14763.95
672.856	14739.32
673.205	14778.18
673.554	14903.38
673.904	14676.94
674.253	14818.64
674.602	14736.15
674.951	14509.49
675.3	14481.92
675.649	14657.28
675.998	14691.41
676.346	14711.07
676.695	14730.05
677.044	14675.14
677.393	14628.36
677.741	14653.67
678.09	14584.74
678.438	14516.95
678.787	14573.67
679.135	14533.45
679.484	14438.53
679.832	14582.71
680.181	14401.92
680.529	14446.44
680.877	14432.43
681.225	14429.04
681.573	14442.37
681.922	14413.67
682.27	14269.72
682.618	14302.94
682.966	14418.42
683.314	14455.26
683.661	14347.24
684.009	14230.85
684.357	14173.46
684.705	14217.3
685.053	14256.62
685.4	14293.68
685.748	14183.4
686.095	14203.06
686.443	14082.61
686.79	14108.6
687.138	14097.3
687.485	14066.34
687.832	14094.36
688.18	13968.49
688.527	13879.9
688.874	13923.52
689.221	13899.56
689.568	13883.52
689.915	13821.6
690.262	13799
690.609	13832.9
690.956	13670.19
691.303	13666.35
691.65	13544.32
691.997	13527.82
692.344	13461.84
692.69	13469.74
693.037	13577.31
693.383	13390.65
693.73	13445.56
694.077	13511.78
694.423	13501.61
694.769	13412.8
695.116	13293.03
695.462	13364.66
695.808	13279.47
696.155	13296.42
696.501	13182.29
696.847	13142.3
697.193	13090.55
697.539	13074.05
697.885	13046.03
698.231	13013.71
698.577	12959.93
698.923	12949.76
699.269	12913.15
699.614	12829.31
699.96	12833.6
700.306	12827.95
700.651	12748.18
700.997	12664.12
701.342	12748.63
701.688	12622.76
702.033	12596.32
702.379	12695.3
702.724	12592.48
703.069	12655.75
703.415	12528.3
703.76	12482.43
704.105	12490.11
704.45	12475.65
704.795	12371.69
705.14	12368.53
705.485	12357.46
705.83	12286.95
706.175	12308.87
706.52	12247.63
706.865	12273.62
707.209	12201.53
707.554	12170.34
707.899	12213.05
708.243	12137.12
708.588	12134.19
708.932	12018.26
709.277	12069.78
709.621	12046.05
709.966	11960.18
710.31	12019.84
710.654	11881.31
710.998	11932.38
711.342	11834.76
711.687	11975.77
712.031	11836.12
712.375	11682.67
712.719	11698.04
713.063	11723.12
713.407	11729
713.75	11656.01
714.094	11701.2
714.438	11587.08
714.782	11574.88
715.125	11602.68
715.469	11552.06
715.812	11476.35
716.156	11383.02
716.499	11474.32
716.843	11385.73
717.186	11435.45
717.53	11462.79
717.873	11479.97
718.216	11433.41
718.559	11366.52
718.902	11365.62
719.246	11402
719.589	11301.21
719.932	11257.6
720.275	11347.99
720.617	11249.69
720.96	11216.02
721.303	11243.81
721.646	11226.41
721.989	11100.54
722.331	11191.61
722.674	11171.5
723.016	11098.51
723.359	11075.68
723.701	11143.93
724.044	11068.9
724.386	10994.1
724.729	11049.02
725.071	10978.28
725.413	10962.47
725.755	10891.51
726.097	10869.14
726.439	10777.84
726.782	10900.55
727.124	10874.78
727.465	10845.18
727.807	10826.42
728.149	10807.22
728.491	10798.63
728.833	10835.01
729.175	10771.28
729.516	10695.35
729.858	10774.9
730.199	10715.69
730.541	10732.42
730.882	10684.51
731.224	10724.51
731.565	10572.87
731.906	10663.72
732.248	10587.56
732.589	10497.39
732.93	10551.86
733.271	10492.87
733.612	10492.42
733.953	10637.5
734.294	10422.59
734.635	10534.45
734.976	10534.68
735.317	10471.41
735.658	10468.02
735.999	10430.28
736.339	10406.32
736.68	10422.37
737.021	10346.44
737.361	10301.01
737.702	10440.67
738.042	10360.22
738.383	10281.13
738.723	10366.78
739.063	10330.84
739.404	10313.22
739.744	10305.08
740.084	10205.2
740.424	10280
740.764	10220.34
741.104	10232.77
741.444	10176.05
741.784	10181.47
742.124	10159.1
742.464	10123.62
742.804	10111.19
743.143	10117.06
743.483	10141.02
743.823	10065.99
744.162	10040.68
744.502	10063.96
744.841	10095.82
745.181	10108.7
745.52	9996.62
745.86	10022.15
746.199	10002.94
746.538	10002.72
746.877	9979.67
747.216	9946
747.556	9889.73
747.895	9865.09
748.234	9870.07
748.573	9924.08
748.911	9858.09
749.25	9762.27
749.589	9838.65
749.928	9870.74
750.267	9869.61
750.605	9850.4
750.944	9819.45
751.283	9717.53
751.621	9756.4
751.96	9714.59
752.298	9740.58
752.636	9616.06
752.975	9563.41
753.313	9595.04
753.651	9620.81
753.989	9581.26
754.327	9543.07
754.666	9488.38
755.004	9474.37
755.342	9505.78
755.679	9463.97
756.017	9402.51
756.355	9327.25
756.693	9323.64
757.031	9320.7
757.368	9374.03
757.706	9298.78
