Data from black_plastic_tray_FLMS001491_100.txt Node
Date: Tue Feb 07 10:41:04 GMT 2017
User: dcchb
Spectrometer: FLMS00149
Trigger mode: 0
Integration Time (sec): 2.000000E-2
Scans to average: 10
Electric dark correction enabled: true
Nonlinearity correction enabled: false
Boxcar width: 0
XAxis mode: Wavelengths
Number of Pixels in Spectrum: 2048
>>>>>Begin Spectral Data<<<<<
341.393	-24.43
341.776	-24.43
342.16	-24.43
342.543	-52
342.927	-65.79
343.31	-76.86
343.693	-76.18
344.077	-75.73
344.46	-57.65
344.843	-30.54
345.226	-40.93
345.61	-25.34
345.993	-15.4
346.376	5.62
346.759	14.89
347.142	24.83
347.525	51.04
347.908	42.68
348.291	73.42
348.674	82.68
349.057	103.47
349.44	137.82
349.823	118.61
350.206	159.97
350.588	201.77
350.971	200.42
351.354	239.06
351.737	223.69
352.119	244.49
352.502	239.29
352.884	267.08
353.267	261.43
353.65	261.43
354.032	298.72
354.414	293.75
354.797	293.98
355.179	296.24
355.562	296.69
355.944	304.6
356.326	314.09
356.709	323.58
357.091	324.26
357.473	313.64
357.855	332.62
358.238	329.45
358.62	325.16
359.002	319.51
359.384	323.35
359.766	349.12
360.148	325.84
360.53	306.86
360.912	331.26
361.294	305.73
361.676	312.73
362.057	327.87
362.439	296.69
362.821	319.51
363.203	319.74
363.584	319.51
363.966	318.61
364.348	314.09
364.729	305.95
365.111	305.95
365.493	317.7
365.874	306.63
366.256	291.26
366.637	307.31
367.019	311.83
367.4	312.05
367.781	300.98
368.163	295.33
368.544	277.7
368.925	302.79
369.306	304.6
369.688	298.27
370.069	293.52
370.45	319.06
370.831	295.78
371.212	316.57
371.593	285.84
371.974	289.23
372.355	307.99
372.736	304.6
373.117	306.18
373.498	317.48
373.879	302.56
374.26	294.2
374.641	304.14
375.021	317.03
375.402	310.47
375.783	303.47
376.163	292.17
376.544	294.65
376.925	299.85
377.305	309.79
377.686	323.58
378.066	288.78
378.447	331.71
378.827	319.74
379.208	315.9
379.588	340.08
379.968	305.5
380.349	327.65
380.729	325.61
381.109	292.85
381.489	324.93
381.87	310.7
382.25	331.26
382.63	341.66
383.01	330.81
383.39	336.91
383.77	328.78
384.15	353.86
384.53	340.98
384.91	349.12
385.29	332.84
385.67	324.71
386.049	356.8
386.429	332.17
386.809	331.26
387.189	352.5
387.568	355.44
387.948	348.44
388.328	359.74
388.707	317.03
389.087	340.98
389.466	341.88
389.846	368.1
390.225	330.13
390.605	341.43
390.984	352.28
391.363	323.58
391.743	362
392.122	348.44
392.501	364.48
392.881	374.88
393.26	371.71
393.639	386.4
394.018	373.07
394.397	368.1
394.776	364.71
395.155	363.35
395.534	388.66
395.913	370.13
396.292	376.23
396.671	376.23
397.05	382.56
397.429	365.61
397.808	367.42
398.186	372.62
398.565	401.09
398.944	394.31
399.323	385.72
399.701	392.73
400.08	362.9
400.458	394.09
400.837	385.5
401.215	387.31
401.594	403.12
401.972	381.43
402.351	416.01
402.729	388.44
403.107	407.87
403.486	408.55
403.864	379.62
404.242	399.74
404.62	394.99
404.999	413.97
405.377	401.32
405.755	418.49
406.133	413.97
406.511	429.11
406.889	409.9
407.267	421.66
407.645	435.44
408.023	439.73
408.401	442.45
408.779	432.5
409.156	416.91
409.534	426.85
409.912	449.9
410.29	448.1
410.667	425.72
411.045	447.87
411.422	449.68
411.8	451.94
412.178	460.98
412.555	453.52
412.933	461.2
413.31	482.9
413.687	462.33
414.065	457.59
414.442	473.86
414.819	483.57
415.197	485.61
415.574	496.91
415.951	477.02
416.328	497.81
416.705	490.58
417.082	509.34
417.46	497.13
417.837	512.95
418.214	498.94
418.591	526.29
418.967	501.2
419.344	520.18
419.721	504.37
420.098	535.32
420.475	517.25
420.852	520.18
421.228	525.16
421.605	518.83
421.982	521.99
422.358	537.13
422.735	513.18
423.111	538.04
423.488	533.07
423.864	556.12
424.241	534.65
424.617	562.89
424.994	552.05
425.37	576.68
425.746	548.66
426.123	573.06
426.499	573.74
426.875	575.78
427.251	594.53
427.627	600.41
428.003	582.1
428.379	583.01
428.756	573.06
429.132	610.35
429.507	636.34
429.883	600.63
430.259	619.84
430.635	610.13
431.011	623.23
431.387	630.46
431.763	648.32
432.138	646.06
432.514	619.16
432.89	657.36
433.265	652.84
433.641	639.73
434.016	693.29
434.392	686.06
434.767	670.69
435.143	674.53
435.518	712.27
435.894	698.94
436.269	704.36
436.644	708.65
437.02	705.04
437.395	703.68
437.77	746.84
438.145	717.02
438.52	722.89
438.895	748.65
439.271	754.08
439.646	738.03
440.021	742.55
440.395	753.4
440.77	749.56
441.145	758.6
441.52	761.76
441.895	773.74
442.27	779.61
442.645	758.37
443.019	787.3
443.394	762.89
443.769	784.36
444.143	779.61
444.518	806.96
444.892	797.92
445.267	815.32
445.641	813.06
446.016	820.74
446.39	830.23
446.764	832.49
447.139	805.15
447.513	845.83
447.887	808.99
448.262	819.84
448.636	837.46
449.01	863.23
449.384	858.25
449.758	859.16
450.132	876.78
450.506	867.29
450.88	903.9
451.254	863.9
451.628	914.07
452.002	882.66
452.376	893.28
452.75	906.61
453.123	912.26
453.497	898.71
453.871	921.98
454.244	935.99
454.618	940.74
454.992	939.38
455.365	944.58
455.739	978.93
456.112	950.68
456.486	958.59
456.859	975.31
457.232	986.39
457.606	1009.89
457.979	1030.68
458.352	1051.92
458.725	1027.06
459.099	1042.88
459.472	1051.24
459.845	1088.76
460.218	1078.59
460.591	1088.98
460.964	1079.72
461.337	1134.86
461.71	1113.39
462.083	1137.34
462.456	1119.49
462.829	1132.82
463.201	1146.61
463.574	1163.56
463.947	1195.42
464.32	1170.79
464.692	1192.48
465.065	1209.21
465.438	1230
465.81	1255.08
466.183	1237.91
466.555	1272.03
466.928	1272.03
467.3	1275.19
467.672	1277.68
468.045	1312.03
468.417	1317.23
468.789	1322.87
469.161	1365.59
469.534	1364.46
469.906	1383.21
470.278	1403.32
470.65	1382.31
471.022	1443.78
471.394	1451.68
471.766	1469.76
472.138	1467.5
472.51	1495.53
472.882	1531.46
473.253	1528.97
473.625	1542.76
473.997	1578.24
474.369	1604.45
474.74	1615.07
475.112	1661.4
475.484	1692.13
475.855	1674.5
476.227	1665.01
476.598	1699.14
476.97	1755.18
477.341	1783.43
477.713	1797.44
478.084	1768.96
478.455	1829.98
478.827	1862.52
479.198	1900.26
479.569	1909.3
479.94	1933.03
480.311	1940.26
480.682	2029.07
481.053	2066.81
481.424	2079.69
481.795	2074.04
482.166	2092.57
482.537	2156.98
482.908	2194.49
483.279	2208.5
483.65	2230.2
484.021	2268.39
484.391	2328.27
484.762	2327.59
485.133	2322.17
485.503	2363.07
485.874	2385.45
486.244	2437.42
486.615	2434.48
486.985	2466.57
487.356	2526.91
487.726	2562.16
488.097	2554.25
488.467	2582.5
488.837	2671.31
489.207	2679.9
489.578	2717.19
489.948	2764.19
490.318	2798.77
490.688	2802.84
491.058	2823.4
491.428	2822.04
491.798	2865.21
492.168	2938.65
492.538	2949.27
492.908	2982.49
493.278	2990.85
493.648	3015.71
494.017	3062.26
494.387	3093.45
494.757	3089.83
495.126	3134.35
495.496	3158.98
495.866	3183.16
496.235	3190.17
496.605	3262.94
496.974	3250.06
497.344	3275.14
497.713	3281.02
498.082	3309.72
498.452	3366.44
498.821	3390.17
499.19	3406.21
499.559	3396.04
499.928	3467.23
500.298	3481.24
500.667	3504.96
501.036	3468.36
501.405	3576.37
501.774	3559.43
502.143	3569.6
502.512	3605.98
502.88	3604.62
503.249	3608.46
503.618	3662.93
503.987	3645.53
504.356	3662.25
504.724	3711.74
505.093	3690.95
505.462	3671.06
505.83	3780.44
506.199	3828.8
506.567	3792.19
506.936	3862.02
507.304	3863.37
507.672	3895.46
508.041	3913.09
508.409	3939.53
508.777	3976.14
509.145	4009.81
509.514	4026.53
509.882	4046.87
510.25	4080.09
510.618	4067.21
510.986	4100.43
511.354	4187.66
511.722	4157.83
512.09	4206.87
512.458	4224.72
512.826	4260.42
513.193	4285.06
513.561	4275.11
513.929	4323.7
514.297	4356.69
514.664	4418.61
515.032	4416.58
515.4	4426.52
515.767	4491.61
516.135	4500.87
516.502	4467.2
516.869	4559.4
517.237	4598.49
517.604	4584.71
517.972	4652.96
518.339	4607.76
518.706	4668.1
519.073	4681.43
519.44	4712.84
519.808	4782.67
520.175	4756.46
520.542	4839.84
520.909	4884.59
521.276	4910.35
521.643	4956.68
522.009	4970.91
522.376	4953.06
522.743	5042.55
523.11	5121.64
523.477	5160.06
523.843	5174.07
524.21	5187.18
524.577	5246.61
524.943	5259.72
525.31	5249.33
525.676	5337.46
526.043	5346.5
526.409	5396.44
526.776	5475.08
527.142	5490.67
527.508	5501.3
527.874	5572.25
528.241	5612.25
528.607	5590.11
528.973	5688.41
529.339	5665.81
529.705	5719.6
530.071	5760.5
530.437	5771.12
530.803	5794.4
531.169	5902.64
531.535	5871.23
531.901	5882.08
532.267	5957.1
532.632	5937.89
532.998	5946.93
533.364	5992.13
533.73	6000.49
534.095	6029.42
534.461	6115.07
534.826	6149.41
535.192	6179.92
535.557	6186.7
535.923	6182.63
536.288	6262.18
536.653	6262.86
537.019	6225.57
537.384	6262.86
537.749	6300.37
538.114	6372.23
538.479	6326.81
538.845	6388.5
539.21	6365.91
539.575	6469.86
539.94	6435.28
540.305	6466.69
540.67	6461.27
541.034	6521.83
541.399	6500.14
541.764	6559.8
542.129	6606.35
542.494	6640.93
542.858	6670.53
543.223	6629.18
543.587	6741.94
543.952	6748.27
544.316	6698.78
544.681	6690.42
545.045	6784.2
545.41	6785.78
545.774	6833.46
546.138	6817.87
546.503	6854.93
546.867	6764.31
547.231	6966.79
547.595	6902.39
547.959	6957.98
548.324	6936.51
548.688	6996.17
549.052	6971.09
549.416	7029.62
549.779	7007.47
550.143	7011.54
550.507	7090.86
550.871	7122.27
551.235	7131.08
551.599	7232.32
551.962	7209.05
552.326	7215.83
552.689	7227.58
553.053	7256.73
553.417	7240.01
553.78	7345.32
554.143	7402.71
554.507	7430.51
554.87	7367.24
555.234	7498.98
555.597	7448.59
555.96	7484.97
556.323	7522.26
556.686	7544.18
557.05	7590.96
557.413	7637.51
557.776	7581.92
558.139	7709.6
558.502	7728.13
558.865	7731.52
559.228	7778.3
559.59	7793.44
559.953	7795.7
560.316	7925.19
560.679	7908.46
561.041	7944.17
561.404	7953.66
561.767	8029.59
562.129	7986.43
562.492	8060.78
562.854	8065.3
563.217	8037.05
563.579	8135.13
563.941	8205.41
564.304	8205.86
564.666	8283.6
565.028	8282.69
565.39	8311.84
565.753	8364.05
566.115	8332.41
566.477	8416.02
566.839	8448.34
567.201	8525.17
567.563	8562.46
567.925	8572.63
568.287	8581.22
568.648	8580.99
569.01	8647.88
569.372	8677.94
569.734	8732.17
570.095	8766.29
570.457	8804.49
570.819	8762.91
571.18	8773.3
571.542	8815.11
571.903	8900.75
572.265	8875.67
572.626	8862.11
572.987	8914.31
573.349	8947.53
573.71	9022.79
574.071	9010.58
574.432	9020.75
574.794	9092.61
575.155	9108.43
575.516	9075.21
575.877	9096
576.238	9142.56
576.599	9192.72
576.96	9121.09
577.32	9225.27
577.681	9203.35
578.042	9264.13
578.403	9248.32
578.763	9251.93
579.124	9269.78
579.485	9365.6
579.845	9320.18
580.206	9314.53
580.566	9332.83
580.927	9383.91
581.287	9344.58
581.648	9382.78
582.008	9433.17
582.368	9441.76
582.728	9458.71
583.089	9426.16
583.449	9430.23
583.809	9449.67
584.169	9451.02
584.529	9382.55
584.889	9440.63
585.249	9392.04
585.609	9446.05
585.969	9453.28
586.329	9468.42
586.688	9515.65
587.048	9439.27
587.408	9391.36
587.768	9448.08
588.127	9468.88
588.487	9450.57
588.846	9482.43
589.206	9443.79
589.565	9405.83
589.925	9428.65
590.284	9486.95
590.643	9490.12
591.003	9479.95
591.362	9496.22
591.721	9531.25
592.08	9477.46
592.44	9455.09
592.799	9523.56
593.158	9508.42
593.517	9508.87
593.876	9525.82
594.235	9548.87
594.593	9483.34
594.952	9528.08
595.311	9514.75
595.67	9554.97
596.029	9617.35
596.387	9585.03
596.746	9573.28
597.104	9584.8
597.463	9547.52
597.822	9585.03
598.18	9493.51
598.538	9510.23
598.897	9690.11
599.255	9550
599.613	9693.5
599.972	9586.16
600.33	9636.1
600.688	9569.66
601.046	9625.93
601.404	9628.42
601.762	9630.23
602.12	9635.42
602.478	9709.55
602.836	9754.97
603.194	9641.75
603.552	9641.75
603.91	9747.06
604.268	9729.89
604.625	9694.18
604.983	9696.21
605.341	9611.24
605.698	9664.12
606.056	9665.93
606.413	9729.89
606.771	9778.25
607.128	9759.94
607.485	9771.47
607.843	9712.03
608.2	9785.93
608.557	9861.18
608.914	9843.1
609.272	9841.75
609.629	9864.8
609.986	9877.45
610.343	9870.45
610.7	9865.7
611.057	9918.58
611.414	9875.19
611.771	9924.23
612.127	10021.18
612.484	9870.67
612.841	9982.08
613.198	9973.04
613.554	9962.65
613.911	9989.54
614.267	9974.85
614.624	9957.22
614.98	10007.62
615.337	10027.05
615.693	10009.2
616.05	10011.01
616.406	10091.01
616.762	10059.14
617.118	10032.25
617.475	10056.43
617.831	10016.66
618.187	10095.07
618.543	10096.66
618.899	10101.63
619.255	10152.47
619.611	10211.23
619.967	10182.98
620.323	10185.24
620.678	10159.93
621.034	10104.11
621.39	10073.38
621.746	10119.93
622.101	10267.5
622.457	10091.68
622.812	10117.9
623.168	10163.77
623.523	10166.26
623.879	10187.27
624.234	10078.8
624.589	10070.22
624.945	10196.54
625.3	10270.89
625.655	10169.42
626.01	10154.96
626.365	10208.29
626.72	10165.81
627.075	10149.08
627.43	10156.09
627.785	10112.93
628.14	10201.29
628.495	10186.37
628.85	10123.55
629.205	10169.2
629.559	10152.47
629.914	10129.87
630.269	10111.34
630.623	10123.1
630.978	10108.63
631.332	10108.41
631.687	10172.81
632.041	10084
632.396	10146.15
632.75	10051.68
633.104	10067.28
633.459	9938.69
633.813	9971.91
634.167	9997.9
634.521	10024.79
634.875	10046.04
635.229	9966.72
635.583	10000.39
635.937	9855.98
636.291	9897.34
636.645	9890.79
636.999	9878.36
637.352	9841.29
637.706	9802.43
638.06	9936.21
638.413	9877.45
638.767	9874.29
639.121	9870.9
639.474	9794.74
639.828	9744.35
640.181	9764.69
640.534	9766.72
640.888	9761.75
641.241	9719.26
641.594	9668.42
641.947	9725.37
642.301	9784.12
642.654	9745.93
643.007	9710.22
643.36	9684.46
643.713	9670.68
644.066	9749.77
644.419	9677.01
644.771	9589.32
645.124	9439.5
645.477	9475.88
645.83	9468.88
646.182	9352.72
646.535	9366.28
646.888	9384.13
647.24	9389.33
647.593	9360.18
647.945	9323.79
648.298	9353.62
648.65	9333.06
649.002	9259.39
649.355	9258.03
649.707	9231.82
650.059	9324.92
650.411	9407.63
650.763	9431.14
651.115	9563.11
651.467	9510.23
651.819	9498.48
652.171	9498.93
652.523	9496.45
652.875	9472.72
653.227	9401.98
653.578	9503.45
653.93	9447.63
654.282	9408.09
654.633	9463.23
654.985	9417.8
655.337	9403.11
655.688	9340.29
656.039	9434.53
656.391	9261.88
656.742	9403.57
657.094	9345.71
657.445	9366.28
657.796	9332.83
658.147	9348.2
658.498	9336.9
658.849	9413.28
659.2	9340.52
659.551	9345.04
659.902	9402.44
660.253	9316.79
660.604	9305.72
660.955	9225.94
661.306	9258.49
661.656	9293.74
662.007	9271.14
662.358	9265.49
662.708	9246.06
663.059	9261.88
663.409	9163.8
663.76	9270.46
664.11	9228.66
664.461	9243.8
664.811	9279.73
665.161	9274.98
665.511	9241.76
665.862	9263.91
666.212	9328.77
666.562	9256.9
666.912	9266.85
667.262	9248.32
667.612	9191.82
667.962	9158.15
668.312	9183.69
668.662	9257.58
669.011	9147.53
669.361	9191.59
669.711	9198.6
670.06	9058.26
670.41	9073.63
670.76	9117.47
671.109	9157.02
671.459	9138.49
671.808	9108.43
672.157	9166.06
672.507	9005.38
672.856	9058.72
673.205	9135.1
673.554	9074.76
673.904	9072.05
674.253	9066.85
674.602	9093.07
674.951	8947.76
675.3	8915.67
675.649	9041.09
675.998	9094.2
676.346	9078.6
676.695	9071.82
677.044	9015.33
677.393	9045.61
677.741	8959.28
678.09	8980.3
678.438	8958.38
678.787	9012.62
679.135	9041.54
679.484	8893.52
679.832	8950.47
680.181	8933.52
680.529	9018.27
680.877	9008.55
681.225	8935.78
681.573	8936.69
681.922	8917.93
682.27	8879.74
682.618	8844.71
682.966	8900.98
683.314	8878.61
683.661	8805.39
684.009	8887.87
684.357	8783.24
684.705	8774.43
685.053	8842.45
685.4	8770.14
685.748	8796.58
686.095	8722.23
686.443	8711.83
686.79	8637.03
687.138	8717.93
687.485	8669.12
687.832	8609.24
688.18	8669.8
688.527	8569.69
688.874	8625.06
689.221	8545.28
689.568	8527.66
689.915	8483.14
690.262	8506.87
690.609	8433.2
690.956	8431.84
691.303	8412.18
691.65	8422.58
691.997	8409.92
692.344	8332.41
692.69	8353.65
693.037	8392.29
693.383	8317.72
693.73	8366.08
694.077	8291.96
694.423	8326.76
694.769	8235.69
695.116	8269.13
695.462	8247.89
695.808	8223.03
696.155	8224.16
696.501	8130.61
696.847	8180.55
697.193	8084.96
697.539	8134.22
697.885	8047.9
698.231	8007.22
698.577	8006.54
698.923	8044.05
699.269	7997.95
699.614	7975.36
699.96	7931.97
700.306	7946.43
700.651	7872.08
700.997	7933.32
701.342	7838.41
701.688	7840.44
702.033	7851.74
702.379	7831.18
702.724	7822.14
703.069	7781.01
703.415	7745.53
703.76	7789.6
704.105	7729.03
704.45	7726.1
704.795	7775.81
705.14	7689.49
705.485	7671.63
705.83	7594.57
706.175	7689.71
706.52	7592.09
706.865	7632.77
707.209	7600
707.554	7588.25
707.899	7546.21
708.243	7540.11
708.588	7525.42
708.932	7492.43
709.277	7473
709.621	7521.58
709.966	7421.47
710.31	7370.63
710.654	7342.6
710.998	7408.59
711.342	7391.19
711.687	7370.4
712.031	7352.77
712.375	7304.64
712.719	7264.87
713.063	7301.47
713.407	7292.21
713.75	7285.2
714.094	7278.2
714.438	7211.53
714.782	7218.31
715.125	7164.08
715.469	7149.16
715.812	7179.9
716.156	7143.96
716.499	7125.43
716.843	7103.51
717.186	7082.27
717.53	7162.04
717.873	7086.79
718.216	7120.46
718.559	7137.41
718.902	7067.81
719.246	7043.4
719.589	7046.11
719.932	6986.45
720.275	6971.54
720.617	7039.33
720.96	6973.35
721.303	6908.49
721.646	6953.01
721.989	6942.16
722.331	6912.11
722.674	6944.87
723.016	6908.94
723.359	6896.29
723.701	6957.53
724.044	6897.42
724.386	6853.8
724.729	6896.97
725.071	6801.83
725.413	6810.87
725.755	6825.1
726.097	6840.02
726.439	6805.89
726.782	6794.82
727.124	6774.71
727.465	6776.52
727.807	6784.2
728.149	6693.81
728.491	6726.8
728.833	6743.75
729.175	6701.49
729.516	6659.01
729.858	6682.06
730.199	6686.58
730.541	6718.89
730.882	6696.97
731.224	6701.04
731.565	6619.46
731.906	6646.8
732.248	6628.27
732.589	6616.75
732.93	6619.68
733.271	6611.1
733.612	6609.97
733.953	6615.17
734.294	6594.83
734.635	6538.56
734.976	6535.17
735.317	6531.78
735.658	6506.24
735.999	6532.46
736.339	6494.72
736.68	6458.78
737.021	6525.68
737.361	6431.44
737.702	6469.18
738.042	6462.17
738.383	6442.97
738.723	6436.64
739.063	6479.12
739.404	6415.85
739.744	6395.51
740.084	6405
740.424	6419.01
740.764	6388.73
741.104	6402.74
741.444	6411.78
741.784	6387.83
742.124	6387.37
742.464	6329.07
742.804	6319.35
743.143	6300.82
743.483	6348.05
743.823	6286.13
744.162	6339.47
744.502	6249.07
744.841	6254.95
745.181	6270.32
745.52	6220.37
745.86	6209.07
746.199	6221.5
746.538	6276.42
746.877	6168.62
747.216	6218.79
747.556	6216.53
747.895	6235.06
748.234	6210.66
748.573	6209.3
748.911	6141.05
749.25	6142.86
749.589	6074.61
749.928	6109.87
750.267	6199.58
750.605	6127.72
750.944	6090.89
751.283	6137.21
751.621	6101.51
751.96	6056.08
752.298	6051.56
752.636	6046.14
752.975	6010.66
753.313	6008.85
753.651	6068.74
753.989	6057.44
754.327	6033.71
754.666	5944.9
755.004	5976.76
755.342	6011.34
755.679	5972.47
756.017	5919.59
756.355	5913.71
756.693	5825.13
757.031	5868.97
757.368	5841.4
757.706	5873.72
758.044	5844.34
758.381	5824.23
758.719	5791.68
759.056	5823.32
759.394	5780.84
759.731	5718.69
760.068	5725.02
760.405	5749.43
760.743	5681.63
761.08	5691.35
761.417	5674.4
761.754	5701.29
762.091	5678.24
762.428	5633.72
762.765	5572.71
763.102	5643.89
763.438	5647.73
763.775	5566.61
764.112	5593.72
764.449	5578.36
764.785	5543.55
765.122	5550.56
765.458	5520.73
765.795	5494.29
766.131	5415.87
766.467	5507.62
766.804	5456.33
767.14	5403.67
767.476	5410
767.812	5376.1
768.148	5365.93
768.485	5340.4
768.821	5312.6
769.157	5362.54
769.492	5297.23
769.828	5272.38
