Data from black_metal_pc_casing_FLMS001491_00049.txt Node
Date: Wed Feb 08 14:32:46 GMT 2017
User: dcchb
Spectrometer: FLMS00149
Trigger mode: 0
Integration Time (sec): 2.000000E-2
Scans to average: 10
Electric dark correction enabled: true
Nonlinearity correction enabled: false
Boxcar width: 0
XAxis mode: Wavelengths
Number of Pixels in Spectrum: 2048
>>>>>Begin Spectral Data<<<<<
341.393	-7.78
341.776	-7.78
342.16	-7.78
342.543	-59.53
342.927	-44.62
343.31	-45.75
343.693	-93.2
344.077	-45.97
344.46	-57.27
344.843	-54.33
345.226	-36.71
345.61	-36.48
345.993	-8.69
346.376	-13.66
346.759	6.68
347.142	29.73
347.525	41.71
347.908	40.13
348.291	74.02
348.674	90.97
349.057	108.82
349.44	119.9
349.823	156.51
350.206	140.69
350.588	172.1
350.971	183.17
351.354	194.25
351.737	227.47
352.119	242.38
352.502	236.73
352.884	250.52
353.267	266.56
353.65	277.18
354.032	261.14
354.414	309.5
354.797	300.01
355.179	297.97
355.562	283.28
355.944	311.98
356.326	300.46
356.709	314.02
357.091	319.44
357.473	319.89
357.855	330.06
358.238	323.96
358.62	313.79
359.002	323.28
359.384	349.27
359.766	329.61
360.148	307.92
360.53	319.44
360.912	308.59
361.294	314.02
361.676	342.27
362.057	314.7
362.439	321.47
362.821	287.35
363.203	346.33
363.584	307.46
363.966	313.57
364.348	316.95
364.729	321.47
365.111	296.84
365.493	293
365.874	309.95
366.256	300.68
366.637	296.84
367.019	272.66
367.4	298.65
367.781	311.76
368.163	292.32
368.544	297.29
368.925	294.58
369.306	319.67
369.688	306.56
370.069	281.7
370.45	296.62
370.831	287.58
371.212	275.83
371.593	272.89
371.974	286.9
372.355	288.26
372.736	312.21
373.117	320.34
373.498	291.42
373.879	286
374.26	303.85
374.641	296.16
375.021	297.97
375.402	305.2
375.783	303.85
376.163	295.49
376.544	326.9
376.925	294.58
377.305	305.43
377.686	312.44
378.066	312.89
378.447	299.78
378.827	318.99
379.208	319.44
379.588	332.1
379.968	315.6
380.349	315.6
380.729	340.01
381.109	312.66
381.489	319.89
381.87	321.7
382.25	322.6
382.63	313.79
383.01	327.35
383.39	321.93
383.77	339.78
384.15	339.78
384.53	312.89
384.91	331.19
385.29	344.07
385.67	337.07
386.049	334.81
386.429	328.71
386.809	324.64
387.189	332.77
387.568	337.75
387.948	341.36
388.328	342.27
388.707	342.27
389.087	368.93
389.466	349.5
389.846	354.02
390.225	358.99
390.605	344.75
390.984	343.17
391.363	346.33
391.743	365.77
392.122	360.34
392.501	379.78
392.881	342.94
393.26	346.11
393.639	378.87
394.018	371.64
394.397	375.48
394.776	377.74
395.155	369.38
395.534	374.81
395.913	379.1
396.292	375.03
396.671	373.68
397.05	376.84
397.429	395.82
397.808	384.98
398.186	365.99
398.565	394.47
398.944	370.29
399.323	370.51
399.701	374.13
400.08	360.8
400.458	380.91
400.837	376.39
401.215	389.72
401.594	402.83
401.972	389.5
402.351	391.53
402.729	387.69
403.107	404.64
403.486	394.47
403.864	378.87
404.242	397.63
404.62	400.57
404.999	389.27
405.377	416.16
405.755	391.76
406.133	414.81
406.511	438.31
406.889	404.86
407.267	431.75
407.645	423.39
408.023	401.25
408.401	448.25
408.779	419.78
409.156	429.72
409.534	433.34
409.912	433.56
410.29	444.18
410.667	440.12
411.045	448.02
411.422	443.05
411.8	463.39
412.178	451.19
412.555	463.84
412.933	451.19
413.31	465.88
413.687	482.15
414.065	475.59
414.442	481.92
414.819	478.98
415.197	469.49
415.574	507.23
415.951	472.66
416.328	486.67
416.705	499.55
417.082	483.96
417.46	498.87
417.837	483.5
418.214	515.82
418.591	521.47
418.967	479.89
419.344	516.95
419.721	522.15
420.098	494.58
420.475	515.59
420.852	513.33
421.228	499.77
421.605	527.12
421.982	506.33
422.358	512.43
422.735	549.72
423.111	545.42
423.488	547.46
423.864	555.82
424.241	571.64
424.617	565.31
424.994	572.09
425.37	561.24
425.746	562.6
426.123	561.47
426.499	564.63
426.875	585.2
427.251	583.84
427.627	572.77
428.003	580.9
428.379	600.79
428.756	605.53
429.132	620.22
429.507	618.42
429.883	598.08
430.259	629.72
430.635	607.34
431.011	608.25
431.387	617.51
431.763	651.41
432.138	663.61
432.514	654.35
432.89	644.63
433.265	660.67
433.641	653.9
434.016	663.84
434.392	680.34
434.767	693.89
435.143	667.45
435.518	687.11
435.894	676.49
436.269	703.84
436.644	711.97
437.02	693.44
437.395	704.52
437.77	713.1
438.145	728.7
438.52	735.7
438.895	717.4
439.271	741.35
439.646	750.62
440.021	768.47
440.395	762.59
440.77	731.86
441.145	748.36
441.52	766.66
441.895	764.63
442.27	773.44
442.645	777.06
443.019	758.07
443.394	786.77
443.769	779.09
444.143	776.15
444.518	781.58
444.892	804.4
445.267	780.22
445.641	797.85
446.016	769.82
446.39	793.55
446.764	789.03
447.139	807.34
447.513	819.77
447.887	822.03
448.262	826.09
448.636	806.66
449.01	834.46
449.384	842.59
449.758	835.59
450.132	854.79
450.506	845.3
450.88	861.35
451.254	853.89
451.628	886.88
452.002	870.61
452.376	885.3
452.75	895.92
453.123	898.41
453.497	915.58
453.871	925.98
454.244	949.25
454.618	929.82
454.992	951.51
455.365	943.61
455.739	958.97
456.112	944.06
456.486	960.55
456.859	963.94
457.232	1016.6
457.606	980.44
457.979	1002.81
458.352	1023.15
458.725	1033.09
459.099	1026.77
459.472	1006.88
459.845	1062.92
460.218	1103.37
460.591	1061.34
460.964	1076.93
461.337	1114.22
461.71	1108.57
462.083	1135.01
462.456	1123.71
462.829	1130.49
463.201	1156.71
463.574	1154
463.947	1148.57
464.32	1184.73
464.692	1172.53
465.065	1171.4
465.438	1171.62
465.81	1206.2
466.183	1240.09
466.555	1264.27
466.928	1295.01
467.3	1269.02
467.672	1267.21
468.045	1302.92
468.417	1333.88
468.789	1326.19
469.161	1328.68
469.534	1347.66
469.906	1351.05
470.278	1377.72
470.65	1404.61
471.022	1389.47
471.394	1441.67
471.766	1455.23
472.138	1483.25
472.51	1497.26
472.882	1495
473.253	1526.41
473.625	1542.46
473.997	1563.48
474.369	1585.85
474.74	1559.18
475.112	1605.96
475.484	1646.86
475.855	1633.08
476.227	1633.08
476.598	1680.53
476.97	1706.3
477.341	1742.68
477.713	1765.96
478.084	1791.94
478.455	1815.67
478.827	1836.69
479.198	1868.78
479.569	1854.54
479.94	1937.03
480.311	1953.07
480.682	1979.51
481.053	1989
481.424	2049.34
481.795	2047.3
482.166	2068.77
482.537	2129.34
482.908	2132.27
483.279	2162.1
483.65	2219.5
484.021	2223.8
484.391	2280.07
484.762	2285.26
485.133	2302.21
485.503	2311.03
485.874	2380.86
486.244	2379.27
486.615	2450.23
486.985	2452.94
487.356	2491.14
487.726	2501.08
488.097	2545.82
488.467	2543.34
488.837	2594.86
489.207	2631.7
489.578	2688.19
489.948	2697.23
490.318	2754.86
490.688	2750.11
491.058	2769.09
491.428	2802.77
491.798	2850.67
492.168	2856.1
492.538	2880.28
492.908	2945.59
493.278	2983.55
493.648	2935.64
494.017	2999.82
494.387	3023.32
494.757	3060.61
495.126	3070.33
495.496	3125.92
495.866	3120.95
496.235	3151.68
496.605	3188.29
496.974	3184.22
497.344	3245.92
497.713	3208.63
498.082	3256.54
498.452	3314.39
498.821	3359.81
499.19	3328.63
499.559	3334.95
499.928	3372.69
500.298	3384.9
500.667	3406.14
501.036	3432.58
501.405	3401.39
501.774	3482.97
502.143	3537.44
502.512	3511.22
502.88	3576.98
503.249	3574.5
503.618	3577.21
503.987	3599.13
504.356	3632.8
504.724	3649.97
505.093	3672.12
505.462	3688.62
505.83	3692.91
506.199	3706.92
506.567	3798.9
506.936	3788.95
507.304	3809.74
507.672	3834.6
508.041	3821.5
508.409	3808.84
508.777	3877.09
509.145	3948.05
509.514	3891.55
509.882	3935.62
510.25	3978.1
510.618	3985.79
510.986	4026.91
511.354	4067.59
511.722	4092
512.09	4100.13
512.458	4102.84
512.826	4147.14
513.193	4172.22
513.561	4218.32
513.929	4220.81
514.297	4293.57
514.664	4302.16
515.032	4316.85
515.4	4337.64
515.767	4350.52
516.135	4409.73
516.502	4408.37
516.869	4445.43
517.237	4504.64
517.604	4445.43
517.972	4514.81
518.339	4550.97
518.706	4563.17
519.073	4593.68
519.44	4653.79
519.808	4690.4
520.175	4670.96
520.542	4750.51
520.909	4791.64
521.276	4794.13
521.643	4802.71
522.009	4863.5
522.376	4902.15
522.743	4920.68
523.11	4974.01
523.477	4994.35
523.843	5022.59
524.21	5087.9
524.577	5125.42
524.943	5122.93
525.31	5176.71
525.676	5255.81
526.043	5247.45
526.409	5243.83
526.776	5305.3
527.142	5322.02
527.508	5345.07
527.874	5430.49
528.241	5489.93
528.607	5464.16
528.973	5519.3
529.339	5563.37
529.705	5565.18
530.071	5626.42
530.437	5664.84
530.803	5676.14
531.169	5731.95
531.535	5698.28
531.901	5689.92
532.267	5807.66
532.632	5871.84
532.998	5815.79
533.364	5823.25
533.73	5882.01
534.095	5908.22
534.461	5928.56
534.826	5963.36
535.192	6009.69
535.557	6055.34
535.923	6024.6
536.288	5996.35
536.653	6050.59
537.019	6025.73
537.384	6114.77
537.749	6154.54
538.114	6182.34
538.479	6182.11
538.845	6209.23
539.21	6211.49
539.575	6249.68
539.94	6240.42
540.305	6299.17
540.67	6354.54
541.034	6328.1
541.399	6354.76
541.764	6348.43
542.129	6413.97
542.494	6391.6
542.858	6477.47
543.223	6444.7
543.587	6455.55
543.952	6487.64
544.316	6533.29
544.681	6447.42
545.045	6576.23
545.41	6646.05
545.774	6567.86
546.138	6608.31
546.503	6681.76
546.867	6619.84
547.231	6668.43
547.595	6747.52
547.959	6751.36
548.324	6773.06
548.688	6763.11
549.052	6761.76
549.416	6770.8
549.779	6800.4
550.143	6878.36
550.507	6870.91
550.871	6896.22
551.235	6922.2
551.599	6965.82
551.962	6983.9
552.326	6994.97
552.689	7007.17
553.053	6994.97
553.417	7076.1
553.78	7152.93
554.143	7064.57
554.507	7158.13
554.87	7163.55
555.234	7166.27
555.597	7215.76
555.96	7159.03
556.323	7279.48
556.686	7263.21
557.05	7349.31
557.413	7380.05
557.776	7370.33
558.139	7425.24
558.502	7451.23
558.865	7512.02
559.228	7532.81
559.59	7537.33
559.953	7524.68
560.316	7662.98
560.679	7634.73
561.041	7678.12
561.404	7708.4
561.767	7696.65
562.129	7790.88
562.492	7818.68
562.854	7815.06
563.217	7776.87
563.579	7891.9
563.941	7927.83
564.304	7942.52
564.666	8037.2
565.028	8059.35
565.39	8003.08
565.753	8126.69
566.115	8160.14
566.477	8171.21
566.839	8196.07
567.201	8222.96
567.563	8255.28
567.925	8264.99
568.287	8331.43
568.648	8294.15
569.01	8390.41
569.372	8431.09
569.734	8410.08
570.095	8474.03
570.457	8460.7
570.819	8523.97
571.18	8542.95
571.542	8638.32
571.903	8588.83
572.265	8590.64
572.626	8628.6
572.987	8592.67
573.349	8637.41
573.71	8650.97
574.071	8702.05
574.432	8728.71
574.794	8776.85
575.155	8797.41
575.516	8771.2
575.877	8769.61
576.238	8820.01
576.599	8804.64
576.96	8860.01
577.32	8845.54
577.681	8930.06
578.042	8913.11
578.403	8930.97
578.763	8927.12
579.124	8979.33
579.485	8969.16
579.845	9095.48
580.206	9046.67
580.566	8948.14
580.927	9045.76
581.287	9095.03
581.648	9012.32
582.008	9069.04
582.368	9060.91
582.728	9101.36
583.089	9099.77
583.449	9048.7
583.809	9063.17
584.169	9082.15
584.529	9036.95
584.889	9124.18
585.249	9022.71
585.609	9105.42
585.969	9126.67
586.329	9030.17
586.688	9102.26
587.048	9147.46
587.408	9034.92
587.768	9048.02
588.127	9092.09
588.487	9078.31
588.846	9240.34
589.206	9031.53
589.565	9112.88
589.925	9120.79
590.284	9131.19
590.643	9093.45
591.003	9153.11
591.362	9160.79
591.721	9165.08
592.08	9143.62
592.44	9169.38
592.799	9200.11
593.158	9175.93
593.517	9195.82
593.876	9226.55
594.235	9241.01
594.593	9223.61
594.952	9251.18
595.311	9258.64
595.67	9149.04
596.029	9274.46
596.387	9293.67
596.746	9277.62
597.104	9217.74
597.463	9198.53
597.822	9296.15
598.18	9208.92
598.538	9231.75
598.897	9224.74
599.255	9222.94
599.613	9292.09
599.972	9285.98
600.33	9325.76
600.688	9262.26
601.046	9282.14
601.404	9357.17
601.762	9314.68
602.12	9348.81
602.478	9358.07
602.836	9405.53
603.194	9353.78
603.552	9374.57
603.91	9264.06
604.268	9370.28
604.625	9339.09
604.983	9373.44
605.341	9338.19
605.698	9364.63
606.056	9330.05
606.413	9335.47
606.771	9343.84
607.128	9364.63
607.485	9356.72
607.843	9426.32
608.2	9480.56
608.557	9513.78
608.914	9457.05
609.272	9500.44
609.629	9468.13
609.986	9545.19
610.343	9459.09
610.7	9614.11
611.057	9571.63
611.414	9560.55
611.771	9559.88
612.127	9560.1
612.484	9595.81
612.841	9570.72
613.198	9562.59
613.554	9561.46
613.911	9720.78
614.267	9618.63
614.624	9591.97
614.98	9624.28
615.337	9696.37
615.693	9716.93
616.05	9674.9
616.406	9717.39
616.762	9688.69
617.118	9697.27
617.475	9620.44
617.831	9690.49
618.187	9717.39
618.543	9699.08
618.899	9796.48
619.255	9758.06
619.611	9744.73
619.967	9799.19
620.323	9837.38
620.678	9747.89
621.034	9785.63
621.39	9778.63
621.746	9763.26
622.101	9841.45
622.457	9787.89
622.812	9798.29
623.168	9769.59
623.523	9755.8
623.879	9812.52
624.234	9730.04
624.589	9839.87
624.945	9885.97
625.3	9735.92
625.655	9786.76
626.01	9825.86
626.365	9818.85
626.72	9835.8
627.075	9814.78
627.43	9790.38
627.785	9792.19
628.14	9802.81
628.495	9767.33
628.85	9712.64
629.205	9663.38
629.559	9815.24
629.914	9806.42
630.269	9772.07
630.623	9785.18
630.978	9706.31
631.332	9782.24
631.687	9735.01
632.041	9716.93
632.396	9771.85
632.75	9667.22
633.104	9662.47
633.459	9674.45
633.813	9607.33
634.167	9627.44
634.521	9617.05
634.875	9663.15
635.229	9618.18
635.583	9608.46
635.937	9648.69
636.291	9616.82
636.645	9572.08
636.999	9588.12
637.352	9534.57
637.706	9493.66
638.06	9526.66
638.413	9523.94
638.767	9495.92
639.121	9516.71
639.474	9451.4
639.828	9439.43
640.181	9474.45
640.534	9515.58
640.888	9387
641.241	9402.82
641.594	9430.84
641.947	9438.07
642.301	9384.97
642.654	9423.16
643.007	9432.65
643.36	9337.96
643.713	9347
644.066	9370.5
644.419	9290.73
644.771	9242.14
645.124	9224.97
645.477	9181.35
645.83	9107.01
646.182	9024.97
646.535	9077.18
646.888	9063.62
647.24	8993.79
647.593	9051.41
647.945	9049.38
648.298	9038.76
648.65	8963.73
649.002	8960.8
649.355	9001.92
649.707	8959.67
650.059	9025.88
650.411	9122.37
650.763	9132.32
651.115	9236.27
651.467	9216.16
651.819	9187.23
652.171	9123.5
652.523	9140.9
652.875	9107.46
653.227	9140.45
653.578	9163.05
653.93	9125.76
654.282	9145.2
654.633	9103.39
654.985	9074.01
655.337	9105.65
655.688	9099.55
656.039	9114.46
656.391	8999.44
656.742	9027.46
657.094	9086.89
657.445	9053.67
657.796	8997.63
658.147	9037.63
658.498	9020.68
658.849	9031.3
659.2	9052.09
659.551	8980.23
659.902	8991.98
660.253	8939.55
660.604	9021.36
660.955	8921.47
661.306	8984.52
661.656	8935.49
662.007	8973.9
662.358	9043.28
662.708	8944.07
663.059	8906.56
663.409	8855.49
663.76	8940.01
664.11	8975.94
664.461	9006.9
664.811	8987.69
665.161	8951.53
665.511	8920.34
665.862	8954.69
666.212	8974.13
666.562	8943.17
666.912	8940.68
667.262	8991.98
667.612	8981.81
667.962	8932.1
668.312	8884.64
668.662	8925.32
669.011	8940.01
669.361	8843.06
669.711	8855.71
670.06	8850.74
670.41	8865.2
670.76	8812.78
671.109	8850.97
671.459	8799.67
671.808	8812.1
672.157	8814.13
672.507	8860.91
672.856	8882.38
673.205	8808.48
673.554	8784.3
673.904	8810.52
674.253	8843.74
674.602	8771.65
674.951	8718.99
675.3	8657.98
675.649	8747.69
675.998	8754.25
676.346	8804.19
676.695	8772.78
677.044	8730.52
677.393	8755.83
677.741	8818.43
678.09	8793.79
678.438	8708.37
678.787	8690.07
679.135	8654.14
679.484	8715.83
679.832	8723.51
680.181	8639.45
680.529	8735.26
680.877	8673.8
681.225	8622.73
681.573	8728.26
681.922	8589.96
682.27	8611.65
682.618	8590.18
682.966	8562.84
683.314	8526.23
683.661	8557.42
684.009	8527.81
684.357	8473.12
684.705	8430.64
685.053	8543.86
685.4	8477.87
685.748	8415.05
686.095	8435.84
686.443	8362.17
686.79	8378.44
687.138	8462.28
687.485	8405.56
687.832	8368.72
688.18	8356.74
688.527	8358.55
688.874	8344.09
689.221	8291.89
689.568	8228.61
689.915	8309.06
690.262	8284.2
690.609	8221.61
690.956	8204.88
691.303	8156.75
691.65	8119.24
691.997	8168.05
692.344	8081.27
692.69	8061.84
693.037	8070.42
693.383	7980.03
693.73	8101.38
694.077	7989.3
694.423	8011.44
694.769	7949.3
695.116	7881.28
695.462	7945.23
695.808	7911.78
696.155	7905.68
696.501	7911.33
696.847	7862.97
697.193	7877.43
697.539	7856.64
697.885	7753.82
698.231	7726.93
698.577	7775.74
698.923	7817.1
699.269	7729.64
699.614	7703.88
699.96	7714.5
700.306	7643.54
700.651	7658.91
700.997	7642.64
701.342	7655.52
701.688	7653.26
702.033	7603.54
702.379	7585.46
702.724	7584.79
703.069	7586.82
703.415	7505.24
703.76	7513.83
704.105	7486.26
704.45	7499.36
704.795	7390.67
705.14	7415.75
705.485	7370.78
705.83	7304.57
706.175	7301.4
706.52	7332.14
706.865	7264.79
707.209	7281.52
707.554	7246.26
707.899	7278.13
708.243	7246.94
708.588	7246.72
708.932	7240.16
709.277	7189.99
709.621	7211.69
709.966	7163.1
710.31	7190.45
710.654	7101.18
710.998	7161.97
711.342	7211.91
711.687	7145.25
712.031	7081.3
712.375	7058.02
712.719	7059.15
713.063	7060.73
713.407	7072.94
713.75	7029.32
714.094	7044.46
714.438	7033.39
714.782	6975.08
715.125	6974.63
715.469	6992.49
715.812	6970.79
716.156	6912.71
716.499	6942.09
716.843	6920.85
717.186	6910.68
717.53	6887.63
717.873	6892.83
718.216	6865.94
718.559	6886.73
718.902	6829.33
719.246	6812.15
719.589	6801.76
719.932	6784.13
720.275	6818.03
720.617	6799.5
720.96	6806.95
721.303	6744.58
721.646	6776.67
721.989	6752.49
722.331	6765.37
722.674	6726.28
723.016	6693.74
723.359	6738.93
723.701	6726.05
724.044	6674.75
724.386	6598.37
724.729	6694.19
725.071	6627.75
725.413	6557.47
725.755	6615.32
726.097	6637.92
726.439	6562.67
726.782	6552.95
727.124	6568.32
727.465	6493.74
727.807	6542.1
728.149	6509.11
728.491	6519.73
728.833	6517.92
729.175	6451.03
729.516	6458.71
729.858	6460.75
730.199	6509.33
730.541	6463.01
730.882	6480.41
731.224	6495.32
731.565	6411.03
731.906	6469.34
732.248	6469.56
732.589	6461.65
732.93	6389.11
733.271	6439.73
733.612	6372.39
733.953	6432.5
734.294	6320.19
734.635	6383.46
734.976	6349.79
735.317	6308.44
735.658	6323.35
735.999	6324.48
736.339	6276.57
736.68	6311.37
737.021	6299.4
737.361	6246.29
737.702	6332.84
738.042	6258.04
738.383	6292.84
738.723	6254.2
739.063	6202.22
739.404	6289.68
739.744	6265.95
740.084	6212.17
740.424	6228.21
740.764	6199.06
741.104	6234.09
741.444	6126.75
741.784	6107.99
742.124	6166.74
742.464	6217.14
742.804	6171.94
743.143	6119.97
743.483	6085.62
743.823	6143.24
744.162	6126.97
744.502	6080.87
744.841	6106.41
745.181	6042.45
745.52	6022.12
745.86	6091.49
746.199	6003.81
746.538	6040.65
746.877	6014.66
747.216	6061.66
747.556	6016.92
747.895	6065.28
748.234	5998.39
748.573	5966.07
748.911	6002.68
749.25	5964.72
749.589	5894.44
749.928	5971.27
750.267	5946.19
750.605	5945.73
750.944	5857.83
751.283	5900.54
751.621	5904.6
751.96	5841.33
752.298	5869.35
752.636	5861.89
752.975	5844.27
753.313	5797.71
753.651	5875.68
753.989	5805.85
754.327	5825.74
754.666	5758.85
755.004	5756.36
755.342	5824.38
755.679	5742.12
756.017	5718.85
756.355	5721.56
756.693	5712.52
757.031	5693.99
757.368	5699.41
757.706	5660.32
758.044	5661.9
758.381	5675.23
758.719	5641.79
759.056	5591.62
759.394	5635.23
759.731	5604.73
760.068	5549.36
760.405	5587.32
760.743	5539.87
761.08	5555.69
761.417	5498.97
761.754	5468.23
762.091	5539.42
762.428	5475.69
762.765	5453.32
763.102	5470.49
763.438	5466.42
763.775	5416.48
764.112	5438.63
764.449	5412.19
764.785	5426.65
765.122	5315.69
765.458	5298.74
765.795	5310.72
766.131	5305.98
766.467	5269.59
766.804	5284.06
767.14	5253.55
767.476	5237.05
767.812	5272.08
768.148	5255.13
768.485	5168.13
768.821	5184.62
769.157	5204.06
769.492	5162.25
769.828	5155.25
770.164	5119.31
770.5	5113.66
