Data from black_plastic_tray_FLMS001491_058.txt Node
Date: Tue Feb 07 10:40:10 GMT 2017
User: dcchb
Spectrometer: FLMS00149
Trigger mode: 0
Integration Time (sec): 2.000000E-2
Scans to average: 10
Electric dark correction enabled: true
Nonlinearity correction enabled: false
Boxcar width: 0
XAxis mode: Wavelengths
Number of Pixels in Spectrum: 2048
>>>>>Begin Spectral Data<<<<<
341.393	-6.64
341.776	-6.64
342.16	-6.64
342.543	-63.13
342.927	-50.7
343.31	-67.43
343.693	-58.84
344.077	-81.89
344.46	-68.11
344.843	-51.38
345.226	-30.37
345.61	-22.68
345.993	8.05
346.376	-18.16
346.759	15.73
347.142	11.44
347.525	29.07
347.908	48.73
348.291	90.31
348.674	89.18
349.057	106.35
349.44	141.61
349.823	139.35
350.206	162.85
350.588	179.12
350.971	212.79
351.354	248.5
351.737	202.17
352.119	238.78
352.502	254.82
352.884	269.96
353.267	287.14
353.65	275.61
354.032	268.16
354.414	305.67
354.797	291.88
355.179	309.96
355.562	293.01
355.944	310.19
356.326	328.95
356.709	320.58
357.091	329.85
357.473	336.86
357.855	328.72
358.238	340.25
358.62	318.55
359.002	345.22
359.384	308.83
359.766	302.51
360.148	327.14
360.53	357.19
360.912	341.15
361.294	347.48
361.676	337.08
362.057	325.78
362.439	320.36
362.821	297.31
363.203	333.01
363.584	301.6
363.966	342.05
364.348	325.1
364.729	302.28
365.111	292.79
365.493	322.39
365.874	321.94
366.256	316.74
366.637	319.45
367.019	302.96
367.4	321.94
367.781	325.1
368.163	311.09
368.544	306.35
368.925	313.58
369.306	340.47
369.688	303.64
370.069	315.61
370.45	314.03
370.831	314.03
371.212	325.33
371.593	327.59
371.974	313.35
372.355	296.4
372.736	311.55
373.117	320.58
373.498	307.25
373.879	314.48
374.26	296.18
374.641	306.8
375.021	304.31
375.402	322.17
375.783	344.99
376.163	314.71
376.544	341.15
376.925	344.99
377.305	334.6
377.686	326.69
378.066	330.75
378.447	338.66
378.827	352.22
379.208	328.49
379.588	353.13
379.968	355.16
380.349	354.93
380.729	346.12
381.109	343.18
381.489	373.24
381.87	342.51
382.25	345.44
382.63	360.58
383.01	370.53
383.39	366.23
383.77	361.26
384.15	367.59
384.53	363.3
384.91	354.71
385.29	339.34
385.67	364.65
386.049	339.34
386.429	388.83
386.809	353.8
387.189	377.08
387.568	366.46
387.948	378.66
388.328	394.71
388.707	391.09
389.087	376.63
389.466	375.27
389.846	378.44
390.225	387.25
390.605	379.57
390.984	377.76
391.363	422.5
391.743	393.58
392.122	406.01
392.501	390.19
392.881	421.83
393.26	389.28
393.639	421.37
394.018	426.12
394.397	397.19
394.776	414.59
395.155	434.25
395.534	414.14
395.913	429.96
396.292	429.28
396.671	422.95
397.05	445.78
397.429	425.44
397.808	441.03
398.186	446.46
398.565	425.89
398.944	418.21
399.323	443.07
399.701	425.67
400.08	448.27
400.458	434.48
400.837	448.04
401.215	464.76
401.594	480.35
401.972	440.58
402.351	460.24
402.729	478.32
403.107	479
403.486	491.65
403.864	473.35
404.242	470.86
404.62	482.16
404.999	484.2
405.377	460.92
405.755	499.56
406.133	483.52
406.511	496.85
406.889	497.98
407.267	501.82
407.645	498.21
408.023	511.31
408.401	519.45
408.779	531.43
409.156	527.58
409.534	530.3
409.912	545.21
410.29	549.28
410.667	533.69
411.045	556.96
411.422	555.38
411.8	547.47
412.178	540.47
412.555	552.22
412.933	572.1
413.31	576.62
413.687	587.47
414.065	574.14
414.442	600.35
414.819	597.64
415.197	593.57
415.574	633.8
415.951	585.21
416.328	628.83
416.705	618.66
417.082	608.94
417.46	646.23
417.837	658.43
418.214	631.54
418.591	649.39
418.967	655.04
419.344	640.8
419.721	661.37
420.098	652.78
420.475	624.76
420.852	655.27
421.228	682.61
421.605	673.34
421.982	676.06
422.358	677.64
422.735	703.4
423.111	671.31
423.488	690.07
423.864	702.72
424.241	709.28
424.617	722.61
424.994	721.93
425.37	725.55
425.746	723.29
426.123	719.44
426.499	723.06
426.875	737.07
427.251	768.48
427.627	766.67
428.003	792.44
428.379	776.84
428.756	787.92
429.132	804.64
429.507	784.53
429.883	801.02
430.259	841.02
430.635	827.46
431.011	855.26
431.387	852.1
431.763	862.04
432.138	867.92
432.514	869.5
432.89	890.74
433.265	917.63
433.641	909.72
434.016	880.12
434.392	929.38
434.767	931.64
435.143	926.22
435.518	953.34
435.894	940.23
436.269	970.96
436.644	958.31
437.02	977.06
437.395	979.32
437.77	1002.37
438.145	1012.77
438.52	1016.16
438.895	1026.33
439.271	1025.43
439.646	1029.72
440.021	1035.14
440.395	1062.94
440.77	1053.67
441.145	1067.68
441.52	1077.4
441.895	1100
442.27	1074.92
442.645	1072.88
443.019	1103.84
443.394	1105.42
443.769	1112.2
444.143	1093.22
444.518	1141.58
444.892	1086.44
445.267	1100.68
445.641	1129.15
446.016	1151.3
446.39	1161.47
446.764	1156.27
447.139	1148.36
447.513	1175.48
447.887	1197.62
448.262	1199.66
448.636	1204.86
449.01	1217.06
449.384	1212.99
449.758	1222.48
450.132	1270.62
450.506	1231.52
450.88	1259.09
451.254	1255.25
451.628	1263.84
452.002	1301.12
452.376	1284.18
452.75	1307.9
453.123	1325.08
453.497	1349.71
453.871	1345.19
454.244	1370.5
454.618	1379.99
454.992	1368.47
455.365	1383.61
455.739	1383.38
456.112	1411.18
456.486	1431.97
456.859	1436.26
457.232	1466.09
457.606	1470.84
457.979	1490.95
458.352	1514.68
458.725	1546.09
459.099	1557.84
459.472	1584.51
459.845	1587.44
460.218	1624.28
460.591	1616.14
460.964	1637.16
461.337	1656.82
461.71	1673.09
462.083	1671.96
462.456	1701.34
462.829	1699.31
463.201	1721.23
463.574	1723.71
463.947	1794.9
464.32	1797.16
464.692	1812.75
465.065	1837.61
465.438	1859.53
465.81	1856.14
466.183	1889.13
466.555	1908.79
466.928	1945.4
467.3	1922.12
467.672	1942.69
468.045	2005.96
468.417	2001.67
468.789	2028.79
469.161	2060.43
469.534	2117.83
469.906	2084.38
470.278	2138.62
470.65	2114.89
471.022	2202.8
471.394	2201.89
471.766	2242.34
472.138	2262.23
472.51	2292.74
472.882	2359.63
473.253	2367.99
473.625	2421.09
473.997	2412.96
474.369	2446.86
474.74	2506.97
475.112	2519.85
475.484	2548.55
475.855	2591.94
476.227	2665.61
476.598	2688.21
476.97	2694.31
477.341	2755.32
477.713	2836
478.084	2804.36
478.455	2904.25
478.827	2890.01
479.198	2991.48
479.569	3011.81
479.94	3091.81
480.311	3089.33
480.682	3160.51
481.053	3219.49
481.424	3263.11
481.795	3334.06
482.166	3339.94
482.537	3429.2
482.908	3449.77
483.279	3471.24
483.65	3595.3
484.021	3626.03
484.391	3679.14
484.762	3686.6
485.133	3709.42
485.503	3765.01
485.874	3819.48
486.244	3864.45
486.615	4000.49
486.985	3995.97
487.356	4038.68
487.726	4113.71
488.097	4193.93
488.467	4162.29
488.837	4261.95
489.207	4298.33
489.578	4370.65
489.948	4384.88
490.318	4461.04
490.688	4501.72
491.058	4594.6
491.428	4597.53
491.798	4617.87
492.168	4703.52
492.538	4774.03
492.908	4806.57
493.278	4866.45
493.648	4830.52
494.017	4897.87
494.387	4929.05
494.757	5008.6
495.126	5078.88
495.496	5076.62
495.866	5143.06
496.235	5194.81
496.605	5199.55
496.974	5245.88
497.344	5326.33
497.713	5355.71
498.082	5422.15
498.452	5439.77
498.821	5466.89
499.19	5489.04
499.559	5523.39
499.928	5547.79
500.298	5537.4
500.667	5672.76
501.036	5643.83
501.405	5681.8
501.774	5719.54
502.143	5786.88
502.512	5784.85
502.88	5885.41
503.249	5842.25
503.618	5933.54
503.987	5969.7
504.356	5962.92
504.724	6060.32
505.093	6018.51
505.462	6125.4
505.83	6081.79
506.199	6204.05
506.567	6252.86
506.936	6315.68
507.304	6350.48
507.672	6315.23
508.041	6394.32
508.409	6438.62
508.777	6500.31
509.145	6528.78
509.514	6553.64
509.882	6672.51
510.25	6643.58
510.618	6631.61
510.986	6733.75
511.354	6832.96
511.722	6874.76
512.09	6931.03
512.458	6933.52
512.826	6985.72
513.193	7030.69
513.561	7041.76
513.929	7133.51
514.297	7191.82
514.664	7186.17
515.032	7233.85
515.4	7315.88
515.767	7342.1
516.135	7353.39
516.502	7408.99
516.869	7542.09
517.237	7565.14
517.604	7473.39
517.972	7665.25
518.339	7691.92
518.706	7696.66
519.073	7754.06
519.44	7871.35
519.808	7913.38
520.175	7955.64
520.542	7979.14
520.909	8046.48
521.276	8037.9
521.643	8187.04
522.009	8217.1
522.376	8275.63
522.743	8347.49
523.11	8408.28
523.477	8524.66
523.843	8480.14
524.21	8634.04
524.577	8666.81
524.943	8709.52
525.31	8764.66
525.676	8813.02
526.043	8969.85
526.409	8978.89
526.776	9061.82
527.142	9101.37
527.508	9103.4
527.874	9176.85
528.241	9258.88
528.607	9251.42
528.973	9426.79
529.339	9419.33
529.705	9513.79
530.071	9514.02
530.437	9639.89
530.803	9714.01
531.169	9732.09
531.535	9679.66
531.901	9730.96
532.267	9764.4
532.632	9817.28
532.998	9936.15
533.364	9910.16
533.73	9989.48
534.095	10074.68
534.461	10071.06
534.826	10181.57
535.192	10178.18
535.557	10257.05
535.923	10280.1
536.288	10350.15
536.653	10433.77
537.019	10408.23
537.384	10443.48
537.749	10483.03
538.114	10550.6
538.479	10564.16
538.845	10629.24
539.21	10611.84
539.575	10604.83
539.94	10742.91
540.305	10715.79
540.67	10729.8
541.034	10838.05
541.399	10791.72
541.764	10860.65
542.129	10926.86
542.494	10940.64
542.858	10964.15
543.223	10987.2
543.587	11055.22
543.952	11073.07
544.316	11070.58
544.681	11083.01
545.045	11182.22
545.41	11160.53
545.774	11281.88
546.138	11334.31
546.503	11304.48
546.867	11343.57
547.231	11491.82
547.595	11446.39
547.959	11550.12
548.324	11591.93
548.688	11605.71
549.052	11592.15
549.416	11641.64
549.779	11578.14
550.143	11719.61
550.507	11717.35
550.871	11910.56
551.235	11802.77
551.599	11971.8
551.962	11866.72
552.326	12005.25
552.689	12056.32
553.053	12003.44
553.417	12056.1
553.78	12215.64
554.143	12247.05
554.507	12299.48
554.87	12373.6
555.234	12460.83
555.597	12333.15
555.96	12409.08
556.323	12441.4
556.686	12555.29
557.05	12659.47
557.413	12617.44
557.776	12613.82
558.139	12730.88
558.502	12785.79
558.865	12819.24
559.228	12917.09
559.59	13007.93
559.953	12968.61
560.316	13105.56
560.679	13052.23
561.041	13212.9
561.404	13191.21
561.767	13257.65
562.129	13260.13
562.492	13402.27
562.854	13417.19
563.217	13442.27
563.579	13588.03
563.941	13563.63
564.304	13685.43
564.666	13743.96
565.028	13783.06
565.39	13867.8
565.753	13911.19
566.115	13865.31
566.477	13935.14
566.839	14045.87
567.201	14138.75
567.563	14070.28
567.925	14204.51
568.287	14204.74
568.648	14291.52
569.01	14334.23
569.372	14367.22
569.734	14393.44
570.095	14562.47
570.457	14642.69
570.819	14677.04
571.18	14705.52
571.542	14671.17
571.903	14738.96
572.265	14899.41
572.626	14759.3
572.987	14866.64
573.349	14853.08
573.71	14947.32
574.071	14965.4
574.432	15037.71
574.794	15190.02
575.155	15106.41
575.516	15082.91
575.877	15146.18
576.238	15200.42
576.599	15273.41
576.96	15137.6
577.32	15238.61
577.681	15257.59
578.042	15346.86
578.403	15379.17
578.763	15431.6
579.124	15490.36
579.485	15449.9
579.845	15480.64
580.206	15397.48
580.566	15403.35
580.927	15499.85
581.287	15463.69
581.648	15393.41
582.008	15525.61
582.368	15557.25
582.728	15525.83
583.089	15540.75
583.449	15571.03
583.809	15604.93
584.169	15584.59
584.529	15433.41
584.889	15662.78
585.249	15584.36
585.609	15513.63
585.969	15637.47
586.329	15595.89
586.688	15700.29
587.048	15647.64
587.408	15551.37
587.768	15630.92
588.127	15654.87
588.487	15539.85
588.846	15688.32
589.206	15503.01
589.565	15489.23
589.925	15623.01
590.284	15662.78
590.643	15663.68
591.003	15767.41
591.362	15702.78
591.721	15684.47
592.08	15741.42
592.44	15718.15
592.799	15693.51
593.158	15619.62
593.517	15716.34
593.876	15745.04
594.235	15720.41
594.593	15865.26
594.952	15715.43
595.311	15670.24
595.67	15717.69
596.029	15756.34
596.387	15773.74
596.746	15813.74
597.104	15783.46
597.463	15763.12
597.822	15795.43
598.18	15720.41
598.538	15716.56
598.897	15800.4
599.255	15726.73
599.613	15893.28
599.972	15884.92
600.33	15879.27
600.688	15836.34
601.046	15927.41
601.404	15938.48
601.762	15915.88
602.12	15980.51
602.478	16039.04
602.836	16060.74
603.194	16008.08
603.552	15911.14
603.91	15935.99
604.268	16071.36
604.625	15994.3
604.983	15942.09
605.341	15869.1
605.698	16003.79
606.056	16015.99
606.413	15984.58
606.771	16064.58
607.128	16109.32
607.485	16065.03
607.843	15974.18
608.2	16132.15
608.557	16221.86
608.914	16103.45
609.272	16173.05
609.629	16277
609.986	16128.98
610.343	16099.15
610.7	16322.42
611.057	16276.1
611.414	16256.21
611.771	16259.83
612.127	16278.36
612.484	16316.77
612.841	16347.73
613.198	16323.78
613.554	16412.14
613.911	16407.85
614.267	16408.3
614.624	16358.58
614.98	16400.16
615.337	16514.74
615.693	16475.41
616.05	16422.31
616.406	16601.06
616.762	16532.81
617.118	16532.14
617.475	16515.19
617.831	16594.06
618.187	16624.79
618.543	16592.25
618.899	16752.24
619.255	16627.5
619.611	16622.53
619.967	16727.16
620.323	16739.36
620.678	16605.35
621.034	16658.69
621.39	16639.03
621.746	16619.14
622.101	16805.8
622.457	16623.43
622.812	16720.83
623.168	16754.95
623.523	16721.51
623.879	16804.9
624.234	16637.22
624.589	16675.18
624.945	16764.22
625.3	16721.28
625.655	16694.39
626.01	16648.07
626.365	16669.08
626.72	16795.41
627.075	16637.67
627.43	16738.01
627.785	16664.11
628.14	16750.44
628.495	16761.96
628.85	16720.15
629.205	16638.12
629.559	16778.01
629.914	16705.24
630.269	16693.49
630.623	16607.39
630.978	16475.19
631.332	16672.92
631.687	16625.92
632.041	16674.96
632.396	16650.1
632.75	16599.25
633.104	16588.86
633.459	16516.32
633.813	16516.09
634.167	16493.72
634.521	16472.93
634.875	16460.5
635.229	16330.11
635.583	16314.29
635.937	16380.28
636.291	16256.21
636.645	16264.35
636.999	16253.73
637.352	16293.5
637.706	16113.39
638.06	16251.92
638.413	16193.61
638.767	16160.39
639.121	16130.79
639.474	15996.33
639.828	16104.35
640.181	16101.41
640.534	16149.55
640.888	16054.86
641.241	15895.54
641.594	16004.01
641.947	15946.84
642.301	15992.26
642.654	16003.11
643.007	15881.53
643.36	15906.39
643.713	15943.68
644.066	15905.71
644.419	15745.26
644.771	15741.87
645.124	15558.6
645.477	15641.09
645.83	15433.18
646.182	15382.11
646.535	15229.8
646.888	15332.39
647.24	15170.36
647.593	15356.8
647.945	15238.84
648.298	15251.04
648.65	15251.27
649.002	15152.74
649.355	15215.33
649.707	15181.44
650.059	15171.95
650.411	15440.41
650.763	15495.78
651.115	15667.3
651.467	15524.7
651.819	15473.63
652.171	15385.5
652.523	15431.6
652.875	15450.36
653.227	15389.12
653.578	15466.18
653.93	15454.65
654.282	15353.18
654.633	15295.33
654.985	15343.92
655.337	15413.3
655.688	15302.56
656.039	15292.85
656.391	15209.23
656.742	15273.86
657.094	15269.12
657.445	15359.74
657.796	15317.25
658.147	15308.44
658.498	15364.71
658.849	15336.46
659.2	15215.56
659.551	15261.89
659.902	15302.34
660.253	15232.51
660.604	15238.61
660.955	15186.86
661.306	15164.49
661.656	15104.83
662.007	15106.64
662.358	15119.07
662.708	15146.18
663.059	15139.86
663.409	15108.67
663.76	15157.48
664.11	15192.51
664.461	15137.37
664.811	15161.78
665.161	15090.59
665.511	15073.87
665.862	15054.89
666.212	15116.35
666.562	15090.82
666.912	15009.46
667.262	15016.24
667.612	15043.81
667.962	14916.81
668.312	14909.58
668.662	14984.61
669.011	14913.65
669.361	14997.49
669.711	14959.75
670.06	14929.92
670.41	14838.17
670.76	14836.36
671.109	14983.02
671.459	14905.29
671.808	14826.87
672.157	14886.98
672.507	14788.45
672.856	14789.36
673.205	14810.15
673.554	14851.28
673.904	14871.84
674.253	14778.96
674.602	14878.39
674.951	14491.06
675.3	14539.19
675.649	14756.59
675.998	14712.3
676.346	14776.48
676.695	14729.92
677.044	14670.04
677.393	14690.15
677.741	14700.09
678.09	14604.95
678.438	14462.81
678.787	14576.93
679.135	14568.35
679.484	14581.23
679.832	14557.95
680.181	14524.96
680.529	14639.98
680.877	14488.57
681.225	14525.18
681.573	14571.51
681.922	14351.63
682.27	14311.4
682.618	14328.35
682.966	14372.19
683.314	14396.15
683.661	14436.82
684.009	14245.42
684.357	14248.58
684.705	14144.4
685.053	14259.43
685.4	14235.93
685.748	14183.5
686.095	14239.09
686.443	14094.23
686.79	14053.33
687.138	14036.61
687.485	13964.29
687.832	14025.76
688.18	13991.41
688.527	13824.86
688.874	14028.25
689.221	13885.43
689.568	13897.85
689.915	13756.84
690.262	13747.8
690.609	13787.35
690.956	13721.81
691.303	13683.17
691.65	13639.1
691.997	13521.14
692.344	13485.66
692.69	13495.15
693.037	13516.85
693.383	13475.95
693.73	13536.73
694.077	13420.35
694.423	13391.2
694.769	13390.3
695.116	13300.58
695.462	13307.14
695.808	13278.21
696.155	13293.35
696.501	13170.42
696.847	13204.31
697.193	13093.13
697.539	13146.46
697.885	13065.11
698.231	13072.34
698.577	12949.86
698.923	12960.93
699.269	12897.66
699.614	12870.99
699.96	12840.26
700.306	12803.42
700.651	12765.91
700.997	12681.84
701.342	12668.51
701.688	12647.49
702.033	12671.45
702.379	12625.12
702.724	12586.25
703.069	12648.62
703.415	12494.5
703.76	12517.55
704.105	12553.48
704.45	12515.52
704.795	12351.23
705.14	12414.5
705.485	12400.04
705.83	12333.6
706.175	12320.95
706.52	12211.8
706.865	12201.4
707.209	12239.37
707.554	12128.41
707.899	12247.95
708.243	12114.62
708.588	12167.05
708.932	12074.4
709.277	12060.16
709.621	12071.01
709.966	11947.17
710.31	11970
710.654	11922.09
710.998	11808.87
711.342	11878.47
711.687	11872.37
712.031	11809.1
712.375	11762.77
712.719	11692.49
713.063	11706.5
713.407	11773.17
713.75	11615.88
714.094	11669.89
714.438	11577.69
714.782	11584.47
715.125	11594.41
715.469	11630.8
715.812	11481.2
716.156	11480.07
716.499	11496.11
716.843	11467.86
717.186	11418.15
717.53	11470.57
717.873	11473.29
718.216	11446.17
718.559	11433.74
718.902	11303.8
719.246	11354.64
719.589	11306.06
719.932	11220.41
720.275	11251.6
720.617	11264.25
720.96	11232.16
721.303	11144.71
721.646	11216.34
721.989	11138.83
722.331	11175.89
722.674	11145.84
723.016	11123.46
723.359	11060.19
723.701	11117.82
724.044	11081.66
724.386	10982.9
724.729	10993.52
725.071	11033.07
725.413	10935.67
725.755	10963.24
726.097	10876.24
726.439	10843.47
726.782	10847.31
727.124	10930.02
727.465	10821.1
727.807	10844.38
728.149	10787.65
728.491	10803.7
728.833	10843.25
729.175	10794.66
729.516	10723.93
729.858	10734.55
730.199	10748.56
730.541	10752.63
730.882	10732.29
731.224	10723.7
731.565	10615
731.906	10598.05
732.248	10634.21
732.589	10595.57
732.93	10535.46
733.271	10587.66
733.612	10585.4
733.953	10583.59
734.294	10549.92
734.635	10505.85
734.976	10568
735.317	10453.65
735.658	10459.3
735.999	10427.44
736.339	10415.69
736.68	10398.51
737.021	10375.46
737.361	10327.1
737.702	10325.52
738.042	10323.49
738.383	10274.9
738.723	10289.81
739.063	10284.62
739.404	10259.98
739.744	10219.31
740.084	10189.93
740.424	10191.96
740.764	10271.28
741.104	10261.57
741.444	10158.52
741.784	10142.25
742.124	10148.8
742.464	10076.26
742.804	10131.63
743.143	10149.25
743.483	10114.45
743.823	10025.87
744.162	10101.57
744.502	10072.87
744.841	9989.71
745.181	10058.18
745.52	10091.4
745.86	10090.27
746.199	10002.82
746.538	9986.55
746.877	9925.08
747.216	9923.27
747.556	9830.39
747.895	9900.45
748.234	9872.65
748.573	9890.95
748.911	9847.34
749.25	9866.1
749.589	9795.14
749.928	9789.49
750.267	9789.26
750.605	9767.34
750.944	9727.8
751.283	9679.66
751.621	9712.88
751.96	9679.66
752.298	9673.33
752.636	9654.8
752.975	9601.92
753.313	9577.29
753.651	9624.75
753.989	9604.63
754.327	9520.79
754.666	9492.1
755.004	9489.61
755.342	9458.42
755.679	9479.89
756.017	9399.89
756.355	9349.05
756.693	9300.69
757.031	9360.12
757.368	9337.07
757.706	9322.61
