Data from black_plastic_tray_FLMS001491_020.txt Node
Date: Tue Feb 07 10:39:22 GMT 2017
User: dcchb
Spectrometer: FLMS00149
Trigger mode: 0
Integration Time (sec): 2.000000E-2
Scans to average: 10
Electric dark correction enabled: true
Nonlinearity correction enabled: false
Boxcar width: 0
XAxis mode: Wavelengths
Number of Pixels in Spectrum: 2048
>>>>>Begin Spectral Data<<<<<
341.393	-27.46
341.776	-27.46
342.16	-27.46
342.543	-53.44
342.927	-55.7
343.31	-56.38
343.693	-59.77
344.077	-65.42
344.46	-84.18
344.843	-56.16
345.226	-29.26
345.61	-49.6
345.993	-17.29
346.376	-8.7
346.759	-5.76
347.142	13.67
347.525	59.32
347.908	51.64
348.291	79.66
348.674	119.21
349.057	109.04
349.44	120.79
349.823	144.06
350.206	150.17
350.588	191.52
350.971	196.04
351.354	209.82
351.737	207.79
352.119	194.01
352.502	243.04
352.884	234.91
353.267	263.16
353.65	257.28
354.032	247.56
354.414	285.3
354.797	279.2
355.179	278.52
355.562	311.74
355.944	310.84
356.326	319.65
356.709	331.86
357.091	317.17
357.473	329.14
357.855	311.07
358.238	315.13
358.62	312.87
359.002	319.88
359.384	317.84
359.766	333.66
360.148	339.09
360.53	331.63
360.912	307.68
361.294	316.94
361.676	316.94
362.057	301.8
362.439	313.78
362.821	325.98
363.203	312.65
363.584	311.29
363.966	320.33
364.348	289.37
364.729	329.6
365.111	306.32
365.493	301.12
365.874	308.81
366.256	291.18
366.637	300.44
367.019	284.85
367.4	283.72
367.781	287.11
368.163	295.25
368.544	286.43
368.925	285.98
369.306	320.33
369.688	289.82
370.069	287.34
370.45	285.3
370.831	296.15
371.212	311.52
371.593	296.15
371.974	313.55
372.355	288.69
372.736	283.27
373.117	313.55
373.498	298.41
373.879	289.82
374.26	290.73
374.641	299.09
375.021	303.61
375.402	308.81
375.783	316.26
376.163	290.95
376.544	322.82
376.925	335.92
377.305	299.99
377.686	314.91
378.066	324.85
378.447	302.93
378.827	346.54
379.208	322.82
379.588	314.46
379.968	317.39
380.349	334.34
380.729	324.4
381.109	321.69
381.489	349.48
381.87	314.91
382.25	314.46
382.63	329.82
383.01	314.46
383.39	324.4
383.77	321.91
384.15	312.87
384.53	339.99
384.91	331.86
385.29	328.01
385.67	324.17
386.049	351.52
386.429	337.96
386.809	329.37
387.189	329.14
387.568	323.04
387.948	344.28
388.328	351.97
388.707	346.09
389.087	346.32
389.466	348.35
389.846	351.06
390.225	351.29
390.605	366.21
390.984	359.2
391.363	376.6
391.743	355.36
392.122	371.85
392.501	374.11
392.881	369.59
393.26	375.7
393.639	370.05
394.018	355.36
394.397	375.02
394.776	388.8
395.155	367.79
395.534	361.91
395.913	366.21
396.292	370.27
396.671	391.29
397.05	377.5
397.429	382.7
397.808	390.16
398.186	397.84
398.565	352.65
398.944	397.62
399.323	409.14
399.701	396.49
400.08	379.31
400.458	394.23
400.837	373.66
401.215	419.31
401.594	392.19
401.972	403.72
402.351	379.09
402.729	394.9
403.107	417.5
403.486	417.96
403.864	437.16
404.242	410.05
404.62	421.12
404.999	439.88
405.377	423.15
405.755	413.44
406.133	409.82
406.511	448.01
406.889	431.51
407.267	447.78
407.645	447.56
408.023	435.81
408.401	435.13
408.779	452.98
409.156	441.46
409.534	449.14
409.912	465.41
410.29	475.81
410.667	452.98
411.045	435.81
411.422	482.13
411.8	466.99
412.178	474.9
412.555	497.05
412.933	476.48
413.31	475.13
413.687	490.04
414.065	491.4
414.442	484.39
414.819	481.46
415.197	488.24
415.574	499.53
415.951	502.7
416.328	487.11
416.705	510.83
417.082	513.55
417.46	482.59
417.837	515.35
418.214	516.03
418.591	511.29
418.967	517.84
419.344	541.34
419.721	525.75
420.098	522.59
420.475	533.66
420.852	545.18
421.228	533.43
421.605	539.99
421.982	550.83
422.358	532.98
422.735	558.06
423.111	551.51
423.488	595.35
423.864	563.04
424.241	570.49
424.617	577.95
424.994	583.6
425.37	598.06
425.746	570.04
426.123	571.85
426.499	596.93
426.875	611.4
427.251	597.84
427.627	603.94
428.003	622.02
428.379	609.14
428.756	643.26
429.132	608.46
429.507	622.02
429.883	617.95
430.259	635.8
430.635	639.64
431.011	642.81
431.387	647.1
431.763	648.23
432.138	664.5
432.514	677.61
432.89	690.94
433.265	675.58
433.641	672.19
434.016	697.27
434.392	714.67
434.767	710.83
435.143	738.4
435.518	718.06
435.894	717.61
436.269	764.61
436.644	766.19
437.02	756.25
437.395	739.98
437.77	758.74
438.145	763.03
438.52	748.34
438.895	753.09
439.271	773.43
439.646	807.78
440.021	775.69
440.395	798.28
440.77	788.11
441.145	784.95
441.52	831.96
441.895	810.04
442.27	805.06
442.645	803.48
443.019	830.6
443.394	813.2
443.769	815.23
444.143	835.35
444.518	847.55
444.892	853.2
445.267	836.93
445.641	849.58
446.016	878.51
446.39	869.24
446.764	858.62
447.139	881.22
447.513	862.92
447.887	890.71
448.262	883.71
448.636	891.84
449.01	880.77
449.384	891.16
449.758	921.9
450.132	908.34
450.506	920.09
450.88	928.9
451.254	935
451.628	928
452.002	935.23
452.376	955.79
452.75	964.16
453.123	936.59
453.497	959.41
453.871	985.17
454.244	986.3
454.618	977.49
454.992	1024.27
455.365	1011.61
455.739	1035.11
456.112	1036.02
456.486	1052.06
456.859	1065.4
457.232	1077.6
457.606	1104.49
457.979	1073.76
458.352	1102.91
458.725	1125.06
459.099	1117.15
459.472	1122.34
459.845	1113.98
460.218	1138.61
460.591	1136.81
460.964	1155.79
461.337	1175.22
461.71	1197.37
462.083	1203.47
462.456	1237.59
462.829	1203.25
463.201	1250.93
463.574	1240.76
463.947	1263.13
464.32	1295.9
464.692	1296.58
465.065	1280.98
465.438	1313.52
465.81	1334.32
466.183	1337.7
466.555	1367.31
466.928	1337.25
467.3	1373.18
467.672	1384.94
468.045	1427.65
468.417	1396.46
468.789	1444.14
469.161	1450.7
469.534	1450.47
469.906	1483.46
470.278	1511.26
470.65	1501.99
471.022	1543.58
471.394	1559.85
471.766	1578.38
472.138	1570.47
472.51	1607.53
472.882	1627.87
473.253	1647.3
473.625	1669.67
473.997	1704.25
474.369	1720.97
474.74	1709.9
475.112	1758.03
475.484	1795.55
475.855	1781.31
476.227	1825.15
476.598	1856.56
476.97	1899.27
477.341	1910.12
477.713	1942.89
478.084	1912.38
478.455	1984.24
478.827	2023.11
479.198	2080.51
479.569	2036.9
479.94	2103.11
480.311	2139.49
480.682	2191.47
481.053	2224.01
481.424	2248.64
481.795	2262.43
482.166	2280.73
482.537	2363.44
482.908	2353.5
483.279	2402.31
483.65	2436.66
484.021	2494.51
484.391	2496.09
484.762	2514.4
485.133	2553.72
485.503	2602.53
485.874	2645.02
486.244	2617.9
486.615	2694.28
486.985	2698.57
487.356	2746.71
487.726	2792.58
488.097	2841.17
488.467	2849.08
488.837	2883.2
489.207	2934.95
489.578	2975.18
489.948	3028.28
490.318	3014.95
490.688	3028.28
491.058	3057.89
491.428	3113.25
491.798	3130.43
492.168	3191.89
492.538	3215.62
492.908	3257.88
493.278	3297.65
493.648	3300.59
494.017	3347.37
494.387	3368.16
494.757	3423.3
495.126	3419.01
495.496	3409.74
495.866	3451.55
496.235	3522.05
496.605	3540.58
496.974	3513.47
497.344	3574.48
497.713	3614.03
498.082	3648.83
498.452	3660.58
498.821	3698.77
499.19	3697.87
499.559	3714.59
499.928	3729.73
500.298	3771.54
500.667	3806.79
501.036	3821.93
501.405	3876.62
501.774	3848.6
502.143	3883.4
502.512	3948.03
502.88	3948.26
503.249	3972.21
503.618	3971.53
503.987	3969.05
504.356	4021.7
504.724	4054.92
505.093	4076.39
505.462	4084.07
505.83	4108.71
506.199	4142.6
506.567	4195.48
506.936	4235.71
507.304	4261.92
507.672	4239.32
508.041	4341.02
508.409	4328.13
508.777	4327.23
509.145	4357.51
509.514	4397.51
509.882	4476.61
510.25	4463.27
510.618	4524.74
510.986	4507.34
511.354	4553.44
511.722	4628.69
512.09	4599.77
512.458	4639.31
512.826	4665.08
513.193	4672.31
513.561	4720.89
513.929	4746.2
514.297	4779.42
514.664	4793.89
515.032	4846.54
515.4	4892.19
515.767	4935.58
516.135	4977.16
516.502	4943.49
516.869	5056.48
517.237	5041.56
517.604	5022.58
517.972	5098.51
518.339	5101.45
518.706	5131.5
519.073	5191.39
519.44	5211.95
519.808	5255.57
520.175	5259.86
520.542	5378.05
520.909	5433.87
521.276	5422.12
521.643	5441.1
522.009	5511.61
522.376	5509.57
522.743	5513.41
523.11	5640.19
523.477	5680.64
523.843	5728.55
524.21	5757.25
524.577	5770.58
524.943	5827.53
525.31	5853.29
525.676	5913.18
526.043	5918.6
526.409	5936.91
526.776	5986.85
527.142	6081.54
527.508	6062.1
527.874	6188.2
528.241	6181.87
528.607	6227.52
528.973	6260.06
529.339	6317.24
529.705	6335.99
530.071	6360.17
530.437	6376.22
530.803	6458.7
531.169	6464.8
531.535	6464.8
531.901	6528.75
532.267	6581.63
532.632	6581.63
532.998	6597.45
533.364	6606.27
533.73	6699.82
534.095	6642.88
534.461	6730.33
534.826	6712.7
535.192	6791.57
535.557	6846.94
535.923	6838.13
536.288	6837.45
536.653	6928.29
537.019	6918.35
537.384	6938.91
537.749	6945.92
538.114	7013.04
538.479	7053.71
538.845	7074.96
539.21	7028.85
539.575	7092.81
539.94	7135.29
540.305	7198.34
540.67	7099.36
541.034	7231.11
541.399	7188.85
541.764	7308.17
542.129	7245.8
542.494	7345.23
542.858	7349.75
543.223	7295.74
543.587	7348.62
543.952	7411.22
544.316	7408.51
544.681	7363.99
545.045	7474.94
545.41	7480.82
545.774	7502.29
546.138	7559.01
546.503	7548.84
546.867	7616.41
547.231	7678.56
547.595	7674.71
547.959	7670.19
548.324	7715.62
548.688	7701.38
549.052	7690.76
549.416	7727.82
549.779	7794.26
550.143	7832.45
550.507	7889.62
550.871	7850.75
551.235	7856.86
551.599	7880.36
551.962	7926.68
552.326	7989.28
552.689	8036.51
553.053	8018.43
553.417	8036.51
553.78	8155.38
554.143	8092.56
554.507	8106.34
554.87	8148.37
555.234	8230.63
555.597	8205.77
555.96	8279.67
556.323	8277.86
556.686	8317.63
557.05	8342.72
557.413	8428.82
557.776	8420
558.139	8512.21
558.502	8524.18
558.865	8530.96
559.228	8587.01
559.59	8646.89
559.953	8703.61
560.316	8722.14
560.679	8706.1
561.041	8756.04
561.404	8797.4
561.767	8868.58
562.129	8817.06
562.492	8999.42
562.854	8884.17
563.217	8964.62
563.579	9013.66
563.941	9048.69
564.304	9087.56
564.666	9116.48
565.028	9173.88
565.39	9208.91
565.753	9187.44
566.115	9215.69
566.477	9265.41
566.839	9336.59
567.201	9460.88
567.563	9371.84
567.925	9408.68
568.287	9412.75
568.648	9471.95
569.01	9598.5
569.372	9615.91
569.734	9574.78
570.095	9695.68
570.457	9717.82
570.819	9702.68
571.18	9710.82
571.542	9761.89
571.903	9832.17
572.265	9842.11
572.626	9868.55
572.987	9912.17
573.349	9887.54
573.71	9977.7
574.071	9918.72
574.432	10010.7
574.794	10003.92
575.155	10046.63
575.516	10054.76
575.877	10023.13
576.238	10069.68
576.599	10073.29
576.96	10095.67
577.32	10123.91
577.681	10123.01
578.042	10193.74
578.403	10252.72
578.763	10271.93
579.124	10247.3
579.485	10305.6
579.845	10310.58
580.206	10228.77
580.566	10273.29
580.927	10361.42
581.287	10292.95
581.648	10293.85
582.008	10284.36
582.368	10358.48
582.728	10346.96
583.089	10334.3
583.449	10355.32
583.809	10325.04
584.169	10420.63
584.529	10309.45
584.889	10396.9
585.249	10336.11
585.609	10348.77
585.969	10358.26
586.329	10356
586.688	10346.28
587.048	10378.37
587.408	10315.32
587.768	10382.89
588.127	10293.63
588.487	10351.71
588.846	10399.61
589.206	10288.66
589.565	10289.33
589.925	10387.41
590.284	10391.25
590.643	10386.96
591.003	10353.51
591.362	10401.2
591.721	10449.78
592.08	10388.99
592.44	10363.46
592.799	10431.03
593.158	10397.58
593.517	10391.7
593.876	10461.53
594.235	10430.57
594.593	10463.79
594.952	10480.52
595.311	10421.53
595.67	10464.92
596.029	10541.98
596.387	10476
596.746	10521.87
597.104	10520.51
597.463	10539.95
597.822	10483.91
598.18	10353.74
598.538	10454.53
598.897	10591.02
599.255	10434.19
599.613	10702.2
599.972	10585.37
600.33	10573.62
600.688	10617.91
601.046	10633.96
601.404	10671.24
601.762	10683.9
602.12	10637.12
602.478	10704.69
602.836	10665.6
603.194	10605.94
603.552	10652.71
603.91	10600.51
604.268	10665.82
604.625	10633.96
604.983	10704.24
605.341	10680.28
605.698	10740.17
606.056	10676.44
606.413	10672.83
606.771	10736.55
607.128	10727.06
607.485	10700.4
607.843	10685.26
608.2	10794.18
608.557	10800.51
608.914	10746.27
609.272	10737.01
609.629	10773.16
609.986	10843.67
610.343	10709.44
610.7	10823.56
611.057	10845.93
611.414	10878.02
611.771	10808.87
612.127	10890
612.484	10880.96
612.841	10898.13
613.198	10865.82
613.554	10898.36
613.911	10907.62
614.267	10969.54
614.624	10909.2
614.98	10949.43
615.337	11005.47
615.693	10960.95
616.05	11034.17
616.406	11030.56
616.762	10948.98
617.118	11070.33
617.475	10967.73
617.831	11020.61
618.187	11109.88
618.543	11046.83
618.899	11186.26
619.255	11071.91
619.611	11134.51
619.967	11153.04
620.323	11152.14
620.678	11063.1
621.034	11107.39
621.39	11105.13
621.746	11086.38
622.101	11238.01
622.457	11066.94
622.812	11120.95
623.168	11074.4
623.523	11137.67
623.879	11075.3
624.234	11151.23
624.589	11105.13
624.945	11145.13
625.3	11081.4
625.655	11167.95
626.01	11157.11
626.365	11199.37
626.72	11115.53
627.075	11090.44
627.43	11119.82
627.785	11092.93
628.14	11089.31
628.495	11117.11
628.85	11096.32
629.205	11033.95
629.559	11107.84
629.914	11068.3
630.269	11055.42
630.623	11072.59
630.978	10997.34
631.332	11109.65
631.687	11066.94
632.041	11040.73
632.396	11031.24
632.75	10985.81
633.104	11057.22
633.459	11000.05
633.813	10923.44
634.167	10911.92
634.521	10881.63
634.875	10984.91
635.229	10920.5
635.583	10859.49
635.937	10780.62
636.291	10773.62
636.645	10867.85
636.999	10819.04
637.352	10868.75
637.706	10741.53
638.06	10861.52
638.413	10770
638.767	10718.93
639.121	10760.96
639.474	10744.46
639.828	10732.03
640.181	10756.21
640.534	10697.91
640.888	10644.58
641.241	10599.61
641.594	10639.38
641.947	10656.33
642.301	10584.69
642.654	10634.86
643.007	10618.59
643.36	10539.04
643.713	10527.29
644.066	10635.31
644.419	10504.92
644.771	10530.46
645.124	10401.42
645.477	10384.7
645.83	10365.49
646.182	10314.64
646.535	10201.88
646.888	10270.8
647.24	10245.95
647.593	10205.04
647.945	10177.25
648.298	10060.41
648.65	10104.93
649.002	10070.58
649.355	10099.06
649.707	10053.63
650.059	10212.73
650.411	10355.55
650.763	10322.33
651.115	10409.78
651.467	10379.05
651.819	10391.25
652.171	10370.69
652.523	10324.36
652.875	10361.65
653.227	10237.13
653.578	10382.66
653.93	10323.91
654.282	10273.52
654.633	10229.67
654.985	10252.95
655.337	10272.84
655.688	10218.6
656.039	10280.29
656.391	10135.67
656.742	10138.6
657.094	10242.78
657.445	10212.05
657.796	10194.42
658.147	10120.3
658.498	10200.75
658.849	10231.71
659.2	10188.77
659.551	10145.16
659.902	10143.8
660.253	10213.18
660.604	10149.68
660.955	10134.76
661.306	10107.87
661.656	10092.73
662.007	10164.14
662.358	10044.82
662.708	10132.73
663.059	10049.34
663.409	10005.95
663.76	10088.66
664.11	10127.53
664.461	10037.82
664.811	10062.67
665.161	10095.67
665.511	10047.08
665.862	10036.46
666.212	10092.95
666.562	10127.08
666.912	10106.74
667.262	10082.56
667.612	10019.96
667.962	10061.77
668.312	10057.7
668.662	10091.15
669.011	9941.09
669.361	9981.77
669.711	10007.99
670.06	9934.54
670.41	9954.88
670.76	9935.67
671.109	9941.55
671.459	9981.09
671.808	9995.33
672.157	9973.86
672.507	9892.51
672.856	9883.92
673.205	9956.24
673.554	9886.86
673.904	9859.29
674.253	9940.19
674.602	9883.92
674.951	9677.15
675.3	9633.76
675.649	9865.39
675.998	9881.44
676.346	9849.12
676.695	9985.39
677.044	9838.05
677.393	9796.01
677.741	9864.03
678.09	9882.11
678.438	9789.69
678.787	9802.12
679.135	9761.21
679.484	9715.11
679.832	9794.43
680.181	9640.99
680.529	9739.29
680.877	9697.49
681.225	9711.27
681.573	9783.58
681.922	9682.8
682.27	9586.98
682.618	9630.59
682.966	9682.12
683.314	9606.64
683.661	9648.22
684.009	9627.2
684.357	9523.7
684.705	9522.57
685.053	9539.52
685.4	9488.45
685.748	9457.72
686.095	9477.83
686.443	9492.29
686.79	9444.16
687.138	9370.26
687.485	9376.59
687.832	9410.94
688.18	9394.89
688.527	9311.28
688.874	9302.24
689.221	9352.64
689.568	9277.84
689.915	9250.04
690.262	9218.18
690.609	9215.92
690.956	9178.4
691.303	9219.76
691.65	9074.9
691.997	9084.39
692.344	9105.86
692.69	9115.81
693.037	9146.54
693.383	8960.1
693.73	9068.58
694.077	8975.47
694.423	8987.45
694.769	8928.69
695.116	8946.32
695.462	8890.05
695.808	8913.55
696.155	8895.92
696.501	8861.12
696.847	8845.3
697.193	8767.79
697.539	8804.18
697.885	8735.02
698.231	8664.29
698.577	8762.59
698.923	8645.54
699.269	8620
699.614	8626.33
699.96	8601.02
700.306	8606.21
700.651	8518.99
700.997	8467.01
701.342	8499.1
701.688	8537.52
702.033	8463.85
702.379	8464.3
702.724	8436.73
703.069	8495.03
703.415	8380.23
703.76	8330.97
704.105	8414.81
704.45	8331.65
704.795	8276.73
705.14	8308.14
705.485	8271.08
705.83	8226.34
706.175	8217.3
706.52	8233.12
706.865	8163.06
707.209	8158.32
707.554	8123.06
707.899	8132.55
708.243	8125.32
708.588	8084.65
708.932	8080.35
709.277	8098.88
709.621	8064.08
709.966	7971.88
710.31	8024.31
710.654	7926.23
710.998	8018.43
711.342	7962.39
711.687	7939.57
712.031	7908.83
712.375	7919
712.719	7956.51
713.063	7876.52
713.407	7867.25
713.75	7851.66
714.094	7829.51
714.438	7754.94
714.782	7816.63
715.125	7720.36
715.469	7766.91
715.812	7659.12
716.156	7689.4
716.499	7703.64
716.843	7660.7
717.186	7716.75
717.53	7664.09
717.873	7649.18
718.216	7620.7
718.559	7620.25
718.902	7612.12
719.246	7594.72
719.589	7615.05
719.932	7534.38
720.275	7618.22
720.617	7610.99
720.96	7578.44
721.303	7555.17
721.646	7516.75
721.989	7481.72
722.331	7518.33
722.674	7461.84
723.016	7483.08
723.359	7429.3
723.701	7434.72
724.044	7415.06
724.386	7369.64
724.729	7378.22
725.071	7366.02
725.413	7345.68
725.755	7332.12
726.097	7315.63
726.439	7265.01
726.782	7247.61
727.124	7346.13
727.465	7286.25
727.807	7225.23
728.149	7213.03
728.491	7258
728.833	7188.4
729.175	7190.21
729.516	7147.04
729.858	7135.07
730.199	7225.91
730.541	7145.69
730.882	7130.32
731.224	7155.18
731.565	7113.82
731.906	7128.51
732.248	7064.79
732.589	7052.36
732.93	7048.97
733.271	7050.78
733.612	7050.55
733.953	7058.23
734.294	7026.82
734.635	7015.3
734.976	7038.12
735.317	6962.87
735.658	6998.57
735.999	6993.6
736.339	6961.51
736.68	6957.44
737.021	6923.09
737.361	6945.47
737.702	6912.93
738.042	6909.31
738.383	6858.92
738.723	6902.3
739.063	6832.7
739.404	6921.51
739.744	6866.37
740.084	6816.2
740.424	6826.15
740.764	6824.79
741.104	6826.15
741.444	6828.18
741.784	6828.86
742.124	6848.75
742.464	6790.67
742.804	6792.02
743.143	6756.09
743.483	6781.63
743.823	6733.04
744.162	6732.59
744.502	6710.45
744.841	6682.2
745.181	6679.03
745.52	6706.15
745.86	6691.69
746.199	6733.72
746.538	6683.55
746.877	6630.67
747.216	6605.82
747.556	6621.63
747.895	6593.39
748.234	6630.9
748.573	6566.72
748.911	6589.54
749.25	6540.51
749.589	6526.5
749.928	6597
750.267	6559.26
750.605	6531.47
750.944	6498.02
751.283	6491.47
751.621	6502.54
751.96	6482.43
752.298	6452.15
752.636	6421.41
752.975	6411.92
753.313	6455.08
753.651	6421.19
753.989	6410.79
754.327	6402.66
754.666	6328.53
755.004	6369.66
755.342	6333.28
755.679	6373.96
756.017	6284.47
756.355	6262.77
756.693	6231.81
757.031	6273.85
757.368	6279.5
757.706	6241.08
758.044	6181.19
758.381	6228.65
758.719	6158.14
759.056	6177.13
759.394	6185.94
759.731	6094.87
760.068	6130.35
760.405	6106.17
760.743	6081.54
761.08	6128.99
761.417	6021.42
761.754	6061.42
762.091	6054.19
762.428	5987.75
762.765	5982.55
763.102	5982.55
763.438	5909.79
763.775	5914.08
764.112	5928.32
764.449	5914.31
764.785	5851.26
765.122	5863.69
765.458	5875.66
