Data from black_metal_pc_casing_FLMS001491_00015.txt Node
Date: Wed Feb 08 14:32:03 GMT 2017
User: dcchb
Spectrometer: FLMS00149
Trigger mode: 0
Integration Time (sec): 2.000000E-2
Scans to average: 10
Electric dark correction enabled: true
Nonlinearity correction enabled: false
Boxcar width: 0
XAxis mode: Wavelengths
Number of Pixels in Spectrum: 2048
>>>>>Begin Spectral Data<<<<<
341.393	-19
341.776	-19
342.16	-19
342.543	-51.99
342.927	-58.32
343.31	-75.27
343.693	-52.22
344.077	-70.75
344.46	-49.73
344.843	-55.15
345.226	-48.83
345.61	-30.97
345.993	-24.42
346.376	-12.9
346.759	24.17
347.142	23.71
347.525	38.85
347.908	39.76
348.291	91.73
348.674	84.5
349.057	117.5
349.44	126.76
349.823	150.94
350.206	164.95
350.588	189.81
350.971	208.79
351.354	217.61
351.737	248.11
352.119	224.39
352.502	227.1
352.884	278.62
353.267	262.8
353.65	273.2
354.032	282.24
354.414	285.18
354.797	293.54
355.179	310.03
355.562	317.49
355.944	302.12
356.326	322.01
356.709	327.43
357.091	324.95
357.473	336.7
357.855	308.9
358.238	349.81
358.62	310.03
359.002	328.79
359.384	339.86
359.766	336.93
360.148	320.88
360.53	332.86
360.912	334.44
361.294	320.2
361.676	325.85
362.057	302.35
362.439	329.02
362.821	309.81
363.203	322.69
363.584	320.2
363.966	314.33
364.348	296.48
364.729	305.74
365.111	310.03
365.493	302.58
365.874	315.68
366.256	296.93
366.637	300.99
367.019	286.08
367.4	297.38
367.781	289.24
368.163	304.38
368.544	310.26
368.925	310.71
369.306	318.4
369.688	290.83
370.069	298.06
370.45	291.5
370.831	299.86
371.212	310.71
371.593	310.49
371.974	308.45
372.355	290.15
372.736	285.63
373.117	306.42
373.498	298.51
373.879	289.92
374.26	295.57
374.641	301.45
375.021	307.55
375.402	315.68
375.783	308.68
376.163	314.55
376.544	321.11
376.925	334.21
377.305	328.34
377.686	309.13
378.066	323.14
378.447	310.03
378.827	306.64
379.208	308.68
379.588	335.34
379.968	318.17
380.349	284.72
380.729	300.77
381.109	322.24
381.489	326.53
381.87	318.85
382.25	336.02
382.63	341.22
383.01	329.24
383.39	326.76
383.77	335.12
384.15	332.18
384.53	347.77
384.91	341.22
385.29	347.77
385.67	357.26
386.049	353.65
386.429	332.86
386.809	346.42
387.189	333.31
387.568	355.68
387.948	333.08
388.328	347.77
388.707	340.77
389.087	345.51
389.466	357.04
389.846	366.3
390.225	338.06
390.605	345.97
390.984	376.25
391.363	367.43
391.743	379.86
392.122	360.88
392.501	355.91
392.881	369.47
393.26	379.86
393.639	357.26
394.018	376.47
394.397	381.67
394.776	366.53
395.155	366.08
395.534	357.94
395.913	389.35
396.292	382.12
396.671	369.69
397.05	392.74
397.429	380.31
397.808	357.72
398.186	397.04
398.565	391.61
398.944	386.64
399.323	398.62
399.701	405.85
400.08	385.51
400.458	404.04
400.837	397.94
401.215	391.84
401.594	413.08
401.972	401.33
402.351	383.03
402.729	405.4
403.107	407.88
403.486	404.04
403.864	395.23
404.242	420.99
404.62	421.44
404.999	419.41
405.377	411.5
405.755	436.13
406.133	417.83
406.511	433.65
406.889	415.34
407.267	432.97
407.645	432.29
408.023	414.21
408.401	435.45
408.779	438.84
409.156	464.38
409.534	455.12
409.912	443.36
410.29	438.17
410.667	454.44
411.045	465.06
411.422	458.96
411.8	482.91
412.178	448.11
412.555	499.86
412.933	492.4
413.31	487.43
413.687	466.41
414.065	492.85
414.442	475.23
414.819	476.81
415.197	501.67
415.574	501.89
415.951	503.02
416.328	504.15
416.705	505.51
417.082	517.26
417.46	499.41
417.837	511.38
418.214	497.15
418.591	520.65
418.967	531.72
419.344	513.42
419.721	523.81
420.098	536.92
420.475	530.37
420.852	522.23
421.228	521.1
421.605	520.65
421.982	545.51
422.358	534.66
422.735	559.52
423.111	557.71
423.488	562.46
423.864	556.36
424.241	561.33
424.617	560.2
424.994	571.27
425.37	581.89
425.746	580.08
426.123	592.06
426.499	597.71
426.875	580.31
427.251	585.73
427.627	593.87
428.003	598.84
428.379	623.02
428.756	604.94
429.132	591.38
429.507	630.93
429.883	621.66
430.259	652.4
430.635	625.51
431.011	645.84
431.387	643.13
431.763	656.47
432.138	635
432.514	656.69
432.89	666.18
433.265	677.93
433.641	683.58
434.016	701.44
434.392	677.48
434.767	698.27
435.143	697.59
435.518	700.08
435.894	716.13
436.269	721.32
436.644	739.63
437.02	740.98
437.395	747.31
437.77	724.71
438.145	731.27
438.52	743.92
438.895	752.06
439.271	768.1
439.646	759.51
440.021	749.57
440.395	757.48
440.77	758.38
441.145	751.38
441.52	785.5
441.895	788.44
442.27	776.91
442.645	790.02
443.019	817.82
443.394	797.03
443.769	809
444.143	798.83
444.518	806.07
444.892	797.03
445.267	832.05
445.641	825.5
446.016	822.56
446.39	813.75
446.764	834.54
447.139	840.42
447.513	843.58
447.887	862.56
448.262	864.82
448.636	859.4
449.01	861.66
449.384	873.64
449.758	876.8
450.132	888.78
450.506	896.01
450.88	875.9
451.254	885.84
451.628	892.39
452.002	917.02
452.376	911.6
452.75	924.71
453.123	931.26
453.497	923.58
453.871	945.5
454.244	952.96
454.618	955.21
454.992	954.54
455.365	993.63
455.739	982.56
456.112	1008.32
456.486	1007.87
456.859	1000.64
457.232	1000.19
457.606	1025.27
457.979	1038.83
458.352	1053.07
458.725	1082.67
459.099	1044.93
459.472	1059.62
459.845	1116.34
460.218	1096.45
460.591	1106.4
460.964	1095.32
461.337	1126.96
461.71	1155.44
462.083	1168.77
462.456	1144.81
462.829	1172.84
463.201	1204.02
463.574	1191.82
463.947	1194.76
464.32	1214.87
464.692	1234.98
465.065	1268.65
465.438	1280.86
465.81	1258.94
466.183	1266.17
466.555	1278.14
466.928	1302.55
467.3	1279.27
467.672	1321.76
468.045	1329.44
468.417	1338.71
468.789	1353.4
469.161	1356.56
469.534	1404.92
469.906	1423.45
470.278	1423.9
470.65	1445.15
471.022	1439.72
471.394	1472.49
471.766	1494.18
472.138	1518.82
472.51	1532.6
472.882	1563.11
473.253	1557.23
473.625	1573.28
473.997	1609.89
474.369	1646.72
474.74	1659.6
475.112	1661.64
475.484	1711.58
475.855	1741.63
476.227	1732.14
476.598	1745.25
476.97	1748.64
477.341	1789.77
477.713	1813.05
478.084	1826.83
478.455	1883.78
478.827	1879.26
479.198	1943.44
479.569	1932.82
479.94	2000.61
480.311	2028.41
480.682	2026.15
481.053	2064.79
481.424	2081.74
481.795	2099.37
482.166	2166.93
482.537	2165.8
482.908	2234.96
483.279	2260.49
483.65	2272.69
484.021	2310.21
484.391	2333.03
484.762	2359.47
485.133	2340.94
485.503	2383.88
485.874	2453.71
486.244	2478.11
486.615	2465.01
486.985	2549.3
487.356	2577.55
487.726	2596.3
488.097	2627.04
488.467	2672.46
488.837	2692.12
489.207	2733.93
489.578	2751.1
489.948	2789.07
490.318	2837.88
490.688	2789.97
491.058	2876.75
491.428	2908.84
491.798	2928.5
492.168	3016.18
492.538	3011.21
492.908	3037.19
493.278	3033.58
493.648	3115.61
494.017	3140.02
494.387	3172.11
494.757	3160.35
495.126	3206.46
495.496	3205.33
495.866	3231.77
496.235	3267.7
496.605	3289.39
496.974	3306.57
497.344	3320.35
497.713	3351.76
498.082	3361.48
498.452	3425.88
498.821	3423.17
499.19	3410.52
499.559	3508.14
499.928	3485.77
500.298	3530.97
500.667	3562.6
501.036	3555.37
501.405	3583.39
501.774	3544.75
502.143	3617.74
502.512	3648.48
502.88	3682.6
503.249	3640.57
503.618	3672.88
503.987	3737.29
504.356	3723.05
504.724	3753.11
505.093	3783.62
505.462	3768.7
505.83	3822.26
506.199	3846.44
506.567	3901.13
506.936	3942.03
507.304	3962.59
507.672	3987.68
508.041	3962.59
508.409	4022.7
508.777	4041.69
509.145	4032.42
509.514	4083.95
509.882	4094.57
510.25	4161.23
510.618	4121.01
510.986	4144.06
511.354	4209.82
511.722	4262.47
512.09	4314.45
512.458	4269.93
512.826	4307.44
513.193	4355.8
513.561	4370.49
513.929	4441
514.297	4406.65
514.664	4438.74
515.032	4502.47
515.4	4506.53
515.767	4543.37
516.135	4565.52
516.502	4576.14
516.869	4662.69
517.237	4682.57
517.604	4670.82
517.972	4704.95
518.339	4707.21
518.706	4749.69
519.073	4785.62
519.44	4785.17
519.808	4878.5
520.175	4870.37
520.542	4965.73
520.909	4948.78
521.276	4937.94
521.643	5040.08
522.009	5079.4
522.376	5078.95
522.743	5132.96
523.11	5164.6
523.477	5202.11
523.843	5233.52
524.21	5305.84
524.577	5275.78
524.943	5359.39
525.31	5375.21
525.676	5433.74
526.043	5519.61
526.409	5491.59
526.776	5536.34
527.142	5513.74
527.508	5600.97
527.874	5619.73
528.241	5644.36
528.607	5656.11
528.973	5757.8
529.339	5760.51
529.705	5836.44
530.071	5871.02
530.437	5864.24
530.803	5906.95
531.169	5986.04
531.535	5939.49
531.901	6011.35
532.267	6004.12
532.632	6039.15
532.998	6037.12
533.364	6038.02
533.73	6144.68
534.095	6162.31
534.461	6218.35
534.826	6242.08
535.192	6252.93
535.557	6287.28
535.923	6274.4
536.288	6329.31
536.653	6382.64
537.019	6335.86
537.384	6332.47
537.749	6374.51
538.114	6455.18
538.479	6438.46
538.845	6451.34
539.21	6465.13
539.575	6468.74
539.94	6537.67
540.305	6612.24
540.67	6561.4
541.034	6612.69
541.399	6600.04
541.764	6653.14
542.129	6659.7
542.494	6729.3
542.858	6757.1
543.223	6701.96
543.587	6783.76
543.952	6815.4
544.316	6774.95
544.681	6849.98
545.045	6822.86
545.41	6873.48
545.774	6925
546.138	6878
546.503	6951.44
546.867	6934.49
547.231	6968.84
547.595	6995.06
547.959	7044.77
548.324	7060.82
548.688	7060.59
549.052	7052
549.416	7080.48
549.779	7134.26
550.143	7188.05
550.507	7202.96
550.871	7205.67
551.235	7245.22
551.599	7233.92
551.962	7355.72
552.326	7328.83
552.689	7407.93
553.053	7353.24
553.417	7393.24
553.78	7460.13
554.143	7424.88
554.507	7411.99
554.87	7511.2
555.234	7591.2
555.597	7529.51
555.96	7559.11
556.323	7617.64
556.686	7628.71
557.05	7682.95
557.413	7733.34
557.776	7709.61
558.139	7774.7
558.502	7732.66
558.865	7835.26
559.228	7857.63
559.59	7957.97
559.953	7908.48
560.316	7986.67
560.679	8008.81
561.041	8018.98
561.404	8152.31
561.767	8146.89
562.129	8141.92
562.492	8242.26
562.854	8221.24
563.217	8137.63
563.579	8267.34
563.941	8322.48
564.304	8356.6
564.666	8410.39
565.028	8450.39
565.39	8478.41
565.753	8508.24
566.115	8468.92
566.477	8544.62
566.839	8560.66
567.201	8666.2
567.563	8623.71
567.925	8766.31
568.287	8703.26
568.648	8694.67
569.01	8784.16
569.372	8831.17
569.734	8786.87
570.095	8849.47
570.457	8872.07
570.819	8978.96
571.18	8919.3
571.542	8975.8
571.903	9084.04
572.265	9021.44
572.626	9039.52
572.987	9071.39
573.349	9110.48
573.71	9077.94
574.071	9182.12
574.432	9208.11
574.794	9203.81
575.155	9243.81
575.516	9215.11
575.877	9270.25
576.238	9247.2
576.599	9239.52
576.96	9300.31
577.32	9362
577.681	9326.75
578.042	9401.09
578.403	9388.44
578.763	9392.28
579.124	9428.66
579.485	9491.49
579.845	9449.45
580.206	9526.97
580.566	9424.82
580.927	9509.34
581.287	9558.15
581.648	9473.18
582.008	9621.43
582.368	9463.24
582.728	9511.83
583.089	9523.58
583.449	9569.23
583.809	9479.06
584.169	9563.8
584.529	9531.49
584.889	9614.42
585.249	9539.17
585.609	9533.75
585.969	9557.7
586.329	9633.4
586.688	9550.92
587.048	9639.96
587.408	9596.57
587.768	9560.19
588.127	9595.44
588.487	9531.71
588.846	9585.04
589.206	9502.56
589.565	9553.63
589.925	9588.43
590.284	9592.5
590.643	9548.89
591.003	9631.6
591.362	9645.61
591.721	9638.38
592.08	9580.3
592.44	9666.85
592.799	9542.56
593.158	9641.99
593.517	9631.82
593.876	9661.43
594.235	9626.17
594.593	9653.07
594.952	9709.11
595.311	9684.48
595.67	9678.6
596.029	9679.51
596.387	9718.83
596.746	9677.92
597.104	9692.16
597.463	9622.11
597.822	9714.31
598.18	9681.09
598.538	9700.3
598.897	9731.93
599.255	9608.55
599.613	9805.83
599.972	9733.29
600.33	9804.02
600.688	9700.52
601.046	9786.17
601.404	9820.97
601.762	9782.78
602.12	9874.53
602.478	9839.28
602.836	9811.48
603.194	9755.21
603.552	9839.5
603.91	9764.02
604.268	9824.81
604.625	9806.96
604.983	9865.94
605.341	9786.85
605.698	9841.31
606.056	9943
606.413	9869.56
606.771	9919.27
607.128	9874.3
607.485	9896.9
607.843	9900.29
608.2	9962.89
608.557	9936
608.914	9962.66
609.272	9990.46
609.629	10040.4
609.986	10024.81
610.343	9972.83
610.7	10075.88
611.057	10063
611.414	9966.05
611.771	10032.26
612.127	10088.31
612.484	10028.65
612.841	10098.48
613.198	10090.12
613.554	10081.08
613.911	10074.52
614.267	10091.92
614.624	10094.86
614.98	10112.26
615.337	10193.84
615.693	10156.55
616.05	10229.77
616.406	10209.21
616.762	10145.71
617.118	10227.06
617.475	10208.98
617.831	10250.79
618.187	10249.21
618.543	10381.41
618.899	10313.16
619.255	10291.24
619.611	10335.31
619.967	10267.29
620.323	10348.87
620.678	10358.81
621.034	10273.16
621.39	10272.71
621.746	10297.12
622.101	10335.53
622.457	10276.55
622.812	10298.25
623.168	10346.15
623.523	10365.14
623.879	10342.31
624.234	10295.31
624.589	10352.71
624.945	10364.01
625.3	10302.31
625.655	10359.71
626.01	10319.71
626.365	10328.53
626.72	10394.74
627.075	10286.27
627.43	10309.77
627.785	10261.18
628.14	10349.32
628.495	10336.89
628.85	10313.39
629.205	10294.63
629.559	10358.81
629.914	10244.69
630.269	10339.38
630.623	10308.19
630.978	10252.15
631.332	10306.61
631.687	10243.56
632.041	10230
632.396	10302.77
632.75	10226.16
633.104	10258.02
633.459	10234.07
633.813	10130.79
634.167	10124.01
634.521	10162.66
634.875	10210.34
635.229	10131.92
635.583	10097.12
635.937	10148.19
636.291	10169.21
636.645	10127.4
636.999	10105.03
637.352	10075.88
637.706	10055.77
638.06	10114.07
638.413	10027.74
638.767	9996.33
639.121	10001.76
639.474	10000.17
639.828	9913.85
640.181	9960.18
640.534	10043.79
640.888	9961.31
641.241	9900.29
641.594	9938.26
641.947	10089.44
642.301	9924.7
642.654	9942.78
643.007	9882.89
643.36	9909.78
643.713	9838.6
644.066	9927.18
644.419	9840.63
644.771	9750.01
645.124	9657.81
645.477	9685.83
645.83	9599.28
646.182	9536.68
646.535	9522.22
646.888	9557.47
647.24	9455.56
647.593	9541.2
647.945	9516.12
648.298	9448.1
648.65	9465.05
649.002	9390.7
649.355	9496.91
649.707	9429.12
650.059	9542.33
650.411	9576.23
650.763	9560.86
651.115	9686.51
651.467	9613.07
651.819	9639.51
652.171	9631.37
652.523	9607.87
652.875	9601.99
653.227	9569.68
653.578	9559.28
653.93	9560.41
654.282	9482.22
654.633	9542.11
654.985	9582.33
655.337	9541.88
655.688	9605.83
656.039	9634.76
656.391	9505.95
656.742	9500.08
657.094	9467.76
657.445	9561.99
657.796	9547.53
658.147	9507.31
658.498	9461.21
658.849	9528.32
659.2	9452.17
659.551	9526.52
659.902	9498.95
660.253	9530.81
660.604	9423.47
660.955	9487.42
661.306	9529.45
661.656	9437.48
662.007	9485.61
662.358	9432.96
662.708	9415.56
663.059	9416.24
663.409	9357.48
663.76	9446.52
664.11	9397.48
664.461	9520.64
664.811	9470.25
665.161	9479.51
665.511	9429.79
665.862	9409.68
666.212	9427.08
666.562	9444.03
666.912	9364.26
667.262	9408.33
667.612	9446.07
667.962	9358.84
668.312	9383.24
668.662	9426.86
669.011	9396.8
669.361	9315
669.711	9406.74
670.06	9383.92
670.41	9373.98
670.76	9356.35
671.109	9400.42
671.459	9326.07
671.808	9353.64
672.157	9369.68
672.507	9239.29
672.856	9345.5
673.205	9263.02
673.554	9273.41
673.904	9296.92
674.253	9356.8
674.602	9300.31
674.951	9202.68
675.3	9161.1
675.649	9272.51
675.998	9210.37
676.346	9182.34
676.695	9221.44
677.044	9187.09
677.393	9245.62
677.741	9316.13
678.09	9207.2
678.438	9218.95
678.787	9170.59
679.135	9214.21
679.484	9191.16
679.832	9183.47
680.181	9150.48
680.529	9153.64
680.877	9084.49
681.225	9166.98
681.573	9136.69
681.922	9096.02
682.27	9067.09
682.618	9019.18
682.966	9037.94
683.314	9021.44
683.661	9019.86
684.009	8957.49
684.357	8999.07
684.705	8915.23
685.053	8997.72
685.4	8958.62
685.748	8877.27
686.095	8888.34
686.443	8905.06
686.79	8843.82
687.138	8868.68
687.485	8774.22
687.832	8892.86
688.18	8801.11
688.527	8765.41
688.874	8789.59
689.221	8688.8
689.568	8682.92
689.915	8803.82
690.262	8783.03
690.609	8733.09
690.956	8624.39
691.303	8675.24
691.65	8562.47
691.997	8606.54
692.344	8502.59
692.69	8540.33
693.037	8542.81
693.383	8478.86
693.73	8506.88
694.077	8495.81
694.423	8406.09
694.769	8430.72
695.116	8375.13
695.462	8417.62
695.808	8427.56
696.155	8359.77
696.501	8299.65
696.847	8307.79
697.193	8278.86
697.539	8258.53
697.885	8252.2
698.231	8196.38
698.577	8210.39
698.923	8184.86
699.269	8180.34
699.614	8077.74
699.96	8141.69
700.306	8053.11
700.651	8096.04
700.997	8073.67
701.342	8053.56
701.688	8078.87
702.033	7989.38
702.379	8018.53
702.724	7966.33
703.069	8004.52
703.415	7892.21
703.76	7925.65
704.105	7958.65
704.45	7890.85
704.795	7777.86
705.14	7826.67
705.485	7812.21
705.83	7796.17
706.175	7783.51
706.52	7767.47
706.865	7715.72
707.209	7716.62
707.554	7718.43
707.899	7684.08
708.243	7659.67
708.588	7599.56
708.932	7628.71
709.277	7571.76
709.621	7604.53
709.966	7543.52
710.31	7532.9
710.654	7479.79
710.998	7533.57
711.342	7531.54
711.687	7532.22
712.031	7505.78
712.375	7495.83
712.719	7447.02
713.063	7404.99
713.407	7420.13
713.75	7394.37
714.094	7434.82
714.438	7348.04
714.782	7437.08
715.125	7328.83
715.469	7344.88
715.812	7280.7
716.156	7277.08
716.499	7284.09
716.843	7277.76
717.186	7263.52
717.53	7326.12
717.873	7231.89
718.216	7285.22
718.559	7230.53
718.902	7164.54
719.246	7215.16
719.589	7142.62
719.932	7183.98
720.275	7157.54
720.617	7131.1
720.96	7170.64
721.303	7027.82
721.646	7098.1
721.989	7103.75
722.331	7143.53
722.674	7034.15
723.016	7100.36
723.359	7121.61
723.701	7066.24
724.044	6974.04
724.386	6964.55
724.729	6992.34
725.071	6994.6
725.413	7029.63
725.755	6962.06
726.097	6965
726.439	6967.49
726.782	6902.86
727.124	6923.87
727.465	6961.61
727.807	6889.97
728.149	6914.38
728.491	6868.28
728.833	6859.01
729.175	6874.38
729.516	6849.98
729.858	6848.17
730.199	6870.09
730.541	6801.84
730.882	6821.28
731.224	6840.48
731.565	6792.8
731.906	6792.8
732.248	6791.45
732.589	6723.65
732.93	6703.99
733.271	6742.86
733.612	6742.63
733.953	6768.85
734.294	6705.35
734.635	6663.31
734.976	6688.17
735.317	6643.2
735.658	6653.37
735.999	6644.1
736.339	6595.74
736.68	6729.53
737.021	6648.62
737.361	6590.1
737.702	6596.65
738.042	6573.15
738.383	6584.9
738.723	6623.31
739.063	6555.75
739.404	6618.57
739.744	6574.5
740.084	6507.84
740.424	6556.42
740.764	6579.93
741.104	6499.25
741.444	6527.95
741.784	6479.36
742.124	6479.59
742.464	6490.89
742.804	6529.76
743.143	6500.61
743.483	6452.92
743.823	6424.22
744.162	6413.15
744.502	6478.01
744.841	6379.71
745.181	6410.21
745.52	6396.65
745.86	6409.99
746.199	6348.29
746.538	6361.17
746.877	6367.5
747.216	6356.88
747.556	6377.22
747.895	6371.12
748.234	6298.13
748.573	6313.94
748.911	6293.15
749.25	6316.88
749.589	6243.21
749.928	6245.25
750.267	6254.06
750.605	6260.84
750.944	6285.47
751.283	6223.33
751.621	6236.43
751.96	6153.72
752.298	6169.54
752.636	6199.37
752.975	6107.85
753.313	6138.13
753.651	6120.5
753.989	6094.06
754.327	6015.19
754.666	6078.47
755.004	6086.83
755.342	6079.37
755.679	6046.38
756.017	6061.3
756.355	6084.57
756.693	6031.24
757.031	6058.81
757.368	6009.32
757.706	5985.37
758.044	5939.26
758.381	5916.21
758.719	5919.83
759.056	5979.94
759.394	5925.48
759.731	5872.83
760.068	5870.57
760.405	5846.84
760.743	5799.38
761.08	5809.32
761.417	5780.85
761.754	5801.42
762.091	5783.34
762.428	5750.34
762.765	5706.95
763.102	5774.75
763.438	5702.21
763.775	5708.54
764.112	5675.54
764.449	5704.47
764.785	5675.54
765.122	5669.67
765.458	5615.88
765.795	5604.36
766.131	5625.15
766.467	5588.54
766.804	5576.56
767.14	5547.41
767.476	5562.78
767.812	5486.85
768.148	5475.77
768.485	5444.14
768.821	5396.91
769.157	5417.92
