Data from black_metal_pc_casing_FLMS001491_00010.txt Node
Date: Wed Feb 08 14:31:51 GMT 2017
User: dcchb
Spectrometer: FLMS00149
Trigger mode: 0
Integration Time (sec): 2.000000E-2
Scans to average: 10
Electric dark correction enabled: true
Nonlinearity correction enabled: false
Boxcar width: 0
XAxis mode: Wavelengths
Number of Pixels in Spectrum: 2048
>>>>>Begin Spectral Data<<<<<
341.393	10.21
341.776	10.21
342.16	10.21
342.543	-59.62
342.927	-67.3
343.31	-66.62
343.693	-75.44
344.077	-68.88
344.46	-58.26
344.843	-68.66
345.226	-27.53
345.61	-38.83
345.993	-8.77
346.376	8.63
346.759	-10.8
347.142	32.58
347.525	48.18
347.908	56.99
348.291	81.4
348.674	80.49
349.057	115.52
349.44	117.55
349.823	136.54
350.206	168.17
350.588	205.46
350.971	214.5
351.354	225.12
351.737	225.12
352.119	221.51
352.502	269.64
352.884	271.45
353.267	277.55
353.65	266.02
354.032	269.41
354.414	283.65
354.797	296.98
355.179	319.13
355.562	303.09
355.944	318
356.326	314.61
356.709	317.32
357.091	310.32
357.473	342.41
357.855	317.77
358.238	328.62
358.62	319.36
359.002	341.05
359.384	334.27
359.766	342.18
360.148	316.19
360.53	349.19
360.912	328.4
361.294	302.63
361.676	341.73
362.057	329.53
362.439	322.97
362.821	328.4
363.203	346.02
363.584	315.97
363.966	333.14
364.348	319.81
364.729	324.55
365.111	300.37
365.493	308.28
365.874	297.66
366.256	316.87
366.637	309.86
367.019	306.47
367.4	313.03
367.781	320.26
368.163	307.15
368.544	311.45
368.925	323.2
369.306	324.78
369.688	300.15
370.069	299.47
370.45	300.83
370.831	298.34
371.212	299.92
371.593	300.83
371.974	318.9
372.355	302.18
372.736	320.49
373.117	288.4
373.498	317.1
373.879	303.99
374.26	325.68
374.641	313.03
375.021	304.89
375.402	330.2
375.783	329.3
376.163	316.87
376.544	354.61
376.925	323.88
377.305	341.05
377.686	302.86
378.066	320.03
378.447	336.08
378.827	348.06
379.208	324.1
379.588	348.51
379.968	325.01
380.349	327.49
380.729	320.49
381.109	331.56
381.489	357.32
381.87	348.06
382.25	348.28
382.63	337.89
383.01	344.89
383.39	343.54
383.77	322.29
384.15	334.95
384.53	346.93
384.91	340.37
385.29	361.61
385.67	372.24
386.049	371.78
386.429	348.28
386.809	344.89
387.189	351.67
387.568	344.44
387.948	350.09
388.328	343.54
388.707	364.1
389.087	351.22
389.466	379.47
389.846	357.1
390.225	369.3
390.605	390.99
390.984	371.11
391.363	368.39
391.743	381.28
392.122	404.78
392.501	367.49
392.881	382.63
393.26	371.56
393.639	375.63
394.018	374.72
394.397	397.09
394.776	389.86
395.155	386.25
395.534	388.96
395.913	398.45
396.292	393.93
396.671	405
397.05	399.35
397.429	389.86
397.808	393.48
398.186	408.85
398.565	388.73
398.944	412.91
399.323	402.29
399.701	399.13
400.08	396.64
400.458	417.88
400.837	401.39
401.215	410.88
401.594	417.88
401.972	422.18
402.351	428.73
402.729	422.86
403.107	426.02
403.486	423.31
403.864	438.9
404.242	447.94
404.62	443.87
404.999	440.48
405.377	428.96
405.755	430.31
406.133	453.14
406.511	447.49
406.889	452.23
407.267	468.28
407.645	479.8
408.023	446.58
408.401	467.37
408.779	464.89
409.156	475.51
409.534	480.26
409.912	479.58
410.29	479.13
410.667	505.11
411.045	466.92
411.422	473.48
411.8	474.15
412.178	504.21
412.555	498.79
412.933	507.83
413.31	505.11
413.687	503.08
414.065	510.76
414.442	523.87
414.819	526.13
415.197	538.11
415.574	520.93
415.951	524.55
416.328	508.28
416.705	536.53
417.082	538.79
417.46	536.53
417.837	552.12
418.214	557.54
418.591	550.99
418.967	554.15
419.344	573.13
419.721	571.55
420.098	547.6
420.475	562.51
420.852	548.28
421.228	574.72
421.605	585.79
421.982	583.3
422.358	575.62
422.735	597.77
423.111	590.76
423.488	580.14
423.864	586.02
424.241	599.12
424.617	623.75
424.994	624.88
425.37	604.09
425.746	636.64
426.123	604.09
426.499	630.76
426.875	647.26
427.251	636.64
427.627	658.33
428.003	656.97
428.379	644.77
428.756	664.21
429.132	691.32
429.507	685.67
429.883	685
430.259	689.06
430.635	718.22
431.011	720.7
431.387	716.63
431.763	694.26
432.138	717.76
432.514	717.54
432.89	725.67
433.265	752.56
433.641	757.54
434.016	768.61
434.392	782.39
434.767	779.68
435.143	768.61
435.518	784.65
435.894	791.43
436.269	771.32
436.644	792.79
437.02	819.91
437.395	808.61
437.77	800.25
438.145	828.5
438.52	823.52
438.895	844.31
439.271	834.37
439.646	844.77
440.021	841.6
440.395	868.95
440.77	843.86
441.145	854.03
441.52	865.56
441.895	860.36
442.27	901.26
442.645	852.45
443.019	860.13
443.394	877.76
443.769	893.58
444.143	907.14
444.518	907.14
444.892	885.89
445.267	937.87
445.641	887.02
446.016	910.53
446.39	919.79
446.764	931.09
447.139	919.11
447.513	959.11
447.887	941.49
448.262	951.43
448.636	943.07
449.01	963.63
449.384	980.13
449.758	971.09
450.132	976.51
450.506	1002.28
450.88	977.64
451.254	1001.82
451.628	1008.83
452.002	999.34
452.376	1020.13
452.75	1026.91
453.123	1039.56
453.497	1069.84
453.871	1067.81
454.244	1059.22
454.618	1104.65
454.992	1084.99
455.365	1081.6
455.739	1103.29
456.112	1166.11
456.486	1153.68
456.859	1155.04
457.232	1168.83
457.606	1149.16
457.979	1186.45
458.352	1182.16
458.725	1184.64
459.099	1198.43
459.472	1214.93
459.845	1210.18
460.218	1235.72
460.591	1236.85
460.964	1248.37
461.337	1276.84
461.71	1304.87
462.083	1291.99
462.456	1304.19
462.829	1300.35
463.201	1323.85
463.574	1347.13
463.947	1357.29
464.32	1400.91
464.692	1409.95
465.065	1371.53
465.438	1412.43
465.81	1440
466.183	1452.89
466.555	1477.29
466.928	1472.32
467.3	1480.91
467.672	1501.25
468.045	1510.29
468.417	1553.22
468.789	1561.81
469.161	1558.65
469.534	1582.83
469.906	1583.05
470.278	1655.82
470.65	1665.31
471.022	1686.78
471.394	1684.74
471.766	1694.46
472.138	1713.9
472.51	1764.74
472.882	1751.41
473.253	1804.97
473.625	1823.5
473.997	1876.83
474.369	1813.78
474.74	1865.08
475.112	1887.22
475.484	1925.87
475.855	1969.71
476.227	1966.09
476.598	2022.59
476.97	2028.92
477.341	2118.86
477.713	2111.4
478.084	2114.34
478.455	2164.96
478.827	2169.7
479.198	2256.93
479.569	2247.67
479.94	2313.43
480.311	2281.56
480.682	2356.59
481.053	2381.45
481.424	2413.76
481.795	2451.5
482.166	2481.56
482.537	2499.64
482.908	2595.68
483.279	2583.93
483.65	2621.89
484.021	2673.64
484.391	2699.41
484.762	2717.71
485.133	2765.17
485.503	2753.42
485.874	2821.89
486.244	2870.02
486.615	2898.05
486.985	2931.94
487.356	2997.25
487.726	2997.48
488.097	3063.92
488.467	3042.9
488.837	3158.83
489.207	3165.38
489.578	3220.97
489.948	3228.43
490.318	3260.3
490.688	3314.76
491.058	3342.33
491.428	3397.69
491.798	3441.53
492.168	3477.69
492.538	3503
492.908	3508.65
493.278	3592.94
493.648	3601.98
494.017	3614.64
494.387	3669.55
494.757	3684.47
495.126	3722.2
495.496	3718.59
495.866	3765.82
496.235	3817.34
496.605	3806.5
496.974	3844.91
497.344	3868.64
497.713	3897.34
498.082	3885.14
498.452	3983.21
498.821	4013.27
499.19	4000.39
499.559	4060.05
499.928	4103.66
500.298	4103.66
500.667	4144.11
501.036	4162.42
501.405	4213.72
501.774	4198.8
502.143	4232.93
502.512	4270.44
502.88	4266.37
503.249	4303.21
503.618	4343.66
503.987	4413.94
504.356	4407.84
504.724	4382.98
505.093	4436.08
505.462	4452.58
505.83	4533.26
506.199	4533.26
506.567	4586.36
506.936	4581.84
507.304	4639.92
507.672	4673.37
508.041	4675.17
508.409	4700.26
508.777	4779.58
509.145	4774.15
509.514	4801.05
509.882	4853.7
510.25	4856.86
510.618	4856.64
510.986	4886.92
511.354	4919.01
511.722	4923.75
512.09	5017.09
512.458	5015.28
512.826	5086.91
513.193	5069.29
513.561	5165.1
513.929	5166.69
514.297	5218.44
514.664	5281.71
515.032	5271.09
515.4	5338.21
515.767	5289.62
516.135	5345.21
516.502	5367.36
516.869	5410.52
517.237	5455.27
517.604	5440.35
517.972	5550.63
518.339	5598.09
518.706	5605.77
519.073	5653.45
519.44	5690.06
519.808	5697.29
520.175	5681.25
520.542	5815.03
520.909	5805.54
521.276	5868.14
521.643	5895.71
522.009	5943.61
522.376	6001.24
522.743	6030.17
523.11	6051.41
523.477	6150.84
523.843	6145.19
524.21	6219.09
524.577	6253.66
524.943	6313.77
525.31	6290.72
525.676	6392.87
526.043	6417.95
526.409	6465.86
526.776	6556.71
527.142	6542.02
527.508	6598.06
527.874	6658.17
528.241	6660.43
528.607	6735.91
528.973	6806.42
529.339	6708.34
529.705	6816.36
530.071	6913.98
530.437	6881.44
530.803	6947.88
531.169	7038.73
531.535	7009.12
531.901	7109.23
532.267	7082.34
532.632	7085.73
532.998	7180.42
533.364	7215.45
533.73	7236.01
534.095	7306.29
534.461	7279.17
534.826	7335.67
535.192	7385.38
535.557	7486.17
535.923	7456.8
536.288	7443.46
536.653	7517.13
537.019	7551.93
537.384	7495.89
537.749	7595.32
538.114	7557.81
538.479	7592.61
538.845	7669.9
539.21	7638.26
539.575	7664.7
539.94	7734.53
540.305	7786.28
540.67	7716.68
541.034	7776.34
541.399	7800.29
541.764	7869.44
542.129	7828.76
542.494	7895.43
542.858	7919.61
543.223	7928.42
543.587	8021.98
543.952	7958.25
544.316	8025.82
544.681	8063.79
545.045	8078.7
545.41	8162.54
545.774	8143.11
546.138	8166.61
546.503	8177
546.867	8210.45
547.231	8242.99
547.595	8261.29
547.959	8334.74
548.324	8322.76
548.688	8339.71
549.052	8355.75
549.416	8356.88
549.779	8382.65
550.143	8424.23
550.507	8493.6
550.871	8505.13
551.235	8531.12
551.599	8554.39
551.962	8579.93
552.326	8618.35
552.689	8688.85
553.053	8646.37
553.417	8705.12
553.78	8835.29
554.143	8791.45
554.507	8833.71
554.87	8831
555.234	8942.18
555.597	8910.77
555.96	8967.04
556.323	8973.59
556.686	9068.96
557.05	9122.74
557.413	9018.79
557.776	9097.2
558.139	9189.18
558.502	9216.3
558.865	9162.74
559.228	9258.33
559.59	9333.36
559.953	9283.19
560.316	9426.69
560.679	9454.48
561.041	9479.57
561.404	9432.56
561.767	9581.71
562.129	9517.98
562.492	9681.82
562.854	9634.37
563.217	9681.82
563.579	9744.19
563.941	9768.83
564.304	9820.12
564.666	9885.88
565.028	9858.54
565.39	9910.74
565.753	10050.63
566.115	10007.01
566.477	10049.95
566.839	10090.17
567.201	10057.18
567.563	10189.15
567.925	10182.15
568.287	10212.88
568.648	10228.93
569.01	10282.03
569.372	10387.11
569.734	10298.3
570.095	10418.75
570.457	10479.09
570.819	10508.01
571.18	10553.21
571.542	10628.01
571.903	10575.36
572.265	10675.02
572.626	10654.45
572.987	10721.34
573.349	10689.7
573.71	10732.64
574.071	10778.29
574.432	10791.17
574.794	10973.09
575.155	10849.02
575.516	10819.64
575.877	10840.66
576.238	10940.55
576.599	10897.38
576.96	11041.56
577.32	10987.1
577.681	11067.1
578.042	11099.19
578.403	11063.48
578.763	10999.53
579.124	11047.21
579.485	11119.07
579.845	11137.38
580.206	11245.62
580.566	11188.22
580.927	11158.62
581.287	11171.95
581.648	11151.39
582.008	11237.71
582.368	11166.98
582.728	11240.42
583.089	11260.54
583.449	11179.41
583.809	11238.62
584.169	11240.65
584.529	11251.72
584.889	11298.5
585.249	11218.73
585.609	11248.79
585.969	11336.02
586.329	11249.46
586.688	11276.81
587.048	11347.09
587.408	11296.92
587.768	11255.34
588.127	11204.27
588.487	11280.65
588.846	11353.42
589.206	11276.13
589.565	11272.29
589.925	11337.15
590.284	11305.96
590.643	11240.88
591.003	11348.22
591.362	11344.15
591.721	11286.07
592.08	11352.06
592.44	11394.55
592.799	11354.55
593.158	11339.63
593.517	11324.72
593.876	11369.23
594.235	11294.21
594.593	11412.62
594.952	11337.37
595.311	11282.46
595.67	11303.02
596.029	11407.2
596.387	11440.65
596.746	11438.84
597.104	11395
597.463	11433.64
597.822	11501.66
598.18	11383.25
598.538	11411.04
598.897	11479.29
599.255	11425.5
599.613	11472.28
599.972	11488.78
600.33	11518.16
600.688	11438.16
601.046	11466.18
601.404	11529.46
601.762	11483.81
602.12	11690.81
602.478	11553.41
602.836	11566.52
603.194	11457.37
603.552	11545.28
603.91	11561.09
604.268	11596.12
604.625	11550.25
604.983	11635.44
605.341	11602.22
605.698	11638.61
606.056	11628.21
606.413	11634.54
606.771	11725.61
607.128	11724.71
607.485	11634.31
607.843	11724.93
608.2	11770.13
608.557	11873.85
608.914	11729
609.272	11752.95
609.629	11804.48
609.986	11802.67
610.343	11823.46
610.7	11979.84
611.057	11822.78
611.414	11753.41
611.771	11918.37
612.127	11932.84
612.484	11896.68
612.841	11904.14
613.198	11927.64
613.554	11860.75
613.911	11992.95
614.267	11919.5
614.624	12026.17
614.98	11950.69
615.337	11988.65
615.693	12037.01
616.05	11991.82
616.406	12019.61
616.762	12063.91
617.118	12038.14
617.475	11999.5
617.831	11992.04
618.187	12090.57
618.543	12089.67
618.899	12154.07
619.255	12068.88
619.611	12056.67
619.967	12236.33
620.323	12130.8
620.678	12163.11
621.034	12130.57
621.39	12104.36
621.746	12119.27
622.101	12253.28
622.457	12132.6
622.812	12167.18
623.168	12236.56
623.523	12176.45
623.879	12230.23
624.234	12101.65
624.589	12141.87
624.945	12136.45
625.3	12171.7
625.655	12194.52
626.01	12209.89
626.365	12189.33
626.72	12177.12
627.075	12160.63
627.43	12175.09
627.785	12169.67
628.14	12199.95
628.495	12184.35
628.85	12091.93
629.205	12125.15
629.559	12162.89
629.914	12178.93
630.269	12082.21
630.623	12020.07
630.978	12096.45
631.332	12122.66
631.687	12117.92
632.041	12098.93
632.396	12118.82
632.75	12060.06
633.104	12036.79
633.459	12017.13
633.813	11942.1
634.167	11968.09
634.521	12064.13
634.875	11977.58
635.229	11926.73
635.583	11897.36
635.937	11921.54
636.291	11898.26
636.645	11911.59
636.999	11787.08
637.352	11913.18
637.706	11830.47
638.06	11878.6
638.413	11841.09
638.767	11920.86
639.121	11850.8
639.474	11753.63
639.828	11731.49
640.181	11758.6
640.534	11729.45
640.888	11785.72
641.241	11600.64
641.594	11658.94
641.947	11763.35
642.301	11652.17
642.654	11780.3
643.007	11625.27
643.36	11682.45
643.713	11667.98
644.066	11691.03
644.419	11653.75
644.771	11576.91
645.124	11456.01
645.477	11424.6
645.83	11336.02
646.182	11323.36
646.535	11292.4
646.888	11275.9
647.24	11162.46
647.593	11257.15
647.945	11141.9
648.298	11195
648.65	11116.13
649.002	11118.17
649.355	11183.03
649.707	11122.69
650.059	11145.06
650.411	11233.42
650.763	11378.95
651.115	11390.93
651.467	11382.57
651.819	11355.9
652.171	11326.52
652.523	11311.16
652.875	11279.75
653.227	11276.13
653.578	11420.76
653.93	11323.36
654.282	11245.62
654.633	11185.74
654.985	11271.16
655.337	11277.49
655.688	11209.92
656.039	11331.72
656.391	11163.14
656.742	11162.01
657.094	11230.26
657.445	11280.42
657.796	11209.92
658.147	11185.51
658.498	11085.4
658.849	11154.1
659.2	11141.9
659.551	11171.73
659.902	11153.87
660.253	11138.28
660.604	11192.29
660.955	11156.59
661.306	11146.64
661.656	11191.39
662.007	11180.54
662.358	11157.26
662.708	11154.78
663.059	11114.1
663.409	11058.06
663.76	11137.83
664.11	11178.96
664.461	11145.96
664.811	11115.46
665.161	11081.11
665.511	11097.15
665.862	11059.64
666.212	11063.03
666.562	11130.82
666.912	11086.98
667.262	11014.89
667.612	11033.2
667.962	11041.56
668.312	11010.15
668.662	11128.79
669.011	11075.68
669.361	11029.81
669.711	11104.84
670.06	10975.8
670.41	11048.79
670.76	11038.4
671.109	10983.48
671.459	11036.81
671.808	10945.07
672.157	10927.44
672.507	10911.62
672.856	10927.89
673.205	10939.87
673.554	11010.6
673.904	10913.65
674.253	11020.54
674.602	10974.9
674.951	10871.39
675.3	10741
675.649	10999.75
675.998	10956.36
676.346	10903.48
676.695	10987.55
677.044	10842.47
677.393	10895.58
677.741	10959.3
678.09	10788.01
678.438	10838.18
678.787	10825.52
679.135	10890.83
679.484	10787.33
679.832	10786.65
680.181	10704.85
680.529	10720.21
680.877	10757.95
681.225	10705.3
681.573	10792.3
681.922	10721.34
682.27	10682.7
682.618	10723.6
682.966	10724.05
683.314	10708.91
683.661	10651.51
684.009	10633.21
684.357	10648.35
684.705	10538.52
685.053	10561.35
685.4	10466.43
685.748	10512.53
686.095	10492.87
686.443	10452.2
686.79	10412.2
687.138	10482.7
687.485	10483.83
687.832	10382.37
688.18	10435.25
688.527	10347.11
688.874	10277.29
689.221	10363.84
689.568	10254.24
689.915	10243.84
690.262	10282.71
690.609	10202.71
690.956	10157.97
691.303	10108.93
691.65	10137.63
691.997	10081.59
692.344	10044.52
692.69	10021.93
693.037	10130.17
693.383	9937.18
693.73	9979.22
694.077	9923.17
694.423	9916.62
694.769	9931.76
695.116	9935.15
695.462	9874.13
695.808	9843.85
696.155	9889.27
696.501	9768.15
696.847	9756.62
697.193	9699
697.539	9720.01
697.885	9704.42
698.231	9661.71
698.577	9715.95
698.923	9657.42
699.269	9663.97
699.614	9557.31
699.96	9579.68
700.306	9558.66
700.651	9529.06
700.997	9495.61
701.342	9478.44
701.688	9439.34
702.033	9462.62
702.379	9450.64
702.724	9385.78
703.069	9363.86
703.415	9263.3
703.76	9324.32
704.105	9267.37
704.45	9293.81
704.795	9267.6
705.14	9233.47
705.485	9194.6
705.83	9165.68
706.175	9191.67
706.52	9168.16
706.865	9143.3
707.209	9087.71
707.554	9014.95
707.899	9113.02
708.243	8998.9
708.588	8993.25
708.932	8917.1
709.277	8950.09
709.621	8950.77
709.966	8914.38
710.31	8937.43
710.654	8793.71
710.998	8838.91
711.342	8870.77
711.687	8831.67
712.031	8768.4
712.375	8748.06
712.719	8842.75
713.063	8765.69
713.407	8763.88
713.75	8706.93
714.094	8696.08
714.438	8692.47
714.782	8737.89
715.125	8653.83
715.469	8648.4
715.812	8575.41
716.156	8597.33
716.499	8631
716.843	8614.51
717.186	8541.74
717.53	8653.37
717.873	8581.51
718.216	8498.12
718.559	8527.73
718.902	8442.08
719.246	8398.01
719.589	8404.79
719.932	8355.75
720.275	8391.01
720.617	8444.11
720.96	8377.22
721.303	8378.81
721.646	8416.09
721.989	8294.06
722.331	8359.82
722.674	8305.59
723.016	8311.46
723.359	8367.96
723.701	8344.23
724.044	8210.22
724.386	8187.17
724.729	8258.81
725.071	8160.96
725.413	8183.33
725.755	8198.02
726.097	8248.41
726.439	8135.65
726.782	8108.98
727.124	8135.42
727.465	8136.78
727.807	8196.21
728.149	8115.54
728.491	8103.11
728.833	8134.07
729.175	8113.28
729.516	8078.93
729.858	8017.01
730.199	8050.23
730.541	8071.47
730.882	7972.71
731.224	8057.01
731.565	7941.08
731.906	7983.56
732.248	7967.29
732.589	7924.35
732.93	7965.26
733.271	7908.76
733.612	7901.98
733.953	7926.39
734.294	7919.38
734.635	7828.09
734.976	7856.78
735.317	7850.23
735.658	7860.63
735.999	7873.51
736.339	7821.08
736.68	7839.84
737.021	7859.04
737.361	7797.35
737.702	7841.87
738.042	7803.45
738.383	7786.96
738.723	7808.2
739.063	7762.78
739.404	7792.83
739.744	7770.46
740.084	7696.11
740.424	7738.37
740.764	7697.24
741.104	7707.64
741.444	7664.93
741.784	7623.57
742.124	7682.33
742.464	7648.2
742.804	7593.06
743.143	7584.02
743.483	7643.23
743.823	7505.16
744.162	7526.62
744.502	7592.61
744.841	7469
745.181	7554.42
745.52	7446.17
745.86	7452.95
746.199	7468.09
746.538	7467.87
746.877	7498.15
747.216	7515.1
747.556	7464.03
747.895	7413.41
748.234	7471.03
748.573	7424.71
748.911	7356.01
749.25	7383.8
749.589	7354.88
749.928	7339.51
750.267	7419.73
750.605	7353.3
750.944	7294.77
751.283	7290.02
751.621	7272.62
751.96	7256.35
752.298	7203.02
752.636	7268.33
752.975	7212.51
753.313	7161.66
753.651	7266.29
753.989	7214.32
754.327	7222
754.666	7077.82
755.004	7123.7
755.342	7157.14
755.679	7104.71
756.017	7065.17
756.355	7138.84
756.693	7042.57
757.031	7050.48
757.368	7011.16
757.706	7009.8
758.044	6997.6
758.381	6998.28
758.719	6974.77
759.056	6940.2
759.394	6936.36
759.731	6833.08
760.068	6825.85
760.405	6822.46
760.743	6803.25
761.08	6802.8
761.417	6767.32
761.754	6770.26
762.091	6747.89
762.428	6754.89
762.765	6699.3
763.102	6710.15
763.438	6706.98
