Data from black_metal_pc_casing_FLMS001491_00008.txt Node
Date: Wed Feb 08 14:31:51 GMT 2017
User: dcchb
Spectrometer: FLMS00149
Trigger mode: 0
Integration Time (sec): 2.000000E-2
Scans to average: 10
Electric dark correction enabled: true
Nonlinearity correction enabled: false
Boxcar width: 0
XAxis mode: Wavelengths
Number of Pixels in Spectrum: 2048
>>>>>Begin Spectral Data<<<<<
341.393	-19.56
341.776	-19.56
342.16	-19.56
342.543	-62.72
342.927	-65.44
343.31	-80.13
343.693	-74.7
344.077	-61.14
344.46	-66.79
344.843	-40.58
345.226	-31.76
345.61	-32.44
345.993	-1.26
346.376	-12.56
346.759	33.77
347.142	18.4
347.525	30.83
347.908	41.91
348.291	71.51
348.674	91.4
349.057	113.54
349.44	118.06
349.823	122.13
350.206	152.86
350.588	180.89
350.971	197.61
351.354	223.82
351.737	225.86
352.119	238.74
352.502	260.88
352.884	272.18
353.267	265.4
353.65	275.12
354.032	276.93
354.414	292.29
354.797	302.46
355.179	288.45
355.562	306.53
355.944	312.18
356.326	342.91
356.709	334.1
357.091	318.96
357.473	337.27
357.855	337.04
358.238	315.8
358.62	321.67
359.002	332.07
359.384	329.81
359.766	336.59
360.148	332.29
360.53	331.16
360.912	331.62
361.294	326.42
361.676	323.03
362.057	332.29
362.439	336.81
362.821	288.45
363.203	303.82
363.584	306.98
363.966	308.34
364.348	322.8
364.729	313.76
365.111	307.21
365.493	302.69
365.874	315.57
366.256	309.7
366.637	304.5
367.019	316.47
367.4	290.03
367.781	299.07
368.163	301.79
368.544	298.4
368.925	302.69
369.306	313.08
369.688	308.57
370.069	304.95
370.45	286.65
370.831	285.52
371.212	290.71
371.593	302.69
371.974	319.86
372.355	301.33
372.736	284.61
373.117	322.58
373.498	316.02
373.879	312.41
374.26	289.13
374.641	305.63
375.021	301.33
375.402	322.12
375.783	315.57
376.163	325.29
376.544	330.94
376.925	320.09
377.305	302.24
377.686	331.62
378.066	321.45
378.447	315.8
378.827	299.75
379.208	321.67
379.588	306.08
379.968	339.07
380.349	306.76
380.729	331.84
381.109	327.1
381.489	335.68
381.87	345.4
382.25	349.47
382.63	337.04
383.01	340.65
383.39	342.24
383.77	342.91
384.15	353.76
384.53	341.56
384.91	342.24
385.29	348.34
385.67	346.08
386.049	344.5
386.429	342.91
386.809	361.45
387.189	358.96
387.568	363.93
387.948	372.52
388.328	361.45
388.707	346.53
389.087	357.38
389.466	369.81
389.846	358.73
390.225	383.14
390.605	362.58
390.984	350.15
391.363	358.51
391.743	378.62
392.122	380.88
392.501	376.81
392.881	386.53
393.26	387.43
393.639	374.1
394.018	375.91
394.397	402.12
394.776	400.77
395.155	383.14
395.534	379.52
395.913	400.54
396.292	392.86
396.671	399.18
397.05	391.95
397.429	377.49
397.808	395.12
398.186	413.87
398.565	385.4
398.944	409.35
399.323	406.64
399.701	417.26
400.08	404.61
400.458	407.55
400.837	410.03
401.215	432.63
401.594	404.16
401.972	414.33
402.351	419.52
402.729	418.17
403.107	416.13
403.486	417.04
403.864	419.75
404.242	444.83
404.62	417.26
404.999	422.69
405.377	434.66
405.755	447.32
406.133	444.15
406.511	433.08
406.889	466.98
407.267	471.05
407.645	454.55
408.023	462.01
408.401	467.43
408.779	464.95
409.156	480.76
409.534	488
409.912	447.54
410.29	484.15
410.667	457.71
411.045	469.92
411.422	471.27
411.8	492.29
412.178	499.52
412.555	501.33
412.933	501.78
413.31	518.05
413.687	509.92
414.065	500.88
414.442	510.82
414.819	517.15
415.197	527.99
415.574	520.31
415.951	524.83
416.328	549.91
416.705	533.64
417.082	518.73
417.46	553.3
417.837	551.95
418.214	553.3
418.591	542.01
418.967	568.9
419.344	536.58
419.721	550.14
420.098	563.7
420.475	559.18
420.852	551.04
421.228	571.61
421.605	585.62
421.982	592.4
422.358	584.72
422.735	592.85
423.111	611.38
423.488	604.6
423.864	601.44
424.241	590.59
424.617	617.48
424.994	599.86
425.37	622.46
425.746	584.94
426.123	611.16
426.499	632.4
426.875	627.65
427.251	640.53
427.627	623.59
428.003	643.92
428.379	675.34
428.756	652.06
429.132	671.95
429.507	673.08
429.883	662.68
430.259	683.92
430.635	691.83
431.011	698.61
431.387	693.19
431.763	709.01
432.138	728.89
432.514	703.13
432.89	732.73
433.265	736.8
433.641	760.76
434.016	745.62
434.392	759.63
434.767	757.37
435.143	769.34
435.518	750.59
435.894	788.33
436.269	795.78
436.644	794.43
437.02	811.15
437.395	783.58
437.77	803.02
438.145	818.16
438.52	817.7
438.895	810.47
439.271	841.66
439.646	838.49
440.021	854.99
440.395	832.85
440.77	866.74
441.145	854.77
441.52	842.11
441.895	850.7
442.27	878.72
442.645	862.45
443.019	870.58
443.394	888.21
443.769	888.44
444.143	876.91
444.518	913.52
444.892	895.67
445.267	896.35
445.641	887.99
446.016	921.88
446.39	939.28
446.764	940.19
447.139	951.03
447.513	950.36
447.887	934.99
448.262	925.72
448.636	943.8
449.01	947.42
449.384	959.62
449.758	977.25
450.132	977.25
450.506	977.02
450.88	972.05
451.254	997.36
451.628	987.42
452.002	1000.3
452.376	1022.22
452.75	1054.31
453.123	1028.09
453.497	1046.63
453.871	1050.01
454.244	1074.19
454.618	1085.04
454.992	1063.57
455.365	1066.74
455.739	1106.96
456.112	1135.89
456.486	1119.39
456.859	1144.48
457.232	1141.31
457.606	1137.47
457.979	1130.24
458.352	1169.11
458.725	1190.58
459.099	1188.77
459.472	1194.64
459.845	1196.68
460.218	1239.84
460.591	1258.14
460.964	1244.59
461.337	1278.71
461.71	1272.61
462.083	1297.69
462.456	1295.21
462.829	1320.52
463.201	1307.41
463.574	1311.7
463.947	1347.41
464.32	1348.54
464.692	1404.36
465.065	1403.68
465.438	1408.2
465.81	1438.93
466.183	1462.21
466.555	1485.26
466.928	1483
467.3	1492.94
467.672	1491.13
468.045	1530
468.417	1504.92
468.789	1524.13
469.161	1567.74
469.534	1570
469.906	1621.07
470.278	1636.21
470.65	1641.19
471.022	1675.76
471.394	1683.67
471.766	1695.42
472.138	1733.39
472.51	1765.25
472.882	1754.4
473.253	1786.72
473.625	1815.42
473.997	1814.74
474.369	1839.15
474.74	1896.55
475.112	1907.39
475.484	1921.63
475.855	1951.91
476.227	1941.52
476.598	1997.33
476.97	2016.09
477.341	2052.93
477.713	2093.38
478.084	2125.24
478.455	2149.19
478.827	2162.75
479.198	2228.06
479.569	2230.32
479.94	2294.95
480.311	2299.25
480.682	2364.78
481.053	2408.62
481.424	2441.39
481.795	2424.67
482.166	2506.7
482.537	2483.42
482.908	2566.81
483.279	2605.91
483.65	2633.25
484.021	2682.51
484.391	2726.81
484.762	2747.15
485.133	2716.64
485.503	2772
485.874	2841.61
486.244	2817.2
486.615	2921.38
486.985	2926.58
487.356	2991.21
487.726	2998.44
488.097	3076.18
488.467	3094.25
488.837	3136.74
489.207	3197.3
489.578	3228.94
489.948	3239.79
490.318	3294.7
490.688	3304.19
491.058	3351.42
491.428	3393
491.798	3401.14
492.168	3483.17
492.538	3445.88
492.908	3498.09
493.278	3583.73
493.648	3563.62
494.017	3591.19
494.387	3624.41
494.757	3683.17
495.126	3680.68
495.496	3739.44
495.866	3773.11
496.235	3787.34
496.605	3840.68
496.974	3837.96
497.344	3862.82
497.713	3913.44
498.082	3945.53
498.452	3991.86
498.821	3999.54
499.19	4004.74
499.559	4060.56
499.928	4076.83
500.298	4123.83
500.667	4086.55
501.036	4143.72
501.405	4146.43
501.774	4231.85
502.143	4257.84
502.512	4245.18
502.88	4303.26
503.249	4298.06
503.618	4342.13
503.987	4356.37
504.356	4373.09
504.724	4407.89
505.093	4461
505.462	4477.5
505.83	4468.91
506.199	4523.6
506.567	4542.8
506.936	4589.81
507.304	4602.69
507.672	4624.84
508.041	4655.12
508.409	4702.35
508.777	4705.06
509.145	4771.72
509.514	4770.37
509.882	4837.94
510.25	4851.95
510.618	4871.84
510.986	4891.5
511.354	4934.88
511.722	4933.75
512.09	5018.27
512.458	5041.55
512.826	5048.1
513.193	5090.13
513.561	5124.26
513.929	5218.27
514.297	5228.89
514.664	5260.07
515.032	5262.79
515.4	5281.99
515.767	5347.75
516.135	5351.82
516.502	5327.87
516.869	5479.73
517.237	5490.35
517.604	5493.29
517.972	5541.87
518.339	5594.98
518.706	5545.72
519.073	5639.72
519.44	5694.86
519.808	5685.15
520.175	5739.61
520.542	5775.99
520.909	5837.91
521.276	5857.35
521.643	5914.75
522.009	5917.68
522.376	5988.42
522.743	6016.21
523.11	6085.36
523.477	6123.78
523.843	6146.6
524.21	6185.92
524.577	6283.32
524.943	6313.38
525.31	6280.16
525.676	6391.12
526.043	6424.34
526.409	6485.8
526.776	6509.98
527.142	6527.38
527.508	6557.89
527.874	6634.5
528.241	6639.25
528.607	6724.44
528.973	6773.93
529.339	6740.71
529.705	6809.64
530.071	6879.92
530.437	6922.18
530.803	6957.66
531.169	6991.33
531.535	6993.81
531.901	7021.84
532.267	7079.69
532.632	7154.94
532.998	7174.37
533.364	7205.33
533.73	7263.64
534.095	7250.53
534.461	7254.82
534.826	7359.23
535.192	7337.99
535.557	7381.6
535.923	7393.8
536.288	7411.43
536.653	7494.14
537.019	7490.52
537.384	7572.33
537.749	7541.14
538.114	7581.82
538.479	7570.07
538.845	7659.11
539.21	7674.93
539.575	7652.33
539.94	7709.5
540.305	7764.41
540.67	7733.23
541.034	7755.83
541.399	7826.11
541.764	7815.03
542.129	7926.22
542.494	7848.93
542.858	7938.87
543.223	7985.43
543.587	8017.52
543.952	8017.97
544.316	8060.9
544.681	8062.49
545.045	8094.58
545.41	8097.29
545.774	8109.94
546.138	8092.32
546.503	8127.12
546.867	8235.14
547.231	8264.97
547.595	8300.22
547.959	8266.1
548.324	8280.79
548.688	8278.53
549.052	8371.4
549.416	8408.01
549.779	8433.1
550.143	8436.71
550.507	8493.43
550.871	8530.72
551.235	8476.03
551.599	8610.27
551.962	8612.08
552.326	8691.17
552.689	8609.14
553.053	8689.14
553.417	8695.46
553.78	8815.46
554.143	8790.6
554.507	8794.67
554.87	8870.15
555.234	8887.77
555.597	8918.96
555.96	8970.71
556.323	8949.24
556.686	8966.42
557.05	9040.99
557.413	9014.55
557.776	9094.77
558.139	9150.59
558.502	9154.89
558.865	9216.81
559.228	9229.91
559.59	9272.17
559.953	9296.35
560.316	9448.21
560.679	9442.56
561.041	9437.14
561.404	9549.23
561.767	9559.17
562.129	9570.02
562.492	9634.2
562.854	9697.25
563.217	9669.68
563.579	9739.73
563.941	9709.67
564.304	9817.47
564.666	9861.76
565.028	9902.21
565.39	9894.53
565.753	9971.14
566.115	10058.59
566.477	10039.61
566.839	10108.53
567.201	10144.46
567.563	10196.89
567.925	10328.19
568.287	10259.94
568.648	10316.89
569.01	10265.59
569.372	10474.85
569.734	10371.58
570.095	10484.12
570.457	10465.13
570.819	10451.35
571.18	10561.18
571.542	10581.06
571.903	10614.51
572.265	10663.1
572.626	10644.56
572.987	10735.41
573.349	10738.8
573.71	10772.47
574.071	10764.34
574.432	10803.2
574.794	10914.84
575.155	10873.26
575.516	10901.28
575.877	10893.15
576.238	10932.69
576.599	10995.06
576.96	10970.21
577.32	10951.68
577.681	11009.75
578.042	11031.22
578.403	11038
578.763	11089.98
579.124	11086.36
579.485	11173.14
579.845	11155.29
580.206	11141.05
580.566	11127.49
580.927	11072.35
581.287	11198
581.648	11154.38
582.008	11205.45
582.368	11185.34
582.728	11195.06
583.089	11204.55
583.449	11193.25
583.809	11148.96
584.169	11211.1
584.529	11231.89
584.889	11349.4
585.249	11305.79
585.609	11221.95
585.969	11279.12
586.329	11230.31
586.688	11337.2
587.048	11324.77
587.408	11250.2
587.768	11296.53
588.127	11314.83
588.487	11245.68
588.846	11322.29
589.206	11302.17
589.565	11337.65
589.925	11326.35
590.284	11323.87
590.643	11326.58
591.003	11362.74
591.362	11417.2
591.721	11313.93
592.08	11353.02
592.44	11307.37
592.799	11388.73
593.158	11354.83
593.517	11349.63
593.876	11353.02
594.235	11343.76
594.593	11337.43
594.952	11321.61
595.311	11361.38
595.67	11350.08
596.029	11446.35
596.387	11417.43
596.746	11471.66
597.104	11336.52
597.463	11323.19
597.822	11412
598.18	11344.66
598.538	11405.9
598.897	11483.19
599.255	11391.89
599.613	11554.37
599.972	11538.78
600.33	11449.06
600.688	11430.31
601.046	11533.58
601.404	11530.64
601.762	11574.26
602.12	11567.7
602.478	11616.29
602.836	11579
603.194	11443.64
603.552	11554.37
603.91	11487.48
604.268	11605.9
604.625	11538.55
604.983	11628.49
605.341	11559.57
605.698	11634.82
606.056	11672.33
606.413	11677.76
606.771	11689.28
607.128	11720.47
607.485	11629.17
607.843	11668.72
608.2	11710.53
608.557	11765.21
608.914	11652.67
609.272	11814.03
609.629	11812.67
609.986	11806.34
610.343	11809.96
610.7	11913.46
611.057	11802.73
611.414	11802.5
611.771	11838.43
612.127	11938.99
612.484	11842.73
612.841	12006.34
613.198	11962.27
613.554	11873.46
613.911	11933.57
614.267	11992.55
614.624	11900.35
614.98	11909.84
615.337	12047.24
615.693	12017.41
616.05	12009.95
616.406	12136.05
616.762	12000.69
617.118	12028.94
617.475	12089.95
617.831	12075.49
618.187	12086.79
618.543	12035.26
618.899	12179.44
619.255	12141.25
619.611	12129.27
619.967	12115.03
620.323	12164.07
620.678	12062.61
621.034	12014.7
621.39	12076.39
621.746	12105.77
622.101	12224.64
622.457	12075.71
622.812	12152.1
623.168	12178.08
623.523	12120.23
623.879	12174.24
624.234	12102.83
624.589	12187.58
624.945	12148.25
625.3	12235.03
625.655	12183.28
626.01	12137.86
626.365	12230.06
626.72	12184.86
627.075	12195.94
627.43	12129.72
627.785	12112.77
628.14	12172.89
628.495	12172.43
628.85	12168.14
629.205	12145.09
629.559	12187.8
629.914	12094.7
630.269	12114.13
630.623	12103.74
630.978	12082.27
631.332	12128.59
631.687	12247.23
632.041	12059.44
632.396	12130.18
632.75	11943.29
633.104	12035.04
633.459	11987.13
633.813	12043.85
634.167	11988.26
634.521	12009.73
634.875	11950.07
635.229	11990.52
635.583	11883.63
635.937	11900.58
636.291	11940.58
636.645	11937.86
636.999	11906.23
637.352	11877.07
637.706	11813.12
638.06	11933.8
638.413	11811.99
638.767	11829.39
639.121	11797.53
639.474	11777.87
639.828	11684.76
640.181	11758.43
640.534	11780.13
640.888	11680.92
641.241	11681.15
641.594	11734.03
641.947	11708.27
642.301	11607.25
642.654	11718.21
643.007	11614.48
643.36	11686.35
643.713	11644.09
644.066	11668.49
644.419	11592.34
644.771	11512.56
645.124	11455.16
645.477	11352.79
645.83	11323.87
646.182	11265.57
646.535	11256.53
646.888	11300.14
647.24	11136.98
647.593	11220.37
647.945	11216.08
648.298	11106.47
648.65	11122.52
649.002	11049.53
649.355	11163.87
649.707	11146.92
650.059	11238.22
650.411	11227.6
650.763	11333.59
651.115	11394.38
651.467	11373.59
651.819	11348.95
652.171	11314.83
652.523	11342.85
652.875	11287.71
653.227	11313.02
653.578	11359.35
653.93	11297.88
654.282	11255.62
654.633	11223.31
654.985	11167.26
655.337	11224.44
655.688	11137.21
656.039	11272.12
656.391	11202.97
656.742	11189.86
657.094	11209.52
657.445	11170.2
657.796	11203.87
658.147	11186.02
658.498	11169.75
658.849	11243.65
659.2	11125
659.551	11155.74
659.902	11240.71
660.253	11163.42
660.604	11189.86
660.955	11101.5
661.306	11188.96
661.656	11106.7
662.007	11157.09
662.358	11127.26
662.708	11093.37
663.059	11123.2
663.409	11014.05
663.76	11156.64
664.11	11077.32
664.461	11068.28
664.811	11142.4
665.161	11099.47
665.511	11057.66
665.862	11061.73
666.212	11096.53
666.562	11099.69
666.912	11038.23
667.262	11028.28
667.612	11051.11
667.962	11049.53
668.312	11036.64
668.662	11088.85
669.011	11118.9
669.361	11017.89
669.711	11031.45
670.06	10996.87
670.41	11048.85
670.76	10982.63
671.109	11075.06
671.459	10976.31
671.808	10978.34
672.157	11003.43
672.507	10880.26
672.856	10886.82
673.205	10859.02
673.554	10962.07
673.904	10921.39
674.253	10994.84
674.602	10936.08
674.951	10867.84
675.3	10741.51
675.649	10940.6
675.998	10873.03
676.346	10912.81
676.695	10943.99
677.044	10806.14
677.393	10914.84
677.741	10904.9
678.09	10811.11
678.438	10798.23
678.787	10821.74
679.135	10851.34
679.484	10757.78
679.832	10785.35
680.181	10742.87
680.529	10773.6
680.877	10767.27
681.225	10765.69
681.573	10784.9
681.922	10672.36
682.27	10659.25
682.618	10633.04
682.966	10596.43
683.314	10663.1
683.661	10628.07
684.009	10563.66
684.357	10522.31
684.705	10532.93
685.053	10558.01
685.4	10507.85
685.748	10457.45
686.095	10503.55
686.443	10506.26
686.79	10447.06
687.138	10464.46
687.485	10396.66
687.832	10395.08
688.18	10363.44
688.527	10334.52
688.874	10324.8
689.221	10329.09
689.568	10246.38
689.915	10219.04
690.262	10268.08
690.609	10127.52
690.956	10179.72
691.303	10159.61
691.65	10069.44
691.997	10142.21
692.344	10038.25
692.69	10079.83
693.037	10101.3
693.383	10004.58
693.73	10034.19
694.077	9934.3
694.423	9950.35
694.769	9898.14
695.116	9876.9
695.462	9879.84
695.808	9844.36
696.155	9915.32
696.501	9757.58
696.847	9786.28
697.193	9707.64
697.539	9744.25
697.885	9688.21
698.231	9671.03
698.577	9600.52
698.923	9666.06
699.269	9593.97
699.614	9578.38
699.96	9527.98
700.306	9448.21
700.651	9507.65
700.997	9509.45
701.342	9415.67
701.688	9473.3
702.033	9408.44
702.379	9425.61
702.724	9345.16
703.069	9426.07
703.415	9276.47
703.76	9351.94
704.105	9264.94
704.45	9297.48
704.795	9256.8
705.14	9231.04
705.485	9224.49
705.83	9231.72
706.175	9116.92
706.52	9149.46
706.865	9110.82
707.209	9111.5
707.554	9085.51
707.899	9056.58
708.243	8961.67
708.588	9050.48
708.932	8919.86
709.277	8980.88
709.621	8971.61
709.966	8906.76
710.31	8938.62
710.654	8838.06
710.998	8923.03
711.342	8853.88
711.687	8830.6
712.031	8806.65
712.375	8745.63
712.719	8739.98
713.063	8755.12
713.407	8740.21
713.75	8743.37
714.094	8686.65
714.438	8668.35
714.782	8742.24
715.125	8621.34
715.469	8622.92
715.812	8639.87
716.156	8577.05
716.499	8579.76
716.843	8610.95
717.186	8555.35
717.53	8549.7
717.873	8531.4
718.216	8524.17
718.559	8495.02
718.902	8409.37
719.246	8469.03
719.589	8404.85
719.932	8433.78
720.275	8421.57
720.617	8341.35
720.96	8381.12
721.303	8391.74
721.646	8368.24
721.989	8354.91
722.331	8353.33
722.674	8386.77
723.016	8340.22
723.359	8346.55
723.701	8333.21
724.044	8280.56
724.386	8228.81
724.729	8259.99
725.071	8176.16
725.413	8237.85
725.755	8198.08
726.097	8212.09
726.439	8202.14
726.782	8165.53
727.124	8154.91
727.465	8137.06
727.807	8145.65
728.149	8124.63
728.491	8084.86
728.833	8109.94
729.175	8021.58
729.516	8111.3
729.858	8060.23
730.199	8029.49
730.541	8068.59
730.882	8005.99
731.224	8031.98
731.565	7963.96
731.906	7963.73
732.248	7991.08
732.589	7932.77
732.93	7936.84
733.271	7860.91
733.612	7868.37
733.953	7900.68
734.294	7883.96
734.635	7891.87
734.976	7892.09
735.317	7830.63
735.658	7856.84
735.999	7824.07
736.339	7822.94
736.68	7898.42
737.021	7913.11
737.361	7745.21
737.702	7777.07
738.042	7794.24
738.383	7767.35
738.723	7730.07
739.063	7746.79
739.404	7749.95
739.744	7744.53
740.084	7675.15
740.424	7735.04
740.764	7674.25
741.104	7689.39
741.444	7683.29
741.784	7624.08
742.124	7629.05
742.464	7603.29
742.804	7586.11
743.143	7603.97
743.483	7584.53
743.823	7511.99
744.162	7560.35
744.502	7537.75
744.841	7524.19
745.181	7506.79
745.52	7524.65
745.86	7427.02
746.199	7455.04
746.538	7476.74
746.877	7501.82
747.216	7470.86
747.556	7420.47
747.895	7472.67
748.234	7438.1
748.573	7348.61
748.911	7420.02
749.25	7457.3
749.589	7393.35
749.928	7402.62
750.267	7380.02
750.605	7373.46
750.944	7291.21
751.283	7265.67
751.621	7304.77
751.96	7246.01
752.298	7243.07
752.636	7268.61
752.975	7226.35
753.313	7229.51
753.651	7210.76
753.989	7230.87
754.327	7157.88
754.666	7081.72
755.004	7180.48
755.342	7154.71
755.679	7162.85
756.017	7088.5
756.355	7100.48
756.693	7051.66
757.031	7109.29
757.368	6945.45
757.706	7004.89
758.044	6994.49
758.381	7048.05
758.719	6964.66
759.056	6940.26
759.394	6977.32
759.731	6872.91
760.068	6849.41
760.405	6858.22
760.743	6796.53
761.08	6838.11
761.417	6806.93
761.754	6756.98
762.091	6780.49
762.428	6761.05
762.765	6691.67
763.102	6719.02
