Data from black_metal_pc_casing_FLMS001491_00034.txt Node
Date: Wed Feb 08 14:32:35 GMT 2017
User: dcchb
Spectrometer: FLMS00149
Trigger mode: 0
Integration Time (sec): 2.000000E-2
Scans to average: 10
Electric dark correction enabled: true
Nonlinearity correction enabled: false
Boxcar width: 0
XAxis mode: Wavelengths
Number of Pixels in Spectrum: 2048
>>>>>Begin Spectral Data<<<<<
341.393	-13.53
341.776	-13.53
342.16	-13.53
342.543	-68.9
342.927	-59.63
343.31	-68.9
343.693	-69.57
344.077	-57.37
344.46	-62.34
344.843	-51.04
345.226	-47.43
345.61	-22.12
345.993	8.62
346.376	-0.88
346.759	9.07
347.142	33.93
347.525	27.6
347.908	47.94
348.291	58.56
348.674	82.74
349.057	111.21
349.44	133.58
349.823	135.17
350.206	161.61
350.588	169.52
350.971	180.14
351.354	194.15
351.737	223.3
352.119	230.3
352.502	255.39
352.884	243.41
353.267	288.83
353.65	273.02
354.032	297.42
354.414	297.42
354.797	282.51
355.179	317.31
355.562	293.35
355.944	320.47
356.326	312.34
356.709	312.56
357.091	319.12
357.473	353.01
357.855	328.61
358.238	327.7
358.62	312.56
359.002	335.16
359.384	320.7
359.766	327.25
360.148	328.61
360.53	326.35
360.912	309.85
361.294	318.44
361.676	306.69
362.057	321.83
362.439	324.31
362.821	329.06
363.203	296.07
363.584	321.83
363.966	286.57
364.348	287.93
364.729	330.42
365.111	303.52
365.493	291.55
365.874	301.49
366.256	315.73
366.637	290.19
367.019	308.04
367.4	317.08
367.781	307.14
368.163	304.88
368.544	300.36
368.925	311.21
369.306	306.69
369.688	308.49
370.069	298.1
370.45	306.23
370.831	288.83
371.212	303.98
371.593	291.09
371.974	303.07
372.355	312.34
372.736	304.2
373.117	297.87
373.498	297.2
373.879	318.21
374.26	318.21
374.641	309.62
375.021	322.73
375.402	322.96
375.783	289.74
376.163	330.19
376.544	302.85
376.925	329.51
377.305	317.31
377.686	320.47
378.066	311.88
378.447	321.83
378.827	323.64
379.208	330.19
379.588	357.98
379.968	337.42
380.349	323.86
380.729	331.09
381.109	348.49
381.489	339.68
381.87	334.26
382.25	337.65
382.63	322.73
383.01	359.57
383.39	336.29
383.77	347.36
384.15	356.18
384.53	339.68
384.91	335.16
385.29	341.71
385.67	342.39
386.049	361.15
386.429	343.97
386.809	345.78
387.189	358.44
387.568	360.47
387.948	363.86
388.328	359.11
388.707	352.56
389.087	377.19
389.466	349.62
389.846	368.83
390.225	370.64
390.605	351.21
390.984	369.06
391.363	356.63
391.743	380.13
392.122	380.36
392.501	400.24
392.881	388.94
393.26	372
393.639	385.55
394.018	382.84
394.397	379
394.776	386.46
395.155	381.26
395.534	405.89
395.913	386.68
396.292	392.79
396.671	399.34
397.05	416.97
397.429	396.63
397.808	395.5
398.186	386.01
398.565	402.05
398.944	394.82
399.323	393.01
399.701	409.51
400.08	403.18
400.458	423.52
400.837	422.84
401.215	433.24
401.594	402.96
401.972	421.03
402.351	423.75
402.729	428.72
403.107	427.59
403.486	430.98
403.864	437.3
404.242	434.59
404.62	430.07
404.999	454.03
405.377	452.9
405.755	447.7
406.133	449.96
406.511	453.12
406.889	452.45
407.267	458.1
407.645	483.41
408.023	455.84
408.401	477.08
408.779	463.97
409.156	478.89
409.534	489.73
409.912	489.73
410.29	481.82
410.667	479.11
411.045	479.11
411.422	491.54
411.8	484.08
412.178	501.26
412.555	517.3
412.933	501.26
413.31	504.42
413.687	515.95
414.065	517.53
414.442	505.78
414.819	535.83
415.197	549.39
415.574	528.83
415.951	524.76
416.328	546.68
416.705	563.18
417.082	565.89
417.46	546
417.837	553.69
418.214	574.93
418.591	552.1
418.967	544.42
419.344	578.77
419.721	577.41
420.098	550.52
420.475	568.15
420.852	576.28
421.228	576.28
421.605	580.8
421.982	577.19
422.358	579.45
422.735	614.25
423.111	600.24
423.488	626.23
423.864	614.25
424.241	599.11
424.617	611.99
424.994	615.61
425.37	628.26
425.746	600.46
426.123	637.75
426.499	637.3
426.875	644.76
427.251	620.35
427.627	673.68
428.003	666.23
428.379	660.12
428.756	666
429.132	675.04
429.507	694.25
429.883	683.85
430.259	702.83
430.635	710.07
431.011	697.86
431.387	725.43
431.763	736.96
432.138	718.2
432.514	744.64
432.89	731.53
433.265	734.02
433.641	746.45
434.016	751.42
434.392	746.68
434.767	751.65
435.143	753.45
435.518	780.8
435.894	773.57
436.269	784.87
436.644	812.21
437.02	815.83
437.395	808.82
437.77	790.74
438.145	811.53
438.52	844.07
438.895	832.55
439.271	856.05
439.646	851.08
440.021	843.17
440.395	877.29
440.77	860.8
441.145	860.57
441.52	877.29
441.895	869.61
442.27	897.18
442.645	878.65
443.019	895.15
443.394	871.64
443.769	909.16
444.143	905.09
444.518	915.03
444.892	876.62
445.267	919.1
445.641	924.3
446.016	924.52
446.39	919.1
446.764	932.43
447.139	948.03
447.513	955.71
447.887	942.15
448.262	996.84
448.636	971.75
449.01	938.08
449.384	970.62
449.758	998.87
450.132	992.32
450.506	981.7
450.88	976.73
451.254	992.77
451.628	1023.05
452.002	1009.04
452.376	1025.54
452.75	1028.25
453.123	1025.99
453.497	1053.11
453.871	1061.92
454.244	1071.19
454.618	1091.52
454.992	1088.36
455.365	1101.92
455.739	1132.65
456.112	1101.69
456.486	1143.05
456.859	1138.3
457.232	1160.22
457.606	1158.42
457.979	1184.63
458.352	1179.66
458.725	1181.24
459.099	1210.39
459.472	1236.15
459.845	1233.67
460.218	1249.03
460.591	1266.66
460.964	1254.01
461.337	1282.93
461.71	1304.4
462.083	1311.86
462.456	1306.21
462.829	1333.78
463.201	1328.58
463.574	1352.76
463.947	1351.86
464.32	1379.65
464.692	1418.3
465.065	1410.39
465.438	1408.13
465.81	1465.75
466.183	1447
466.555	1497.39
466.928	1478.63
467.3	1465.3
467.672	1517.73
468.045	1512.76
468.417	1558.18
468.789	1532.87
469.161	1570.16
469.534	1606.31
469.906	1629.59
470.278	1623.49
470.65	1629.59
471.022	1687.67
471.394	1669.14
471.766	1698.06
472.138	1700.77
472.51	1743.26
472.882	1796.14
473.253	1817.16
473.625	1813.31
473.997	1834.56
474.369	1866.65
474.74	1861.45
475.112	1880.88
475.484	1912.97
475.855	1976.93
476.227	1957.72
476.598	2040.88
476.97	2055.79
477.341	2070.48
477.713	2095.11
478.084	2081.78
478.455	2203.36
478.827	2168.78
479.198	2240.2
479.569	2266.18
479.94	2263.25
480.311	2315.45
480.682	2362.9
481.053	2398.16
481.424	2438.16
481.795	2485.84
482.166	2470.02
482.537	2529.45
482.908	2557.02
483.279	2597.7
483.65	2645.16
484.021	2663.69
484.391	2705.49
484.762	2721.76
485.133	2731.48
485.503	2805.6
485.874	2836.11
486.244	2886.05
486.615	2922.44
486.985	2958.14
487.356	3002.21
487.726	3025.03
488.097	3056.67
488.467	3090.79
488.837	3128.53
489.207	3172.15
489.578	3232.71
489.948	3262.77
490.318	3289.89
490.688	3328.3
491.058	3318.13
491.428	3379.6
491.798	3393.84
492.168	3493.72
492.538	3479.94
492.908	3542.31
493.278	3570.56
493.648	3596.54
494.017	3607.62
494.387	3642.42
494.757	3651.68
495.126	3784.79
495.496	3754.05
495.866	3762.64
496.235	3802.41
496.605	3819.14
496.974	3838.57
497.344	3885.35
497.713	3898.68
498.082	3962.41
498.452	3988.4
498.821	4022.75
499.19	4006.48
499.559	4026.36
499.928	4068.62
500.298	4097.32
500.667	4142.74
501.036	4133.48
501.405	4181.16
501.774	4242.63
502.143	4206.7
502.512	4262.06
502.88	4308.16
503.249	4291.44
503.618	4320.82
503.987	4382.51
504.356	4375.51
504.724	4412.57
505.093	4442.85
505.462	4414.6
505.83	4444.66
506.199	4492.57
506.567	4589.74
506.936	4567.82
507.304	4587.7
507.672	4601.04
508.041	4685.33
508.409	4695.5
508.777	4754.03
509.145	4754.48
509.514	4750.86
509.882	4777.76
510.25	4806.23
510.618	4868.15
510.986	4881.71
511.354	4892.33
511.722	4963.51
512.09	5013.91
512.458	4976.17
512.826	5036.28
513.193	5091.65
513.561	5084.41
513.929	5123.06
514.297	5186.33
514.664	5218.2
515.032	5281.02
515.4	5288.7
515.767	5349.94
516.135	5382.49
516.502	5353.33
516.869	5449.6
517.237	5423.16
517.604	5454.12
517.972	5546.32
518.339	5506.1
518.706	5608.24
519.073	5592.65
519.44	5693.21
519.808	5695.25
520.175	5696.38
520.542	5765.98
520.909	5848.46
521.276	5850.27
521.643	5896.14
522.009	5935.69
522.376	6007.33
522.743	5974.11
523.11	6089.59
523.477	6129.36
523.843	6130.26
524.21	6218.85
524.577	6248.9
524.943	6334.55
525.31	6307.66
525.676	6355.57
526.043	6407.54
526.409	6460.65
526.776	6586.07
527.142	6512.63
527.508	6555.79
527.874	6603.47
528.241	6633.3
528.607	6682.79
528.973	6786.29
529.339	6767.99
529.705	6879.4
530.071	6892.05
530.437	6943.35
530.803	6965.04
531.169	7006.62
531.535	7027.19
531.901	7023.8
532.267	7062.89
532.632	7117.81
532.998	7094.53
533.364	7166.17
533.73	7288.88
534.095	7267.41
534.461	7320.29
534.826	7415.43
535.192	7313.51
535.557	7384.92
535.923	7422.88
536.288	7411.81
536.653	7555.54
537.019	7512.37
537.384	7484.58
537.749	7583.11
538.114	7658.13
538.479	7584.91
538.845	7698.13
539.21	7611.35
539.575	7742.88
539.94	7652.26
540.305	7808.41
540.67	7722.99
541.034	7820.16
541.399	7875.3
541.764	7834.62
542.129	7884.34
542.494	7927.96
542.858	7943.32
543.223	7987.61
543.587	8064.9
543.952	8047.5
544.316	8037.56
544.681	8075.07
545.045	8217.67
545.41	8201.39
545.774	8154.39
546.138	8136.09
546.503	8281.39
546.867	8234.16
547.231	8323.2
547.595	8342.18
547.959	8397.32
548.324	8398.9
548.688	8360.03
549.052	8481.84
549.416	8471.67
549.779	8458.56
550.143	8529.07
550.507	8545.11
550.871	8527.04
551.235	8609.75
551.599	8638.9
551.962	8729.97
552.326	8702.85
552.689	8775.16
553.053	8725.9
553.417	8837.54
553.78	8947.36
554.143	8839.34
554.507	8945.78
554.87	8947.82
555.234	9014.48
555.597	9017.87
555.96	9090.86
556.323	9056.29
556.686	9057.64
557.05	9130.18
557.413	9116.62
557.776	9189.39
558.139	9227.58
558.502	9316.62
558.865	9253.8
559.228	9401.59
559.59	9374.92
559.953	9452.89
560.316	9496.28
560.679	9537.18
561.041	9535.6
561.404	9621.47
561.767	9662.6
562.129	9680.23
562.492	9770.84
562.854	9734.46
563.217	9771.75
563.579	9841.35
563.941	9890.16
564.304	9960.22
564.666	10003.38
565.028	10043.15
565.39	10095.81
565.753	10078.63
566.115	10135.13
566.477	10144.17
566.839	10255.8
567.201	10315.24
567.563	10289.48
567.925	10372.86
568.287	10403.6
568.648	10417.38
569.01	10469.81
569.372	10579.64
569.734	10526.08
570.095	10536.7
570.457	10655.79
570.819	10612.18
571.18	10675.23
571.542	10758.16
571.903	10778.28
572.265	10854.88
572.626	10858.73
572.987	10869.57
573.349	10873.41
573.71	10924.71
574.071	11049.91
574.432	10971.04
574.794	11098.04
575.155	11036.8
575.516	11028.66
575.877	11075.44
576.238	11072.51
576.599	11192.5
576.96	11218.04
577.32	11138.04
577.681	11286.29
578.042	11212.84
578.403	11298.04
578.763	11204.03
579.124	11277.7
579.485	11406.96
579.845	11350.92
580.206	11401.99
580.566	11362.67
580.927	11372.38
581.287	11432.5
581.648	11342.1
582.008	11454.19
582.368	11426.17
582.728	11425.49
583.089	11438.37
583.449	11530.35
583.809	11402.67
584.169	11423.91
584.529	11416.9
584.889	11467.07
585.249	11451.93
585.609	11475.21
585.969	11505.04
586.329	11459.16
586.688	11480.86
587.048	11527.63
587.408	11457.35
587.768	11502.55
588.127	11463.68
588.487	11384.59
588.846	11549.33
589.206	11499.16
589.565	11474.75
589.925	11454.64
590.284	11460.52
590.643	11454.42
591.003	11591.14
591.362	11524.02
591.721	11493.74
592.08	11532.83
592.44	11534.19
592.799	11594.53
593.158	11523.79
593.517	11580.29
593.876	11592.04
594.235	11530.12
594.593	11660.06
594.952	11606.95
595.311	11540.97
595.67	11600.63
596.029	11646.05
596.387	11579.84
596.746	11648.31
597.104	11630.23
597.463	11613.51
597.822	11596.33
598.18	11627.97
598.538	11597.92
598.897	11666.16
599.255	11633.39
599.613	11773.28
599.972	11662.55
600.33	11721.98
600.688	11716.78
601.046	11678.37
601.404	11768.31
601.762	11708.42
602.12	11754.75
602.478	11763.56
602.836	11831.58
603.194	11791.36
603.552	11783
603.91	11807.85
604.268	11845.14
604.625	11820.06
604.983	11865.48
605.341	11839.04
605.698	11876.33
606.056	11903.9
606.413	11914.97
606.771	11939.83
607.128	11889.89
607.485	11941.86
607.843	11909.77
608.2	11989.32
608.557	12027.73
608.914	11962.65
609.272	11984.57
609.629	12050.11
609.986	12124.91
610.343	12029.77
610.7	12101.18
611.057	12046.27
611.414	12173.72
611.771	12090.33
612.127	12122.65
612.484	12171.91
612.841	12219.59
613.198	12096.66
613.554	12176.21
613.911	12203.55
614.267	12213.49
614.624	12181.18
614.98	12219.37
615.337	12261.63
615.693	12237.67
616.05	12218.01
616.406	12359.93
616.762	12191.8
617.118	12256.66
617.475	12289.2
617.831	12354.51
618.187	12319.7
618.543	12444.45
618.899	12372.58
619.255	12427.95
619.611	12413.71
619.967	12377.1
620.323	12440.83
620.678	12409.65
621.034	12317.67
621.39	12341.62
621.746	12390.89
622.101	12474.95
622.457	12333.26
622.812	12341.4
623.168	12423.88
623.523	12416.42
623.879	12476.54
624.234	12411.68
624.589	12479.47
624.945	12485.35
625.3	12473.6
625.655	12378.46
626.01	12493.03
626.365	12429.76
626.72	12400.15
627.075	12443.77
627.43	12461.17
627.785	12414.62
628.14	12362.42
628.495	12439.48
628.85	12352.02
629.205	12327.16
629.559	12433.37
629.914	12375.3
630.269	12337.56
630.623	12312.25
630.978	12322.42
631.332	12345.01
631.687	12370.78
632.041	12310.67
632.396	12373.71
632.75	12300.04
633.104	12275.86
633.459	12276.99
633.813	12209.88
634.167	12260.5
634.521	12218.92
634.875	12309.76
635.229	12175.75
635.583	12224.34
635.937	12211.23
636.291	12218.46
636.645	12161.74
636.999	12154.28
637.352	12102.08
637.706	12061.86
638.06	12112.25
638.413	12058.02
638.767	12033.61
639.121	12072.71
639.474	12026.6
639.828	12031.8
640.181	12071.8
640.534	12003.1
640.888	12019.6
641.241	11928.75
641.594	11961.97
641.947	11987.96
642.301	11960.62
642.654	11934.63
643.007	11989.54
643.36	11938.7
643.713	11872.26
644.066	12000.39
644.419	11849.43
644.771	11802.66
645.124	11665.94
645.477	11633.17
645.83	11590.68
646.182	11466.62
646.535	11499.61
646.888	11559.72
647.24	11527.18
647.593	11611.93
647.945	11463.23
648.298	11395.43
648.65	11399.5
649.002	11384.81
649.355	11437.92
649.707	11415.32
650.059	11473.85
650.411	11577.8
650.763	11604.02
651.115	11721.53
651.467	11705.03
651.819	11632.72
652.171	11652.38
652.523	11567.18
652.875	11662.55
653.227	11492.38
653.578	11645.82
653.93	11554.98
654.282	11539.84
654.633	11539.84
654.985	11477.24
655.337	11537.13
655.688	11489.67
656.039	11576.9
656.391	11460.97
656.742	11430.91
657.094	11503.91
657.445	11497.13
657.796	11447.86
658.147	11350.46
658.498	11434.53
658.849	11476.34
659.2	11424.13
659.551	11378.03
659.902	11470.46
660.253	11450.57
660.604	11447.41
660.955	11362.89
661.306	11406.28
661.656	11397.24
662.007	11404.47
662.358	11427.3
662.708	11414.42
663.059	11340.75
663.409	11277.02
663.76	11389.79
664.11	11384.81
664.461	11403.57
664.811	11410.58
665.161	11393.18
665.511	11287.19
665.862	11326.96
666.212	11393.4
666.562	11371.93
666.912	11351.14
667.262	11356.57
667.612	11356.11
667.962	11287.64
668.312	11317.47
668.662	11305.95
669.011	11332.16
669.361	11263.46
669.711	11258.94
670.06	11368.54
670.41	11246.74
670.76	11164.03
671.109	11258.72
671.459	11298.94
671.808	11180.53
672.157	11285.16
672.507	11195.21
672.856	11121.77
673.205	11174.2
673.554	11188.43
673.904	11183.24
674.253	11270.92
674.602	11171.94
674.951	11021.89
675.3	10914.09
675.649	11112.28
675.998	11147.98
676.346	11063.69
676.695	11135.33
677.044	11077.93
677.393	11140.98
677.741	11099.62
678.09	11055.56
678.438	11084.03
678.787	11068.66
679.135	11066.18
679.484	10905.28
679.832	11090.13
680.181	10989.8
680.529	11003.58
680.877	10987.99
681.225	10961.1
681.573	11029.79
681.922	10914.54
682.27	10863.7
682.618	10951.15
682.966	10918.39
683.314	10958.84
683.661	10807.88
684.009	10791.61
684.357	10771.27
684.705	10776.24
685.053	10830.48
685.4	10759.52
685.748	10767.43
686.095	10748.67
686.443	10655.79
686.79	10697.83
687.138	10700.54
687.485	10720.42
687.832	10653.76
688.18	10651.27
688.527	10575.12
688.874	10562.24
689.221	10553.88
689.568	10557.26
689.915	10539.19
690.262	10474.33
690.609	10461.9
690.956	10379.64
691.303	10411.96
691.65	10395.91
691.997	10357.27
692.344	10270.49
692.69	10327.89
693.037	10275.92
693.383	10195.69
693.73	10263.71
694.077	10201.57
694.423	10229.82
694.769	10194.34
695.116	10092.87
695.462	10095.81
695.808	10069.82
696.155	10155.92
696.501	10022.59
696.847	10023.04
697.193	9876.15
697.539	10004.74
697.885	9924.29
698.231	9821.24
698.577	9917.06
698.923	9867.79
699.269	9809.94
699.614	9784.4
699.96	9817.62
700.306	9731.07
700.651	9695.59
700.997	9665.54
701.342	9665.31
701.688	9628.02
702.033	9698.08
702.379	9644.75
702.724	9592.32
703.069	9634.35
703.415	9466.22
703.76	9570.17
704.105	9513
704.45	9534.01
704.795	9449.27
705.14	9401.59
705.485	9378.54
705.83	9392.1
706.175	9355.26
706.52	9338.54
706.865	9324.08
707.209	9290.41
707.554	9252.67
707.899	9254.25
708.243	9248.82
708.588	9254.7
708.932	9171.09
709.277	9187.81
709.621	9174.93
709.966	9132.67
710.31	9062.39
710.654	9076.85
710.998	9085.89
711.342	9104.42
711.687	9008.38
712.031	8994.59
712.375	8956.4
712.719	9006.57
713.063	8995.05
713.407	8983.97
713.75	8969.51
714.094	8961.37
714.438	8960.02
714.782	8914.37
715.125	8888.83
715.469	8965.89
715.812	8798.89
716.156	8773.36
716.499	8797.99
716.843	8801.6
717.186	8774.71
717.53	8819.23
717.873	8774.26
718.216	8718.9
718.559	8724.09
718.902	8659.24
719.246	8716.86
719.589	8670.99
719.932	8628.28
720.275	8569.75
720.617	8588.28
720.96	8629.86
721.303	8647.03
721.646	8579.01
721.989	8541.27
722.331	8552.57
722.674	8490.88
723.016	8582.85
723.359	8525.68
723.701	8520.71
724.044	8416.3
724.386	8420.6
724.729	8508.73
725.071	8432.35
725.413	8401.39
725.755	8346.7
726.097	8410.88
726.439	8400.94
726.782	8334.5
727.124	8305.57
727.465	8283.43
727.807	8282.07
728.149	8330.2
728.491	8329.07
728.833	8238.46
729.175	8251.34
729.516	8267.83
729.858	8206.37
730.199	8205.91
730.541	8212.24
730.882	8219.25
731.224	8245.24
731.565	8243.2
731.906	8223.77
732.248	8268.06
732.589	8120.72
732.93	8154.16
733.271	8143.32
733.612	8155.52
733.953	8121.85
734.294	8076.65
734.635	8041.85
734.976	8081.17
735.317	8083.88
735.658	8101.74
735.999	8083.88
736.339	8049.31
736.68	8064.22
737.021	8032.59
737.361	7985.36
737.702	7994.17
738.042	7996.2
738.383	7996.88
738.723	8021.51
739.063	7894.74
739.404	7927.96
739.744	7920.5
740.084	7862.87
740.424	7870.1
740.764	7873.27
741.104	7831.69
741.444	7859.03
741.784	7902.87
742.124	7839.6
742.464	7839.82
742.804	7825.36
743.143	7849.09
743.483	7783.78
743.823	7771.8
744.162	7751.24
744.502	7821.97
744.841	7730.67
745.181	7753.5
745.52	7716.21
745.86	7739.71
746.199	7737.9
746.538	7734.74
746.877	7671.92
747.216	7692.26
747.556	7634.4
747.895	7642.77
748.234	7600.05
748.573	7633.73
748.911	7616.33
749.25	7631.24
749.589	7529.55
749.928	7557.12
750.267	7537.68
750.605	7566.38
750.944	7564.12
751.283	7581.07
751.621	7513.73
751.96	7450.45
752.298	7502.66
752.636	7436.67
752.975	7389.21
753.313	7339.5
753.651	7370.46
753.989	7402.32
754.327	7355.32
754.666	7242.78
755.004	7399.61
755.342	7356.44
755.679	7276.22
756.017	7275.54
756.355	7240.74
756.693	7244.13
757.031	7238.48
757.368	7224.25
757.706	7220.18
758.044	7175.66
758.381	7181.53
758.719	7193.06
759.056	7139.5
759.394	7125.04
759.731	7113.29
760.068	7119.16
760.405	7079.84
760.743	7016.34
761.08	7012.05
761.417	6927.76
761.754	7027.19
762.091	6932.95
762.428	6934.08
762.765	6883.69
