Data from black_metal_pc_casing_FLMS001491_00021.txt Node
Date: Wed Feb 08 14:32:14 GMT 2017
User: dcchb
Spectrometer: FLMS00149
Trigger mode: 0
Integration Time (sec): 2.000000E-2
Scans to average: 10
Electric dark correction enabled: true
Nonlinearity correction enabled: false
Boxcar width: 0
XAxis mode: Wavelengths
Number of Pixels in Spectrum: 2048
>>>>>Begin Spectral Data<<<<<
341.393	-12.46
341.776	-12.46
342.16	-12.46
342.543	-76.86
342.927	-90.87
343.31	-64.43
343.693	-53.36
344.077	-62.17
344.46	-52
344.843	-54.04
345.226	-50.65
345.61	-46.35
345.993	-18.11
346.376	-2.06
346.759	16.92
347.142	31.16
347.525	40.42
347.908	39.74
348.291	70.48
348.674	86.52
349.057	117.93
349.44	116.8
349.823	140.53
350.206	134.21
350.588	164.49
350.971	205.84
351.354	206.29
351.737	235.67
352.119	238.16
352.502	245.16
352.884	260.98
353.267	260.53
353.65	268.21
354.032	301.66
354.414	280.42
354.797	293.07
355.179	301.43
355.562	314.99
355.944	310.02
356.326	312.96
356.709	317.7
357.091	323.58
357.473	337.14
357.855	317.93
358.238	325.61
358.62	313.64
359.002	318.38
359.384	338.27
359.766	328.78
360.148	326.97
360.53	331.49
360.912	324.03
361.294	323.58
361.676	304.37
362.057	309.12
362.439	316.35
362.821	313.18
363.203	303.24
363.584	299.85
363.966	296.69
364.348	311.6
364.729	316.12
365.111	309.57
365.493	298.72
365.874	307.99
366.256	300.3
366.637	279.06
367.019	298.72
367.4	294.65
367.781	293.75
368.163	303.01
368.544	285.61
368.925	287.42
369.306	302.56
369.688	304.37
370.069	318.61
370.45	291.04
370.831	324.03
371.212	311.6
371.593	307.31
371.974	304.82
372.355	293.52
372.736	289.46
373.117	317.7
373.498	329.68
373.879	323.35
374.26	306.4
374.641	302.56
375.021	298.04
375.402	310.25
375.783	311.6
376.163	325.16
376.544	307.53
376.925	317.25
377.305	315.9
377.686	316.35
378.066	329.68
378.447	309.57
378.827	312.05
379.208	322.9
379.588	318.38
379.968	313.18
380.349	321.09
380.729	328.1
381.109	324.26
381.489	333.3
381.87	329
382.25	332.62
382.63	346.63
383.01	355.22
383.39	333.52
383.77	337.36
384.15	326.29
384.53	358.83
384.91	333.52
385.29	351.83
385.67	345.5
386.049	364.03
386.429	350.02
386.809	366.52
387.189	384.37
387.568	341.66
387.948	369.45
388.328	357.7
388.707	349.79
389.087	363.58
389.466	360.87
389.846	380.53
390.225	368.78
390.605	362.22
390.984	364.03
391.363	371.49
391.743	386.85
392.122	380.75
392.501	377.81
392.881	385.5
393.26	376.69
393.639	387.98
394.018	383.01
394.397	388.89
394.776	399.96
395.155	385.72
395.534	381.88
395.913	382.56
396.292	398.83
396.671	392.73
397.05	383.69
397.429	410.36
397.808	413.97
398.186	396.35
398.565	396.12
398.944	411.26
399.323	399.28
399.701	414.88
400.08	405.16
400.458	437.02
400.837	442.45
401.215	430.24
401.594	423.92
401.972	413.75
402.351	428.66
402.729	444.71
403.107	417.81
403.486	439.73
403.864	424.14
404.242	428.66
404.62	434.31
404.999	447.42
405.377	445.38
405.755	468.43
406.133	460.52
406.511	458.26
406.889	476.12
407.267	468.21
407.645	473.41
408.023	469.34
408.401	489.22
408.779	472.5
409.156	493.07
409.534	479.73
409.912	472.73
410.29	484.7
410.667	480.64
411.045	487.19
411.422	509.79
411.8	508.21
412.178	515.44
412.555	507.98
412.933	514.31
413.31	531.71
413.687	535.1
414.065	521.31
414.442	521.99
414.819	548.88
415.197	543.69
415.574	557.25
415.951	542.1
416.328	553.18
416.705	544.82
417.082	539.62
417.46	561.99
417.837	577.58
418.214	572.84
418.591	597.24
418.967	563.12
419.344	589.33
419.721	582.33
420.098	573.06
420.475	589.56
420.852	593.85
421.228	596.34
421.605	603.35
421.982	600.63
422.358	612.16
422.735	617.13
423.111	613.97
423.488	600.41
423.864	647.64
424.241	622.33
424.617	667.07
424.994	622.55
425.37	626.62
425.746	646.06
426.123	651.93
426.499	644.25
426.875	662.55
427.251	672.5
427.627	678.15
428.003	668.43
428.379	681.99
428.756	717.92
429.132	680.41
429.507	724.7
429.883	712.04
430.259	719.5
430.635	711.37
431.011	709.33
431.387	716.56
431.763	746.62
432.138	750.91
432.514	762.66
432.89	745.49
433.265	761.31
433.641	806.96
434.016	789.33
434.392	753.85
434.767	814.87
435.143	794.75
435.518	803.79
435.894	818.03
436.269	829.78
436.644	816.67
437.02	850.12
437.395	850.8
437.77	875.65
438.145	862.77
438.52	866.16
438.895	881.08
439.271	896.67
439.646	878.82
440.021	911.13
440.395	896.22
440.77	891.25
441.145	900.97
441.52	912.49
441.895	924.69
442.27	917.46
442.645	916.78
443.019	952.94
443.394	931.02
443.769	964.24
444.143	941.42
444.518	949.33
444.892	951.13
445.267	938.25
445.641	955.2
446.016	946.16
446.39	994.3
446.764	985.71
447.139	973.05
447.513	1012.37
447.887	1001.08
448.262	993.62
448.636	993.39
449.01	1025.71
449.384	1031.58
449.758	1019.61
450.132	1039.04
450.506	1028.87
450.88	1061.86
451.254	1063.67
451.628	1040.4
452.002	1083.33
452.376	1065.48
452.75	1105.25
453.123	1096.89
453.497	1111.81
453.871	1078.81
454.244	1151.58
454.618	1137.12
454.992	1143.22
455.365	1164.46
455.739	1186.38
456.112	1191.8
456.486	1201.97
456.859	1219.83
457.232	1247.17
457.606	1225.7
457.979	1278.58
458.352	1263.89
458.725	1286.27
459.099	1312.71
459.472	1315.87
459.845	1319.49
460.218	1307.73
460.591	1327.85
460.964	1341.63
461.337	1375.75
461.71	1378.69
462.083	1408.97
462.456	1410.56
462.829	1437.22
463.201	1429.76
463.574	1443.78
463.947	1477.45
464.32	1474.96
464.692	1485.13
465.065	1512.25
465.438	1516.09
465.81	1552.25
466.183	1569.2
466.555	1617.56
466.928	1608.07
467.3	1606.03
467.672	1649.19
468.045	1679.7
468.417	1626.6
468.789	1678.8
469.161	1704.33
469.534	1728.51
469.906	1768.74
470.278	1753.6
470.65	1778
471.022	1808.06
471.394	1823.2
471.766	1854.61
472.138	1866.14
472.51	1888.74
472.882	1926.02
473.253	1942.52
473.625	1949.75
473.997	2020.48
474.369	2018.45
474.74	2028.62
475.112	2062.52
475.484	2109.52
475.855	2125.11
476.227	2119.92
476.598	2215.28
476.97	2230.2
477.341	2262.29
477.713	2278.56
478.084	2280.14
478.455	2357.88
478.827	2373.47
479.198	2432.9
479.569	2450.53
479.94	2542.05
480.311	2501.83
480.682	2623.18
481.053	2636.29
481.424	2658.88
481.795	2715.38
482.166	2699.11
482.537	2756.51
482.908	2825.43
483.279	2826.11
483.65	2860.69
484.021	2904.53
484.391	2942.27
484.762	3018.2
485.133	3016.62
485.503	3086.9
485.874	3128.03
486.244	3166.67
486.615	3178.42
486.985	3214.35
487.356	3303.84
487.726	3331.41
488.097	3395.14
488.467	3401.24
488.837	3446.66
489.207	3513.33
489.578	3544.51
489.948	3579.99
490.318	3596.26
490.688	3608.01
491.058	3692.3
491.428	3749.03
491.798	3783.6
492.168	3836.71
492.538	3877.84
492.908	3878.06
493.278	3958.29
493.648	3913.09
494.017	4008
494.387	3987.66
494.757	4045.29
495.126	4112.41
495.496	4095.91
495.866	4144.27
496.235	4198.73
496.605	4185.4
496.974	4248.45
497.344	4301.55
497.713	4334.32
498.082	4353.3
498.452	4396.92
498.821	4394.66
499.19	4470.59
499.559	4485.73
499.928	4489.57
500.298	4497.25
500.667	4555.33
501.036	4581.09
501.405	4582
501.774	4652.5
502.143	4660.87
502.512	4721.66
502.88	4770.69
503.249	4792.16
503.618	4747.64
503.987	4786.29
504.356	4887.53
504.724	4893.85
505.093	4897.7
505.462	4943.8
505.83	4953.74
506.199	5004.13
506.567	5085.49
506.936	5038.26
507.304	5097.46
507.672	5125.03
508.041	5127.07
508.409	5237.8
508.777	5248.2
509.145	5271.02
509.514	5323.9
509.882	5365.25
510.25	5395.31
510.618	5390.56
510.986	5434.63
511.354	5466.72
511.722	5517.79
512.09	5576.1
512.458	5525.7
512.826	5598.24
513.193	5641.18
513.561	5612.71
513.929	5736.09
514.297	5727.5
514.664	5784
515.032	5824.9
515.4	5875.75
515.767	5868.97
516.135	5944.45
516.502	5923.21
516.869	6007.72
517.237	6022.64
517.604	6020.83
517.972	6131.79
518.339	6181.96
518.706	6222.41
519.073	6195.29
519.44	6258.34
519.808	6352.57
520.175	6361.84
520.542	6377.43
520.909	6475.28
521.276	6460.37
521.643	6513.92
522.009	6576.52
522.376	6649.29
522.743	6669.63
523.11	6701.49
523.477	6798.44
523.843	6835.5
524.21	6872.33
524.577	6977.87
524.943	6944.42
525.31	7020.8
525.676	7091.31
526.043	7095.6
526.409	7175.6
526.776	7228.71
527.142	7291.31
527.508	7330.4
527.874	7342.15
528.241	7366.78
528.607	7485.2
528.973	7491.53
529.339	7465.54
529.705	7621.01
530.071	7649.49
530.437	7639.54
530.803	7756.38
531.169	7747.79
531.535	7791.86
531.901	7827.56
532.267	7844.29
532.632	7910.72
532.998	7920.22
533.364	7975.58
533.73	8012.87
534.095	8077.27
534.461	8078.18
534.826	8173.32
535.192	8183.26
535.557	8287.44
535.923	8241.11
536.288	8269.58
536.653	8305.52
537.019	8335.35
537.384	8325.85
537.749	8434.78
538.114	8453.31
538.479	8479.3
538.845	8484.95
539.21	8443.37
539.575	8510.93
539.94	8573.08
540.305	8630.93
540.67	8590.03
541.034	8681.78
541.399	8696.92
541.764	8680.42
542.129	8774.2
542.494	8784.83
542.858	8764.49
543.223	8862.34
543.587	8885.61
543.952	8893.75
544.316	8862.11
544.681	8901.43
545.045	8935.56
545.41	9064.82
545.774	9036.12
546.138	9040.64
546.503	9074.76
546.867	9118.83
547.231	9167.19
547.595	9227.3
547.959	9258.03
548.324	9201.54
548.688	9184.81
549.052	9288.54
549.416	9288.32
549.779	9313.17
550.143	9359.05
550.507	9401.08
550.871	9471.81
551.235	9438.82
551.599	9552.71
551.962	9634.97
552.326	9604.01
552.689	9664.8
553.053	9598.14
553.417	9680.4
553.78	9732.6
554.143	9717
554.507	9831.13
554.87	9855.08
555.234	9925.13
555.597	9850.79
555.96	9890.33
556.323	9993.38
556.686	9961.74
557.05	10123.32
557.413	10076.54
557.776	10066.15
558.139	10180.95
558.502	10193.83
558.865	10272.7
559.228	10269.76
559.59	10307.72
559.953	10383.43
560.316	10423.43
560.679	10432.24
561.041	10501.62
561.404	10620.26
561.767	10659.58
562.129	10622.97
562.492	10676.53
562.854	10718.33
563.217	10703.19
563.579	10735.28
563.941	10936.18
564.304	10903.64
564.666	11016.86
565.028	11063.41
565.39	11022.05
565.753	11062.28
566.115	11093.69
566.477	11123.97
566.839	11193.8
567.201	11274.93
567.563	11271.99
567.925	11363.29
568.287	11373.23
568.648	11415.04
569.01	11428.6
569.372	11598.99
569.734	11527.8
570.095	11598.54
570.457	11637.41
570.819	11677.4
571.18	11707.91
571.542	11724.86
571.903	11813.9
572.265	11774.8
572.626	11825.2
572.987	11806.89
573.349	11894.35
573.71	11880.56
574.071	11991.97
574.432	12050.5
574.794	12108.58
575.155	12081.01
575.516	12056.38
575.877	12190.84
576.238	12236.26
576.599	12178.86
576.96	12228.12
577.32	12171.18
577.681	12213.21
578.042	12290.27
578.403	12256.37
578.763	12272.19
579.124	12335.47
579.485	12370.49
579.845	12413.66
580.206	12367.1
580.566	12363.04
580.927	12407.1
581.287	12457.27
581.648	12430.15
582.008	12485.75
582.368	12418.85
582.728	12414.79
583.089	12479.64
583.449	12371.17
583.809	12401.91
584.169	12465.41
584.529	12512.19
584.889	12553.54
585.249	12436.71
585.609	12426.76
585.969	12593.76
586.329	12451.85
586.688	12582.01
587.048	12552.41
587.408	12511.51
587.768	12484.16
588.127	12515.8
588.487	12441.45
588.846	12579.3
589.206	12517.38
589.565	12510.15
589.925	12531.17
590.284	12487.78
590.643	12542.92
591.003	12477.16
591.362	12540.43
591.721	12569.81
592.08	12551.28
592.44	12617.04
592.799	12600.09
593.158	12653.42
593.517	12568.23
593.876	12636.48
594.235	12586.99
594.593	12568
594.952	12612.75
595.311	12527.1
595.67	12657.04
596.029	12739.07
596.387	12703.37
596.746	12700.88
597.104	12656.59
597.463	12641.45
597.822	12718.96
598.18	12695.91
598.538	12685.51
598.897	12767.77
599.255	12599.64
599.613	12801.22
599.972	12740.43
600.33	12766.42
600.688	12757.6
601.046	12739.07
601.404	12832.63
601.762	12808
602.12	12925.28
602.478	12910.59
602.836	12918.73
603.194	12737.04
603.552	12852.06
603.91	12781.33
604.268	12918.95
604.625	12840.76
604.983	12897.03
605.341	12839.86
605.698	12923.47
606.056	12938.84
606.413	12960.76
606.771	12951.04
607.128	12999.86
607.485	12899.52
607.843	12996.01
608.2	13026.07
608.557	13017.26
608.914	13012.96
609.272	13113.98
609.629	13099.51
609.986	13173.41
610.343	13091.38
610.7	13209.12
611.057	13133.41
611.414	13125.28
611.771	13196.01
612.127	13149.23
612.484	13212.28
612.841	13279.17
613.198	13237.59
613.554	13214.54
613.911	13316.46
614.267	13336.34
614.624	13196.46
614.98	13342.9
615.337	13405.04
615.693	13383.8
616.05	13311.71
616.406	13333.18
616.762	13336.34
617.118	13356.23
617.475	13329.34
617.831	13401.2
618.187	13395.33
618.543	13400.07
618.899	13470.58
619.255	13492.05
619.611	13440.97
619.967	13484.36
620.323	13514.87
620.678	13429.22
621.034	13437.13
621.39	13391.71
621.746	13410.01
622.101	13574.98
622.457	13481.65
622.812	13418.15
623.168	13512.38
623.523	13494.53
623.879	13573.4
624.234	13506.06
624.589	13525.04
624.945	13534.76
625.3	13503.12
625.655	13510.8
626.01	13552.38
626.365	13453.86
626.72	13502.67
627.075	13483.91
627.43	13433.52
627.785	13469.67
628.14	13506.28
628.495	13497.02
628.85	13489.11
629.205	13463.8
629.559	13494.53
629.914	13435.55
630.269	13417.02
630.623	13377.25
630.978	13401.43
631.332	13470.13
631.687	13478.71
632.041	13404.37
632.396	13437.58
632.75	13393.29
633.104	13352.16
633.459	13423.57
633.813	13274.2
634.167	13271.94
634.521	13255.22
634.875	13301.99
635.229	13290.47
635.583	13177.93
635.937	13248.21
636.291	13211.15
636.645	13216.8
636.999	13125.95
637.352	13194.43
637.706	13176.35
638.06	13193.52
638.413	13143.35
638.767	13098.61
639.121	13190.81
639.474	12963.02
639.828	13092.28
640.181	13116.46
640.534	13101.55
640.888	12946.3
641.241	12991.72
641.594	12971.61
641.947	13047.54
642.301	12966.18
642.654	13032.17
643.007	13004.38
643.36	13047.31
643.713	12905.4
644.066	12972.51
644.419	12894.1
644.771	12770.48
645.124	12636.02
645.477	12689.58
645.83	12538.17
646.182	12535.24
646.535	12495.91
646.888	12457.05
647.24	12460.66
647.593	12511.28
647.945	12438.74
648.298	12388.57
648.65	12377.05
649.002	12309.25
649.355	12411.17
649.707	12372.08
650.059	12477.61
650.411	12579.53
650.763	12522.81
651.115	12721.67
651.467	12572.07
651.819	12671.95
652.171	12572.3
652.523	12533.65
652.875	12612.75
653.227	12583.37
653.578	12637.83
653.93	12542.47
654.282	12472.64
654.633	12459.08
654.985	12549.7
655.337	12495.46
655.688	12563.03
656.039	12531.39
656.391	12390.15
656.742	12465.41
657.094	12422.24
657.445	12470.6
657.796	12473.54
658.147	12427.89
658.498	12425.18
658.849	12407.33
659.2	12384.5
659.551	12342.7
659.902	12413.43
660.253	12401
660.604	12435.35
660.955	12341.12
661.306	12363.71
661.656	12334.34
662.007	12365.75
662.358	12399.87
662.708	12316.03
663.059	12390.38
663.409	12290.27
663.76	12373.21
664.11	12313.32
664.461	12371.62
664.811	12316.26
665.161	12306.09
665.511	12285.75
665.862	12266.09
666.212	12282.81
666.562	12314
666.912	12290.72
667.262	12243.94
667.612	12233.55
667.962	12266.99
668.312	12198.07
668.662	12306.54
669.011	12304.51
669.361	12245.3
669.711	12216.83
670.06	12220.22
670.41	12178.86
670.76	12121.91
671.109	12199.2
671.459	12256.15
671.808	12183.38
672.157	12230.16
672.507	12079.65
672.856	12086.43
673.205	12126.66
673.554	12185.41
673.904	12105.19
674.253	12179.76
674.602	12098.86
674.951	12017.28
675.3	11926.89
675.649	12122.36
675.998	12001.69
676.346	12094.34
676.695	12145.64
677.044	12018.86
677.393	12083.95
677.741	12126.88
678.09	12001.46
678.438	12074.68
678.787	12009.37
679.135	11985.19
679.484	11938.19
679.832	11969.6
680.181	11887.79
680.529	11874.24
680.877	11986.1
681.225	11862.26
681.573	11922.6
681.922	11883.73
682.27	11822.71
682.618	11899.55
682.966	11768.02
683.314	11848.7
683.661	11782.94
684.009	11709.72
684.357	11702.49
684.705	11683.73
685.053	11667.46
685.4	11686.67
685.748	11631.53
686.095	11566.45
686.443	11568.93
686.79	11561.25
687.138	11598.31
687.485	11544.98
687.832	11487.35
688.18	11499.1
688.527	11458.88
688.874	11363.51
689.221	11366
689.568	11368.03
689.915	11377.53
690.262	11357.87
690.609	11324.87
690.956	11290.3
691.303	11267.92
691.65	11243.97
691.997	11227.93
692.344	11092.79
692.69	11228.83
693.037	11144.54
693.383	11042.62
693.73	11205.78
694.077	10977.54
694.423	11053.01
694.769	10996.07
695.116	10980.47
695.462	10971.21
695.808	10937.76
696.155	10948.61
696.501	10828.61
696.847	10835.17
697.193	10725.11
697.539	10843.53
697.885	10807.82
698.231	10749.75
698.577	10729.63
698.923	10720.59
699.269	10627.94
699.614	10618.45
699.96	10613.7
700.306	10597.43
700.651	10502.52
700.997	10505.91
701.342	10516.76
701.688	10487.15
702.033	10426.36
702.379	10455.29
702.724	10314.5
703.069	10451.67
703.415	10316.54
703.76	10211
704.105	10316.76
704.45	10236.54
704.795	10202.87
705.14	10174.62
705.485	10191.12
705.83	10112.47
706.175	10125.36
706.52	10147.05
706.865	10030.22
707.209	10002.42
707.554	10013.04
707.899	9990.9
708.243	9975.53
708.588	9957.9
708.932	9926.72
709.277	9926.04
709.621	9942.76
709.966	9758.81
710.31	9814.4
710.654	9780.51
710.998	9813.05
711.342	9767.85
711.687	9740.96
712.031	9666.61
712.375	9663.45
712.719	9721.52
713.063	9671.36
713.407	9722.2
713.75	9594.75
714.094	9631.13
714.438	9608.31
714.782	9570.34
715.125	9599.49
715.469	9619.15
715.812	9536.67
716.156	9462.77
716.499	9472.72
716.843	9486.95
717.186	9431.36
717.53	9445.37
717.873	9524.24
718.216	9471.81
718.559	9396.33
718.902	9306.39
719.246	9423.23
719.589	9335.77
719.932	9336.68
720.275	9347.07
720.617	9309.78
720.96	9220.07
721.303	9250.58
721.646	9298.26
721.989	9142.78
722.331	9229.56
722.674	9177.13
723.016	9168.09
723.359	9227.53
723.701	9150.69
724.044	9077.7
724.386	9065.95
724.729	9125.38
725.071	9074.76
725.413	9058.94
725.755	9070.69
726.097	9003.8
726.439	9035.67
726.782	8952.28
727.124	9008.55
727.465	8934.43
727.807	8973.07
728.149	8883.13
728.491	8905.5
728.833	8932.39
729.175	8950.02
729.516	8919.06
729.858	8861.89
730.199	8908.66
730.541	8873.86
730.882	8866.86
731.224	8902.11
731.565	8850.81
731.906	8830.25
732.248	8839.51
732.589	8779.63
732.93	8724.49
733.271	8726.52
733.612	8763.58
733.953	8738.95
734.294	8784.83
734.635	8660.76
734.976	8732.85
735.317	8689.01
735.658	8672.51
735.999	8624.83
736.339	8636.58
736.68	8714.77
737.021	8583.25
737.361	8580.99
737.702	8647.65
738.042	8563.36
738.383	8599.97
738.723	8522.91
739.063	8576.92
739.404	8499.18
739.744	8548.22
740.084	8464.16
740.424	8452.63
740.764	8523.14
741.104	8491.73
741.444	8515.45
741.784	8368.11
742.124	8475
742.464	8433.87
742.804	8390.26
743.143	8385.74
743.483	8393.88
743.823	8311.62
744.162	8354.33
744.502	8352.29
744.841	8258.74
745.181	8302.35
745.52	8326.98
745.86	8293.99
746.199	8269.13
746.538	8246.53
746.877	8312.97
747.216	8309.36
747.556	8277.95
747.895	8239.76
748.234	8213.32
748.573	8173.32
748.911	8217.16
749.25	8194.56
749.589	8153.43
749.928	8179.87
750.267	8109.59
750.605	8142.81
750.944	8103.04
751.283	8093.77
751.621	8091.28
751.96	8086.99
752.298	8077.5
752.636	7997.05
752.975	8018.74
753.313	7941.46
753.651	7967.9
753.989	7945.07
754.327	7893.1
754.666	7924.74
755.004	7926.32
755.342	7897.62
755.679	7923.15
756.017	7823.27
756.355	7861.91
756.693	7787.56
757.031	7854.68
757.368	7784.4
757.706	7747.11
758.044	7730.16
758.381	7718.64
758.719	7682.93
759.056	7721.8
759.394	7727.9
759.731	7600.22
760.068	7597.29
760.405	7537.4
760.743	7559.1
761.08	7566.55
761.417	7543.73
761.754	7509.38
762.091	7484.29
