Data from black_metal_pc_casing_FLMS001491_00002.txt Node
Date: Wed Feb 08 14:31:50 GMT 2017
User: dcchb
Spectrometer: FLMS00149
Trigger mode: 0
Integration Time (sec): 2.000000E-2
Scans to average: 10
Electric dark correction enabled: true
Nonlinearity correction enabled: false
Boxcar width: 0
XAxis mode: Wavelengths
Number of Pixels in Spectrum: 2048
>>>>>Begin Spectral Data<<<<<
341.393	-14.91
341.776	-14.91
342.16	-14.91
342.543	-60.79
342.927	-48.81
343.31	-59.66
343.693	-62.15
344.077	-75.25
344.46	-65.53
344.843	-52.65
345.226	-58.76
345.61	-26.67
345.993	-10.62
346.376	1.36
346.759	0.45
347.142	18.08
347.525	60.11
347.908	60.79
348.291	68.47
348.674	96.95
349.057	105.08
349.44	132.65
349.823	135.59
350.206	150.5
350.588	197.51
350.971	180.79
351.354	223.5
351.737	230.95
352.119	209.03
352.502	234.12
352.884	265.98
353.267	253.78
353.65	277.05
354.032	297.17
354.414	284.51
354.797	299.43
355.179	304.4
355.562	301.46
355.944	321.57
356.326	309.14
356.709	340.78
357.091	302.82
357.473	322.48
357.855	323.83
358.238	331.74
358.62	339.88
359.002	334.91
359.384	332.42
359.766	329.48
360.148	324.74
360.53	321.35
360.912	319.09
361.294	321.35
361.676	328.35
362.057	310.27
362.439	301.69
362.821	328.35
363.203	336.26
363.584	315.25
363.966	305.53
364.348	295.81
364.729	312.76
365.111	315.25
365.493	288.81
365.874	304.62
366.256	299.2
366.637	296.26
367.019	305.53
367.4	314.12
367.781	307.79
368.163	311.18
368.544	283.38
368.925	300.56
369.306	273.21
369.688	304.17
370.069	300.56
370.45	282.48
370.831	317.73
371.212	304.85
371.593	287.45
371.974	299.43
372.355	293.78
372.736	313.66
373.117	319.54
373.498	310.05
373.879	316.83
374.26	305.75
374.641	308.69
375.021	309.14
375.402	322.03
375.783	309.82
376.163	327.67
376.544	320.44
376.925	313.89
377.305	295.81
377.686	312.53
378.066	321.57
378.447	326.55
378.827	328.13
379.208	339.2
379.588	339.43
379.968	329.71
380.349	326.77
380.729	311.86
381.109	341.46
381.489	330.39
381.87	329.26
382.25	311.18
382.63	330.84
383.01	339.2
383.39	334.68
383.77	347.79
384.15	331.74
384.53	318.86
384.91	337.62
385.29	332.87
385.67	358.86
386.049	357.5
386.429	340.1
386.809	359.54
387.189	355.7
387.568	359.54
387.948	363.83
388.328	357.5
388.707	347.56
389.087	378.07
389.466	351.86
389.846	361.8
390.225	355.24
390.605	359.99
390.984	340.56
391.363	373.55
391.743	376.71
392.122	369.26
392.501	379.65
392.881	366.32
393.26	383.27
393.639	397.28
394.018	365.64
394.397	389.82
394.776	399.76
395.155	387.33
395.534	393.89
395.913	392.53
396.292	381.91
396.671	383.94
397.05	409.03
397.429	382.36
397.808	385.07
398.186	396.83
398.565	395.92
398.944	378.07
399.323	411.51
399.701	427.11
400.08	428.24
400.458	414.45
400.837	399.99
401.215	398.86
401.594	406.09
401.972	424.62
402.351	435.24
402.729	442.47
403.107	451.51
403.486	426.43
403.864	426.43
404.242	413.77
404.62	433.66
404.999	454
405.377	422.59
405.755	428.69
406.133	436.6
406.511	456.26
406.889	445.41
407.267	448.35
407.645	463.26
408.023	448.12
408.401	484.28
408.779	450.16
409.156	468.91
409.534	475.24
409.912	449.25
410.29	483.15
410.667	471.4
411.045	487.22
411.422	482.7
411.8	495.81
412.178	490.38
412.555	512.08
412.933	507.78
413.31	473.89
413.687	502.59
414.065	509.59
414.442	525.64
414.819	530.61
415.197	542.13
415.574	505.98
415.951	541
416.328	526.77
416.705	531.51
417.082	548.46
417.46	533.55
417.837	542.58
418.214	552.53
418.591	552.3
418.967	562.7
419.344	566.99
419.721	540.78
420.098	548.01
420.475	563.38
420.852	562.02
421.228	583.94
421.605	574
421.982	607.22
422.358	612.19
422.735	572.19
423.111	601.79
423.488	593.66
423.864	579.42
424.241	627.1
424.617	605.41
424.994	620.55
425.37	604.73
425.746	622.13
426.123	606.99
426.499	618.06
426.875	624.62
427.251	636.82
427.627	648.34
428.003	669.81
428.379	670.26
428.756	656.93
429.132	663.71
429.507	653.09
429.883	659.87
430.259	690.83
430.635	660.77
431.011	689.02
431.387	712.07
431.763	698.96
432.138	703.03
432.514	741.9
432.89	727.89
433.265	720.21
433.641	729.92
434.016	730.6
434.392	757.27
434.767	778.28
435.143	739.87
435.518	776.25
435.894	795.69
436.269	778.06
436.644	795.69
437.02	815.57
437.395	792.3
437.77	803.82
438.145	800.88
438.52	828.23
438.895	814.22
439.271	830.26
439.646	846.76
440.021	847.89
440.395	844.05
440.77	843.14
441.145	854.89
441.52	863.03
441.895	856.47
442.27	850.37
442.645	870.71
443.019	869.81
443.394	887.66
443.769	886.98
444.143	910.26
444.518	908.45
444.892	920.43
445.267	909.58
445.641	915.23
446.016	900.54
446.39	909.35
446.764	948.68
447.139	908.22
447.513	934.89
447.887	942.57
448.262	938.28
448.636	924.27
449.01	975.57
449.384	960.88
449.758	984.15
450.132	966.75
450.506	988.67
450.88	976.02
451.254	990.71
451.628	998.39
452.002	1011.72
452.376	1014.21
452.75	1036.13
453.123	1032.97
453.497	1056.24
453.871	1070.03
454.244	1055.57
454.618	1070.25
454.992	1084.04
455.365	1104.83
455.739	1111.38
456.112	1125.85
456.486	1121.78
456.859	1123.59
457.232	1131.95
457.606	1155.9
457.979	1155.68
458.352	1182.79
458.725	1213.98
459.099	1181.66
459.472	1217.82
459.845	1223.02
460.218	1218.27
460.591	1253.53
460.964	1265.5
461.337	1278.84
461.71	1281.55
462.083	1276.58
462.456	1279.29
462.829	1309.12
463.201	1350.7
463.574	1344.37
463.947	1350.7
464.32	1360.87
464.692	1384.37
465.065	1393.64
465.438	1429.57
465.81	1422.34
466.183	1451.04
466.555	1466.63
466.928	1439.96
467.3	1454.88
467.672	1500.07
468.045	1518.38
468.417	1511.6
468.789	1563.57
469.161	1574.87
469.534	1566.29
469.906	1591.14
470.278	1640.18
470.65	1617.81
471.022	1671.14
471.394	1698.26
471.766	1709.56
472.138	1726.73
472.51	1771.7
472.882	1752.72
473.253	1786.39
473.625	1823
473.997	1854.19
474.369	1839.73
474.74	1854.64
475.112	1928.76
475.484	1921.31
475.855	1949.55
476.227	1945.71
476.598	1986.84
476.97	2041.98
477.341	2074.75
477.713	2090.11
478.084	2124.92
478.455	2138.25
478.827	2182.77
479.198	2223.9
479.569	2243.1
479.94	2281.3
480.311	2335.98
480.682	2346.6
481.053	2411.69
481.424	2419.15
481.795	2437
482.166	2483.1
482.537	2499.14
482.908	2572.36
483.279	2578.69
483.65	2623.66
484.021	2653.72
484.391	2672.92
484.762	2713.83
485.133	2753.83
485.503	2777.33
485.874	2831.56
486.244	2875.86
486.615	2922.41
486.985	2946.59
487.356	2967.38
487.726	2964.22
488.097	3060.94
488.467	3063.65
488.837	3114.27
489.207	3166.02
489.578	3237.65
489.948	3253.02
490.318	3281.5
490.688	3292.79
491.058	3288.5
491.428	3365.34
491.798	3420.02
492.168	3489.4
492.538	3488.27
492.908	3554.26
493.278	3584.99
493.648	3561.71
494.017	3634.71
494.387	3661.15
494.757	3672.9
495.126	3693.46
495.496	3687.13
495.866	3752.22
496.235	3780.92
496.605	3886.23
496.974	3846.45
497.344	3890.07
497.713	3933.68
498.082	3954.47
498.452	3971.42
498.821	3985.21
499.19	3994.47
499.559	4046.9
499.928	4101.14
500.298	4115.15
500.667	4130.74
501.036	4133.45
501.405	4156.27
501.774	4194.69
502.143	4256.39
502.512	4265.2
502.88	4302.94
503.249	4295.25
503.618	4333.9
503.987	4365.99
504.356	4382.71
504.724	4385.42
505.093	4402.6
505.462	4430.17
505.83	4475.59
506.199	4499.09
506.567	4594.46
506.936	4582.25
507.304	4620.9
507.672	4613.44
508.041	4662.02
508.409	4753.55
508.777	4726.2
509.145	4821.57
509.514	4752.64
509.882	4827.9
510.25	4817.73
510.618	4858.4
510.986	4866.76
511.354	4950.6
511.722	4983.6
512.09	5066.53
512.458	5009.59
512.826	5076.7
513.193	5062.69
513.561	5134.55
513.929	5130.26
514.297	5207.09
514.664	5264.49
515.032	5236.7
515.4	5269.47
515.767	5339.29
516.135	5391.04
516.502	5326.87
516.869	5422.23
517.237	5442.79
517.604	5446.41
517.972	5498.39
518.339	5566.41
518.706	5574.32
519.073	5638.95
519.44	5687.76
519.808	5713.52
520.175	5741.54
520.542	5804.14
520.909	5793.52
521.276	5796.01
521.643	5903.57
522.009	5954.65
522.376	5958.71
522.743	6014.76
523.11	6075.32
523.477	6123
523.843	6079.39
524.21	6220.4
524.577	6281.19
524.943	6347.4
525.31	6358.7
525.676	6383.11
526.043	6417.91
526.409	6489.77
526.776	6496.33
527.142	6551.47
527.508	6562.54
527.874	6659.03
528.241	6634.63
528.607	6662.88
528.973	6800.95
529.339	6745.59
529.705	6781.52
530.071	6876.2
530.437	6856.54
530.803	6946.94
531.169	6997.1
531.535	6977.44
531.901	7012.92
532.267	7075.29
532.632	7119.13
532.998	7190.09
533.364	7215.4
533.73	7212.47
534.095	7250.2
534.461	7317.55
534.826	7332.24
535.192	7393.25
535.557	7373.59
535.923	7421.5
536.288	7468.5
536.653	7491.55
537.019	7490.65
537.384	7489.52
537.749	7543.76
538.114	7546.02
538.479	7597.54
538.845	7632.57
539.21	7655.84
539.575	7647.71
539.94	7687.71
540.305	7746.46
540.67	7712.79
541.034	7742.85
541.399	7830.08
541.764	7872.34
542.129	7918.21
542.494	7849.96
542.858	7928.61
543.223	7932.45
543.587	7971.54
543.952	8040.01
544.316	8006.57
544.681	8046.57
545.045	8094.93
545.41	8072.56
545.774	8124.08
546.138	8174.25
546.503	8217.86
546.867	8215.83
547.231	8249.05
547.595	8282.04
547.959	8240.46
548.324	8360.46
548.688	8381.93
549.052	8391.87
549.416	8360.68
549.779	8388.71
550.143	8370.63
550.507	8550.51
550.871	8519.1
551.235	8538.98
551.599	8557.29
551.962	8642.48
552.326	8599.77
552.689	8631.86
553.053	8676.38
553.417	8711.86
553.78	8787.11
554.143	8748.7
554.507	8791.18
554.87	8894.46
555.234	8993.66
555.597	8951.4
555.96	8954.34
556.323	8951.63
556.686	8953.66
557.05	9065.75
557.413	9009.48
557.776	9086.09
558.139	9100.1
558.502	9199.08
558.865	9167.22
559.228	9220.1
559.59	9288.12
559.953	9312.07
560.316	9463.25
560.679	9373.99
561.041	9437.27
561.404	9516.36
561.767	9562.69
562.129	9565.17
562.492	9659.86
562.854	9683.81
563.217	9635.23
563.579	9693.3
563.941	9698.73
564.304	9865.73
564.666	9852.62
565.028	9878.61
565.39	9927.65
565.753	10011.71
566.115	9904.15
566.477	10083.8
566.839	10035.89
567.201	10156.57
567.563	10153.18
567.925	10234.31
568.287	10221.88
568.648	10295.1
569.01	10299.16
569.372	10462.55
569.734	10348.65
570.095	10485.37
570.457	10485.15
570.819	10513.85
571.18	10540.97
571.542	10568.99
571.903	10613.28
572.265	10649.89
572.626	10612.15
572.987	10688.31
573.349	10734.41
573.71	10779.15
574.071	10770.79
574.432	10832.71
574.794	10917.23
575.155	10865.7
575.516	10824.12
575.877	10873.16
576.238	10886.04
576.599	10970.78
576.96	10987.28
577.32	10987.28
577.681	11022.99
578.042	11054.4
578.403	11015.98
578.763	11106.6
579.124	11048.98
579.485	11140.5
579.845	11083.78
580.206	11121.74
580.566	11160.38
580.927	11145.24
581.287	11192.7
581.648	11191.12
582.008	11215.98
582.368	11246.71
582.728	11211
583.089	11165.13
583.449	11182.3
583.809	11237.22
584.169	11269.99
584.529	11225.02
584.889	11299.59
585.249	11279.03
585.609	11215.07
585.969	11290.1
586.329	11276.99
586.688	11283.09
587.048	11228.41
587.408	11291.91
587.768	11225.02
588.127	11310.66
588.487	11263.21
588.846	11363.99
589.206	11264.56
589.565	11335.07
589.925	11285.58
590.284	11312.24
590.643	11248.29
591.003	11245.81
591.362	11342.98
591.721	11334.17
592.08	11358.12
592.44	11426.14
592.799	11337.33
593.158	11359.93
593.517	11312.02
593.876	11397.89
594.235	11334.84
594.593	11361.51
594.952	11360.61
595.311	11317.89
595.67	11413.49
596.029	11455.29
596.387	11500.71
596.746	11456.87
597.104	11449.42
597.463	11408.74
597.822	11440.6
598.18	11423.88
598.538	11336.88
598.897	11537.55
599.255	11453.48
599.613	11545.69
599.972	11485.8
600.33	11482.41
600.688	11483.31
601.046	11459.36
601.404	11591.56
601.762	11533.03
602.12	11538.23
602.478	11576.19
602.836	11564.89
603.194	11531.45
603.552	11540.71
603.91	11549.07
604.268	11590.66
604.625	11589.07
604.983	11654.16
605.341	11606.47
605.698	11714.27
606.056	11684.21
606.413	11690.31
606.771	11663.87
607.128	11708.17
607.485	11642.86
607.843	11741.16
608.2	11701.61
608.557	11736.41
608.914	11725.79
609.272	11733.48
609.629	11711.1
609.986	11855.51
610.343	11779.8
610.7	11833.36
611.057	11895.05
611.414	11838.78
611.771	11834.49
612.127	11944.32
612.484	11911.78
612.841	11995.62
613.198	11879.24
613.554	11851.67
613.911	11966.24
614.267	11969.85
614.624	11962.17
614.98	11972.34
615.337	12050.08
615.693	12002.17
616.05	12006.92
616.406	12081.26
616.762	12046.46
617.118	11982.06
617.475	12024.32
617.831	12050.53
618.187	12054.37
618.543	12069.29
618.899	12173.69
619.255	12032.23
619.611	12051.21
619.967	12067.25
620.323	12185.44
620.678	12148.38
621.034	12043.75
621.39	11981.38
621.746	12085.78
622.101	12214.37
622.457	12075.16
622.812	12190.41
623.168	12109.51
623.523	12172.79
623.879	12244.65
624.234	12145.9
624.589	12152.67
624.945	12215.5
625.3	12169.85
625.655	12128.72
626.01	12232.22
626.365	12221.6
626.72	12163.75
627.075	12184.31
627.43	12179.34
627.785	12054.82
628.14	12140.02
628.495	12183.41
628.85	12156.74
629.205	12123.97
629.559	12174.6
629.914	12069.74
630.269	12181.37
630.623	12059.8
630.978	12095.73
631.332	12174.82
631.687	12190.19
632.041	12060.25
632.396	12164.65
632.75	11946.8
633.104	12061.38
633.459	11985.9
633.813	11971.44
634.167	12019.12
634.521	11996.52
634.875	12010.31
635.229	11970.31
635.583	11918.56
635.937	11957.88
636.291	11826.36
636.645	11892.12
636.999	11855.06
637.352	11894.83
637.706	11827.49
638.06	11817.77
638.413	11767.15
638.767	11764.21
639.121	11775.96
639.474	11726.7
639.828	11743.42
640.181	11811.21
640.534	11773.7
640.888	11745.23
641.241	11634.04
641.594	11624.1
641.947	11646.7
642.301	11649.41
642.654	11671.33
643.007	11670.88
643.36	11692.35
643.713	11604.44
644.066	11688.73
644.419	11611.9
644.771	11542.75
645.124	11437.44
645.477	11357.67
645.83	11387.27
646.182	11217.78
646.535	11210.33
646.888	11211
647.24	11035.64
647.593	11243.32
647.945	11246.03
648.298	11135.3
648.65	11193.6
649.002	11053.04
649.355	11162.87
649.707	11086.94
650.059	11192.7
650.411	11294.62
650.763	11337.56
651.115	11395.18
651.467	11334.17
651.819	11296.43
652.171	11351.34
652.523	11304.11
652.875	11343.2
653.227	11306.82
653.578	11352.7
653.93	11293.04
654.282	11221.17
654.633	11254.62
654.985	11207.16
655.337	11279.03
655.688	11209.65
656.039	11322.19
656.391	11219.37
656.742	11254.17
657.094	11207.61
657.445	11251
657.796	11239.7
658.147	11174.85
658.498	11171.68
658.849	11152.48
659.2	11224.11
659.551	11183.21
659.902	11222.53
660.253	11191.57
660.604	11153.61
660.955	11113.38
661.306	11148.18
661.656	11128.07
662.007	11186.6
662.358	11108.63
662.708	11176.43
663.059	11137.11
663.409	11088.52
663.76	11109.31
664.11	11101.4
664.461	11119.71
664.811	11095.75
665.161	11087.84
665.511	11059.82
665.862	11072.7
666.212	11109.76
666.562	11053.04
666.912	11036.32
667.262	11017.56
667.612	11124.45
667.962	11039.94
668.312	11091.69
668.662	11147.73
669.011	11068.86
669.361	11017.11
669.711	10971.24
670.06	11037.9
670.41	10975.3
670.76	10989.54
671.109	11002.65
671.459	10946.15
671.808	10912.93
672.157	11012.37
672.507	10928.3
672.856	10905.25
673.205	10956.55
673.554	10982.54
673.904	10942.54
674.253	11023.21
674.602	10924.46
674.951	10860.96
675.3	10730.79
675.649	10919.71
675.998	10909.77
676.346	10898.7
676.695	10951.8
677.044	10793.61
677.393	10834.97
677.741	10874.29
678.09	10877
678.438	10740.96
678.787	10861.41
679.135	10821.41
679.484	10766.72
679.832	10776.21
680.181	10737.34
680.529	10785.48
680.877	10734.18
681.225	10727.18
681.573	10787.06
681.922	10662.32
682.27	10641.08
682.618	10642.88
682.966	10673.84
683.314	10654.18
683.661	10648.08
684.009	10537.58
684.357	10548.2
684.705	10540.51
685.053	10564.02
685.4	10595.88
685.748	10532.6
686.095	10525.6
686.443	10432.27
686.79	10375.09
687.138	10475.43
687.485	10491.48
687.832	10389.11
688.18	10410.12
688.527	10333.97
688.874	10296.68
689.221	10366.73
689.568	10291.93
689.915	10246.96
690.262	10261.2
690.609	10230.69
690.956	10211.93
691.303	10164.7
691.65	10148.89
691.997	10078.38
692.344	10053.75
692.69	10081.09
693.037	10036.8
693.383	10057.59
693.73	10022.56
694.077	9897.82
694.423	9921.55
694.769	9853.07
695.116	9855.33
695.462	9959.74
695.808	9818.95
696.155	9918.84
696.501	9849.23
696.847	9791.15
697.193	9731.04
697.539	9696.24
697.885	9670.25
698.231	9629.58
698.577	9660.76
698.923	9618.73
699.269	9586.41
699.614	9562.69
699.96	9590.71
700.306	9538.51
700.651	9460.77
700.997	9428.9
701.342	9430.71
701.688	9465.51
702.033	9428.23
702.379	9440.43
702.724	9373.54
703.069	9362.47
703.415	9295.12
703.76	9310.49
704.105	9295.57
704.45	9322.24
704.795	9283.82
705.14	9195.69
705.485	9188.01
705.83	9214.67
706.175	9212.41
706.52	9120.89
706.865	9091.74
707.209	9096.48
707.554	8982.14
707.899	9062.13
708.243	9009.48
708.588	9035.47
708.932	8917.73
709.277	8973.32
709.621	8905.08
709.966	8956.6
710.31	8923.61
710.654	8817.85
710.998	8836.83
711.342	8848.13
711.687	8823.5
712.031	8762.48
712.375	8795.93
712.719	8731.75
713.063	8691.07
713.407	8761.13
713.75	8722.26
714.094	8698.08
714.438	8688.36
714.782	8698.08
715.125	8684.29
715.469	8664.18
715.812	8616.72
716.156	8536.05
716.499	8558.87
716.843	8524.3
717.186	8534.92
717.53	8582.6
717.873	8498.53
718.216	8489.95
718.559	8543.28
718.902	8449.72
719.246	8469.38
719.589	8430.96
719.932	8417.41
720.275	8424.86
720.617	8338.54
720.96	8357.97
721.303	8377.41
721.646	8408.37
721.989	8368.82
722.331	8367.24
722.674	8355.03
723.016	8330.18
723.359	8342.15
723.701	8314.13
724.044	8245.88
724.386	8198.2
724.729	8226.68
725.071	8196.39
725.413	8183.51
725.755	8217.64
726.097	8155.49
726.439	8102.61
726.782	8120.01
727.124	8195.94
727.465	8138.54
727.807	8125.89
728.149	8160.69
728.491	8159.33
728.833	8045.66
729.175	8117.75
729.516	8057.87
729.858	7988.94
730.199	7976.06
730.541	8012.44
730.882	7986.23
731.224	8030.98
731.565	8004.76
731.906	7998.43
732.248	8022.84
732.589	7970.86
732.93	7945.55
733.271	7907.36
733.612	7923.86
733.953	7915.05
734.294	7902.84
734.635	7899
734.976	7840.7
735.317	7827.82
735.658	7837.76
735.999	7897.42
736.339	7796.41
736.68	7879.34
737.021	7835.27
737.361	7765.22
737.702	7807.25
738.042	7789.63
738.383	7722.06
738.723	7838.89
739.063	7781.26
739.404	7703.07
739.744	7700.36
740.084	7680.02
740.424	7739.23
740.764	7616.52
741.104	7662.85
741.444	7598.44
741.784	7605.9
742.124	7671.89
742.464	7590.31
742.804	7615.84
743.143	7540.59
743.483	7569.97
743.823	7534.27
744.162	7543.08
744.502	7576.75
744.841	7522.74
745.181	7521.16
745.52	7482.97
745.86	7532.46
746.199	7461.27
746.538	7435.28
746.877	7458.11
747.216	7546.02
747.556	7457.21
747.895	7540.37
748.234	7438.45
748.573	7371.33
748.911	7365.68
749.25	7399.58
749.589	7308.06
749.928	7378.11
750.267	7377.21
750.605	7282.52
750.944	7293.59
751.283	7305.12
751.621	7281.62
751.96	7209.08
752.298	7308.28
752.636	7255.85
752.975	7268.96
753.313	7219.7
753.651	7262.63
753.989	7168.63
754.327	7160.49
754.666	7141.06
755.004	7110.32
755.342	7149.87
755.679	7120.49
756.017	7071.68
756.355	7039.81
756.693	7070.32
757.031	7068.51
757.368	6962.98
757.706	7026.26
758.044	6995.52
758.381	6998.91
758.719	6988.74
759.056	6952.81
759.394	6923.43
759.731	6892.7
760.068	6846.6
760.405	6831.91
760.743	6801.86
761.08	6846.6
761.417	6783.32
761.754	6807.28
762.091	6753.04
762.428	6695.64
762.765	6752.82
763.102	6704
763.438	6698.13
