Data from black_metal_pc_casing_FLMS001491_00095.txt Node
Date: Wed Feb 08 14:33:48 GMT 2017
User: dcchb
Spectrometer: FLMS00149
Trigger mode: 0
Integration Time (sec): 2.000000E-2
Scans to average: 10
Electric dark correction enabled: true
Nonlinearity correction enabled: false
Boxcar width: 0
XAxis mode: Wavelengths
Number of Pixels in Spectrum: 2048
>>>>>Begin Spectral Data<<<<<
341.393	-30.23
341.776	-30.23
342.16	-30.23
342.543	-42.65
342.927	-62.54
343.31	-80.39
343.693	-75.42
344.077	-67.29
344.46	-52.6
344.843	-67.29
345.226	-50.79
345.61	-6.27
345.993	-16.44
346.376	14.97
346.759	25.14
347.142	38.93
347.525	39.15
347.908	53.39
348.291	69.43
348.674	88.42
349.057	87.06
349.44	113.73
349.823	146.49
350.206	155.53
350.588	198.24
350.971	182.65
351.354	213.38
351.737	238.69
352.119	244.57
352.502	263.1
352.884	276.66
353.267	280.5
353.65	266.26
354.032	305.13
354.414	302.87
354.797	322.31
355.179	318.24
355.562	312.82
355.944	334.06
356.326	336.32
356.709	318.24
357.091	306.26
357.473	339.03
357.855	327.51
358.238	336.77
358.62	359.82
359.002	352.36
359.384	348.3
359.766	333.38
360.148	341.74
360.53	337.45
360.912	331.12
361.294	324.34
361.676	331.35
362.057	315.75
362.439	328.41
362.821	299.26
363.203	336.54
363.584	344.23
363.966	329.31
364.348	323.89
364.729	326.15
365.111	324.34
365.493	313.72
365.874	297.22
366.256	320.5
366.637	320.95
367.019	306.26
367.4	313.95
367.781	338.58
368.163	297
368.544	317.79
368.925	308.52
369.306	314.4
369.688	307.85
370.069	317.34
370.45	314.4
370.831	315.75
371.212	316.21
371.593	300.39
371.974	335.64
372.355	321.86
372.736	304.46
373.117	322.08
373.498	323.44
373.879	318.69
374.26	310.33
374.641	308.3
375.021	317.11
375.402	346.49
375.783	346.26
376.163	346.94
376.544	351.23
376.925	336.77
377.305	318.24
377.686	333.61
378.066	351.91
378.447	349.43
378.827	337.45
379.208	349.43
379.588	333.61
379.968	345.58
380.349	350.56
380.729	370.22
381.109	354.17
381.489	332.03
381.87	335.41
382.25	372.02
382.63	349.2
383.01	344.45
383.39	341.74
383.77	372.7
384.15	340.16
384.53	374.06
384.91	361.18
385.29	373.15
385.67	360.27
386.049	354.62
386.429	367.05
386.809	381.29
387.189	372.48
387.568	366.6
387.948	363.66
388.328	387.16
388.707	385.58
389.087	378.13
389.466	372.25
389.846	396.66
390.225	390.33
390.605	372.02
390.984	388.97
391.363	386.71
391.743	417.45
392.122	401.63
392.501	400.95
392.881	435.3
393.26	399.14
393.639	398.46
394.018	400.95
394.397	421.74
394.776	413.6
395.155	420.38
395.534	432.59
395.913	439.59
396.292	429.2
396.671	439.82
397.05	445.02
397.429	447.28
397.808	471.68
398.186	453.38
398.565	445.02
398.944	441.17
399.323	454.96
399.701	438.24
400.08	447.5
400.458	467.16
400.837	447.05
401.215	463.32
401.594	471
401.972	452.93
402.351	466.26
402.729	470.78
403.107	460.16
403.486	464.9
403.864	486.15
404.242	478.69
404.62	496.77
404.999	481.63
405.377	487.95
405.755	488.86
406.133	504.9
406.511	504.45
406.889	487.95
407.267	508.07
407.645	515.3
408.023	536.77
408.401	511.46
408.779	526.82
409.156	529.31
409.534	541.29
409.912	556.88
410.29	525.47
410.667	538.8
411.045	555.07
411.422	567.05
411.8	558.91
412.178	569.76
412.555	565.24
412.933	568.18
413.31	580.61
413.687	586.71
414.065	600.72
414.442	598.46
414.819	609.76
415.197	615.86
415.574	629.87
415.951	617.67
416.328	611.79
416.705	630.55
417.082	626.48
417.46	650.89
417.837	656.54
418.214	661.73
418.591	673.94
418.967	645.01
419.344	659.7
419.721	666.03
420.098	664.45
420.475	687.5
420.852	659.25
421.228	700.6
421.605	649.3
421.982	676.2
422.358	710.77
422.735	709.64
423.111	713.94
423.488	715.07
423.864	722.3
424.241	753.93
424.617	726.14
424.994	712.81
425.37	768.85
425.746	745.35
426.123	708.29
426.499	732.92
426.875	765.46
427.251	779.25
427.627	785.12
428.003	795.97
428.379	800.71
428.756	803.2
429.132	829.64
429.507	808.85
429.883	812.24
430.259	833.93
430.635	819.47
431.011	858.34
431.387	841.62
431.763	872.35
432.138	860.37
432.514	909.41
432.89	903.54
433.265	896.53
433.641	925.91
434.016	925.68
434.392	948.51
434.767	957.32
435.143	919.81
435.518	971.1
435.894	930.2
436.269	974.95
436.644	975.4
437.02	958.9
437.395	991.67
437.77	1013.14
438.145	1015.85
438.52	1018.33
438.895	1026.02
439.271	1047.03
439.646	1057.43
440.021	1054.27
440.395	1065.34
440.77	1073.25
441.145	1080.93
441.52	1105.34
441.895	1094.27
442.27	1098.56
442.645	1132.46
443.019	1103.76
443.394	1094.49
443.769	1115.73
444.143	1130.2
444.518	1146.02
444.892	1145.79
445.267	1162.51
445.641	1150.99
446.016	1174.71
446.39	1174.04
446.764	1180.36
447.139	1206.8
447.513	1180.36
447.887	1206.8
448.262	1197.31
448.636	1231.21
449.01	1212.45
449.384	1209.29
449.758	1205.45
450.132	1256.52
450.506	1231.44
450.88	1270.76
451.254	1240.48
451.628	1298.78
452.002	1287.03
452.376	1308.04
452.75	1305.56
453.123	1322.06
453.497	1335.16
453.871	1328.16
454.244	1360.7
454.618	1370.87
454.992	1377.42
455.365	1404.99
455.739	1450.64
456.112	1468.94
456.486	1470.53
456.859	1471.2
457.232	1469.4
457.606	1490.19
457.979	1549.62
458.352	1538.1
458.725	1539.68
459.099	1554.82
459.472	1597.3
459.845	1620.58
460.218	1609.73
460.591	1603.18
460.964	1624.19
461.337	1683.18
461.71	1679.33
462.083	1694.7
462.456	1718.88
462.829	1743.06
463.201	1754.36
463.574	1762.04
463.947	1780.35
464.32	1798.88
464.692	1819.9
465.065	1821.03
465.438	1865.54
465.81	1896.05
466.183	1887.01
466.555	1926.56
466.928	1960.23
467.3	1952.55
467.672	1976.28
468.045	2026.44
468.417	2018.08
468.789	2009.27
469.161	2059.89
469.534	2112.09
469.906	2154.58
470.278	2171.52
470.65	2152.54
471.022	2241.58
471.394	2267.79
471.766	2264.86
472.138	2336.27
472.51	2328.13
472.882	2356.38
473.253	2390.28
473.625	2439.31
473.997	2476.83
474.369	2508.69
474.74	2508.69
475.112	2540.78
475.484	2625.3
475.855	2641.12
476.227	2640.89
476.598	2715.69
476.97	2733.77
477.341	2759.98
477.713	2818.74
478.084	2825.74
478.455	2905.06
478.827	2932.86
479.198	3039.52
479.569	3031.62
479.94	3119.52
480.311	3158.84
480.682	3205.4
481.053	3201.33
481.424	3309.8
481.795	3328.1
482.166	3376.24
482.537	3437.93
482.908	3523.58
483.279	3535.78
483.65	3596.12
484.021	3644.93
484.391	3705.72
484.762	3727.64
485.133	3790.92
485.503	3817.36
485.874	3905.72
486.244	3885.15
486.615	4002.89
486.985	4058.25
487.356	4117.24
487.726	4161.08
488.097	4207.18
488.467	4219.38
488.837	4339.38
489.207	4338.25
489.578	4438.58
489.948	4476.77
490.318	4548.86
490.688	4504.8
491.058	4636.77
491.428	4695.3
491.798	4701.63
492.168	4815.3
492.538	4743.21
492.908	4854.39
493.278	4855.3
493.648	4917.67
494.017	5040.15
494.387	5031.34
494.757	5086.48
495.126	5161.95
495.496	5193.59
495.866	5196.08
496.235	5301.61
496.605	5262.97
496.974	5318.79
497.344	5412.57
497.713	5443.76
498.082	5473.13
498.452	5503.87
498.821	5549.29
499.19	5564.88
499.559	5617.31
499.928	5668.16
500.298	5680.13
500.667	5674.71
501.036	5749.74
501.405	5833.12
501.774	5836.51
502.143	5855.95
502.512	5881.03
502.88	5980.01
503.249	5939.79
503.618	6009.16
503.987	6024.3
504.356	6140.69
504.724	6125.55
505.093	6163.51
505.462	6202.38
505.83	6167.35
506.199	6285.99
506.567	6349.95
506.936	6367.8
507.304	6407.8
507.672	6453.9
508.041	6507.23
508.409	6542.48
508.777	6540.22
509.145	6713.1
509.514	6689.15
509.882	6718.75
510.25	6779.31
510.618	6814.11
510.986	6831.52
511.354	6835.58
511.722	6977.95
512.09	7023.37
512.458	6949.48
512.826	7045.29
513.193	7056.82
513.561	7137.5
513.929	7198.51
514.297	7309.47
514.664	7316.47
515.032	7349.47
515.4	7405.96
515.767	7522.8
516.135	7484.61
516.502	7453.65
516.869	7694.54
517.237	7642.79
517.604	7651.38
517.972	7739.29
518.339	7869.68
518.706	7806.4
519.073	7885.5
519.44	7957.36
519.808	8034.65
520.175	8026.96
520.542	8144.25
520.909	8148.77
521.276	8195.32
521.643	8308.31
522.009	8348.99
522.376	8400.97
522.743	8472.83
523.11	8560.51
523.477	8613.16
523.843	8693.16
524.21	8702.43
524.577	8787.62
524.943	8846.15
525.31	8951.46
525.676	9029.42
526.043	9096.09
526.409	9184.22
526.776	9234.84
527.142	9264.9
527.508	9319.81
527.874	9358.68
528.241	9434.16
528.607	9500.82
528.973	9540.14
529.339	9538.79
529.705	9677.77
530.071	9781.27
530.437	9771.78
530.803	9868.95
531.169	9890.19
531.535	9932
531.901	9910.3
532.267	10011.32
532.632	10079.11
532.998	10075.72
533.364	10208.83
533.73	10221.93
534.095	10282.95
534.461	10350.74
534.826	10366.34
535.192	10459.44
535.557	10528.82
535.923	10485.88
536.288	10503.28
536.653	10615.82
537.019	10626.22
537.384	10635.26
537.749	10673.22
538.114	10757.74
538.479	10661.47
538.845	10799.55
539.21	10838.42
539.575	10866.21
539.94	10949.83
540.305	11016.94
540.67	11061.46
541.034	11056.71
541.399	11091.97
541.764	11114.11
542.129	11145.07
542.494	11179.2
542.858	11253.55
543.223	11257.16
543.587	11305.3
543.952	11301.91
544.316	11335.13
544.681	11448.34
545.045	11442.02
545.41	11552.52
545.774	11589.58
546.138	11486.99
546.503	11631.16
546.867	11670.26
547.231	11749.8
547.595	11747.32
547.959	11790.03
548.324	11784.83
548.688	11862.12
549.052	11811.27
549.416	11882.91
549.779	11878.61
550.143	11926.52
550.507	12154.54
550.871	12105.05
551.235	12109.34
551.599	12190.7
551.962	12168.1
552.326	12221.66
552.689	12387.53
553.053	12314.99
553.417	12386.4
553.78	12499.16
554.143	12553.85
554.507	12559.95
554.87	12635.66
555.234	12701.64
555.597	12666.16
555.96	12696.45
556.323	12789.78
556.686	12732.6
557.05	12934.63
557.413	12883.56
557.776	12975.08
558.139	13048.98
558.502	13112.25
558.865	13124.91
559.228	13224.57
559.59	13312.02
559.953	13319.48
560.316	13415.75
560.679	13458.69
561.041	13488.74
561.404	13580.26
561.767	13710.2
562.129	13668.85
562.492	13867.04
562.854	13825.91
563.217	13821.84
563.579	13853.48
563.941	13990.2
564.304	14024.77
564.666	14106.13
565.028	14197.42
565.39	14158.78
565.753	14328.72
566.115	14390.86
566.477	14424.76
566.839	14491.43
567.201	14548.83
567.563	14622.27
567.925	14641.48
568.287	14640.35
568.648	14609.39
569.01	14770.74
569.372	14888.48
569.734	14885.99
570.095	14948.82
570.457	14943.84
570.819	15093.22
571.18	14992.66
571.542	15177.28
571.903	15172.09
572.265	15236.04
572.626	15290.28
572.987	15310.39
573.349	15296.38
573.71	15390.84
574.071	15438.97
574.432	15462.25
574.794	15644.16
575.155	15642.13
575.516	15527.56
575.877	15603.94
576.238	15605.97
576.599	15723.03
576.96	15781.11
577.32	15795.12
577.681	15756.7
578.042	15870.15
578.403	15801.22
578.763	15833.31
579.124	15900.43
579.485	15921.45
579.845	16000.99
580.206	15868.57
580.566	16016.13
580.927	16062.68
581.287	16078.73
581.648	16035.34
582.008	16133.42
582.368	16044.61
582.728	16090.03
583.089	16065.17
583.449	16098.16
583.809	16051.39
584.169	16189.24
584.529	16057.04
584.889	16164.38
585.249	16113.08
585.609	16049.8
585.969	16198.27
586.329	16132.06
586.688	16183.59
587.048	16197.37
587.408	16161.21
587.768	16105.17
588.127	16127.99
588.487	16113.08
588.846	16151.95
589.206	16194.21
589.565	16137.94
589.925	16281.66
590.284	16208.44
590.643	16257.03
591.003	16190.59
591.362	16313.3
591.721	16289.35
592.08	16261.32
592.44	16311.72
592.799	16244.38
593.158	16320.53
593.517	16308.1
593.876	16247.99
594.235	16299.06
594.593	16241.21
594.952	16306.75
595.311	16276.69
595.67	16297.93
596.029	16434.88
596.387	16424.94
596.746	16399.63
597.104	16318.72
597.463	16334.77
597.822	16466.74
598.18	16405.5
598.538	16420.42
598.897	16484.59
599.255	16325.28
599.613	16629.22
599.972	16546.51
600.33	16513.52
600.688	16535.21
601.046	16506.06
601.404	16563.46
601.762	16535.89
602.12	16622.44
602.478	16568.89
602.836	16724.81
603.194	16497.25
603.552	16611.15
603.91	16654.53
604.268	16740.18
604.625	16620.86
604.983	16720.75
605.341	16631.94
605.698	16725.49
606.056	16740.18
606.413	16693.4
606.771	16789.22
607.128	16811.82
607.485	16679.17
607.843	16759.62
608.2	16761.65
608.557	16770.01
608.914	16777.02
609.272	16871.48
609.629	16965.49
609.986	17041.42
610.343	16906.5
610.7	17137.01
611.057	17040.74
611.414	17054.52
611.771	17014.3
612.127	17078.48
612.484	17017.91
612.841	17073.96
613.198	17119.15
613.554	17051.81
613.911	17184.92
614.267	17152.83
614.624	17235.99
614.98	17140.85
615.337	17201.41
615.693	17171.13
616.05	17178.59
616.406	17309.21
616.762	17243.9
617.118	17256.33
617.475	17284.12
617.831	17383.78
618.187	17374.97
618.543	17385.36
618.899	17401.63
619.255	17366.83
619.611	17315.31
619.967	17337.45
620.323	17541.52
620.678	17407.28
621.034	17316.89
621.39	17447.06
621.746	17365.93
622.101	17555.3
622.457	17385.36
622.812	17344.69
623.168	17544.45
623.523	17518.69
623.879	17616.32
624.234	17433.27
624.589	17460.61
624.945	17514.85
625.3	17548.07
625.655	17506.49
626.01	17598.69
626.365	17536.09
626.72	17492.48
627.075	17485.92
627.43	17494.96
627.785	17433.5
628.14	17529.09
628.495	17488.41
628.85	17439.6
629.205	17380.16
629.559	17519.6
629.914	17340.62
630.269	17457.68
630.623	17385.59
630.978	17327.28
631.332	17445.25
631.687	17485.02
632.041	17391.92
632.396	17312.6
632.75	17268.75
633.104	17232.82
633.459	17097.91
633.813	17255.65
634.167	17214.97
634.521	17250
634.875	17198.25
635.229	17275.76
635.583	17078.03
635.937	17101.98
636.291	17143.11
636.645	17133.62
636.999	17121.87
637.352	17107.63
637.706	17044.35
638.06	17094.3
638.413	17054.98
638.767	16994.86
639.121	17062.21
639.474	16919.61
639.828	16851.36
640.181	16910.8
640.534	16860.63
640.888	16931.81
641.241	16840.52
641.594	16857.24
641.947	16937.46
642.301	16835.77
642.654	16859.95
643.007	16910.8
643.36	16848.43
643.713	16712.61
644.066	16828.99
644.419	16710.35
644.771	16607.76
645.124	16404.14
645.477	16432.62
645.83	16289.57
646.182	16146.98
646.535	16063.36
646.888	16196.01
647.24	16052.52
647.593	16204.83
647.945	16133.19
648.298	16081.44
648.65	16116.47
649.002	16000.99
649.355	16096.36
649.707	15994.21
650.059	16185.85
650.411	16236.24
650.763	16276.01
651.115	16456.8
651.467	16452.73
651.819	16308.1
652.171	16366.63
652.523	16445.5
652.875	16352.85
653.227	16284.83
653.578	16374.09
653.93	16290.02
654.282	16240.76
654.633	16088
654.985	16145.39
655.337	16229.46
655.688	16211.38
656.039	16266.52
656.391	16095
656.742	16199.86
657.094	16149.01
657.445	16243.7
657.796	16178.39
658.147	16152.4
658.498	16214.77
658.849	16186.3
659.2	16167.99
659.551	16080.76
659.902	16128.9
660.253	16114.66
660.604	16162.57
660.955	16008.45
661.306	16050.93
661.656	16099.75
662.007	16033.99
662.358	16012.97
662.708	15973.65
663.059	16013.87
663.409	15898.17
663.76	16039.63
664.11	16024.04
664.461	16000.09
664.811	16018.84
665.161	15960.54
665.511	15881.22
665.862	15912.41
666.212	15868.79
666.562	16057.49
666.912	15974.33
667.262	15955.34
667.612	15873.76
667.962	15918.96
668.312	15883.25
668.662	15931.39
669.011	15947.43
669.361	15853.42
669.711	15904.27
670.06	15778.85
670.41	15774.33
670.76	15922.8
671.109	15910.82
671.459	15890.94
671.808	15831.5
672.157	15841.9
672.507	15730.49
672.856	15745.63
673.205	15792.86
673.554	15802.58
673.904	15735.91
674.253	15756.25
674.602	15649.59
674.951	15575.24
675.3	15442.36
675.649	15673.77
675.998	15667.44
676.346	15716.71
676.695	15644.62
677.044	15485.07
677.393	15642.36
677.741	15659.98
678.09	15601.23
678.438	15516.71
678.787	15562.36
679.135	15514.45
679.484	15410.5
679.832	15521
680.181	15422.7
680.529	15467.9
680.877	15332.53
681.225	15321.69
681.573	15429.71
681.922	15311.07
682.27	15330.73
682.618	15266.1
682.966	15392.65
683.314	15356.04
683.661	15279.88
684.009	15162.37
684.357	15152.2
684.705	15192.88
685.053	15194.69
685.4	15115.37
685.748	15035.37
686.095	15019.55
686.443	15011.41
686.79	15010.96
687.138	15165.99
687.485	15091.64
687.832	14888.48
688.18	14923.73
688.527	14825.2
688.874	14925.77
689.221	14812.77
689.568	14801.48
689.915	14814.36
690.262	14627.24
690.609	14671.76
690.956	14586.11
691.303	14613.46
691.65	14540.24
691.997	14511.09
692.344	14410.07
692.69	14448.04
693.037	14421.37
693.383	14423.63
693.73	14415.5
694.077	14334.37
694.423	14278.33
694.769	14232.22
695.116	14189.51
695.462	14189.74
695.808	14120.14
696.155	14164.2
696.501	13960.37
696.847	13995.62
697.193	13916.53
697.539	14013.7
697.885	13929.63
698.231	13792.91
698.577	13874.27
698.923	13870.88
699.269	13763.54
699.614	13692.13
699.96	13685.8
700.306	13669.53
700.651	13640.38
700.997	13556.99
701.342	13534.84
701.688	13544.56
702.033	13528.29
702.379	13470.89
702.724	13429.31
703.069	13480.61
703.415	13339.14
703.76	13303.89
704.105	13377.78
704.45	13250.33
704.795	13263.21
705.14	13224.34
705.485	13232.93
705.83	13135.08
706.175	13126.04
706.52	13044.46
706.865	13040.84
707.209	12964.91
707.554	12981.86
707.899	13050.33
708.243	12877.91
708.588	12915.65
708.932	12770.57
709.277	12816.67
709.621	12832.26
709.966	12790.23
710.31	12691.47
710.654	12637.46
710.998	12660.51
711.342	12645.15
711.687	12693.96
712.031	12607.63
712.375	12494.42
712.719	12557.92
713.063	12549.33
713.407	12519.95
713.75	12471.59
714.094	12445.6
714.438	12491.48
714.782	12430.01
715.125	12390.24
715.469	12459.16
715.812	12374.42
716.156	12283.58
716.499	12258.04
716.843	12204.93
717.186	12193.18
717.53	12268.21
717.873	12273.86
718.216	12182.11
718.559	12166.74
718.902	12081.55
719.246	12072.73
719.589	12051.94
719.932	12044.03
720.275	12076.8
720.617	11997.26
720.96	11920.2
721.303	12003.13
721.646	11902.57
721.989	11918.61
722.331	11981.44
722.674	11927.43
723.016	11918.84
723.359	11785.28
723.701	11948.44
724.044	11786.19
724.386	11749.13
724.729	11801.1
725.071	11716.36
725.413	11707.77
725.755	11769.24
726.097	11721.78
726.439	11658.51
726.782	11636.59
727.124	11688.11
727.465	11621.67
727.807	11537.15
728.149	11650.6
728.491	11599.98
728.833	11578.74
729.175	11605.18
729.516	11523.37
729.858	11516.82
730.199	11573.31
730.541	11496.25
730.882	11413.77
731.224	11524.73
731.565	11443.37
731.906	11355.92
732.248	11495.57
732.589	11336.26
732.93	11313.21
733.271	11316.37
733.612	11341.91
733.953	11249.25
734.294	11294.67
734.635	11282.47
734.976	11251.74
735.317	11274.11
735.658	11250.16
735.999	11213.55
736.339	11175.13
736.68	11104.85
737.021	11160.44
737.361	11130.84
737.702	11144.62
738.042	11100.56
738.383	11112.76
738.723	11143.27
739.063	11061.23
739.404	11118.63
739.744	11079.99
740.084	10980.78
740.424	11006.77
740.764	11054.68
741.104	11058.75
741.444	10952.54
741.784	10946.89
742.124	10892.43
742.464	10919.09
742.804	10896.49
743.143	10951.63
743.483	10831.86
743.823	10846.55
744.162	10781.69
744.502	10830.96
744.841	10850.62
745.181	10819.43
745.52	10791.64
745.86	10809.04
746.199	10798.19
746.538	10715.93
746.877	10809.04
747.216	10670.74
747.556	10654.01
747.895	10646.56
748.234	10588.93
748.573	10577.41
748.911	10607.01
749.25	10527.69
749.589	10616.95
749.928	10596.61
750.267	10599.55
750.605	10558.2
750.944	10433.45
751.283	10453.11
751.621	10440.69
751.96	10320.92
752.298	10401.36
752.636	10380.8
752.975	10324.08
753.313	10303.29
753.651	10336.28
753.989	10217.19
754.327	10228.71
754.666	10226.45
755.004	10248.6
755.342	10152.11
755.679	10233.23
756.017	10100.13
756.355	10121.82
756.693	10106.01
757.031	10117.76
