Data from black_metal_pc_casing_FLMS001491_00070.txt Node
Date: Wed Feb 08 14:33:19 GMT 2017
User: dcchb
Spectrometer: FLMS00149
Trigger mode: 0
Integration Time (sec): 2.000000E-2
Scans to average: 10
Electric dark correction enabled: true
Nonlinearity correction enabled: false
Boxcar width: 0
XAxis mode: Wavelengths
Number of Pixels in Spectrum: 2048
>>>>>Begin Spectral Data<<<<<
341.393	-29.93
341.776	-29.93
342.16	-29.93
342.543	-70.38
342.927	-92.07
343.31	-62.92
343.693	-62.24
344.077	-53.2
344.46	-57.95
344.843	-32.19
345.226	-41.45
345.61	-45.97
345.993	-10.72
346.376	-10.72
346.759	-4.17
347.142	15.04
347.525	33.35
347.908	54.36
348.291	66.57
348.674	93.46
349.057	118.77
349.44	142.72
349.823	124.64
350.206	158.99
350.588	171.42
350.971	194.7
351.354	224.75
351.737	202.83
352.119	229.27
352.502	246.9
352.884	254.58
353.267	265.2
353.65	273.11
354.032	274.24
354.414	299.55
354.797	284.41
355.179	289.16
355.562	313.79
355.944	318.99
356.326	313.57
356.709	283.06
357.091	307.46
357.473	314.92
357.855	316.28
358.238	338.65
358.62	302.04
359.002	334.81
359.384	314.24
359.766	323.51
360.148	319.44
360.53	337.52
360.912	304.3
361.294	315.83
361.676	308.14
362.057	341.36
362.439	313.57
362.821	320.12
363.203	316.05
363.584	315.6
363.966	322.6
364.348	298.65
364.729	299.33
365.111	318.76
365.493	311.31
365.874	295.26
366.256	323.06
366.637	292.55
367.019	300.46
367.4	308.37
367.781	301.59
368.163	310.4
368.544	293
368.925	313.57
369.306	315.83
369.688	321.02
370.069	285.32
370.45	316.05
370.831	300.68
371.212	318.08
371.593	289.39
371.974	289.61
372.355	295.03
372.736	289.61
373.117	278.09
373.498	293.68
373.879	302.49
374.26	291.19
374.641	292.32
375.021	304.98
375.402	318.08
375.783	317.63
376.163	322.83
376.544	312.44
376.925	328.25
377.305	314.92
377.686	320.57
378.066	319.21
378.447	338.42
378.827	341.14
379.208	322.83
379.588	328.48
379.968	321.93
380.349	320.8
380.729	339.1
381.109	325.32
381.489	352.43
381.87	314.7
382.25	319.89
382.63	343.62
383.01	334.13
383.39	330.29
383.77	341.59
384.15	320.57
384.53	340.68
384.91	341.59
385.29	346.11
385.67	342.49
386.049	353.56
386.429	356.28
386.809	337.29
387.189	361.93
387.568	356.28
387.948	363.96
388.328	367.8
388.707	368.7
389.087	349.72
389.466	380
389.846	360.8
390.225	373.9
390.605	366.67
390.984	370.51
391.363	349.5
391.743	377.52
392.122	371.87
392.501	375.71
392.881	385.2
393.26	376.16
393.639	398.08
394.018	382.94
394.397	377.74
394.776	409.38
395.155	408.48
395.534	402.6
395.913	401.02
396.292	409.61
396.671	401.47
397.05	404.41
397.429	406.22
397.808	405.99
398.186	408.93
398.565	394.02
398.944	421.58
399.323	418.42
399.701	420.91
400.08	431.3
400.458	436.27
400.837	396.05
401.215	423.62
401.594	413
401.972	425.2
402.351	398.76
402.729	420.23
403.107	434.01
403.486	438.31
403.864	439.44
404.242	462.71
404.62	452.77
404.999	439.21
405.377	450.06
405.755	462.71
406.133	447.12
406.511	442.6
406.889	462.94
407.267	463.17
407.645	471.08
408.023	481.7
408.401	464.97
408.779	451.87
409.156	476.95
409.534	477.4
409.912	483.5
410.29	502.49
410.667	490.06
411.045	498.19
411.422	493.9
411.8	495.71
412.178	494.8
412.555	509.72
412.933	516.27
413.31	542.26
413.687	514.92
414.065	521.7
414.442	526.89
414.819	547.23
415.197	539.1
415.574	547.68
415.951	550.17
416.328	549.04
416.705	543.84
417.082	562.15
417.46	559.89
417.837	572.09
418.214	567.8
418.591	564.41
418.967	542.49
419.344	579.32
419.721	577.74
420.098	568.47
420.475	588.36
420.852	615.25
421.228	601.47
421.605	611.18
421.982	576.61
422.358	617.06
422.735	601.24
423.111	604.18
423.488	617.74
423.864	602.15
424.241	612.77
424.617	609.83
424.994	633.1
425.37	636.27
425.746	634.23
426.123	629.94
426.499	648.92
426.875	643.27
427.251	668.81
427.627	674.69
428.003	659.32
428.379	697.74
428.756	677.17
429.132	686.66
429.507	693.44
429.883	692.76
430.259	719.88
430.635	710.84
431.011	741.8
431.387	740.45
431.763	736.6
432.138	736.83
432.514	758.53
432.89	743.84
433.265	770.95
433.641	766.66
434.016	774.34
434.392	779.77
434.767	810.05
435.143	812.31
435.518	788.81
435.894	826.32
436.269	802.59
436.644	825.87
437.02	845.98
437.395	841.91
437.77	829.71
438.145	847.34
438.52	865.42
438.895	865.42
439.271	858.18
439.646	892.08
440.021	857.05
440.395	893.66
440.77	879.65
441.145	897.28
441.52	909.71
441.895	923.04
442.27	912.42
442.645	921.91
443.019	921.23
443.394	915.36
443.769	939.76
444.143	928.46
444.518	931.85
444.892	942.93
445.267	949.48
445.641	922.14
446.016	941.8
446.39	956.49
446.764	937.5
447.139	969.14
447.513	973.66
447.887	974.56
448.262	970.27
448.636	1015.92
449.01	998.29
449.384	997.62
449.758	1026.77
450.132	1030.61
450.506	999.2
450.88	1037.84
451.254	1035.58
451.628	1053.43
452.002	1057.5
452.376	1075.35
452.75	1108.57
453.123	1104.73
453.497	1083.26
453.871	1077.84
454.244	1103.6
454.618	1152.41
454.992	1132.3
455.365	1115.35
455.739	1149.48
456.112	1168.46
456.486	1187.21
456.859	1187.21
457.232	1219.3
457.606	1230.15
457.979	1215.91
458.352	1230.6
458.725	1257.27
459.099	1270.83
459.472	1286.87
459.845	1297.72
460.218	1306.99
460.591	1337.95
460.964	1304.5
461.337	1354.89
461.71	1375.23
462.083	1367.77
462.456	1397.38
462.829	1378.17
463.201	1394.67
463.574	1421.11
463.947	1426.76
464.32	1459.98
464.692	1457.26
465.065	1472.86
465.438	1472.4
465.81	1487.09
466.183	1549.69
466.555	1548.11
466.928	1526.41
467.3	1596.7
467.672	1594.89
468.045	1647.32
468.417	1636.24
468.789	1607.32
469.161	1651.61
469.534	1676.92
469.906	1693.87
470.278	1740.65
470.65	1741.1
471.022	1751.72
471.394	1815.45
471.766	1826.75
472.138	1837.59
472.51	1858.84
472.882	1860.87
473.253	1922.79
473.625	1899.06
473.997	1974.76
474.369	1992.84
474.74	1981.77
475.112	2016.8
475.484	2036.68
475.855	2084.37
476.227	2103.35
476.598	2125.04
476.97	2155.78
477.341	2192.39
477.713	2241.42
478.084	2227.64
478.455	2304.25
478.827	2342.21
479.198	2368.88
479.569	2360.52
479.94	2421.08
480.311	2459.27
480.682	2494.52
481.053	2552.6
481.424	2595.99
481.795	2627.85
482.166	2676.67
482.537	2691.58
482.908	2752.6
483.279	2766.61
483.65	2784.69
484.021	2844.35
484.391	2895.64
484.762	2905.14
485.133	2953.72
485.503	2981.29
485.874	3085.47
486.244	3040.95
486.615	3146.94
486.985	3153.04
487.356	3195.3
487.726	3250.89
488.097	3303.32
488.467	3298.57
488.837	3371.56
489.207	3383.54
489.578	3433.48
489.948	3439.13
490.318	3513.03
490.688	3518.45
491.058	3616.76
491.428	3618.56
491.798	3654.72
492.168	3744.21
492.538	3760.71
492.908	3798.22
493.278	3807.03
493.648	3862.85
494.017	3890.65
494.387	3923.19
494.757	3950.08
495.126	4034.15
495.496	3997.08
495.866	4058.33
496.235	4060.81
496.605	4107.36
496.974	4148.27
497.344	4175.61
497.713	4203.18
498.082	4253.35
498.452	4270.52
498.821	4268.49
499.19	4300.58
499.559	4371.31
499.928	4371.76
500.298	4438.43
500.667	4385.32
501.036	4476.17
501.405	4522.04
501.774	4491.31
502.143	4523.17
502.512	4539.67
502.88	4618.76
503.249	4587.35
503.618	4641.14
503.987	4676.84
504.356	4691.98
504.724	4718.2
505.093	4720.91
505.462	4746.67
505.83	4780.11
506.199	4802.03
506.567	4898.08
506.936	4936.27
507.304	4952.09
507.672	5020.56
508.041	5013.1
508.409	5079.77
508.777	5091.52
509.145	5104.63
509.514	5144.4
509.882	5186.66
510.25	5174.68
510.618	5238.41
510.986	5272.76
511.354	5319.76
511.722	5331.74
512.09	5373.32
512.458	5370.16
512.826	5453.77
513.193	5460.1
513.561	5480.21
513.929	5561.11
514.297	5561.79
514.664	5613.54
515.032	5607.89
515.4	5702.12
515.767	5693.08
516.135	5741.9
516.502	5736.25
516.869	5863.93
517.237	5871.39
517.604	5844.95
517.972	5930.14
518.339	5950.71
518.706	5971.95
519.073	5994.77
519.44	6062.34
519.808	6183.24
520.175	6151.15
520.542	6229.34
520.909	6261.21
521.276	6242.67
521.643	6306.63
522.009	6402.44
522.376	6447.42
522.743	6478.15
523.11	6517.7
523.477	6591.82
523.843	6654.42
524.21	6680.4
524.577	6682.21
524.943	6806.28
525.31	6814.19
525.676	6843.11
526.043	6877.01
526.409	6928.08
526.776	6974.41
527.142	7027.74
527.508	7059.83
527.874	7155.42
528.241	7163.33
528.607	7202.42
528.973	7306.38
529.339	7262.99
529.705	7352.25
530.071	7460.04
530.437	7418.69
530.803	7511.12
531.169	7479.25
531.535	7538.69
531.901	7530.32
532.267	7639.25
532.632	7599.02
532.998	7685.35
533.364	7683.09
533.73	7774.84
534.095	7897.09
534.461	7883.31
534.826	7859.58
535.192	7928.28
535.557	7940.94
535.923	8013.25
536.288	8036.53
536.653	8070.2
537.019	8126.92
537.384	8130.76
537.749	8192.23
538.114	8147.71
538.479	8156.52
538.845	8236.07
539.21	8260.02
539.575	8306.12
539.94	8319.23
540.305	8388.61
540.67	8368.95
541.034	8360.59
541.399	8409.4
541.764	8390.87
542.129	8433.13
542.494	8574.82
542.858	8593.12
543.223	8588.83
543.587	8624.76
543.952	8612.33
544.316	8586.79
544.681	8647.13
545.045	8720.12
545.41	8768.94
545.774	8809.84
546.138	8790.4
546.503	8774.59
546.867	8866.33
547.231	8902.27
547.595	8930.51
547.959	8937.29
548.324	8939.78
548.688	8954.92
549.052	9026.56
549.416	9006.9
549.779	9055.93
550.143	9100.68
550.507	9148.81
550.871	9125.54
551.235	9184.74
551.599	9188.36
551.962	9261.58
552.326	9272.88
552.689	9391.74
553.053	9345.64
553.417	9320.11
553.78	9509.93
554.143	9443.72
554.507	9455.02
554.87	9514.45
555.234	9641.68
555.597	9556.94
555.96	9605.3
556.323	9603.04
556.686	9712.87
557.05	9719.87
557.413	9856.82
557.776	9845.52
558.139	9903.14
558.502	9921.22
558.865	9913.54
559.228	10048.68
559.59	10011.39
559.953	10080.31
560.316	10098.39
560.679	10172.97
561.041	10272.4
561.404	10279.4
561.767	10349.46
562.129	10302.68
562.492	10398.27
562.854	10437.37
563.217	10412.06
563.579	10470.13
563.941	10546.29
564.304	10534.31
564.666	10624.93
565.028	10689.34
565.39	10687.08
565.753	10740.41
566.115	10783.8
566.477	10791.48
566.839	10811.82
567.201	10979.27
567.563	10951.03
567.925	10977.01
568.287	11114.41
568.648	11028.31
569.01	11121.64
569.372	11194.64
569.734	11147.63
570.095	11193.05
570.457	11274.41
570.819	11295.88
571.18	11373.84
571.542	11413.61
571.903	11315.08
572.265	11407.51
572.626	11533.16
572.987	11518.24
573.349	11561.86
573.71	11451.35
574.071	11590.33
574.432	11652.7
574.794	11729.54
575.155	11718.92
575.516	11692.02
575.877	11745.58
576.238	11764.79
576.599	11743.55
576.96	11884.56
577.32	11843.66
577.681	11899.93
578.042	11913.03
578.403	11999.13
578.763	11894.5
579.124	11941.06
579.485	12006.59
579.845	12066.48
580.206	11975.18
580.566	12004.11
580.927	12027.16
581.287	12057.89
581.648	12083.88
582.008	12146.02
582.368	12049.53
582.728	12038.45
583.089	12130.2
583.449	12052.69
583.809	12132.92
584.169	12119.81
584.529	12064.89
584.889	12186.25
585.249	12118.9
585.609	12059.92
585.969	12139.47
586.329	12173.37
586.688	12158.45
587.048	12171.56
587.408	12073.26
587.768	12099.02
588.127	12085.46
588.487	12175.4
588.846	12250.65
589.206	12149.86
589.565	12177.21
589.925	12169.75
590.284	12157.32
590.643	12143.76
591.003	12194.16
591.362	12248.39
591.721	12148.51
592.08	12243.42
592.44	12273.7
592.799	12247.04
593.158	12212.69
593.517	12258.34
593.876	12209.3
594.235	12219.24
594.593	12231.22
594.952	12305.79
595.311	12209.3
595.67	12356.64
596.029	12293.82
596.387	12251.1
596.746	12300.59
597.104	12244.1
597.463	12230.77
597.822	12316.19
598.18	12253.59
598.538	12341.5
598.897	12408.39
599.255	12246.36
599.613	12415.85
599.972	12379.91
600.33	12438.67
600.688	12386.69
601.046	12472.57
601.404	12429.18
601.762	12429.86
602.12	12490.42
602.478	12395.28
602.836	12467.37
603.194	12454.94
603.552	12492.23
603.91	12475.96
604.268	12481.83
604.625	12515.5
604.983	12498.78
605.341	12526.8
605.698	12619.23
606.056	12559.34
606.413	12601.83
606.771	12652.45
607.128	12558.44
607.485	12505.79
607.843	12528.61
608.2	12638.21
608.557	12715.05
608.914	12678.21
609.272	12699
609.629	12673.47
609.986	12826.68
610.343	12746.46
610.7	12786.68
611.057	12785.55
611.414	12742.62
611.771	12782.62
612.127	12825.33
612.484	12817.64
612.841	12814.03
613.198	12793.69
613.554	12920.69
613.911	12930.86
614.267	12916.85
614.624	12880.47
614.98	12957.07
615.337	12974.48
615.693	12956.17
616.05	12978.54
616.406	12974.7
616.762	13013.57
617.118	12925.66
617.475	12992.78
617.831	13067.13
618.187	13059.22
618.543	13014.25
618.899	13102.61
619.255	13101.93
619.611	13091.31
619.967	13055.15
620.323	13070.07
620.678	13016.06
621.034	13070.97
621.39	13088.6
621.746	13005.66
622.101	13157.52
622.457	13086.34
622.812	13101.25
623.168	13112.32
623.523	13082.04
623.879	13200.46
624.234	13054.47
624.589	13099.9
624.945	13154.58
625.3	13225.54
625.655	13139.44
626.01	13164.75
626.365	13161.14
626.72	13114.13
627.075	13115.94
627.43	13082.04
627.785	13085.43
628.14	13008.82
628.495	13105.55
628.85	13020.8
629.205	13070.07
629.559	13171.76
629.914	13013.8
630.269	13045.21
630.623	12994.81
630.978	13004.98
631.332	13043.17
631.687	13091.53
632.041	12987.36
632.396	13116.84
632.75	12956.4
633.104	12962.72
633.459	12952.33
633.813	12856.96
634.167	12883.63
634.521	12835.5
634.875	12901.93
635.229	12831.43
635.583	12824.87
635.937	12806.57
636.291	12775.84
636.645	12847.25
636.999	12766.57
637.352	12876.4
637.706	12664.88
638.06	12793.92
638.413	12784.2
638.767	12682.51
639.121	12750.3
639.474	12684.54
639.828	12714.82
640.181	12654.26
640.534	12762.73
640.888	12583.98
641.241	12482.96
641.594	12620.36
641.947	12663.75
642.301	12590.76
642.654	12554.6
643.007	12626.46
643.36	12649.51
643.713	12551.66
644.066	12568.38
644.419	12518.44
644.771	12416.75
645.124	12356.64
645.477	12268.51
645.83	12190.77
646.182	12198.68
646.535	12090.66
646.888	12119.36
647.24	12018.57
647.593	12145.57
647.945	12092.69
648.298	11983.54
648.65	11989.19
649.002	12060.37
649.355	12010.66
649.707	12000.49
650.059	12029.42
650.411	12235.06
650.763	12239.13
651.115	12332.01
651.467	12277.09
651.819	12310.99
652.171	12285.91
652.523	12137.89
652.875	12228.73
653.227	12176.08
653.578	12278.22
653.93	12195.29
654.282	12176.3
654.633	12150.32
654.985	12191.67
655.337	12124.78
655.688	12115.51
656.039	12209.3
656.391	12115.97
656.742	12113.48
657.094	12148.96
657.445	12106.48
657.796	12103.09
658.147	12132.92
658.498	12106.02
658.849	12122.52
659.2	12062.18
659.551	12055.4
659.902	12089.75
660.253	12038.23
660.604	12101.5
660.955	12005.24
661.306	12018.12
661.656	11984.44
662.007	12016.31
662.358	11987.16
662.708	11980.83
663.059	11941.51
663.409	11959.59
663.76	12014.27
664.11	11978.34
664.461	12018.12
664.811	11942.19
665.161	11903.09
665.511	11913.49
665.862	11994.16
666.212	11948.29
666.562	11915.75
666.912	11832.36
667.262	11907.16
667.612	11857.67
667.962	11938.8
668.312	11869.65
668.662	11912.13
669.011	11954.39
669.361	11890.44
669.711	11904.22
670.06	11873.04
670.41	11821.29
670.76	11810.21
671.109	11903.99
671.459	11842.53
671.808	11799.82
672.157	11869.87
672.507	11759.59
672.856	11734.73
673.205	11730.21
673.554	11794.17
673.904	11821.29
674.253	11824
674.602	11749.87
674.951	11597.11
675.3	11536.77
675.649	11758.24
675.998	11690.22
676.346	11686.83
676.695	11761.85
677.044	11648.63
677.393	11678.24
677.741	11697.45
678.09	11653.61
678.438	11647.28
678.787	11689.09
679.135	11644.11
679.484	11620.16
679.832	11590.1
680.181	11546.72
680.529	11522.54
680.877	11563.21
681.225	11523.67
681.573	11596.88
681.922	11558.47
682.27	11456.55
682.618	11471.46
682.966	11394.4
683.314	11372.26
683.661	11421.3
684.009	11382.43
684.357	11374.74
684.705	11312.82
685.053	11399.15
685.4	11269.21
685.748	11266.27
686.095	11224.46
686.443	11230.79
686.79	11211.58
687.138	11234.63
687.485	11239.61
687.832	11210.91
688.18	11257.23
688.527	11115.09
688.874	11133.85
689.221	11086.16
689.568	11041.87
689.915	11046.84
690.262	10973.17
690.609	11037.58
690.956	10951.93
691.303	10947.64
691.65	10909.9
691.997	10845.72
692.344	10767.3
692.69	10775.44
693.037	10859.28
693.383	10741.09
693.73	10775.66
694.077	10672.39
694.423	10728.88
694.769	10683.01
695.116	10682.56
695.462	10650.02
695.808	10619.96
696.155	10560.08
696.501	10579.51
696.847	10552.39
697.193	10484.82
697.539	10488.21
697.885	10412.06
698.231	10329.57
698.577	10383.58
698.923	10438.95
699.269	10297.48
699.614	10180.2
699.96	10283.7
700.306	10280.31
700.651	10237.6
700.997	10231.27
701.342	10186.3
701.688	10215.23
702.033	10134.55
702.379	10134.1
702.724	10036.7
703.069	10141.56
703.415	9963.93
703.76	10049.58
704.105	10015.23
704.45	9953.09
704.795	9911.5
705.14	9914.44
705.485	9870.38
705.83	9895.23
706.175	9826.99
706.52	9824.28
706.865	9773.43
707.209	9817.72
707.554	9770.94
707.899	9793.77
708.243	9732.75
708.588	9666.77
708.932	9671.29
709.277	9672.87
709.621	9658.63
709.966	9556.71
710.31	9605.3
710.654	9522.81
710.998	9515.58
711.342	9562.14
711.687	9452.31
712.031	9478.3
712.375	9376.38
712.719	9336.83
713.063	9420.9
713.407	9417.28
713.75	9390.39
714.094	9412.31
714.438	9430.16
714.782	9344.74
715.125	9317.85
715.469	9292.99
715.812	9290.28
716.156	9247.12
716.499	9275.36
716.843	9251.18
717.186	9171.86
717.53	9256.15
717.873	9166.21
718.216	9214.57
718.559	9169.6
718.902	9079.44
719.246	9123.5
719.589	9082.15
719.932	9011.87
720.275	9042.83
720.617	9081.47
720.96	9067.69
721.303	9006.67
721.646	9007.8
721.989	8927.12
722.331	8920.12
722.674	8977.07
723.016	8898.2
723.359	8871.08
723.701	8873.79
724.044	8879.44
724.386	8853
724.729	8847.58
725.071	8857.97
725.413	8835.6
725.755	8825.88
726.097	8852.55
726.439	8743.85
726.782	8774.81
727.124	8756.73
727.465	8701.14
727.807	8810.52
728.149	8622.5
728.491	8655.04
728.833	8679.22
729.175	8623.18
729.516	8610.07
729.858	8625.21
730.199	8540.02
730.541	8630.41
730.882	8645.55
731.224	8621.14
731.565	8537.53
731.906	8577.98
732.248	8542.73
732.589	8537.08
732.93	8489.62
733.271	8497.53
733.612	8516.06
733.953	8499.34
734.294	8442.39
734.635	8428.83
734.976	8509.51
735.317	8442.84
735.658	8412.56
735.999	8418.44
736.339	8373.01
736.68	8418.21
737.021	8403.3
737.361	8357.2
737.702	8394.93
738.042	8358.78
738.383	8325.33
738.723	8323.75
739.063	8323.75
739.404	8321.94
739.744	8316.52
740.084	8235.84
740.424	8250.08
740.764	8302.73
741.104	8272.23
741.444	8194.04
741.784	8165.79
742.124	8132.34
742.464	8163.75
742.804	8228.16
743.143	8179.35
743.483	8137.09
743.823	8074.72
744.162	8115.85
744.502	8113.59
744.841	8040.14
745.181	8047.15
745.52	8081.5
745.86	8070.2
746.199	8051.67
746.538	7983.42
746.877	8050.76
747.216	7985.45
747.556	8016.87
747.895	7983.19
748.234	7955.85
748.573	7975.74
748.911	7945.68
749.25	7934.38
749.589	7859.13
749.928	7962.4
750.267	7896.87
750.605	7857.55
750.944	7927.6
751.283	7832.01
751.621	7871.78
751.96	7795.18
752.298	7739.36
752.636	7814.61
752.975	7729.64
753.313	7740.71
753.651	7766.7
753.989	7748.17
754.327	7700.26
754.666	7674.73
755.004	7707.95
755.342	7623.66
755.679	7675.63
756.017	7532.13
756.355	7626.14
756.693	7609.19
757.031	7571.91
757.368	7560.15
757.706	7571.91
758.044	7465.92
758.381	7544.79
758.719	7512.47
759.056	7483.55
759.394	7429.99
759.731	7434.51
760.068	7450.55
760.405	7326.94
760.743	7355.41
761.08	7359.03
761.417	7302.99
761.754	7336.21
762.091	7282.87
