Data from black_plastic_tray_FLMS001491_064.txt Node
Date: Tue Feb 07 10:40:21 GMT 2017
User: dcchb
Spectrometer: FLMS00149
Trigger mode: 0
Integration Time (sec): 2.000000E-2
Scans to average: 10
Electric dark correction enabled: true
Nonlinearity correction enabled: false
Boxcar width: 0
XAxis mode: Wavelengths
Number of Pixels in Spectrum: 2048
>>>>>Begin Spectral Data<<<<<
341.393	-2.39
341.776	-2.39
342.16	-2.39
342.543	-74.02
342.927	-61.14
343.31	-61.37
343.693	-60.24
344.077	-50.3
344.46	-59.33
344.843	-70.86
345.226	-45.55
345.61	-31.31
345.993	-13.69
346.376	-16.62
346.759	12.53
347.142	10.95
347.525	44.17
347.908	69.48
348.291	81.68
348.674	85.75
349.057	104.73
349.44	134.11
349.823	134.78
350.206	154.22
350.588	175.01
350.971	179.76
351.354	209.58
351.737	228.57
352.119	232.64
352.502	220.66
352.884	262.92
353.267	257.49
353.65	268.79
354.032	287.1
354.414	292.29
354.797	285.29
355.179	304.27
355.562	299.98
355.944	316.7
356.326	318.28
356.709	342.91
357.091	326.87
357.473	316.93
357.855	311.96
358.238	337.04
358.62	317.6
359.002	332.97
359.384	315.8
359.766	334.78
360.148	299.53
360.53	320.54
360.912	326.19
361.294	316.02
361.676	307.89
362.057	319.41
362.439	315.34
362.821	313.76
363.203	311.73
363.584	315.57
363.966	299.75
364.348	315.8
364.729	296.14
365.111	328.23
365.493	304.95
365.874	297.94
366.256	311.28
366.637	295.46
367.019	318.06
367.4	292.29
367.781	284.39
368.163	315.12
368.544	315.12
368.925	332.52
369.306	306.53
369.688	290.49
370.069	316.02
370.45	288.45
370.831	315.34
371.212	302.01
371.593	297.49
371.974	312.18
372.355	303.82
372.736	316.47
373.117	308.34
373.498	297.04
373.879	300.2
374.26	316.47
374.641	288.68
375.021	297.04
375.402	301.33
375.783	302.92
376.163	318.51
376.544	300.88
376.925	338.85
377.305	305.4
377.686	320.54
378.066	309.47
378.447	331.16
378.827	317.83
379.208	309.7
379.588	334.1
379.968	322.35
380.349	331.84
380.729	322.8
381.109	343.14
381.489	323.03
381.87	315.12
382.25	296.59
382.63	320.54
383.01	322.12
383.39	321.9
383.77	333.42
384.15	341.56
384.53	357.83
384.91	344.95
385.29	342.01
385.67	362.12
386.049	359.64
386.429	347.66
386.809	372.07
387.189	338.62
387.568	338.85
387.948	370.03
388.328	344.95
388.707	345.4
389.087	367.09
389.466	351.28
389.846	363.71
390.225	346.76
390.605	357.6
390.984	369.13
391.363	370.48
391.743	360.32
392.122	383.59
392.501	364.84
392.881	398.51
393.26	379.07
393.639	390.6
394.018	375
394.397	373.65
394.776	401.22
395.155	387.43
395.534	389.47
395.913	386.3
396.292	394.89
396.671	400.54
397.05	379.98
397.429	380.88
397.808	390.15
398.186	389.92
398.565	392.4
398.944	410.48
399.323	407.77
399.701	406.64
400.08	415
400.458	416.36
400.837	422.01
401.215	428.34
401.594	417.26
401.972	421.78
402.351	418.17
402.729	432.63
403.107	439.64
403.486	407.09
403.864	424.49
404.242	437.6
404.62	423.82
404.999	449.13
405.377	409.13
405.755	443.03
406.133	443.93
406.511	427.66
406.889	464.49
407.267	451.16
407.645	463.59
408.023	475.34
408.401	472.85
408.779	482.8
409.156	469.69
409.534	470.82
409.912	480.09
410.29	473.53
410.667	478.96
411.045	489.13
411.422	512.4
411.8	488.45
412.178	499.07
412.555	508.33
412.933	499.97
413.31	499.29
413.687	513.53
414.065	517.83
414.442	516.47
414.819	534.77
415.197	537.71
415.574	552.85
415.951	550.37
416.328	525.28
416.705	540.2
417.082	557.15
417.46	549.91
417.837	544.04
418.214	575.9
418.591	550.82
418.967	553.3
419.344	548.79
419.721	568.67
420.098	570.93
420.475	582.68
420.852	589.91
421.228	602.79
421.605	596.02
421.982	567.99
422.358	598.73
422.735	603.47
423.111	589.46
423.488	605.28
423.864	586.98
424.241	615
424.617	616.35
424.994	620.65
425.37	624.26
425.746	651.16
426.123	643.92
426.499	646.18
426.875	645.51
427.251	677.82
427.627	683.47
428.003	676.01
428.379	673.98
428.756	669.46
429.132	669.01
429.507	671.49
429.883	678.73
430.259	708.55
430.635	727.76
431.011	732.51
431.387	724.83
431.763	724.37
432.138	745.16
432.514	737.48
432.89	754.2
433.265	745.62
433.641	747.88
434.016	758.95
434.392	786.29
434.767	812.05
435.143	795.33
435.518	811.38
435.894	834.2
436.269	802.11
436.644	812.51
437.02	815.9
437.395	840.08
437.77	816.12
438.145	857.7
438.52	835.11
438.895	852.73
439.271	855.67
439.646	867.42
440.021	880.3
440.395	887.76
440.77	881.88
441.145	908.55
441.52	866.97
441.895	900.41
442.27	901.54
442.645	919.4
443.019	937.48
443.394	904.71
443.769	918.27
444.143	901.77
444.518	934.31
444.892	962.56
445.267	955.33
445.641	943.35
446.016	958.72
446.39	970.69
446.764	936.57
447.139	971.37
447.513	958.94
447.887	957.59
448.262	991.26
448.636	992.62
449.01	980.41
449.384	1012.28
449.758	1024.7
450.132	1009.34
450.506	1029.9
450.88	1038.72
451.254	1022.9
451.628	1054.53
452.002	1057.92
452.376	1066.74
452.75	1082.33
453.123	1085.27
453.497	1080.52
453.871	1090.69
454.244	1126.17
454.618	1138.6
454.992	1138.15
455.365	1144.02
455.739	1125.94
456.112	1172.27
456.486	1163.01
456.859	1205.26
457.232	1197.13
457.606	1229.67
457.979	1229.9
458.352	1240.74
458.725	1257.92
459.099	1268.77
459.472	1255.21
459.845	1289.33
460.218	1283.45
460.591	1310.35
460.964	1294.75
461.337	1347.18
461.71	1349.89
462.083	1385.15
462.456	1359.39
462.829	1378.82
463.201	1396.67
463.574	1420.85
463.947	1436.9
464.32	1471.92
464.692	1480.74
465.065	1485.94
465.438	1506.95
465.81	1507.63
466.183	1516.67
466.555	1538.82
466.928	1555.54
467.3	1565.71
467.672	1580.17
468.045	1618.36
468.417	1636.89
468.789	1645.25
469.161	1684.57
469.534	1684.57
469.906	1698.81
470.278	1723.44
470.65	1748.75
471.022	1758.7
471.394	1775.19
471.766	1761.86
472.138	1845.25
472.51	1868.75
472.882	1864.68
473.253	1875.98
473.625	1915.75
473.997	1971.8
474.369	1973.38
474.74	1996.2
475.112	1995.07
475.484	2051.8
475.855	2079.82
476.227	2073.26
476.598	2138.57
476.97	2163.66
477.341	2176.99
477.713	2228.06
478.084	2240.72
478.455	2325.46
478.827	2327.72
479.198	2378.57
479.569	2387.15
479.94	2446.59
480.311	2464.44
480.682	2507.15
481.053	2530.43
481.424	2605.68
481.795	2621.5
482.166	2642.29
482.537	2682.29
482.908	2759.35
483.279	2726.13
483.65	2843.64
484.021	2800.03
484.391	2870.98
484.762	2885.45
485.133	2971.55
485.503	3037.53
485.874	3040.02
486.244	3080.92
486.615	3151.88
486.985	3141.03
487.356	3209.51
487.726	3226.45
488.097	3289.05
488.467	3306.68
488.837	3386.9
489.207	3386.9
489.578	3499.89
489.948	3496.5
490.318	3507.13
490.688	3585.77
491.058	3592.32
491.428	3631.42
491.798	3620.34
492.168	3738.76
492.538	3756.61
492.908	3803.16
493.278	3887.68
493.648	3814.91
494.017	3883.39
494.387	3907.34
494.757	3914.57
495.126	3979.43
495.496	3949.15
495.866	4064.17
496.235	4123.61
496.605	4133.32
496.974	4100.33
497.344	4205.41
497.713	4171.06
498.082	4231.63
498.452	4259.87
498.821	4279.31
499.19	4357.5
499.559	4312.75
499.928	4372.19
500.298	4409.93
500.667	4427.55
501.036	4437.27
501.405	4457.16
501.774	4520.66
502.143	4535.8
502.512	4529.92
502.88	4595.46
503.249	4606.31
503.618	4649.69
503.987	4644.04
504.356	4675.68
504.724	4707.55
505.093	4730.37
505.462	4758.39
505.83	4813.31
506.199	4767.21
506.567	4874.77
506.936	4897.37
507.304	4917.26
507.672	4978.5
508.041	4995.9
508.409	5062.11
508.777	5029.12
509.145	5111.83
509.514	5087.65
509.882	5149.79
510.25	5106.86
510.618	5156.57
510.986	5187.08
511.354	5293.52
511.722	5321.99
512.09	5382.33
512.458	5352.05
512.826	5426.4
513.193	5463.46
513.561	5448.54
513.929	5521.76
514.297	5544.59
514.664	5618.26
515.032	5627.07
515.4	5662.32
515.767	5689.21
516.135	5768.99
516.502	5725.37
516.869	5848.98
517.237	5840.62
517.604	5827.52
517.972	5928.08
518.339	5983.67
518.706	5975.76
519.073	6059.83
519.44	6077.23
519.808	6120.16
520.175	6112.93
520.542	6220.73
520.909	6278.8
521.276	6284.45
521.643	6322.87
522.009	6412.13
522.376	6425.47
522.743	6467.5
523.11	6531
523.477	6562.41
523.843	6604.22
524.21	6705.01
524.577	6695.74
524.943	6768.51
525.31	6797.43
525.676	6866.36
526.043	6932.35
526.409	6933.48
526.776	6993.81
527.142	7030.2
527.508	7043.08
527.874	7088.5
528.241	7177.09
528.607	7188.84
528.973	7261.38
529.339	7276.52
529.705	7330.08
530.071	7400.58
530.437	7391.54
530.803	7478.77
531.169	7505.44
531.535	7492.33
531.901	7530.07
532.267	7611.65
532.632	7654.59
532.998	7593.35
533.364	7727.13
533.73	7751.99
534.095	7742.49
534.461	7820.46
534.826	7857.52
535.192	7884.86
535.557	7890.74
535.923	7971.19
536.288	7926.22
536.653	7992.43
537.019	7974.35
537.384	8069.04
537.749	8092.32
538.114	8127.79
538.479	8094.58
538.845	8199.66
539.21	8231.75
539.575	8239.88
539.94	8247.79
540.305	8280.11
540.67	8220
541.034	8322.59
541.399	8395.58
541.764	8349.94
542.129	8412.53
542.494	8415.92
542.858	8424.51
543.223	8511.51
543.587	8476.49
543.952	8551.06
544.316	8566.43
544.681	8553.09
545.045	8676.93
545.41	8667.44
545.774	8700.89
546.138	8626.54
546.503	8742.24
546.867	8776.14
547.231	8800.32
547.595	8846.19
547.959	8918.96
548.324	8897.49
548.688	8910.15
549.052	8975
549.416	8974.1
549.779	8982.24
550.143	8990.14
550.507	9095
550.871	9087.77
551.235	9109.46
551.599	9158.73
551.962	9173.19
552.326	9186.98
552.689	9360.98
553.053	9330.25
553.417	9308.55
553.78	9394.65
554.143	9405.73
554.507	9556.23
554.87	9551.71
555.234	9619.51
555.597	9579.96
555.96	9614.76
556.323	9632.84
556.686	9687.3
557.05	9704.7
557.413	9704.02
557.776	9759.16
558.139	9832.83
558.502	9905.15
558.865	9841.87
559.228	10019.27
559.59	9944.7
559.953	10123.67
560.316	10221.07
560.679	10110.34
561.041	10153.28
561.404	10233.5
561.767	10315.99
562.129	10211.36
562.492	10371.8
562.854	10397.79
563.217	10376.78
563.579	10463.33
563.941	10439.82
564.304	10520.27
564.666	10618.35
565.028	10654.73
565.39	10606.6
565.753	10665.13
566.115	10706.94
566.477	10692.7
566.839	10732.02
567.201	10850.66
567.563	10872.81
567.925	10953.26
568.287	10841.17
568.648	10907.16
569.01	11013.82
569.372	11134.95
569.734	11009.07
570.095	11075.74
570.457	11139.24
570.819	11207.94
571.18	11237.32
571.542	11266.02
571.903	11299.24
572.265	11341.5
572.626	11379.23
572.987	11311.21
573.349	11406.8
573.71	11432.34
574.071	11427.37
574.432	11426.01
574.794	11495.84
575.155	11502.62
575.516	11513.24
575.877	11563.86
576.238	11592.56
576.599	11590.75
576.96	11589.4
577.32	11619.23
577.681	11624.43
578.042	11694.71
578.403	11779.45
578.763	11646.8
579.124	11802.05
579.485	11830.07
579.845	11834.36
580.206	11853.12
580.566	11806.12
580.927	11762.73
581.287	11896.06
581.648	11724.76
582.008	11994.81
582.368	11868.49
582.728	11884.31
583.089	11850.41
583.449	11856.96
583.809	11917.75
584.169	11947.36
584.529	11938.54
584.889	11974.25
585.249	11904.87
585.609	11887.47
585.969	11980.35
586.329	11924.98
586.688	12014.47
587.048	12021.7
587.408	11826.68
587.768	11933.8
588.127	11965.89
588.487	11882.72
588.846	11931.76
589.206	11934.7
589.565	11961.82
589.925	12058.31
590.284	11961.37
590.643	12039.1
591.003	12013.12
591.362	12081.82
591.721	12026.45
592.08	12090.85
592.44	12073.23
592.799	12076.62
593.158	12055.83
593.517	12052.21
593.876	12161.36
594.235	12137.86
594.593	12067.58
594.952	12141.93
595.311	12044.75
595.67	12051.99
596.029	12254.92
596.387	12176.5
596.746	12110.29
597.104	12062.61
597.463	12101.93
597.822	12179.67
598.18	12129.95
598.538	12091.08
598.897	12151.19
599.255	12068.26
599.613	12237.07
599.972	12156.16
600.33	12171.08
600.688	12122.72
601.046	12247.69
601.404	12315.93
601.762	12241.36
602.12	12267.57
602.478	12274.58
602.836	12323.39
603.194	12276.84
603.552	12340.34
603.91	12377.17
604.268	12337.18
604.625	12341.47
604.983	12323.62
605.341	12257.86
605.698	12277.06
606.056	12346.44
606.413	12294.92
606.771	12410.62
607.128	12428.92
607.485	12320.23
607.843	12301.24
608.2	12339.44
608.557	12412.88
608.914	12395.03
609.272	12445.65
609.629	12447.91
609.986	12469.83
610.343	12475.48
610.7	12504.4
611.057	12491.3
611.414	12486.32
611.771	12431.41
612.127	12519.77
612.484	12490.84
612.841	12548.7
613.198	12423.5
613.554	12572.65
613.911	12634.12
614.267	12656.04
614.624	12478.19
614.98	12536.94
615.337	12614.91
615.693	12635.7
616.05	12624.85
616.406	12698.07
616.762	12610.16
617.118	12559.77
617.475	12606.55
617.831	12620.56
618.187	12628.02
618.543	12637.05
618.899	12663.04
619.255	12730.61
619.611	12667.11
619.967	12744.62
620.323	12743.27
620.678	12649.03
621.034	12616.26
621.39	12748.69
621.746	12694.45
622.101	12814.45
622.457	12692.19
622.812	12762.7
623.168	12798.86
623.523	12757.05
623.879	12774.23
624.234	12695.36
624.589	12733.55
624.945	12685.87
625.3	12750.27
625.655	12783.94
626.01	12832.76
626.365	12810.38
626.72	12741.01
627.075	12749.59
627.43	12751.18
627.785	12737.62
628.14	12824.62
628.495	12747.79
628.85	12710.73
629.205	12674.57
629.559	12613.33
629.914	12659.43
630.269	12690.39
630.623	12619.88
630.978	12604.74
631.332	12640.44
631.687	12777.84
632.041	12641.12
632.396	12617.62
632.75	12563.16
633.104	12530.62
633.459	12597.51
633.813	12505.98
634.167	12559.32
634.521	12569.26
634.875	12506.44
635.229	12458.53
635.583	12459.66
635.937	12350.06
636.291	12438.42
636.645	12380.56
636.999	12357.29
637.352	12453.78
637.706	12279.32
638.06	12371.3
638.413	12335.37
638.767	12338.31
639.121	12380.11
639.474	12187.58
639.828	12324.07
640.181	12258.08
640.534	12245.2
640.888	12224.64
641.241	12083.17
641.594	12171.76
641.947	12137.41
642.301	12215.14
642.654	12215.37
643.007	12109.61
643.36	12166.33
643.713	12119.1
644.066	12173.56
644.419	12082.49
644.771	12017.86
645.124	11950.97
645.477	11923.85
645.83	11806.79
646.182	11759.79
646.535	11636.63
646.888	11663.75
647.24	11590.75
647.593	11631.66
647.945	11673.01
648.298	11612.22
648.65	11585.33
649.002	11522.96
649.355	11694.03
649.707	11581.72
650.059	11663.97
650.411	11705.78
650.763	11813.35
651.115	11935.6
651.467	11883.18
651.819	11869.84
652.171	11861.26
652.523	11791.88
652.875	11838.21
653.227	11702.39
653.578	11827.13
653.93	11692.9
654.282	11722.05
654.633	11707.14
654.985	11741.71
655.337	11748.04
655.688	11642.96
656.039	11681.37
656.391	11637.53
656.742	11724.99
657.094	11634.14
657.445	11728.6
657.796	11647.7
658.147	11661.26
658.498	11647.93
658.849	11662.62
659.2	11652.9
659.551	11592.11
659.902	11589.17
660.253	11633.24
660.604	11610.19
660.955	11509.17
661.306	11514.82
661.656	11526.35
662.007	11583.75
662.358	11601.83
662.708	11564.09
663.059	11515.95
663.409	11369.74
663.76	11550.3
664.11	11511.43
664.461	11571.09
664.811	11521.83
665.161	11547.14
665.511	11483.64
665.862	11509.85
666.212	11577.42
666.562	11520.25
666.912	11507.82
667.262	11438.22
667.612	11413.36
667.962	11389.86
668.312	11379.69
668.662	11397.77
669.011	11316.41
669.361	11323.42
669.711	11355.73
670.06	11329.29
670.41	11223.98
670.76	11257.2
671.109	11289.07
671.459	11250.65
671.808	11198.45
672.157	11273.25
672.507	11190.31
672.856	11210.2
673.205	11174.72
673.554	11236.64
673.904	11209.75
674.253	11287.94
674.602	11232.12
674.951	11046.59
675.3	10980.83
675.649	11113.48
675.998	11144.89
676.346	11167.94
676.695	11240.71
677.044	11172.01
677.393	11145.57
677.741	11174.27
678.09	11104.44
678.438	10979.25
678.787	11149.64
679.135	11068.73
679.484	10977.44
679.832	11108.51
680.181	11065.34
680.529	11026.7
680.877	11025.8
681.225	11049.98
681.573	11086.81
681.922	10988.06
682.27	10890.66
682.618	10899.7
682.966	10943.31
683.314	10931.56
683.661	10979.47
684.009	10819.25
684.357	10888.63
684.705	10897.44
685.053	10877.33
685.4	10847.27
685.748	10706.03
686.095	10729.76
686.443	10723.66
686.79	10740.61
687.138	10635.75
687.485	10784.9
687.832	10667.16
688.18	10658.8
688.527	10613.61
688.874	10610.89
689.221	10577.9
689.568	10506.72
689.915	10599.37
690.262	10581.06
690.609	10493.83
690.956	10495.42
691.303	10374.29
691.65	10423.55
691.997	10437.79
692.344	10358.47
692.69	10342.2
693.037	10352.6
693.383	10232.37
693.73	10338.13
694.077	10245.93
694.423	10259.04
694.769	10266.04
695.116	10235.54
695.462	10146.5
695.808	10143.11
696.155	10136.78
696.501	10066.5
696.847	10150.79
697.193	9986.5
697.539	10135.65
697.885	10028.76
698.231	9905.15
698.577	9953.74
698.923	9931.36
699.269	9876.22
699.614	9774.53
699.96	9817.69
700.306	9777.47
700.651	9705.38
700.997	9689.79
701.342	9701.99
701.688	9691.14
702.033	9579.96
702.379	9667.87
702.724	9675.32
703.069	9627.87
703.415	9535.67
703.76	9600.52
704.105	9551.94
704.45	9475.1
704.795	9499.28
705.14	9408.67
705.485	9441.21
705.83	9377.48
706.175	9353.75
706.52	9395.33
706.865	9325.96
707.209	9329.8
707.554	9254.77
707.899	9253.87
708.243	9213.42
708.588	9203.92
708.932	9175.45
709.277	9207.77
709.621	9192.17
709.966	9205.05
710.31	9182.68
710.654	9043.48
710.998	9060.88
711.342	9061.33
711.687	9077.37
712.031	8984.27
712.375	8944.95
712.719	8984.27
713.063	9007.32
713.407	8952.86
713.75	8915.8
714.094	8866.08
714.438	8788.12
714.782	8825.18
715.125	8839.19
715.469	8842.58
715.812	8713.32
716.156	8711.51
716.499	8719.64
716.843	8752.64
717.186	8717.16
717.53	8741.34
717.873	8721
718.216	8663.37
718.559	8623.15
718.902	8589.03
719.246	8636.26
719.589	8569.14
719.932	8545.64
720.275	8546.31
720.617	8568.46
720.96	8478.75
721.303	8476.03
721.646	8491.85
721.989	8488.69
722.331	8481.01
722.674	8428.58
723.016	8471.97
723.359	8415.02
723.701	8441.68
724.044	8382.7
724.386	8331.63
724.729	8385.19
725.071	8350.61
725.413	8372.76
725.755	8280.11
726.097	8231.97
726.439	8235.36
726.782	8212.31
727.124	8262.71
727.465	8254.35
727.807	8196.95
728.149	8195.36
728.491	8196.95
728.833	8130.73
729.175	8163.73
729.516	8116.04
729.858	8151.75
730.199	8172.54
730.541	8164.4
730.882	8081.69
731.224	8144.97
731.565	8083.28
731.906	8078.76
732.248	8034.69
732.589	8033.79
732.93	8036.5
733.271	7997.85
733.612	8015.03
733.953	8040.11
734.294	7994.01
734.635	8004.41
734.976	7960.12
735.317	7940.68
735.658	7959.21
735.999	7935.71
736.339	7918.31
736.68	7880.57
737.021	7903.17
737.361	7888.48
737.702	7883.96
738.042	7859.33
738.383	7809.61
738.723	7828.59
739.063	7770.97
739.404	7784.53
739.744	7754.92
740.084	7729.84
740.424	7751.53
740.764	7715.38
741.104	7765.09
741.444	7667.24
741.784	7735.71
742.124	7705.43
742.464	7735.04
742.804	7686.68
743.143	7727.81
743.483	7691.2
743.823	7660.24
744.162	7656.39
744.502	7692.1
744.841	7650.52
745.181	7632.21
745.52	7649.62
745.86	7640.35
746.199	7569.84
746.538	7590.63
746.877	7598.32
747.216	7610.75
747.556	7574.14
747.895	7558.32
748.234	7523.74
748.573	7492.78
748.911	7486.23
749.25	7541.6
749.589	7456.17
749.928	7474.25
750.267	7440.58
750.605	7398.1
750.944	7363.97
751.283	7380.02
751.621	7416.4
751.96	7337.31
752.298	7319
752.636	7351.54
752.975	7316.97
753.313	7319
753.651	7310.19
753.989	7305.9
754.327	7253.24
754.666	7204.2
755.004	7260.25
755.342	7201.04
755.679	7251.66
756.017	7180.02
756.355	7112.45
756.693	7159.46
757.031	7118.1
757.368	7149.97
757.706	7180.7
758.044	7071.33
758.381	7169.63
758.719	7061.16
759.056	7074.49
759.394	7043.08
759.731	6992.91
760.068	6946.13
760.405	6922.85
760.743	6927.37
761.08	6949.75
761.417	6818.68
761.754	6849.41
762.091	6837.66
762.428	6866.36
762.765	6789.75
