Data from black_plastic_tray_FLMS001491_056.txt Node
Date: Tue Feb 07 10:40:09 GMT 2017
User: dcchb
Spectrometer: FLMS00149
Trigger mode: 0
Integration Time (sec): 2.000000E-2
Scans to average: 10
Electric dark correction enabled: true
Nonlinearity correction enabled: false
Boxcar width: 0
XAxis mode: Wavelengths
Number of Pixels in Spectrum: 2048
>>>>>Begin Spectral Data<<<<<
341.393	-5.96
341.776	-5.96
342.16	-5.96
342.543	-64.49
342.927	-62.68
343.31	-47.54
343.693	-102.23
344.077	-77.37
344.46	-56.81
344.843	-52.06
345.226	-26.75
345.61	-33.53
345.993	-21.78
346.376	-9.8
346.759	15.73
347.142	19.58
347.525	29.52
347.908	74.26
348.291	72
348.674	99.57
349.057	117.2
349.44	128.73
349.823	148.61
350.206	161.94
350.588	171.89
350.971	215.73
351.354	223.86
351.737	224.77
352.119	247.37
352.502	239.68
352.884	266.35
353.267	266.57
353.65	270.64
354.032	311.55
354.414	292.79
354.797	293.01
355.179	320.81
355.562	324.2
355.944	320.36
356.326	319.68
356.709	307.25
357.091	329.85
357.473	342.96
357.855	333.24
358.238	330.98
358.62	332.11
359.002	319.23
359.384	322.84
359.766	342.96
360.148	342.05
360.53	329.85
360.912	311.77
361.294	312.68
361.676	317.42
362.057	340.47
362.439	330.3
362.821	316.29
363.203	314.26
363.584	329.17
363.966	306.57
364.348	308.83
364.729	304.77
365.111	305.22
365.493	316.74
365.874	312
366.256	308.83
366.637	312
367.019	312.68
367.4	335.27
367.781	317.65
368.163	328.04
368.544	312.45
368.925	298.89
369.306	313.58
369.688	314.48
370.069	300.25
370.45	307.93
370.831	325.33
371.212	310.64
371.593	317.2
371.974	310.19
372.355	283.52
372.736	326.23
373.117	314.03
373.498	333.01
373.879	302.96
374.26	323.97
374.641	324.43
375.021	315.61
375.402	301.6
375.783	329.62
376.163	329.17
376.544	322.62
376.925	332.34
377.305	319.68
377.686	350.19
378.066	340.92
378.447	310.42
378.827	329.62
379.208	353.35
379.588	330.3
379.968	362.17
380.349	342.28
380.729	324.43
381.109	342.05
381.489	346.35
381.87	354.48
382.25	349.51
382.63	359.68
383.01	357.87
383.39	360.58
383.77	349.06
384.15	364.43
384.53	359.68
384.91	374.37
385.29	346.12
385.67	366.01
386.049	366.91
386.429	393.13
386.809	387.93
387.189	377.53
387.568	353.58
387.948	354.71
388.328	358.78
388.707	379.79
389.087	382.28
389.466	376.63
389.846	373.24
390.225	385.22
390.605	391.09
390.984	390.64
391.363	403.29
391.743	392
392.122	393.8
392.501	387.93
392.881	390.41
393.26	401.71
393.639	404.65
394.018	421.15
394.397	417.31
394.776	419.34
395.155	402.39
395.534	422.28
395.913	428.15
396.292	406.01
396.671	430.86
397.05	433.35
397.429	441.03
397.808	425.44
398.186	427.7
398.565	443.52
398.944	438.32
399.323	437.64
399.701	431.99
400.08	442.39
400.458	437.42
400.837	464.54
401.215	473.8
401.594	451.65
401.972	435.61
402.351	441.03
402.729	456.17
403.107	480.58
403.486	492.78
403.864	472.22
404.242	465.21
404.62	470.86
404.999	483.97
405.377	477.87
405.755	501.82
406.133	503.4
406.511	467.47
406.889	502.73
407.267	512.22
407.645	513.8
408.023	534.36
408.401	541.82
408.779	497.3
409.156	544.08
409.534	556.06
409.912	525.78
410.29	535.49
410.667	553.35
411.045	538.66
411.422	561.48
411.8	517.64
412.178	577.3
412.555	546.79
412.933	563.74
413.31	583.85
413.687	574.82
414.065	579.11
414.442	590.63
414.819	595.61
415.197	596.96
415.574	607.58
415.951	593.57
416.328	643.97
416.705	620.69
417.082	598.54
417.46	615.72
417.837	628.37
418.214	632.22
418.591	657.98
418.967	662.04
419.344	664.08
419.721	654.59
420.098	641.25
420.475	660.91
420.852	665.89
421.228	668.82
421.605	668.15
421.982	668.37
422.358	687.81
422.735	687.35
423.111	702.27
423.488	694.36
423.864	676.28
424.241	734.13
424.617	703.17
424.994	715.83
425.37	742.95
425.746	744.53
426.123	727.13
426.499	747.69
426.875	763.51
427.251	748.14
427.627	783.4
428.003	796.05
428.379	794.02
428.756	770.97
429.132	791.31
429.507	801.7
429.883	808.93
430.259	828.59
430.635	832.89
431.011	829.05
431.387	853.23
431.763	859.78
432.138	843.06
432.514	882.38
432.89	894.13
433.265	890.51
433.641	912.21
434.016	903.17
434.392	937.29
434.767	942.94
435.143	949.04
435.518	960.12
435.894	954.47
436.269	961.25
436.644	967.8
437.02	995.82
437.395	989.04
437.77	1011.87
438.145	1028.59
438.52	1015.26
438.895	1016.39
439.271	1025.65
439.646	1019.32
440.021	1039.21
440.395	1061.13
440.77	1042.83
441.145	1042.6
441.52	1095.93
441.895	1058.42
442.27	1080.56
442.645	1104.74
443.019	1101.36
443.394	1080.34
443.769	1102.94
444.143	1111.98
444.518	1121.69
444.892	1138.42
445.267	1112.43
445.641	1144.52
446.016	1135.93
446.39	1140
446.764	1142.94
447.139	1138.87
447.513	1169.83
447.887	1182.26
448.262	1171.18
448.636	1188.81
449.01	1217.96
449.384	1236.72
449.758	1197.62
450.132	1220.45
450.506	1230.62
450.88	1241.24
451.254	1245.98
451.628	1246.66
452.002	1269.49
452.376	1305.87
452.75	1282.37
453.123	1290.05
453.497	1321.46
453.871	1328.92
454.244	1332.08
454.618	1377.51
454.992	1390.84
455.365	1382.7
455.739	1414.12
456.112	1422.7
456.486	1444.62
456.859	1453.89
457.232	1473.32
457.606	1467.45
457.979	1492.98
458.352	1491.63
458.725	1525.07
459.099	1549.03
459.472	1551.29
459.845	1592.87
460.218	1592.42
460.591	1577.95
460.964	1622.02
461.337	1625.41
461.71	1623.15
462.083	1677.16
462.456	1702.47
462.829	1664.96
463.201	1716.48
463.574	1739.08
463.947	1749.02
464.32	1799.42
464.692	1774.78
465.065	1827.21
465.438	1865.18
465.81	1863.14
466.183	1889.36
466.555	1902.92
466.928	1925.06
467.3	1932.52
467.672	1959.64
468.045	1990.37
468.417	2013.42
468.789	2034.21
469.161	2035.34
469.534	2071.73
469.906	2113.31
470.278	2144.49
470.65	2150.59
471.022	2172.29
471.394	2214.09
471.766	2214.55
472.138	2238.5
472.51	2294.32
472.882	2328.89
473.253	2361.89
473.625	2381.55
473.997	2462.45
474.369	2458.83
474.74	2500.41
475.112	2518.72
475.484	2570.02
475.855	2602.11
476.227	2631.48
476.598	2683.69
476.97	2680.52
477.341	2752.61
477.713	2797.58
478.084	2803.01
478.455	2879.16
478.827	2898.14
479.198	2988.54
479.569	2988.31
479.94	3074.86
480.311	3130.45
480.682	3122.32
481.053	3194.41
481.424	3288.42
481.795	3315.53
482.166	3354.63
482.537	3415.19
482.908	3482.31
483.279	3464
483.65	3543.78
484.021	3606.6
484.391	3678.24
484.762	3697.67
485.133	3736.09
485.503	3767.95
485.874	3858.34
486.244	3856.99
486.615	3897.67
486.985	4006.82
487.356	4064.22
487.726	4115.74
488.097	4189.64
488.467	4178.34
488.837	4251.78
489.207	4312.34
489.578	4368.39
489.948	4414.04
490.318	4443.41
490.688	4455.62
491.058	4494.26
491.428	4590.08
491.798	4644.54
492.168	4739.23
492.538	4683.18
492.908	4789.62
493.278	4876.85
493.648	4860.58
494.017	4856.51
494.387	4948.71
494.757	4981.48
495.126	5094.24
495.496	4980.8
495.866	5115.49
496.235	5148.48
496.605	5218.99
496.974	5209.27
497.344	5306.67
497.713	5353.67
498.082	5392.77
498.452	5398.64
498.821	5406.33
499.19	5471.18
499.559	5486.55
499.928	5564.06
500.298	5618.75
500.667	5647.22
501.036	5638.64
501.405	5716.15
501.774	5728.8
502.143	5769.26
502.512	5752.53
502.88	5820.1
503.249	5887.22
503.618	5966.76
503.987	5912.3
504.356	6001.57
504.724	5980.32
505.093	6106.2
505.462	6102.81
505.83	6144.84
506.199	6177.83
506.567	6284.72
506.936	6276.13
507.304	6364.72
507.672	6383.7
508.041	6434.1
508.409	6425.73
508.777	6504.38
509.145	6534.88
509.514	6555
509.882	6603.36
510.25	6571.49
510.618	6690.59
510.986	6714.31
511.354	6800.19
511.722	6863.92
512.09	6987.75
512.458	6936.23
512.826	6988.66
513.193	7067.75
513.561	7088.54
513.929	7109.33
514.297	7145.26
514.664	7265.03
515.032	7232.95
515.4	7324.24
515.767	7394.98
516.135	7390.68
516.502	7360.63
516.869	7516.1
517.237	7564.46
517.604	7558.13
517.972	7606.04
518.339	7717.23
518.706	7653.05
519.073	7800.16
519.44	7823.89
519.808	7935.3
520.175	7910.67
520.542	8011.46
520.909	8088.74
521.276	8127.61
521.643	8224.33
522.009	8222.07
522.376	8233.6
522.743	8320.83
523.11	8416.19
523.477	8454.38
523.843	8535.96
524.21	8687.14
524.577	8606.92
524.943	8688.95
525.31	8807.59
525.676	8882.39
526.043	8965.56
526.409	8946.12
526.776	9104.31
527.142	9062.5
527.508	9083.97
527.874	9160.58
528.241	9286.22
528.607	9303.17
528.973	9424.53
529.339	9373.23
529.705	9517.41
530.071	9585.65
530.437	9628.81
530.803	9642.37
531.169	9678.53
531.535	9696.61
531.901	9685.99
532.267	9821.35
532.632	9851.63
532.998	9879.66
533.364	9989.48
533.73	10030.61
534.095	10067.9
534.461	10109.25
534.826	10186.77
535.192	10109.71
535.557	10278.52
535.923	10234
536.288	10311.51
536.653	10391.96
537.019	10403.26
537.384	10454.1
537.749	10533.88
538.114	10545.4
538.479	10599.18
538.845	10641.22
539.21	10637.6
539.575	10656.81
539.94	10761.89
540.305	10745.85
540.67	10729.12
541.034	10726.19
541.399	10886.86
541.764	10880.08
542.129	10914.66
542.494	10986.75
542.858	10961.21
543.223	10965.73
543.587	11046.18
543.952	11090.92
544.316	11089.12
544.681	11091.15
545.045	11167.76
545.41	11257.7
545.774	11276
546.138	11269
546.503	11398.03
546.867	11361.2
547.231	11504.25
547.595	11483.68
547.959	11571.14
548.324	11459.27
548.688	11581.53
549.052	11584.7
549.416	11616.33
549.779	11634.41
550.143	11686.39
550.507	11838.7
550.871	11787.4
551.235	11788.98
551.599	11918.02
551.962	11901.52
552.326	11961.18
552.689	12069.88
553.053	12033.95
553.417	12093.16
553.78	12206.15
554.143	12193.49
554.507	12313.04
554.87	12317.11
555.234	12445.01
555.597	12367.73
555.96	12380.83
556.323	12517.33
556.686	12482.52
557.05	12607.95
557.413	12611.34
557.776	12675.29
558.139	12728.62
558.502	12847.04
558.865	12815.17
559.228	12947.37
559.59	12884.32
559.953	13015.84
560.316	13117.31
560.679	13096.52
561.041	13115.05
561.404	13226.23
561.767	13297.42
562.129	13265.1
562.492	13466
562.854	13425.32
563.217	13448.38
563.579	13597.75
563.941	13660.57
564.304	13638.88
564.666	13792.09
565.028	13809.5
565.39	13814.24
565.753	13824.41
566.115	13884.3
566.477	13908.48
566.839	14081.13
567.201	14083.16
567.563	14064.4
567.925	14254.91
568.287	14250.39
568.648	14271.86
569.01	14322.02
569.372	14500.78
569.734	14416.03
570.095	14529.7
570.457	14610.83
570.819	14628.23
571.18	14622.58
571.542	14722.47
571.903	14667.78
572.265	14736.48
572.626	14791.84
572.987	14870.26
573.349	14873.2
573.71	14955.68
574.071	14962.91
574.432	15034.32
574.794	15114.09
575.155	15033.19
575.516	15061.21
575.877	15164.04
576.238	15172.85
576.599	15256.92
576.96	15201.55
577.32	15203.13
577.681	15354.54
578.042	15395.44
578.403	15400.41
578.763	15412.17
579.124	15461.43
579.485	15447.64
579.845	15471.37
580.206	15381.21
580.566	15413.52
580.927	15470.24
581.287	15473.63
581.648	15500.75
582.008	15627.07
582.368	15502.11
582.728	15512.05
583.089	15568.09
583.449	15599.28
583.809	15559.05
584.169	15623.01
584.529	15500.98
584.889	15571.03
585.249	15582.78
585.609	15577.81
585.969	15569.68
586.329	15693.74
586.688	15593.86
587.048	15639.73
587.408	15550.92
587.768	15597.25
588.127	15668.88
588.487	15633.63
588.846	15704.59
589.206	15562.67
589.565	15528.55
589.925	15648.32
590.284	15601.76
590.643	15642.44
591.003	15690.12
591.362	15663.23
591.721	15608.54
592.08	15720.86
592.44	15752.04
592.799	15690.12
593.158	15680.86
593.517	15708.43
593.876	15797.47
594.235	15737.13
594.593	15708.2
594.952	15802.44
595.311	15750.01
595.67	15633.18
596.029	15793.17
596.387	15707.98
596.746	15884.47
597.104	15764.47
597.463	15754.3
597.822	15799.05
598.18	15701.88
598.538	15636.11
598.897	15784.13
599.255	15692.16
599.613	15966.05
599.972	15787.07
600.33	15915.65
600.688	15836.56
601.046	15874.53
601.404	15954.52
601.762	15926.5
602.12	16071.58
602.478	15957.69
602.836	15972.83
603.194	15990.23
603.552	15982.32
603.91	15959.95
604.268	15987.74
604.625	15980.96
604.983	15900.74
605.341	15939.61
605.698	15994.07
606.056	16041.3
606.413	15926.95
606.771	16071.81
607.128	16081.07
607.485	16069.55
607.843	16054.86
608.2	16081.53
608.557	16180.96
608.914	16140.28
609.272	16118.36
609.629	16146.38
609.986	16212.82
610.343	16084.92
610.7	16198.59
611.057	16261.18
611.414	16269.09
611.771	16244.23
612.127	16251.47
612.484	16258.02
612.841	16323.55
613.198	16378.47
613.554	16486.26
613.911	16528.29
614.267	16424.79
614.624	16375.98
614.98	16418.01
615.337	16491.91
615.693	16429.54
616.05	16455.08
616.406	16566.03
616.762	16481.29
617.118	16567.39
617.475	16552.93
617.831	16646.94
618.187	16610.55
618.543	16547.05
618.899	16722.19
619.255	16650.1
619.611	16649.87
619.967	16767.61
620.323	16721.51
620.678	16638.35
621.034	16595.19
621.39	16602.42
621.746	16647.16
622.101	16749.98
622.457	16625.01
622.812	16697.78
623.168	16803.32
623.523	16684.45
623.879	16774.16
624.234	16611.46
624.589	16792.92
624.945	16761.28
625.3	16751.57
625.655	16740.04
626.01	16739.59
626.365	16747.05
626.72	16725.13
627.075	16739.14
627.43	16727.84
627.785	16695.3
628.14	16691
628.495	16728.29
628.85	16688.97
629.205	16635.18
629.559	16785.24
629.914	16669.08
630.269	16721.74
630.623	16611
630.978	16495.3
631.332	16655.07
631.687	16736.65
632.041	16654.17
632.396	16697.78
632.75	16618.91
633.104	16663.88
633.459	16580.72
633.813	16447.39
634.167	16444.68
634.521	16415.75
634.875	16387.73
635.229	16348.19
635.583	16359.71
635.937	16309.77
636.291	16226.83
636.645	16207.85
636.999	16216.21
637.352	16235.87
637.706	16172.15
638.06	16225.25
638.413	16205.82
638.767	16082.88
639.121	16166.04
639.474	16101.19
639.828	16113.62
640.181	16182.31
640.534	16066.16
640.888	16028.19
641.241	15942.09
641.594	15901.19
641.947	16050.57
642.301	16027.06
642.654	15923.11
643.007	15874.98
643.36	15881.08
643.713	15841.98
644.066	15833.4
644.419	15792.49
644.771	15739.61
645.124	15572.39
645.477	15493.29
645.83	15385.73
646.182	15324.03
646.535	15252.17
646.888	15303.47
647.24	15260.76
647.593	15433.63
647.945	15216.24
648.298	15254.43
648.65	15171.04
649.002	15152.74
649.355	15242.9
649.707	15163.58
650.059	15222.11
650.411	15422.56
650.763	15418.49
651.115	15589.11
651.467	15632.72
651.819	15515.44
652.171	15443.13
652.523	15423.92
652.875	15512.05
653.227	15427.76
653.578	15491.94
653.93	15478.15
654.282	15345.27
654.633	15301.66
654.985	15320.19
655.337	15397.7
655.688	15315.22
656.039	15340.08
656.391	15135.34
656.742	15232.28
657.094	15257.14
657.445	15356.12
657.796	15327.2
658.147	15277.03
658.498	15309.34
658.849	15319.74
659.2	15219.85
659.551	15308.67
659.902	15233.41
660.253	15118.16
660.604	15302.79
660.955	15204.04
661.306	15177.14
661.656	15160.19
662.007	15077.26
662.358	15071.16
662.708	15143.7
663.059	15159.74
663.409	15065.28
663.76	15045.4
664.11	15098.95
664.461	15102.57
664.811	14992.29
665.161	15137.82
665.511	15127.65
665.862	15004.27
666.212	15028.9
666.562	15072.29
666.912	14974.21
667.262	15015.79
667.612	15034.1
667.962	15002.46
668.312	14976.7
668.662	15003.36
669.011	15027.54
669.361	14936.7
669.711	14918.62
670.06	14940.77
670.41	14939.41
670.76	14808.34
671.109	14928.79
671.459	14846.3
671.808	14811.5
672.157	14981.89
672.507	14772.18
672.856	14778.74
673.205	14855.8
673.554	14825.06
673.904	14871.39
674.253	14870.26
674.602	14784.39
674.951	14639.53
675.3	14552.07
675.649	14732.41
675.998	14704.84
676.346	14758.85
676.695	14764.05
677.044	14770.37
677.393	14715.69
677.741	14683.37
678.09	14574.9
678.438	14475.47
678.787	14556.14
679.135	14584.84
679.484	14448.8
679.832	14628.01
680.181	14399.54
680.529	14531.74
680.877	14433.89
681.225	14465.07
681.573	14521.57
681.922	14431.63
682.27	14376.03
682.618	14457.84
682.966	14387.79
683.314	14451.96
683.661	14393.89
684.009	14290.39
684.357	14231.86
684.705	14257.62
685.053	14270.95
685.4	14298.07
685.748	14144.4
686.095	14199.09
686.443	14017.4
686.79	14078.64
687.138	14068.7
687.485	14029.83
687.832	13998.19
688.18	14035.03
688.527	13907.57
688.874	13827.35
689.221	13854.69
689.568	13898.31
689.915	13835.03
690.262	13804.75
690.609	13796.61
690.956	13705.32
691.303	13680.23
691.65	13606.56
691.997	13572.89
692.344	13483.63
692.69	13520.46
693.037	13448.83
693.383	13368.83
693.73	13557.52
694.077	13543.97
694.423	13420.35
694.769	13394.59
695.116	13348.04
695.462	13245.67
695.808	13235.05
696.155	13323.18
696.501	13182.85
696.847	13275.05
697.193	13083.19
697.539	13160.25
697.885	13034.83
698.231	12979.46
698.577	12983.98
698.923	12944.89
699.269	12959.8
699.614	12956.41
699.96	12839.35
700.306	12787.15
700.651	12685.91
700.997	12774.27
701.342	12657.66
701.688	12677.77
702.033	12621.5
702.379	12675.51
702.724	12671.45
703.069	12609.08
703.415	12507.61
703.76	12533.82
704.105	12486.37
704.45	12459.47
704.795	12346.26
705.14	12389.19
705.485	12409.76
705.83	12275.98
706.175	12258.12
706.52	12243.21
706.865	12322.98
707.209	12334.51
707.554	12186.94
707.899	12151.01
708.243	12030.56
708.588	12188.52
708.932	12005.25
709.277	12049.32
709.621	12027.17
709.966	11945.59
710.31	12028.53
710.654	11918.92
710.998	11906.72
711.342	11928.42
711.687	11899.04
712.031	11783.33
712.375	11649.78
712.719	11796.22
713.063	11790.79
713.407	11793.73
713.75	11727.06
714.094	11585.37
714.438	11548.99
714.782	11559.84
715.125	11528.88
715.469	11595.32
715.812	11605.26
716.156	11421.76
716.499	11505.38
716.843	11434.42
717.186	11371.82
717.53	11440.07
717.873	11430.58
718.216	11418.15
718.559	11430.12
718.902	11265.83
719.246	11355.55
719.589	11252.5
719.932	11198.94
720.275	11248.21
720.617	11273.52
720.96	11239.17
721.303	11226.74
721.646	11185.38
721.989	11111.71
722.331	11166.18
722.674	11087.08
723.016	11170.02
723.359	11033.98
723.701	11087.08
724.044	11062.68
724.386	10979.51
724.729	11022.68
725.071	10991.04
725.413	11000.53
725.755	10876.24
726.097	10899.97
726.439	10825.17
726.782	10854.09
727.124	10867.43
727.465	10822.68
727.807	10843.7
728.149	10857.26
728.491	10739.52
728.833	10798.5
729.175	10746.3
729.516	10744.04
729.858	10701.1
730.199	10763.25
730.541	10767.09
730.882	10701.33
731.224	10697.49
731.565	10650.71
731.906	10618.17
732.248	10633.99
732.589	10573.87
732.93	10539.53
733.271	10576.81
733.612	10591.5
733.953	10585.4
734.294	10495.01
734.635	10459.3
734.976	10549.02
735.317	10503.59
735.658	10532.29
735.999	10484.16
736.339	10364.39
736.68	10392.64
737.021	10375.69
737.361	10329.36
737.702	10376.82
738.042	10365.74
738.383	10261.11
738.723	10295.92
739.063	10248.91
739.404	10312.41
739.744	10227.22
740.084	10133.43
740.424	10264.05
740.764	10232.19
741.104	10244.62
741.444	10194.22
741.784	10128.01
742.124	10152.64
742.464	10074
742.804	10094.11
743.143	10073.55
743.483	10041.91
743.823	10066.09
744.162	10088.69
744.502	10148.35
744.841	10003.04
745.181	10109.03
745.52	10048.46
745.86	10102.25
746.199	9966.21
746.538	9994
746.877	9897.73
747.216	9896.6
747.556	9847.11
747.895	9902.48
748.234	9875.81
748.573	9846.44
748.911	9844.4
749.25	9872.42
749.589	9828.58
749.928	9787.23
750.267	9782.26
750.605	9778.64
750.944	9784.52
751.283	9694.12
751.621	9682.6
751.96	9715.14
752.298	9656.38
752.636	9698.64
752.975	9619.1
753.313	9611.19
753.651	9627.23
753.989	9526.22
754.327	9556.95
754.666	9517.86
755.004	9432.44
755.342	9480.12
755.679	9461.36
756.017	9357.18
756.355	9335.94
756.693	9356.73
757.031	9397.41
757.368	9277.64
757.706	9377.07
