Data from black_plastic_tray_FLMS001491_078.txt Node
Date: Tue Feb 07 10:40:35 GMT 2017
User: dcchb
Spectrometer: FLMS00149
Trigger mode: 0
Integration Time (sec): 2.000000E-2
Scans to average: 10
Electric dark correction enabled: true
Nonlinearity correction enabled: false
Boxcar width: 0
XAxis mode: Wavelengths
Number of Pixels in Spectrum: 2048
>>>>>Begin Spectral Data<<<<<
341.393	-11.51
341.776	-11.51
342.16	-11.51
342.543	-77.5
342.927	-47.89
343.31	-64.84
343.693	-52.19
344.077	-75.24
344.46	-42.92
344.843	-49.02
345.226	-39.53
345.61	-26.88
345.993	-37.5
346.376	-4.05
346.759	6.57
347.142	21.71
347.525	47.02
347.908	45.21
348.291	65.32
348.674	99.45
349.057	106.9
349.44	152.1
349.823	139.9
350.206	166.11
350.588	188.26
350.971	190.29
351.354	183.06
351.737	226.67
352.119	233.23
352.502	266.9
352.884	272.78
353.267	296.05
353.65	275.26
354.032	300.35
354.414	307.12
354.797	306.67
355.179	308.71
355.562	320.46
355.944	305.09
356.326	317.97
356.709	311.64
357.091	329.5
357.473	315.71
357.855	340.8
358.238	326.11
358.62	313.68
359.002	318.65
359.384	339.21
359.766	314.36
360.148	327.24
360.53	310.51
360.912	319.78
361.294	323.62
361.676	336.73
362.057	330.17
362.439	333.11
362.821	314.81
363.203	312.55
363.584	322.94
363.966	324.3
364.348	316.16
364.729	308.48
365.111	334.69
365.493	334.02
365.874	316.39
366.256	304.86
366.637	314.81
367.019	319.78
367.4	293.34
367.781	310.06
368.163	329.72
368.544	317.75
368.925	289.5
369.306	310.97
369.688	313.23
370.069	301.48
370.45	296.05
370.831	325.88
371.212	304.41
371.593	320.01
371.974	310.29
372.355	317.75
372.736	312.32
373.117	325.43
373.498	296.96
373.879	330.63
374.26	312.1
374.641	322.27
375.021	312.55
375.402	329.27
375.783	341.47
376.163	337.41
376.544	337.18
376.925	349.38
377.305	336.5
377.686	351.87
378.066	335.82
378.447	324.3
378.827	348.48
379.208	341.7
379.588	334.24
379.968	335.82
380.349	334.69
380.729	346.9
381.109	334.92
381.489	357.74
381.87	371.98
382.25	361.36
382.63	374.47
383.01	326.33
383.39	366.56
383.77	350.29
384.15	348.25
384.53	357.07
384.91	364.07
385.29	356.39
385.67	357.97
386.049	375.37
386.429	385.99
386.809	360.68
387.189	382.15
387.568	403.17
387.948	354.81
388.328	366.11
388.707	368.59
389.087	374.69
389.466	388.25
389.846	407.24
390.225	399.78
390.605	406.56
390.984	402.26
391.363	363.39
391.743	377.63
392.122	385.77
392.501	410.17
392.881	400.91
393.26	424.18
393.639	424.86
394.018	406.78
394.397	411.75
394.776	405.65
395.155	417.18
395.534	412.21
395.913	413.11
396.292	445.65
396.671	427.8
397.05	443.17
397.429	411.75
397.808	448.82
398.186	441.81
398.565	446.78
398.944	438.19
399.323	464.63
399.701	463.5
400.08	442.49
400.458	428.7
400.837	444.07
401.215	447.69
401.594	450.62
401.972	450.4
402.351	475.48
402.729	468.93
403.107	479.32
403.486	452.43
403.864	465.99
404.242	471.64
404.62	488.59
404.999	490.17
405.377	473.9
405.755	479.55
406.133	493.79
406.511	467.35
406.889	497.85
407.267	494.69
407.645	529.49
408.023	514.8
408.401	531.3
408.779	522.71
409.156	543.73
409.534	515.93
409.912	541.24
410.29	529.27
410.667	527.23
411.045	551.19
411.422	529.72
411.8	552.77
412.178	558.42
412.555	546.44
412.933	565.42
413.31	568.36
413.687	594.8
414.065	585.31
414.442	577.63
414.819	590.06
415.197	583.28
415.574	613.78
415.951	609.49
416.328	625.31
416.705	616.5
417.082	596.61
417.46	633.67
417.837	627.79
418.214	658.98
418.591	633.67
418.967	630.05
419.344	633.67
419.721	662.6
420.098	670.5
420.475	655.36
420.852	675.7
421.228	648.13
421.605	666.66
421.982	662.14
422.358	669.83
422.735	687.23
423.111	676.38
423.488	708.02
423.864	673.44
424.241	702.82
424.617	710.05
424.994	720.45
425.37	736.49
425.746	713.44
426.123	744.85
426.499	735.81
426.875	775.13
427.251	735.81
427.627	779.2
428.003	776.04
428.379	772.65
428.756	796.38
429.132	786.89
429.507	814.68
429.883	795.93
430.259	806.77
430.635	830.73
431.011	822.37
431.387	839.09
431.763	868.47
432.138	863.04
432.514	855.36
432.89	895.58
433.265	877.28
433.641	891.97
434.016	897.84
434.392	898.07
434.767	925.87
435.143	923.61
435.518	935.13
435.894	969.48
436.269	958.18
436.644	977.84
437.02	996.6
437.395	986.2
437.77	1011.06
438.145	986.65
438.52	1017.84
438.895	1014.9
439.271	1008.12
439.646	1051.96
440.021	1051.51
440.395	1033.21
440.77	1038.18
441.145	1065.75
441.52	1089.03
441.895	1077.05
442.27	1104.62
442.645	1073.43
443.019	1091.96
443.394	1091.06
443.769	1095.58
444.143	1120.66
444.518	1113.88
444.892	1132.87
445.267	1118.18
445.641	1139.87
446.016	1162.7
446.39	1167.44
446.764	1170.15
447.139	1172.64
447.513	1176.25
447.887	1183.49
448.262	1194.11
448.636	1195.69
449.01	1197.04
449.384	1193.88
449.758	1212.41
450.132	1251.51
450.506	1249.7
450.88	1231.39
451.254	1240.66
451.628	1231.17
452.002	1261
452.376	1280.66
452.75	1324.5
453.123	1325.4
453.497	1306.42
453.871	1351.62
454.244	1359.53
454.618	1361.33
454.992	1364.5
455.365	1372.63
455.739	1408.11
456.112	1386.42
456.486	1440.2
456.859	1423.25
457.232	1462.57
457.606	1454.67
457.979	1477.49
458.352	1539.18
458.725	1552.29
459.099	1533.99
459.472	1575.57
459.845	1566.07
460.218	1586.64
460.591	1582.12
460.964	1610.14
461.337	1635.45
461.71	1666.86
462.083	1689.01
462.456	1696.92
462.829	1701.44
463.201	1760.65
463.574	1730.14
463.947	1744.83
464.32	1794.09
464.692	1797.71
465.065	1798.61
465.438	1841.55
465.81	1879.29
466.183	1876.57
466.555	1948.66
466.928	1929
467.3	1930.36
467.672	1939.62
468.045	2020.07
468.417	1985.72
468.789	2017.36
469.161	2030.47
469.534	2072.28
469.906	2110.47
470.278	2133.52
470.65	2104.82
471.022	2148.88
471.394	2215.32
471.766	2246.06
472.138	2265.27
472.51	2307.75
472.882	2339.16
473.253	2315.43
473.625	2377.8
473.997	2455.77
474.369	2468.88
474.74	2460.97
475.112	2499.84
475.484	2551.81
475.855	2572.15
476.227	2604.01
476.598	2669.55
476.97	2685.59
477.341	2738.93
477.713	2808.3
478.084	2799.49
478.455	2858.24
478.827	2908.41
479.198	3017.34
479.569	2987.51
479.94	3036.54
480.311	3088.07
480.682	3131.46
481.053	3220.72
481.424	3257.33
481.795	3288.97
482.166	3349.98
482.537	3391.79
482.908	3448.51
483.279	3480.37
483.65	3543.2
484.021	3583.2
484.391	3596.53
484.762	3660.26
485.133	3713.36
485.503	3720.82
485.874	3812.34
486.244	3861.16
486.615	3930.31
486.985	3977.54
487.356	3984.99
487.726	4059.57
488.097	4160.58
488.467	4159.23
488.837	4223.41
489.207	4282.16
489.578	4329.62
489.948	4450.74
490.318	4414.81
490.688	4464.76
491.058	4524.64
491.428	4584.98
491.798	4533.23
492.168	4695.94
492.538	4709.04
492.908	4770.51
493.278	4867.68
493.648	4841.47
494.017	4893.67
494.387	4949.94
494.757	5010.73
495.126	5045.53
495.496	5069.26
495.866	5079.2
496.235	5132.99
496.605	5188.8
496.974	5250.72
497.344	5255.92
497.713	5310.16
498.082	5321
498.452	5392.19
498.821	5402.81
499.19	5429.25
499.559	5497.95
499.928	5549.92
500.298	5617.04
500.667	5643.03
501.036	5649.13
501.405	5684.84
501.774	5683.48
502.143	5744.27
502.512	5736.36
502.88	5859.52
503.249	5842.57
503.618	5889.12
503.987	5931.84
504.356	6005.05
504.724	5988.33
505.093	5994.66
505.462	6066.75
505.83	6164.6
506.199	6152.85
506.567	6235.56
506.936	6225.39
507.304	6277.14
507.672	6278.27
508.041	6427.19
508.409	6460.64
508.777	6414.31
509.145	6475.1
509.514	6513.74
509.882	6574.08
510.25	6572.72
510.618	6696.34
510.986	6681.19
511.354	6785.6
511.722	6782.66
512.09	6893.84
512.458	6847.52
512.826	6965.48
513.193	6945.82
513.561	6941.07
513.929	7042.54
514.297	7110.79
514.664	7220.84
515.032	7158.02
515.4	7220.62
515.767	7303.55
516.135	7355.07
516.502	7333.61
516.869	7433.49
517.237	7466.48
517.604	7472.59
517.972	7597.33
518.339	7651.79
518.706	7576.31
519.073	7722.3
519.44	7760.71
519.808	7801.84
520.175	7829.64
520.542	7989.86
520.909	7996.41
521.276	7973.14
521.643	8126.81
522.009	8147.82
522.376	8211.78
522.743	8239.8
523.11	8381.49
523.477	8439.11
523.843	8510.07
524.21	8565.21
524.577	8629.39
524.943	8652.67
525.31	8671.65
525.676	8775.15
526.043	8808.6
526.409	8948.03
526.776	8987.12
527.142	9016.05
527.508	9045.65
527.874	9061.92
528.241	9141.24
528.607	9192.09
528.973	9348.24
529.339	9377.62
529.705	9484.96
530.071	9478.63
530.437	9567.67
530.803	9707.33
531.169	9703.26
531.535	9675.69
531.901	9701.91
532.267	9698.06
532.632	9914.78
532.998	9871.17
533.364	9842.24
533.73	9947.55
534.095	10024.16
534.461	10052.86
534.826	10082.01
535.192	10112.74
535.557	10173.31
535.923	10192.51
536.288	10278.16
536.653	10296.24
537.019	10264.38
537.384	10286.75
537.749	10422.34
538.114	10460.53
538.479	10493.52
538.845	10596.8
539.21	10566.97
539.575	10530.81
539.94	10634.31
540.305	10680.19
540.67	10666.4
541.034	10705.95
541.399	10774.42
541.764	10772.39
542.129	10903.46
542.494	10934.42
542.858	10913.4
543.223	10910.46
543.587	11005.6
543.952	10983.91
544.316	10967.86
544.681	11027.97
545.045	11133.28
545.41	11201.98
545.774	11241.3
546.138	11241.75
546.503	11232.04
546.867	11386.38
547.231	11427.28
547.595	11412.37
547.959	11438.81
548.324	11522.65
548.688	11458.24
549.052	11548.41
549.416	11539.82
549.779	11608.52
550.143	11591.12
550.507	11759.7
550.871	11741.63
551.235	11727.39
551.599	11848.97
551.962	11871.34
552.326	11876.76
552.689	11997.21
553.053	11956.54
553.417	11967.61
553.78	12126.7
554.143	12106.36
554.507	12223.65
554.87	12140.71
555.234	12310.42
555.597	12320.14
555.96	12361.72
556.323	12354.94
556.686	12357.88
557.05	12499.8
557.413	12563.3
557.776	12574.82
558.139	12672.9
558.502	12768.72
558.865	12719
559.228	12869.96
559.59	12992.44
559.953	12938.43
560.316	13045.77
560.679	12965.1
561.041	13093.23
561.404	13173.45
561.767	13145.21
562.129	13273.56
562.492	13347.69
562.854	13354.69
563.217	13436.72
563.579	13466.1
563.941	13550.84
564.304	13600.79
564.666	13737.28
565.028	13605.76
565.39	13821.57
565.753	13732.99
566.115	13903.38
566.477	13869.25
566.839	13947.67
567.201	14069.7
567.563	14003.71
567.925	14144.95
568.287	14135.69
568.648	14197.38
569.01	14158.06
569.372	14360.99
569.734	14315.34
570.095	14484.15
570.457	14488.45
570.819	14575.22
571.18	14542
571.542	14683.92
571.903	14624.71
572.265	14654.09
572.626	14658.61
572.987	14804.37
573.349	14776.8
573.71	14810.7
574.071	14806.63
574.432	14891.15
574.794	15030.13
575.155	15015.21
575.516	15017.25
575.877	15006.85
576.238	15030.13
576.599	15215.66
576.96	15069
577.32	15232.83
577.681	15238.94
578.042	15277.58
578.403	15347.86
578.763	15332.49
579.124	15500.62
579.485	15383.34
579.845	15399.61
580.206	15406.61
580.566	15405.26
580.927	15385.6
581.287	15390.57
581.648	15329.55
582.008	15524.13
582.368	15484.35
582.728	15457.91
583.089	15424.47
583.449	15428.76
583.809	15535.65
584.169	15483.45
584.529	15429.66
584.889	15703.33
585.249	15547.85
585.609	15408.2
585.969	15582.2
586.329	15595.31
586.688	15559.83
587.048	15615.65
587.408	15485.03
587.768	15495.43
588.127	15591.02
588.487	15521.19
588.846	15653.84
589.206	15475.99
589.565	15344.02
589.925	15454.75
590.284	15575.88
590.643	15485.26
591.003	15632.37
591.362	15530.91
591.721	15560.73
592.08	15619.72
592.44	15712.14
592.799	15679.6
593.158	15594.86
593.517	15634.63
593.876	15760.96
594.235	15659.72
594.593	15661.75
594.952	15675.08
595.311	15697.23
595.67	15695.19
596.029	15748.98
596.387	15772.25
596.746	15769.32
597.104	15701.97
597.463	15631.24
597.822	15709.66
598.18	15708.53
598.538	15669.88
598.897	15795.76
599.255	15560.06
599.613	15858.13
599.972	15803.89
600.33	15774.06
600.688	15750.11
601.046	15784.46
601.404	15895.42
601.762	15836.89
602.12	15859.71
602.478	15947.17
602.836	15916.43
603.194	15829.65
603.552	15931.35
603.91	15857
604.268	15916.43
604.625	15819.71
604.983	15976.09
605.341	15874.4
605.698	15976.09
606.056	15868.3
606.413	15952.82
606.771	16014.28
607.128	16012.93
607.485	15849.31
607.843	15999.14
608.2	16107.84
608.557	16143.32
608.914	16066.48
609.272	16135.41
609.629	16223.77
609.986	16177.89
610.343	16099.7
610.7	16217.89
611.057	16234.39
611.414	16154.62
611.771	16246.14
612.127	16227.84
612.484	16287.04
612.841	16440.94
613.198	16249.08
613.554	16266.71
613.911	16409.75
614.267	16361.39
614.624	16318
614.98	16278
615.337	16397.32
615.693	16412.92
616.05	16407.72
616.406	16494.72
616.762	16381.5
617.118	16381.5
617.475	16486.36
617.831	16501.5
618.187	16484.55
618.543	16557.32
618.899	16617.88
619.255	16572.46
619.611	16605
619.967	16667.82
620.323	16628.73
620.678	16598
621.034	16580.37
621.39	16490.43
621.746	16605.23
622.101	16733.36
622.457	16667.37
622.812	16633.48
623.168	16652.01
623.523	16682.06
623.879	16656.75
624.234	16617.2
624.589	16628.96
624.945	16675.28
625.3	16652.01
625.655	16656.07
626.01	16626.47
626.365	16613.81
626.72	16590.54
627.075	16635.28
627.43	16655.17
627.785	16536.75
628.14	16647.03
628.495	16654.72
628.85	16622.18
629.205	16562.74
629.559	16643.64
629.914	16617.2
630.269	16595.06
630.623	16462.18
630.978	16465.57
631.332	16617.2
631.687	16699.01
632.041	16409.07
632.396	16578.79
632.75	16505.79
633.104	16464.21
633.459	16444.33
633.813	16387.38
634.167	16411.56
634.521	16326.36
634.875	16384.89
635.229	16366.82
635.583	16159.59
635.937	16221.51
636.291	16160.49
636.645	16141.51
636.999	16085.24
637.352	16057.22
637.706	16038.46
638.06	16083.89
638.413	16115.07
638.767	16082.08
639.121	16071.91
639.474	15981.06
639.828	16040.72
640.181	16028.07
640.534	16099.7
640.888	15938.58
641.241	15903.55
641.594	15900.16
641.947	15946.04
642.301	15901.97
642.654	15840.28
643.007	15925.92
643.36	15855.42
643.713	15796.89
644.066	15980.38
644.419	15857.68
644.771	15747.17
645.124	15563.67
645.477	15480.74
645.83	15366.39
646.182	15291.36
646.535	15178.15
646.888	15332.27
647.24	15218.82
647.593	15387.86
647.945	15283.23
648.298	15172.72
648.65	15184.7
649.002	15024.93
649.355	15168.65
649.707	15150.12
650.059	15234.19
650.411	15462.43
650.763	15359.38
651.115	15537.23
651.467	15438.7
651.819	15438.48
652.171	15462.21
652.523	15388.08
652.875	15393.06
653.227	15354.64
653.578	15534.29
653.93	15402.77
654.282	15351.25
654.633	15237.35
654.985	15339.5
655.337	15399.84
655.688	15274.87
656.039	15261.99
656.391	15212.04
656.742	15206.62
657.094	15339.72
657.445	15329.1
657.796	15257.92
658.147	15171.14
658.498	15211.82
658.849	15292.95
659.2	15270.8
659.551	15154.42
659.902	15211.82
660.253	15232.61
660.604	15185.83
660.955	15078.04
661.306	15171.82
661.656	15134.31
662.007	15112.61
662.358	15038.26
662.708	15048.66
663.059	14984.25
663.409	14926.18
663.76	15065.15
664.11	15053.4
664.461	15097.47
664.811	15063.12
665.161	15124.59
665.511	14994.65
665.862	14927.08
666.212	15016.79
666.562	14984.25
666.912	15051.6
667.262	14973.18
667.612	14781.32
667.962	14868.1
668.312	14901.54
668.662	15070.35
669.011	14953.52
669.361	14823.13
669.711	14826.52
670.06	14824.26
670.41	14830.58
670.76	14793.3
671.109	14871.04
671.459	14760.08
671.808	14767.08
672.157	14801.88
672.507	14767.76
672.856	14731.6
673.205	14731.15
673.554	14812.73
673.904	14641.66
674.253	14817.25
674.602	14729.8
674.951	14482.12
675.3	14423.14
675.649	14597.14
675.998	14621.32
676.346	14746.52
676.695	14760.3
677.044	14691.83
677.393	14596.47
677.741	14590.82
678.09	14526.41
678.438	14566.64
678.787	14592.85
679.135	14517.6
679.484	14552.4
679.832	14632.85
680.181	14456.13
680.529	14443.25
680.877	14396.7
681.225	14485.28
681.573	14558.28
681.922	14388.56
682.27	14354.21
682.618	14391.05
682.966	14352.63
683.314	14446.87
683.661	14382.46
684.009	14289.13
684.357	14264.5
684.705	14243.26
685.053	14273.54
685.4	14329.13
685.748	14195.8
686.095	14164.61
686.443	14121.45
686.79	14027.44
687.138	14084.84
687.485	14116.03
687.832	13957.61
688.18	13912.19
688.527	13941.57
688.874	13932.98
689.221	13901.8
689.568	13906.99
689.915	13877.62
690.262	13843.27
690.609	13779.76
690.956	13775.47
691.303	13706.77
691.65	13637.85
691.997	13505.87
692.344	13489.38
692.69	13441.69
693.037	13471.3
693.383	13491.64
693.73	13565.31
694.077	13506.33
694.423	13508.59
694.769	13432.66
695.116	13383.62
695.462	13438.08
695.808	13308.14
696.155	13384.07
696.501	13156.96
696.847	13159.89
697.193	13134.36
697.539	13104.98
697.885	13018.65
698.231	13042.16
698.577	12990.86
698.923	13004.42
699.269	12914.93
699.614	12855.95
699.96	12788.83
700.306	12784.31
700.651	12748.83
700.997	12640.13
701.342	12592.45
701.688	12662.96
702.033	12659.34
702.379	12619.57
702.724	12696.4
703.069	12679.45
703.415	12534.6
703.76	12577.31
704.105	12533.47
704.45	12455.73
704.795	12472.23
705.14	12341.84
705.485	12381.84
705.83	12303.87
706.175	12312.23
706.52	12290.54
706.865	12199.24
707.209	12238.11
707.554	12105.01
707.899	12203.99
708.243	12118.11
708.588	12135.74
708.932	12027.04
709.277	12135.74
709.621	12054.61
709.966	11993.37
710.31	11968.06
710.654	11845.8
710.998	11948.17
711.342	11923.54
711.687	11866.82
712.031	11829.53
712.375	11819.59
712.719	11752.93
713.063	11748.63
713.407	11781.17
713.75	11626.6
714.094	11658.92
714.438	11573.72
714.782	11598.81
715.125	11612.59
715.469	11555.64
715.812	11513.16
716.156	11371.92
716.499	11495.08
716.843	11390.45
717.186	11447.17
717.53	11472.03
717.873	11513.38
718.216	11422.99
718.559	11398.58
718.902	11366.27
719.246	11369.88
719.589	11333.28
719.932	11253.05
720.275	11287.85
720.617	11260.28
720.96	11263.45
721.303	11180.06
721.646	11212.15
721.989	11159.04
722.331	11126.28
722.674	11142.55
723.016	11129.66
723.359	11100.97
723.701	11127.18
724.044	11082.21
724.386	11092.38
724.729	11114.07
725.071	11015.32
725.413	10954.3
725.755	10962.21
726.097	10818.49
726.439	10866.4
726.782	10867.75
727.124	10917.47
727.465	10811.26
727.807	10867.75
728.149	10836.11
728.491	10804.7
728.833	10756.12
729.175	10694.2
729.516	10703.01
729.858	10758.15
730.199	10769.45
730.541	10696.68
730.882	10698.49
731.224	10673.18
731.565	10536.23
731.906	10612.16
732.248	10671.82
732.589	10503.69
732.93	10523.81
733.271	10553.86
733.612	10543.69
733.953	10520.64
734.294	10501.43
734.635	10483.81
734.976	10569.68
735.317	10448.55
735.658	10426.86
735.999	10403.13
736.339	10424.15
736.68	10319.74
737.021	10387.09
737.361	10357.48
737.702	10366.07
738.042	10310.7
738.383	10326.07
738.723	10364.49
739.063	10340.08
739.404	10234.77
739.744	10254.66
740.084	10278.61
740.424	10230.48
740.764	10246.52
741.104	10249.91
741.444	10167.43
741.784	10185.96
742.124	10098.51
742.464	10154.1
742.804	10103.7
743.143	10124.49
743.483	10113.42
743.823	10036.36
744.162	10106.87
744.502	10101.67
744.841	10050.6
745.181	10004.5
745.52	9956.36
745.86	10011.28
746.199	10001.79
746.538	9994.33
746.877	9972.63
747.216	9992.07
747.556	9888.57
747.895	9993.65
748.234	9822.58
748.573	9837.27
748.911	9903.71
749.25	9834.33
749.589	9823.03
749.928	9764.5
750.267	9897.61
750.605	9842.24
750.944	9764.73
751.283	9745.75
751.621	9725.41
751.96	9634.56
752.298	9721.11
752.636	9680.44
752.975	9666.88
753.313	9561.34
753.651	9614.22
753.989	9591.63
754.327	9537.16
754.666	9499.65
755.004	9524.74
755.342	9451.29
755.679	9391.41
756.017	9361.8
756.355	9381.46
756.693	9325.42
757.031	9355.47
757.368	9357.96
757.706	9329.94
758.044	9284.52
