Data from black_metal_pc_casing_FLMS001491_00046.txt Node
Date: Wed Feb 08 14:32:46 GMT 2017
User: dcchb
Spectrometer: FLMS00149
Trigger mode: 0
Integration Time (sec): 2.000000E-2
Scans to average: 10
Electric dark correction enabled: true
Nonlinearity correction enabled: false
Boxcar width: 0
XAxis mode: Wavelengths
Number of Pixels in Spectrum: 2048
>>>>>Begin Spectral Data<<<<<
341.393	-15.01
341.776	-15.01
342.16	-15.01
342.543	-74.67
342.927	-62.02
343.31	-73.09
343.693	-47.78
344.077	-65.41
344.46	-71.51
344.843	-52.98
345.226	-44.39
345.61	-14.56
345.993	-11.17
346.376	10.52
346.759	-3.49
347.142	25.21
347.525	22.05
347.908	61.82
348.291	77.19
348.674	76.96
349.057	110.63
349.44	131.88
349.823	156.28
350.206	164.64
350.588	179.78
350.971	208.26
351.354	204.42
351.737	225.43
352.119	227.47
352.502	264.53
352.884	269.95
353.267	251.87
353.65	278.54
354.032	291.87
354.414	281.7
354.797	306.11
355.179	321.02
355.562	310.63
355.944	315.15
356.326	331.87
356.709	310.85
357.091	335.49
357.473	329.84
357.855	325.32
358.238	335.03
358.62	325.54
359.002	335.26
359.384	333
359.766	339.78
360.148	337.07
360.53	341.81
360.912	321.25
361.294	342.27
361.676	331.19
362.057	329.84
362.439	324.19
362.821	323.06
363.203	332.55
363.584	317.86
363.966	322.6
364.348	290.51
364.729	302.72
365.111	320.57
365.493	313.11
365.874	307.46
366.256	315.37
366.637	312.66
367.019	277.18
367.4	285.09
367.781	307.92
368.163	302.94
368.544	319.89
368.925	298.88
369.306	309.95
369.688	292.1
370.069	301.14
370.45	310.85
370.831	328.03
371.212	289.16
371.593	303.17
371.974	306.33
372.355	308.59
372.736	295.49
373.117	302.49
373.498	314.24
373.879	286.9
374.26	310.63
374.641	298.88
375.021	299.55
375.402	320.8
375.783	327.12
376.163	317.86
376.544	319.44
376.925	330.29
377.305	319.44
377.686	311.08
378.066	321.02
378.447	318.08
378.827	322.6
379.208	313.34
379.588	317.86
379.968	325.77
380.349	338.88
380.729	329.84
381.109	321.7
381.489	350.85
381.87	326.45
382.25	321.7
382.63	318.54
383.01	315.83
383.39	320.34
383.77	332.77
384.15	335.49
384.53	334.13
384.91	356.95
385.29	342.94
385.67	313.79
386.049	343.62
386.429	350.85
386.809	331.19
387.189	347.24
387.568	343.85
387.948	342.72
388.328	362.83
388.707	368.03
389.087	353.11
389.466	365.09
389.846	354.02
390.225	357.63
390.605	351.08
390.984	345.88
391.363	368.48
391.743	355.15
392.122	375.71
392.501	381.13
392.881	366.67
393.26	387.01
393.639	363.96
394.018	364.64
394.397	375.71
394.776	376.61
395.155	383.85
395.534	382.72
395.913	346.33
396.292	394.24
396.671	388.82
397.05	379.78
397.429	376.39
397.808	402.15
398.186	386.78
398.565	386.78
398.944	363.73
399.323	370.06
399.701	383.62
400.08	368.25
400.458	371.42
400.837	405.31
401.215	407.35
401.594	402.15
401.972	372.77
402.351	403.73
402.729	398.08
403.107	405.31
403.486	410.06
403.864	398.76
404.242	417.07
404.62	412.09
404.999	409.61
405.377	426.56
405.755	404.64
406.133	400.12
406.511	438.08
406.889	430.17
407.267	430.62
407.645	415.26
408.023	420.23
408.401	445.54
408.779	454.58
409.156	433.34
409.534	447.57
409.912	443.28
410.29	457.29
410.667	446.44
411.045	448.25
411.422	474.46
411.8	479.44
412.178	453.45
412.555	475.37
412.933	470.17
413.31	476.27
413.687	462.71
414.065	474.24
414.442	488.02
414.819	475.14
415.197	499.55
415.574	504.97
415.951	500.45
416.328	490.28
416.705	486.67
417.082	473.11
417.46	502.94
417.837	499.55
418.214	493.9
418.591	518.76
418.967	510.4
419.344	505.2
419.721	501.13
420.098	507.01
420.475	517.63
420.852	518.76
421.228	527.57
421.605	533.9
421.982	510.62
422.358	545.88
422.735	544.07
423.111	540.23
423.488	542.26
423.864	538.42
424.241	558.08
424.617	528.47
424.994	584.52
425.37	571.86
425.746	554.01
426.123	547.01
426.499	569.83
426.875	550.85
427.251	597.85
427.627	587.46
428.003	575.71
428.379	612.09
428.756	625.2
429.132	607.79
429.507	607.57
429.883	595.14
430.259	622.71
430.635	616.16
431.011	631.97
431.387	643.27
431.763	657.51
432.138	612.99
432.514	641.92
432.89	627.46
433.265	667
433.641	649.15
434.016	675.36
434.392	667
434.767	676.72
435.143	671.97
435.518	688.92
435.894	693.22
436.269	689.15
436.644	698.87
437.02	705.65
437.395	711.75
437.77	728.92
438.145	733.67
438.52	743.38
438.895	704.52
439.271	738.64
439.646	736.38
440.021	754.46
440.395	742.03
440.77	745.19
441.145	733.67
441.52	763.95
441.895	761.46
442.27	776.83
442.645	778.19
443.019	778.64
443.394	783.38
443.769	778.86
444.143	796.49
444.518	793.1
444.892	785.87
445.267	810.95
445.641	816.6
446.016	798.3
446.39	831.07
446.764	819.31
447.139	819.77
447.513	806.21
447.887	818.18
448.262	817.73
448.636	818.64
449.01	833.55
449.384	856.38
449.758	872.42
450.132	861.35
450.506	861.57
450.88	879.2
451.254	858.64
451.628	877.84
452.002	869.26
452.376	866.09
452.75	890.05
453.123	893.66
453.497	913.32
453.871	934.11
454.244	938.41
454.618	961.46
454.992	935.02
455.365	961.46
455.739	985.64
456.112	993.1
456.486	979.54
456.859	1019.76
457.232	1003.26
457.606	970.5
457.979	1012.76
458.352	1041.91
458.725	1045.98
459.099	1047.11
459.472	1047.11
459.845	1060.66
460.218	1059.76
460.591	1056.37
460.964	1078.74
461.337	1106.76
461.71	1107.44
462.083	1123.71
462.456	1133.43
462.829	1129.14
463.201	1156.48
463.574	1161.45
463.947	1176.14
464.32	1194.22
464.692	1184.95
465.065	1204.62
465.438	1198.29
465.81	1236.93
466.183	1228.12
466.555	1246.2
466.928	1264.05
467.3	1264.5
467.672	1253.88
468.045	1295.01
468.417	1320.54
468.789	1300.88
469.161	1345.4
469.534	1339.07
469.906	1383.82
470.278	1388.11
470.65	1377.49
471.022	1407.32
471.394	1408.9
471.766	1479.64
472.138	1470.6
472.51	1478.96
472.882	1483.25
473.253	1529.8
473.625	1542.01
473.997	1546.08
474.369	1562.35
474.74	1588.11
475.112	1615.68
475.484	1636.24
475.855	1647.32
476.227	1643.93
476.598	1729.12
476.97	1689.8
477.341	1751.04
477.713	1771.61
478.084	1772.28
478.455	1799.4
478.827	1835.33
479.198	1882.34
479.569	1904.48
479.94	1949.23
480.311	1925.73
480.682	2007.08
481.053	2027.42
481.424	2038.72
481.795	2081.88
482.166	2101.54
482.537	2081.65
482.908	2142.67
483.279	2180.18
483.65	2187.19
484.021	2228.54
484.391	2264.02
484.762	2260.41
485.133	2313.51
485.503	2322.55
485.874	2349.67
486.244	2385.15
486.615	2435.09
486.985	2438.26
487.356	2499.5
487.726	2512.6
488.097	2581.08
488.467	2573.39
488.837	2615.88
489.207	2654.29
489.578	2697.23
489.948	2681.64
490.318	2727.96
490.688	2760.51
491.058	2768.42
491.428	2795.76
491.798	2845.7
492.168	2869.43
492.538	2916.21
492.908	2928.19
493.278	2948.98
493.648	2984
494.017	3012.93
494.387	2998.01
494.757	3069.2
495.126	3036.66
495.496	3059.26
495.866	3099.25
496.235	3159.59
496.605	3172.47
496.974	3204.56
497.344	3237.33
497.713	3228.74
498.082	3244.79
498.452	3295.18
498.821	3313.71
499.19	3287.5
499.559	3360.26
499.928	3357.78
500.298	3421.05
500.667	3429.19
501.036	3428.29
501.405	3461.51
501.774	3481.39
502.143	3504.67
502.512	3529.07
502.88	3559.36
503.249	3556.64
503.618	3536.31
503.987	3583.76
504.356	3628.28
504.724	3632.57
505.093	3632.35
505.462	3691.1
505.83	3703.53
506.199	3751.67
506.567	3779.69
506.936	3751.21
507.304	3832.79
507.672	3830.76
508.041	3831.89
508.409	3867.14
508.777	3839.12
509.145	3965.45
509.514	3903.75
509.882	3990.53
510.25	3955.96
510.618	4033.47
510.986	4021.72
511.354	4054.94
511.722	4101.94
512.09	4128.61
512.458	4119.34
512.826	4166.12
513.193	4141.49
513.561	4154.37
513.929	4221.71
514.297	4275.49
514.664	4260.58
515.032	4336.74
515.4	4327.24
515.767	4411.08
516.135	4376.51
516.502	4379
516.869	4439.33
517.237	4468.71
517.604	4506
517.972	4559.78
518.339	4608.59
518.706	4559.33
519.073	4607.69
519.44	4618.99
519.808	4671.64
520.175	4696.05
520.542	4716.84
520.909	4782.6
521.276	4825.31
521.643	4858.3
522.009	4885.2
522.376	4903.05
522.743	4937.62
523.11	4999.77
523.477	5010.62
523.843	5044.29
524.21	5064.17
524.577	5124.51
524.943	5143.95
525.31	5192.53
525.676	5224.62
526.043	5247.9
526.409	5285.41
526.776	5307.78
527.142	5347.11
527.508	5385.97
527.874	5468.46
528.241	5456.25
528.607	5528.57
528.973	5557.5
529.339	5564.5
529.705	5606.08
530.071	5637.27
530.437	5621
530.803	5693.54
531.169	5739.19
531.535	5722.24
531.901	5747.55
532.267	5766.76
532.632	5834.32
532.998	5793.42
533.364	5887.66
533.73	5857.6
534.095	5938.28
534.461	5909.58
534.826	5958.16
535.192	5975.56
535.557	6058.27
535.923	6039.74
536.288	6053.75
536.653	6075.45
537.019	6074.32
537.384	6045.17
537.749	6125.62
538.114	6143.69
538.479	6200.87
538.845	6204.26
539.21	6234.09
539.575	6240.19
539.94	6283.35
540.305	6333.75
540.67	6328.77
541.034	6305.05
541.399	6340.75
541.764	6382.78
542.129	6418.94
542.494	6430.24
542.858	6455.1
543.223	6497.58
543.587	6458.04
543.952	6541.42
544.316	6570.58
544.681	6530.8
545.045	6606.96
545.41	6523.12
545.774	6603.57
546.138	6606.06
546.503	6638.14
546.867	6692.15
547.231	6705.71
547.595	6740.51
547.959	6765.37
548.324	6745.71
548.688	6793.85
549.052	6804.24
549.416	6797.24
549.779	6803.11
550.143	6880.62
550.507	6919.04
550.871	6914.97
551.235	6927.63
551.599	6956.33
551.962	6949.77
552.326	7018.7
552.689	6986.84
553.053	7059.6
553.417	7086.27
553.78	7139.15
554.143	7177.11
554.507	7182.31
554.87	7224.57
555.234	7230.22
555.597	7253.72
555.96	7178.02
556.323	7326.04
556.686	7323.55
557.05	7377.33
557.413	7397.22
557.776	7425.92
558.139	7456.88
558.502	7481.06
558.865	7485.13
559.228	7526.93
559.59	7550.21
559.953	7528.74
560.316	7585.46
560.679	7601.28
561.041	7713.14
561.404	7722.41
561.767	7794.5
562.129	7769.64
562.492	7817.77
562.854	7856.42
563.217	7843.08
563.579	7913.37
563.941	7940.03
564.304	8024.55
564.666	8017.09
565.028	8023.64
565.39	8023.87
565.753	8097.99
566.115	8163.75
566.477	8140.03
566.839	8223.87
567.201	8210.76
567.563	8188.16
567.925	8289.63
568.287	8310.87
568.648	8357.2
569.01	8399.23
569.372	8379.79
569.734	8403.52
570.095	8503.18
570.457	8500.02
570.819	8590.41
571.18	8525.1
571.542	8607.81
571.903	8518.1
572.265	8568.49
572.626	8587.02
572.987	8680.35
573.349	8663.85
573.71	8699.79
574.071	8733.68
574.432	8715.15
574.794	8775.94
575.155	8793.34
575.516	8723.97
575.877	8835.6
576.238	8814.36
576.599	8880.12
576.96	8820.23
577.32	8841.93
577.681	8911.08
578.042	8972.32
578.403	8998.08
578.763	8998.31
579.124	8945.43
579.485	8932.77
579.845	9026.56
580.206	8989.95
580.566	9010.29
580.927	9056.84
581.287	9084.41
581.648	9059.78
582.008	9097.97
582.368	9091.41
582.728	9112.66
583.089	9043.73
583.449	9066.56
583.809	9065.43
584.169	9053
584.529	9051.64
584.889	9153.56
585.249	9057.74
585.609	9067.91
585.969	9150.17
586.329	9105.88
586.688	9067.69
587.048	9162.82
587.408	9056.61
587.768	9063.39
588.127	9038.08
588.487	9033.56
588.846	9201.02
589.206	9111.53
589.565	9010.96
589.925	9219.55
590.284	9142.03
590.643	9083.5
591.003	9180.22
591.362	9185.2
591.721	9147.01
592.08	9166.89
592.44	9211.41
592.799	9201.47
593.158	9201.69
593.517	9169.38
593.876	9217.96
594.235	9174.12
594.593	9237.85
594.952	9214.57
595.311	9210.05
595.67	9201.24
596.029	9292.31
596.387	9215.03
596.746	9285.31
597.104	9230.62
597.463	9243.95
597.822	9304.52
598.18	9249.15
598.538	9173.67
598.897	9254.35
599.255	9235.59
599.613	9314.68
599.972	9273.56
600.33	9300.9
600.688	9332.31
601.046	9323.05
601.404	9361.46
601.762	9383.84
602.12	9371.86
602.478	9342.25
602.836	9374.34
603.194	9332.31
603.552	9386.77
603.91	9309.94
604.268	9321.24
604.625	9336.15
604.983	9433.1
605.341	9305.87
605.698	9383.38
606.056	9423.38
606.413	9298.87
606.771	9397.17
607.128	9426.09
607.485	9424.29
607.843	9427.68
608.2	9462.48
608.557	9541.35
608.914	9495.47
609.272	9574.79
609.629	9488.92
609.986	9587.45
610.343	9517.17
610.7	9513.32
611.057	9598.07
611.414	9550.16
611.771	9589.03
612.127	9658.63
612.484	9581.57
612.841	9667.22
613.198	9690.04
613.554	9584.51
613.911	9629.25
614.267	9654.56
614.624	9666.31
614.98	9685.97
615.337	9745.41
615.693	9735.92
616.05	9717.84
616.406	9785.41
616.762	9657.5
617.118	9740.44
617.475	9743.83
617.831	9735.01
618.187	9730.94
618.543	9756.93
618.899	9767.55
619.255	9817.04
619.611	9810.04
619.967	9791.28
620.323	9783.82
620.678	9771.85
621.034	9754.45
621.39	9779.31
621.746	9743.83
622.101	9853.43
622.457	9786.76
622.812	9834.44
623.168	9848.23
623.523	9851.39
623.879	9852.52
624.234	9725.97
624.589	9766.65
624.945	9875.8
625.3	9817.5
625.655	9794.67
626.01	9757.84
626.365	9842.81
626.72	9812.52
627.075	9777.05
627.43	9838.96
627.785	9801.9
628.14	9795.58
628.495	9800.1
628.85	9798.74
629.205	9778.18
629.559	9770.04
629.914	9777.72
630.269	9730.49
630.623	9737.27
630.978	9698.4
631.332	9776.82
631.687	9780.43
632.041	9746.31
632.396	9716.48
632.75	9715.58
633.104	9741.79
633.459	9723.94
633.813	9690.04
634.167	9652.08
634.521	9672.19
634.875	9655.01
635.229	9709.7
635.583	9593.1
635.937	9615.02
636.291	9577.5
636.645	9583.38
636.999	9619.31
637.352	9626.09
637.706	9586.32
638.06	9607.11
638.413	9532.98
638.767	9546.99
639.121	9507.22
639.474	9424.06
639.828	9508.35
640.181	9514.91
640.534	9504.51
640.888	9457.73
641.241	9458.86
641.594	9481.46
641.947	9433.1
642.301	9399.2
642.654	9532.08
643.007	9405.53
643.36	9407.11
643.713	9407.79
644.066	9438.52
644.419	9325.53
644.771	9272.65
645.124	9237.85
645.477	9245.53
645.83	9153.56
646.182	9068.14
646.535	9019.32
646.888	9082.6
647.24	9015.26
647.593	9037.18
647.945	9038.76
648.298	8997.63
648.65	9007.12
649.002	8936.16
649.355	9005.31
649.707	8970.29
650.059	8995.37
650.411	9239.43
650.763	9134.58
651.115	9161.47
651.467	9235.36
651.819	9201.02
652.171	9115.37
652.523	9125.54
652.875	9120.11
653.227	9096.16
653.578	9179.09
653.93	9129.83
654.282	9120.34
654.633	9103.84
654.985	9117.4
655.337	9052.09
655.688	9135.93
656.039	9171.64
656.391	9100.9
656.742	9036.5
657.094	9017.97
657.445	9118.53
657.796	9081.24
658.147	9069.95
658.498	9034.92
658.849	8966.67
659.2	9020.23
659.551	9039.21
659.902	9068.14
660.253	9008.03
660.604	9002.15
660.955	8966.22
661.306	8958.54
661.656	8931.87
662.007	8953.11
662.358	8943.17
662.708	8998.31
663.059	9017.97
663.409	8926.22
663.76	8962.38
664.11	9041.47
664.461	8939.78
664.811	9006.22
665.161	9058.65
665.511	8961.93
665.862	8959.67
666.212	8995.37
666.562	8961.7
666.912	8937.07
667.262	8908.37
667.612	8907.46
667.962	8909.5
668.312	8935.26
668.662	8963.96
669.011	8907.01
669.361	8881.7
669.711	8889.16
670.06	8905.88
670.41	8811.87
670.76	8856.39
671.109	8834.7
671.459	8802.16
671.808	8780.69
672.157	8851.65
672.507	8898.2
672.856	8820.46
673.205	8853
673.554	8843.96
673.904	8811.87
674.253	8808.03
674.602	8815.49
674.951	8663.4
675.3	8680.8
675.649	8792.89
675.998	8766.45
676.346	8770.29
676.695	8862.27
677.044	8702.27
677.393	8803.51
677.741	8833.79
678.09	8716.73
678.438	8717.64
678.787	8653.91
679.135	8757.41
679.484	8681.93
679.832	8757.86
680.181	8641.71
680.529	8708.82
680.877	8653.23
681.225	8680.35
681.573	8701.59
681.922	8661.14
682.27	8609.39
682.618	8603.74
682.966	8544.54
683.314	8496.4
683.661	8564.65
684.009	8526.68
684.357	8472.22
684.705	8510.41
685.053	8483.07
685.4	8461.6
685.748	8468.38
686.095	8465.67
686.443	8402.39
686.79	8415.05
687.138	8431.32
687.485	8354.48
687.832	8370.3
688.18	8392.22
688.527	8304.54
688.874	8370.98
689.221	8308.84
689.568	8295.95
689.915	8240.59
690.262	8300.47
690.609	8272.68
690.956	8212.11
691.303	8230.87
691.65	8152.68
691.997	8102.51
692.344	8135.28
692.69	8095.73
693.037	8092.57
693.383	8030.42
693.73	8120.59
694.077	8006.02
694.423	7979.8
694.769	8002.85
695.116	7984.32
695.462	7999.69
695.808	7990.88
696.155	7950.2
696.501	7896.87
696.847	7906.36
697.193	7818.45
697.539	7807.83
697.885	7806.93
698.231	7776.65
698.577	7787.72
698.923	7774.16
699.269	7716.53
699.614	7674.05
699.96	7674.5
700.306	7672.47
700.651	7658.91
700.997	7621.85
701.342	7654.39
701.688	7586.82
702.033	7640.83
702.379	7591.79
702.724	7619.59
703.069	7598.8
703.415	7512.25
703.76	7477.44
704.105	7524.45
704.45	7488.07
704.795	7467.5
705.14	7383.66
705.485	7404
705.83	7324.68
706.175	7383.44
706.52	7272.7
706.865	7303.21
707.209	7239.26
707.554	7293.95
707.899	7321.06
708.243	7277.22
708.588	7222.08
708.932	7261.63
709.277	7263.21
709.621	7241.29
709.966	7163.33
710.31	7227.06
710.654	7107.06
710.998	7107.96
711.342	7153.84
711.687	7146.61
712.031	7118.13
712.375	7068.64
712.719	7072.94
713.063	7135.08
713.407	7074.97
713.75	7044.01
714.094	7040.85
714.438	7001.52
714.782	6981.86
715.125	6983.22
715.469	7008.3
715.812	6993.62
716.156	6975.08
716.499	6906.61
716.843	6939.38
717.186	6865.03
717.53	6895.31
717.873	6914.07
718.216	6888.76
718.559	6856.9
718.902	6809.67
719.246	6842.43
719.589	6826.16
719.932	6805.82
720.275	6780.74
720.617	6779.61
720.96	6752.72
721.303	6783
721.646	6779.61
721.989	6714.53
722.331	6748.88
722.674	6757.92
723.016	6722.44
723.359	6658.71
723.701	6670.01
724.044	6612.61
724.386	6608.09
724.729	6699.16
725.071	6638.37
725.413	6662.78
725.755	6635.43
726.097	6591.82
726.439	6575.55
726.782	6568.54
727.124	6594.08
727.465	6565.83
727.807	6593.85
728.149	6571.48
728.491	6540.97
728.833	6512.27
729.175	6510.92
729.516	6521.99
729.858	6458.26
730.199	6505.94
730.541	6479.96
730.882	6516.11
731.224	6451.03
731.565	6448.09
731.906	6450.35
732.248	6419.85
732.589	6402.9
732.93	6401.54
733.271	6406.51
733.612	6383.91
733.953	6393.41
734.294	6365.38
734.635	6349.11
734.976	6323.12
735.317	6298.04
735.658	6344.14
735.999	6378.04
736.339	6350.69
736.68	6371.71
737.021	6327.42
737.361	6296.01
737.702	6351.37
738.042	6262.79
738.383	6285.39
738.723	6240.42
739.063	6275.22
739.404	6291.04
739.744	6261.43
740.084	6250.13
740.424	6266.4
740.764	6204.71
741.104	6222.11
741.444	6156.58
741.784	6169.68
742.124	6203.13
742.464	6156.35
742.804	6173.3
743.143	6152.96
743.483	6156.35
743.823	6085.39
744.162	6073.87
744.502	6135.33
744.841	6088.33
745.181	6087.88
745.52	6035.45
745.86	6051.49
746.199	6058.27
746.538	6034.77
746.877	6078.16
747.216	6069.57
747.556	6036.58
747.895	6010.82
748.234	5969.69
748.573	6006.52
748.911	5982.57
749.25	5950.71
749.589	5950.03
749.928	5937.15
750.267	5957.26
750.605	5976.24
750.944	5898.05
751.283	5908.67
751.621	5955.9
751.96	5879.75
752.298	5838.17
752.636	5869.58
752.975	5840.65
753.313	5868.45
753.651	5843.59
753.989	5794.78
754.327	5818.96
754.666	5711.84
755.004	5768.79
755.342	5840.2
755.679	5781.9
756.017	5730.15
756.355	5782.57
756.693	5727.66
757.031	5702.35
757.368	5669.13
757.706	5658.74
758.044	5704.16
758.381	5663.71
758.719	5610.83
759.056	5653.09
759.394	5644.27
759.731	5547.78
760.068	5589.81
760.405	5599.98
760.743	5555.91
761.08	5569.25
761.417	5536.25
761.754	5576.93
762.091	5510.04
762.428	5525.86
762.765	5479.08
763.102	5489.02
763.438	5482.02
763.775	5430.49
764.112	5392.3
764.449	5416.93
764.785	5353.43
765.122	5360.44
765.458	5330.38
765.795	5348.91
766.131	5363.38
766.467	5291.97
766.804	5313.21
767.14	5262.81
767.476	5293.77
767.812	5217.84
768.148	5201.57
768.485	5192.31
768.821	5192.08
769.157	5158.41
769.492	5167.22
769.828	5172.19
770.164	5139.43
770.5	5121.35
