Data from black_plastic_tray_FLMS001491_047.txt Node
Date: Tue Feb 07 10:39:56 GMT 2017
User: dcchb
Spectrometer: FLMS00149
Trigger mode: 0
Integration Time (sec): 2.000000E-2
Scans to average: 10
Electric dark correction enabled: true
Nonlinearity correction enabled: false
Boxcar width: 0
XAxis mode: Wavelengths
Number of Pixels in Spectrum: 2048
>>>>>Begin Spectral Data<<<<<
341.393	-9.75
341.776	-9.75
342.16	-9.75
342.543	-36.86
342.927	-69.4
343.31	-63.98
343.693	-59.01
344.077	-60.14
344.46	-63.08
344.843	-63.98
345.226	-40.03
345.61	-36.41
345.993	-20.37
346.376	0.88
346.759	-4.32
347.142	52.63
347.525	30.93
347.908	58.05
348.291	81.1
348.674	85.85
349.057	101.89
349.44	115.45
349.823	143.47
350.206	162.45
350.588	191.83
350.971	209.23
351.354	247.2
351.737	229.8
352.119	253.98
352.502	255.56
352.884	273.86
353.267	276.57
353.65	299.85
354.032	321.32
354.414	314.77
354.797	307.99
355.179	327.65
355.562	324.26
355.944	322.45
356.326	332.17
356.709	332.62
357.091	345.05
357.473	341.66
357.855	351.6
358.238	346.4
358.62	343.01
359.002	357.02
359.384	345.5
359.766	353.63
360.148	353.86
360.53	337.14
360.912	346.4
361.294	348.21
361.676	335.78
362.057	340.75
362.439	339.85
362.821	352.73
363.203	342.56
363.584	341.21
363.966	350.7
364.348	330.36
364.729	319.06
365.111	330.58
365.493	350.7
365.874	328.1
366.256	339.85
366.637	333.07
367.019	319.96
367.4	349.79
367.781	313.18
368.163	314.77
368.544	335.78
368.925	310.25
369.306	312.73
369.688	333.75
370.069	319.06
370.45	310.7
370.831	339.62
371.212	311.6
371.593	336.23
371.974	330.81
372.355	357.7
372.736	333.97
373.117	340.3
373.498	316.12
373.879	322.68
374.26	343.92
374.641	341.43
375.021	337.14
375.402	322.68
375.783	344.82
376.163	331.71
376.544	339.17
376.925	345.27
377.305	349.57
377.686	364.48
378.066	356.35
378.447	350.92
378.827	366.74
379.208	375.56
379.588	365.39
379.968	362.67
380.349	352.73
380.729	360.19
381.109	366.97
381.489	386.85
381.87	374.2
382.25	344.37
382.63	363.35
383.01	376.46
383.39	382.33
383.77	392.73
384.15	382.11
384.53	394.54
384.91	397.02
385.29	409
385.67	387.08
386.049	397.7
386.429	406.97
386.809	389.11
387.189	419.85
387.568	423.69
387.948	412.62
388.328	429.34
388.707	415.55
389.087	418.27
389.466	425.05
389.846	425.05
390.225	427.53
390.605	432.95
390.984	425.72
391.363	443.8
391.743	430.69
392.122	454.2
392.501	458.94
392.881	451.94
393.26	450.36
393.639	451.26
394.018	470.24
394.397	463.91
394.776	457.13
395.155	449.9
395.534	446.97
395.913	465.95
396.292	462.33
396.671	479.51
397.05	493.97
397.429	491.48
397.808	500.07
398.186	502.11
398.565	495.1
398.944	496
399.323	503.69
399.701	523.35
400.08	502.56
400.458	509.34
400.837	531.71
401.215	529.68
401.594	521.31
401.972	525.16
402.351	545.72
402.729	531.94
403.107	558.15
403.486	558.15
403.864	558.38
404.242	524.03
404.62	568.77
404.999	558.6
405.377	561.76
405.755	590.46
406.133	568.32
406.511	579.84
406.889	593.85
407.267	582.1
407.645	594.53
408.023	609.45
408.401	623.91
408.779	620.29
409.156	612.16
409.534	625.49
409.912	617.58
410.29	645.6
410.667	674.53
411.045	645.6
411.422	653.51
411.8	681.31
412.178	672.72
412.555	671.37
412.933	675.89
413.31	683.12
413.687	681.31
414.065	704.13
414.442	725.15
414.819	719.05
415.197	726.96
415.574	730.12
415.951	720.18
416.328	753.17
416.705	764.92
417.082	742.1
417.46	748.43
417.837	770.8
418.214	765.6
418.591	779.61
418.967	781.65
419.344	770.12
419.721	795.21
420.098	805.83
420.475	811.25
420.852	806.05
421.228	818.93
421.605	855.99
421.982	818.03
422.358	818.71
422.735	834.75
423.111	857.58
423.488	890.57
423.864	890.34
424.241	889.21
424.617	874.98
424.994	906.16
425.37	897.35
425.746	922.21
426.123	904.81
426.499	917.46
426.875	934.18
427.251	945.48
427.627	959.95
428.003	967.4
428.379	976.9
428.756	986.16
429.132	987.06
429.507	999.27
429.883	1001.08
430.259	1036.1
430.635	1041.07
431.011	1044.01
431.387	1062.32
431.763	1100.96
432.138	1100.06
432.514	1101.86
432.89	1118.36
433.265	1140.73
433.641	1166.49
434.016	1154.97
434.392	1156.55
434.767	1214.18
435.143	1212.82
435.518	1174.18
435.894	1207.17
436.269	1235.42
436.644	1225.02
437.02	1265.48
437.395	1253.5
437.77	1284.68
438.145	1283.55
438.52	1297.79
438.895	1301.86
439.271	1326.94
439.646	1329.2
440.021	1334.4
440.395	1326.04
440.77	1366.04
441.145	1344.34
441.52	1406.04
441.895	1382.99
442.27	1403.32
442.645	1397.45
443.019	1411.23
443.394	1431.8
443.769	1429.99
444.143	1424.79
444.518	1433.15
444.892	1447.84
445.267	1459.37
445.641	1477.9
446.016	1441.29
446.39	1508.18
446.764	1515.41
447.139	1511.34
447.513	1533.04
447.887	1533.72
448.262	1526.26
448.636	1564.68
449.01	1555.41
449.384	1571.46
449.758	1596.77
450.132	1611.45
450.506	1607.84
450.88	1608.52
451.254	1636.76
451.628	1649.65
452.002	1692.58
452.376	1707.5
452.75	1689.87
453.123	1729.87
453.497	1725.35
453.871	1715.63
454.244	1762.86
454.618	1790.21
454.992	1795.18
455.365	1786.14
455.739	1850.32
456.112	1861.39
456.486	1876.98
456.859	1893.71
457.232	1905.91
457.606	1912.24
457.979	1952.46
458.352	2005.34
458.725	2051.22
459.099	2029.3
459.472	2079.47
459.845	2113.14
460.218	2126.92
460.591	2114.94
460.964	2141.38
461.337	2177.77
461.71	2200.37
462.083	2242.17
462.456	2229.97
462.829	2232.91
463.201	2310.87
463.574	2297.09
463.947	2317.2
464.32	2381.6
464.692	2380.02
465.065	2421.6
465.438	2459.34
465.81	2520.58
466.183	2514.71
466.555	2538.66
466.928	2552.9
467.3	2616.4
467.672	2625.89
468.045	2684.65
468.417	2660.69
468.789	2703.4
469.161	2759
469.534	2777.07
469.906	2852.78
470.278	2844.19
470.65	2860.24
471.022	2901.14
471.394	2954.47
471.766	3017.07
472.138	3045.54
472.51	3143.62
472.882	3115.6
473.253	3204.41
473.625	3218.87
473.997	3282.6
474.369	3293.9
474.74	3345.19
475.112	3422.48
475.484	3405.08
475.855	3509.48
476.227	3499.31
476.598	3664.51
476.97	3614.11
477.341	3731.17
477.713	3727.11
478.084	3786.76
478.455	3929.59
478.827	3922.13
479.198	4010.26
479.569	4090.26
479.94	4116.93
480.311	4169.13
480.682	4290.71
481.053	4331.16
481.424	4412.74
481.795	4480.53
482.166	4536.12
482.537	4612.28
482.908	4687.08
483.279	4734.08
483.65	4785.38
484.021	4933.85
484.391	4910.58
484.762	5009.56
485.133	5039.16
485.503	5066.05
485.874	5210
486.244	5225.15
486.615	5346.72
486.985	5381.75
487.356	5450
487.726	5498.81
488.097	5626.49
488.467	5637.11
488.837	5812.93
489.207	5866.94
489.578	5924.34
489.948	5989.42
490.318	6013.6
490.688	6081.85
491.058	6184.22
491.428	6241.62
491.798	6264.21
492.168	6398
492.538	6373.36
492.908	6515.51
493.278	6645.22
493.648	6624.88
494.017	6715.95
494.387	6719.12
494.757	6843.63
495.126	6926.8
495.496	6941.03
495.866	6974.93
496.235	7086.11
496.605	7113.91
496.974	7156.85
497.344	7175.38
497.713	7279.55
498.082	7288.14
498.452	7370.85
498.821	7434.13
499.19	7471.87
499.559	7551.19
499.928	7615.36
500.298	7661.69
500.667	7745.98
501.036	7738.98
501.405	7782.82
501.774	7898.75
502.143	7875.24
502.512	7947.11
502.88	8008.8
503.249	8009.93
503.618	8142.58
503.987	8138.74
504.356	8106.65
504.724	8224.16
505.093	8322.69
505.462	8341.22
505.83	8389.58
506.199	8387.32
506.567	8541.89
506.936	8563.81
507.304	8682.91
507.672	8798.84
508.041	8820.53
508.409	8803.81
508.777	8850.36
509.145	8969.45
509.514	8962
509.882	9041.09
510.25	9059.85
510.618	9160.63
510.986	9180.97
511.354	9272.04
511.722	9289.9
512.09	9415.09
512.458	9475.88
512.826	9510
513.193	9550.46
513.561	9663.45
513.929	9696.44
514.297	9742.09
514.664	9820.73
515.032	9849.43
515.4	10020.5
515.767	10051.01
516.135	10091.91
516.502	10075.41
516.869	10260.04
517.237	10234.05
517.604	10315.18
517.972	10428.62
518.339	10509.53
518.706	10474.5
519.073	10548.62
519.44	10724.44
519.808	10737.77
520.175	10783.42
520.542	10970.53
520.909	11021.15
521.276	11069.74
521.643	11180.24
522.009	11137.98
522.376	11353.35
522.743	11380.92
523.11	11542.49
523.477	11606.45
523.843	11712.43
524.21	11751.75
524.577	11872.43
524.943	11867
525.31	12069.94
525.676	12219.09
526.043	12198.52
526.409	12248.01
526.776	12403.04
527.142	12412.53
527.508	12495.24
527.874	12517.83
528.241	12650.26
528.607	12709.92
528.973	12845.74
529.339	12835.11
529.705	12976.35
530.071	13106.29
530.437	13113.07
530.803	13256.12
531.169	13285.05
531.535	13290.47
531.901	13373.41
532.267	13367.76
532.632	13541.08
532.998	13576.11
533.364	13598.26
533.73	13666.51
534.095	13818.59
534.461	13890.23
534.826	13975.2
535.192	13969.1
535.557	14112.14
535.923	14106.72
536.288	14120.28
536.653	14173.16
537.019	14158.92
537.384	14339.48
537.749	14372.7
538.114	14450.89
538.479	14415.86
538.845	14508.06
539.21	14553.04
539.575	14583.77
539.94	14636.65
540.305	14803.65
540.67	14703.99
541.034	14826.47
541.399	14847.04
541.764	14954.38
542.129	14992.35
542.494	14982.18
542.858	15088.39
543.223	15049.07
543.587	15163.87
543.952	15163.41
544.316	15206.13
544.681	15252.45
545.045	15322.28
545.41	15482.95
545.774	15357.53
546.138	15503.29
546.503	15491.09
546.867	15484.54
547.231	15704.87
547.595	15678.88
547.959	15753.46
548.324	15865.54
548.688	15833.23
549.052	15857.18
549.416	15974.69
549.779	15976.95
550.143	16002.71
550.507	16123.84
550.871	16142.6
551.235	16177.85
551.599	16336.72
551.962	16375.13
552.326	16399.77
552.689	16479.99
553.053	16327.9
553.417	16609.48
553.78	16709.36
554.143	16666.43
554.507	16778.74
554.87	16767.44
555.234	17075.68
555.597	16951.16
555.96	16972.63
556.323	17080.43
556.686	16957.49
557.05	17235.9
557.413	17196.58
557.776	17295.79
558.139	17456.69
558.502	17496.46
558.865	17524.26
559.228	17690.13
559.59	17646.06
559.953	17829.33
560.316	18035.2
560.679	17895.55
561.041	18024.58
561.404	18135.54
561.767	18093.28
562.129	18155.88
562.492	18434.97
562.854	18336.44
563.217	18363.56
563.579	18536.21
563.941	18600.16
564.304	18711.12
564.666	18738.46
565.028	18830.89
565.39	18817.1
565.753	18890.1
566.115	19045.12
566.477	19129.64
566.839	19185.68
567.201	19283.31
567.563	19325.57
567.925	19448.05
568.287	19353.81
568.648	19432.68
569.01	19575.05
569.372	19644.65
569.734	19709.96
570.095	19851.88
570.457	19970.29
570.819	20033.34
571.18	20012.33
571.542	20154.92
571.903	20110.86
572.265	20165.32
572.626	20265.88
572.987	20275.82
573.349	20255.94
573.71	20334.13
574.071	20425.2
574.432	20504.52
574.794	20673.33
575.155	20547.68
575.516	20598.98
575.877	20594.46
576.238	20677.39
576.599	20672.87
576.96	20772.31
577.32	20656.38
577.681	20952.42
578.042	21003.94
578.403	21045.07
578.763	21052.3
579.124	21015.92
579.485	21106.08
579.845	21192.86
580.206	21000.32
580.566	21153.99
580.927	20987.44
581.287	21095.24
581.648	20988.35
582.008	21296.81
582.368	21156.03
582.728	21167.55
583.089	21209.36
583.449	21122.13
583.809	21213.2
584.169	21184.95
584.529	21122.35
584.889	21363.25
585.249	21184.73
585.609	21029.25
585.969	21302.69
586.329	21178.17
586.688	21284.38
587.048	21281.9
587.408	21055.24
587.768	21207.55
588.127	21207.78
588.487	21193.54
588.846	21363.7
589.206	21082.36
589.565	21103.82
589.925	21147.21
590.284	21201.9
590.643	21165.74
591.003	21133.65
591.362	21222.46
591.721	21125.29
592.08	21176.36
592.44	21382.69
592.799	21322.35
593.158	21280.54
593.517	21301.56
593.876	21458.84
594.235	21401.22
594.593	21338.85
594.952	21420.88
595.311	21352.63
595.67	21389.24
596.029	21321.45
596.387	21463.81
596.746	21506.52
597.104	21403.93
597.463	21454.1
597.822	21329.58
598.18	21277.38
598.538	21297.94
598.897	21550.59
599.255	21274.67
599.613	21738.38
599.972	21472.18
600.33	21492.51
600.688	21545.62
601.046	21485.73
601.404	21549.01
601.762	21594.88
602.12	21726.86
602.478	21729.34
602.836	21698.84
603.194	21638.95
603.552	21674.66
603.91	21595.79
604.268	21733.19
604.625	21623.13
604.983	21549.46
605.341	21522.34
605.698	21715.78
606.056	21823.58
606.413	21620.87
606.771	21700.64
607.128	21845.73
607.485	21727.08
607.843	21686.86
608.2	21909.45
608.557	21939.96
608.914	21843.92
609.272	21977.25
609.629	21847.98
609.986	22034.87
610.343	21806.86
610.7	22027.42
611.057	22095.89
611.414	22121.88
611.771	22222.66
612.127	22236.9
612.484	22124.14
612.841	22209.78
613.198	22160.97
613.554	22207.75
613.911	22276.67
614.267	22233.51
614.624	22136.56
614.98	22309.89
615.337	22261.53
615.693	22334.07
616.05	22127.3
616.406	22389.89
616.762	22389.67
617.118	22411.13
617.475	22393.28
617.831	22402.32
618.187	22477.12
618.543	22506.95
618.899	22652.03
619.255	22678.25
619.611	22550.79
619.967	22736.55
620.323	22632.15
620.678	22607.96
621.034	22537.23
621.39	22534.07
621.746	22534.07
622.101	22715.53
622.457	22571.81
622.812	22662.65
623.168	22630.79
623.523	22619.04
623.879	22740.62
624.234	22530
624.589	22622.65
624.945	22668.75
625.3	22719.15
625.655	22735.65
626.01	22620.85
626.365	22623.33
626.72	22572.71
627.075	22588.3
627.43	22546.27
627.785	22533.16
628.14	22689.09
628.495	22554.63
628.85	22534.52
629.205	22542.2
629.559	22598.02
629.914	22490.91
630.269	22465.14
630.623	22511.7
630.978	22385.15
631.332	22578.14
631.687	22498.14
632.041	22440.96
632.396	22465.37
632.75	22398.48
633.104	22368.42
633.459	22286.39
633.813	22214.08
634.167	22273.74
634.521	22193.51
634.875	22297.24
635.229	22136.11
635.583	22120.29
635.937	22177.92
636.291	21887.08
636.645	21804.6
636.999	21897.7
637.352	21987.64
637.706	21844.14
638.06	21916.91
638.413	21814.09
638.767	21760.3
639.121	21847.98
639.474	21773.86
639.828	21777.25
640.181	21773.64
640.534	21823.35
640.888	21721.66
641.241	21471.05
641.594	21479.18
641.947	21600.53
642.301	21498.39
642.654	21492.74
643.007	21461.78
643.36	21430.37
643.713	21374.32
644.066	21415
644.419	21394.89
644.771	21189.47
645.124	21088.91
645.477	21010.27
645.83	20889.14
646.182	20688.24
646.535	20645.53
646.888	20669.48
647.24	20522.37
647.593	20822.25
647.945	20650.05
648.298	20550.62
648.65	20456.83
649.002	20452.99
649.355	20495.48
649.707	20468.59
650.059	20627
650.411	20916.03
650.763	20841.46
651.115	21099.3
651.467	21055.24
651.819	20968.69
652.171	20935.69
652.523	20868.58
652.875	20837.16
653.227	20803.94
653.578	20949.7
653.93	20857.05
654.282	20778.63
654.633	20708.13
654.985	20733.89
655.337	20686.43
655.688	20715.36
656.039	20744.06
656.391	20429.04
656.742	20612.31
657.094	20572.99
657.445	20803.49
657.796	20669.71
658.147	20680.78
658.498	20718.97
658.849	20619.99
659.2	20655.25
659.551	20550.62
659.902	20742.03
660.253	20682.82
660.604	20563.05
660.955	20452.54
661.306	20587.23
661.656	20534.12
662.007	20435.14
662.358	20385.2
662.708	20471.07
663.059	20440.11
663.409	20301.81
663.76	20443.95
664.11	20428.14
664.461	20530.96
664.811	20462.48
665.161	20497.74
665.511	20358.31
665.862	20387.91
666.212	20406.21
666.562	20309.04
666.912	20302.94
667.262	20374.8
667.612	20307.69
667.962	20341.13
668.312	20252.77
668.662	20265.88
669.011	20261.81
669.361	20182.04
669.711	20047.58
670.06	20088.03
670.41	20032.21
670.76	19956.51
671.109	20034.47
671.459	20060.91
671.808	20032.67
672.157	20016.62
672.507	19946.57
672.856	19958.32
673.205	20007.58
673.554	20036.96
673.904	19911.09
674.253	20016.17
674.602	19908.15
674.951	19642.62
675.3	19439.01
675.649	19803.52
675.998	19836.74
676.346	19917.41
676.695	19975.27
677.044	19840.13
677.393	19873.35
677.741	19713.58
678.09	19730.3
678.438	19716.29
678.787	19771.88
679.135	19714.48
679.484	19613.24
679.832	19673.35
680.181	19609.85
680.529	19638.1
680.877	19547.03
681.225	19599
681.573	19643.52
681.922	19460.7
682.27	19303.42
682.618	19339.12
682.966	19236.98
683.314	19376.86
683.661	19331.21
684.009	19123.31
684.357	19196.3
684.705	19146.81
685.053	19172.12
685.4	19134.84
685.748	18957.21
686.095	19131.45
686.443	18813.94
686.79	18786.82
687.138	18857.33
687.485	18884.45
687.832	18809.65
688.18	18818.01
688.527	18716.54
688.874	18652.59
689.221	18719.03
689.568	18597.45
689.915	18540.05
690.262	18565.59
690.609	18412.59
690.956	18438.58
691.303	18244.69
691.65	18215.76
691.997	18221.19
692.344	18085.37
692.69	18121.53
693.037	18176.67
693.383	18088.31
693.73	18122.43
694.077	18099.83
694.423	18123.79
694.769	17983.91
695.116	17951.14
695.462	17854.64
695.808	17780.75
696.155	17750.69
696.501	17750.24
696.847	17575.1
697.193	17539.62
697.539	17665.95
697.885	17470.02
698.231	17412.4
698.577	17379.63
698.923	17317.48
699.269	17303.25
699.614	17312.06
699.96	17210.14
700.306	17083.59
700.651	17056.02
700.997	16984.61
701.342	17044.04
701.688	16985.29
702.033	16900.54
702.379	16895.57
702.724	16917.94
703.069	16938.06
703.415	16730.15
703.76	16785.75
704.105	16767.89
704.45	16700.1
704.795	16495.81
705.14	16620.78
705.485	16509.59
705.83	16522.25
706.175	16521.8
706.52	16413.78
706.865	16328.36
707.209	16255.59
707.554	16272.31
707.899	16357.51
708.243	16162.48
708.588	16208.81
708.932	16096.05
709.277	16085.65
709.621	16117.97
709.966	15963.62
710.31	15983.73
710.654	15859.44
710.998	15816.05
711.342	15896.28
711.687	15831.65
712.031	15715.04
712.375	15604.76
712.719	15687.02
713.063	15610.18
713.407	15669.84
713.75	15507.36
714.094	15493.8
714.438	15463.52
714.782	15438.66
715.125	15448.15
715.469	15408.15
715.812	15338.33
716.156	15233.7
716.499	15221.94
716.843	15336.07
717.186	15117.77
717.53	15284.09
717.873	15301.94
718.216	15215.84
718.559	15191.66
718.902	15110.31
719.246	15197.99
719.589	15074.15
719.932	15058.11
720.275	15067.15
720.617	14982.18
720.96	14847.04
721.303	14798.9
721.646	14910.54
721.989	14825.12
722.331	14838.45
722.674	14751.22
723.016	14707.16
723.359	14708.74
723.701	14710.32
724.044	14748.51
724.386	14672.58
724.729	14611.79
725.071	14466.26
725.413	14531.79
725.755	14430.78
726.097	14419.71
726.439	14345.36
726.782	14291.8
727.124	14481.85
727.465	14357.79
727.807	14412.02
728.149	14374.06
728.491	14326.37
728.833	14265.13
729.175	14245.7
729.516	14240.73
729.858	14185.59
730.199	14246.15
730.541	14268.52
730.882	14184.01
731.224	14195.98
731.565	14068.53
731.906	14069.66
732.248	14099.04
732.589	14050
732.93	13952.37
733.271	14028.3
733.612	14010.45
733.953	13964.58
734.294	13952.37
734.635	13914.41
734.976	13888.65
735.317	13887.06
735.658	13963.67
735.999	13809.55
736.339	13812.49
736.68	13858.59
737.021	13720.06
737.361	13690.01
737.702	13781.76
738.042	13750.34
738.383	13701.08
738.723	13628.99
739.063	13603.91
739.404	13664.25
739.744	13600.74
740.084	13521.88
740.424	13593.96
740.764	13483.23
741.104	13572.72
741.444	13406.17
741.784	13521.42
742.124	13347.19
742.464	13352.39
742.804	13255.89
743.143	13309
743.483	13300.41
743.823	13384.03
744.162	13341.32
744.502	13333.41
744.841	13227.19
745.181	13257.48
745.52	13187.42
745.86	13320.07
746.199	13239.4
746.538	13163.92
746.877	13146.07
747.216	13086.41
747.556	13018.61
747.895	13089.12
748.234	13093.41
748.573	13033.53
748.911	12893.87
749.25	12959.86
749.589	12923.02
749.928	12898.62
750.267	12840.99
750.605	12826.98
750.944	12865.17
751.283	12868.11
751.621	12876.7
751.96	12737.72
752.298	12726.42
752.636	12719.86
752.975	12708.34
753.313	12623.14
753.651	12682.12
753.989	12587.21
754.327	12514.44
754.666	12546.76
755.004	12546.76
755.342	12481.45
755.679	12389.48
756.017	12299.31
