Data from black_plastic_tray_FLMS001491_095.txt Node
Date: Tue Feb 07 10:41:03 GMT 2017
User: dcchb
Spectrometer: FLMS00149
Trigger mode: 0
Integration Time (sec): 2.000000E-2
Scans to average: 10
Electric dark correction enabled: true
Nonlinearity correction enabled: false
Boxcar width: 0
XAxis mode: Wavelengths
Number of Pixels in Spectrum: 2048
>>>>>Begin Spectral Data<<<<<
341.393	11.12
341.776	11.12
342.16	11.12
342.543	-61.2
342.927	-56.23
343.31	-78.15
343.693	-64.81
344.077	-47.87
344.46	-65.94
344.843	-52.39
345.226	-32.27
345.61	-28.43
345.993	-33.18
346.376	-4.7
346.759	6.14
347.142	16.99
347.525	47.27
347.908	60.83
348.291	73.03
348.674	93.37
349.057	110.1
349.44	120.49
349.823	143.09
350.206	180.6
350.588	174.28
350.971	192.81
351.354	208.17
351.737	221.28
352.119	238.45
352.502	235.52
352.884	255.63
353.267	265.35
353.65	269.41
354.032	294.95
354.414	280.71
354.797	282.75
355.179	302.41
355.562	295.85
355.944	300.83
356.326	287.27
356.709	327.49
357.091	300.83
357.473	321.62
357.855	331.11
358.238	311.22
358.62	313.03
359.002	313.93
359.384	356.42
359.766	314.84
360.148	323.88
360.53	307.6
360.912	326.36
361.294	304.44
361.676	333.14
362.057	331.11
362.439	318.9
362.821	312.58
363.203	289.3
363.584	315.06
363.966	322.75
364.348	322.07
364.729	291.11
365.111	310.77
365.493	323.88
365.874	309.86
366.256	306.25
366.637	306.25
367.019	311.22
367.4	287.72
367.781	303.09
368.163	311.22
368.544	303.54
368.925	298.57
369.306	304.67
369.688	292.24
370.069	298.34
370.45	279.81
370.831	296.31
371.212	307.83
371.593	302.41
371.974	297.89
372.355	301.05
372.736	291.11
373.117	322.97
373.498	296.98
373.879	318.45
374.26	299.24
374.641	304.89
375.021	300.83
375.402	292.69
375.783	313.03
376.163	322.52
376.544	293.14
376.925	302.18
377.305	314.38
377.686	303.31
378.066	329.3
378.447	335.4
378.827	324.78
379.208	312.58
379.588	317.55
379.968	321.62
380.349	315.51
380.729	327.04
381.109	306.25
381.489	318.23
381.87	326.14
382.25	310.54
382.63	319.13
383.01	359.81
383.39	342.41
383.77	337.66
384.15	316.64
384.53	334.72
384.91	319.36
385.29	339.69
385.67	328.4
386.049	321.84
386.429	324.78
386.809	332.69
387.189	328.62
387.568	353.71
387.948	335.85
388.328	335.17
388.707	330.43
389.087	331.11
389.466	346.93
389.846	356.87
390.225	362.29
390.605	359.35
390.984	342.41
391.363	350.32
391.743	365.68
392.122	353.25
392.501	350.32
392.881	354.16
393.26	341.28
393.639	364.1
394.018	380.37
394.397	348.96
394.776	363.65
395.155	387.83
395.534	359.58
395.913	360.94
396.292	360.48
396.671	362.97
397.05	364.78
397.429	367.94
397.808	391.22
398.186	378.34
398.565	398.45
398.944	410.43
399.323	366.81
399.701	402.29
400.08	390.77
400.458	396.64
400.837	370.88
401.215	394.61
401.594	392.8
401.972	404.55
402.351	392.57
402.729	407.94
403.107	425.12
403.486	414.49
403.864	386.47
404.242	395.29
404.62	407.72
404.999	425.34
405.377	425.79
405.755	415.85
406.133	400.48
406.511	416.98
406.889	428.96
407.267	396.42
407.645	420.82
408.023	433.48
408.401	427.15
408.779	420.14
409.156	450.2
409.534	428.51
409.912	440.26
410.29	445.68
410.667	467.37
411.045	434.38
411.422	451.1
411.8	489.07
412.178	448.39
412.555	459.92
412.933	492.91
413.31	467.6
413.687	466.47
414.065	465.34
414.442	487.49
414.819	496.75
415.197	499.24
415.574	496.98
415.951	496.3
416.328	485.68
416.705	488.39
417.082	496.3
417.46	505.11
417.837	501.95
418.214	507.15
418.591	517.77
418.967	488.84
419.344	506.92
419.721	548.05
420.098	508.73
420.475	514.15
420.852	500.37
421.228	518.45
421.605	523.42
421.982	524.77
422.358	538.56
422.735	546.69
423.111	543.53
423.488	542.63
423.864	542.63
424.241	549.41
424.617	551.67
424.994	543.98
425.37	562.51
425.746	553.02
426.123	563.42
426.499	579.24
426.875	570.65
427.251	595.51
427.627	591.67
428.003	609.97
428.379	573.36
428.756	603.64
429.132	603.87
429.507	607.03
429.883	620.14
430.259	608.16
430.635	623.3
431.011	639.12
431.387	635.51
431.763	649.29
432.138	634.83
432.514	654.26
432.89	649.29
433.265	653.36
433.641	662.4
434.016	658.78
434.392	667.37
434.767	692.68
435.143	689.06
435.518	681.38
435.894	678.44
436.269	679.12
436.644	714.37
437.02	714.15
437.395	700.59
437.77	727.25
438.145	721.38
438.52	717.31
438.895	708.95
439.271	712.57
439.646	762.51
440.021	755.28
440.395	719.57
440.77	742.62
441.145	765.45
441.52	769.51
441.895	751.89
442.27	786.24
442.645	767.71
443.019	775.39
443.394	765.45
443.769	800.7
444.143	765.67
444.518	779
444.892	779.91
445.267	785.33
445.641	800.02
446.016	815.39
446.39	821.04
446.764	828.72
447.139	809.96
447.513	802.28
447.887	852.68
448.262	851.55
448.636	834.37
449.01	852.68
449.384	864.2
449.758	843.86
450.132	875.05
450.506	876.18
450.88	851.32
451.254	874.82
451.628	875.27
452.002	869.4
452.376	898.1
452.75	892
453.123	882.96
453.497	906.69
453.871	916.63
454.244	918.89
454.618	935.84
454.992	944.65
455.365	956.18
455.739	952.33
456.112	971.09
456.486	977.42
456.859	990.07
457.232	1016.74
457.606	976.97
457.979	1025.33
458.352	1025.1
458.725	1022.84
459.099	1045.89
459.472	1057.19
459.845	1083.63
460.218	1069.62
460.591	1077.53
460.964	1070.52
461.337	1116.17
461.71	1125.21
462.083	1143.97
462.456	1158.88
462.829	1157.98
463.201	1136.51
463.574	1186
463.947	1178.32
464.32	1201.82
464.692	1190.75
465.065	1209.95
465.438	1213.34
465.81	1222.38
466.183	1230.07
466.555	1262.83
466.928	1278.65
467.3	1269.16
467.672	1290.63
468.045	1304.41
468.417	1317.52
468.789	1321.82
469.161	1336.73
469.534	1380.57
469.906	1392.55
470.278	1384.86
470.65	1402.49
471.022	1461.25
471.394	1430.06
471.766	1464.64
472.138	1501.25
472.51	1498.76
472.882	1516.84
473.253	1530.17
473.625	1552.09
473.997	1577.63
474.369	1579.66
474.74	1592.77
475.112	1636.61
475.484	1662.37
475.855	1675.48
476.227	1687
476.598	1685.65
476.97	1767.91
477.341	1745.08
477.713	1814.23
478.084	1817.85
478.455	1837.73
478.827	1864.85
479.198	1898.98
479.569	1901.24
479.94	1973.78
480.311	1947.11
480.682	1980.33
481.053	2050.16
481.424	2101.46
481.795	2077.05
482.166	2153.21
482.537	2152.75
482.908	2195.92
483.279	2219.19
483.65	2237.05
484.021	2255.58
484.391	2267.1
484.762	2329.92
485.133	2348.46
485.503	2343.03
485.874	2393.2
486.244	2413.54
486.615	2478.4
486.985	2483.82
487.356	2518.85
487.726	2544.61
488.097	2618.05
488.467	2603.36
488.837	2631.16
489.207	2658.28
489.578	2722.23
489.948	2745.96
490.318	2741.89
490.688	2778.73
491.058	2863.47
491.428	2837.26
491.798	2905.73
492.168	2933.07
492.538	2923.58
492.908	2964.48
493.278	2998.83
493.648	3000.42
494.017	3065.05
494.387	3070.47
494.757	3106.4
495.126	3096.46
495.496	3128.77
495.866	3185.5
496.235	3178.94
496.605	3244.48
496.974	3283.57
497.344	3284.25
497.713	3343.01
498.082	3326.73
498.452	3325.83
498.821	3374.64
499.19	3367.41
499.559	3430.69
499.928	3446.96
500.298	3452.83
500.667	3462.32
501.036	3507.97
501.405	3490.57
501.774	3542.77
502.143	3566.5
502.512	3564.69
502.88	3614.86
503.249	3643.34
503.618	3677.91
503.987	3644.92
504.356	3685.82
504.724	3701.41
505.093	3714.07
505.462	3738.48
505.83	3739.83
506.199	3791.13
506.567	3881.3
506.936	3846.04
507.304	3883.1
507.672	3952.71
508.041	3902.99
508.409	3914.74
508.777	3991.58
509.145	3984.8
509.514	4025.25
509.882	4039.03
510.25	4059.14
510.618	4049.88
510.986	4088.07
511.354	4100.5
511.722	4162.19
512.09	4168.52
512.458	4218.46
512.826	4241.06
513.193	4241.51
513.561	4308.63
513.929	4289.42
514.297	4359.25
514.664	4422.75
515.032	4393.37
515.4	4433.82
515.767	4459.81
516.135	4528.96
516.502	4469.76
516.869	4562.41
517.237	4529.87
517.604	4533.71
517.972	4613.03
518.339	4647.15
518.706	4706.81
519.073	4653.93
519.44	4728.05
519.808	4810.31
520.175	4787.94
520.542	4886.47
520.909	4870.42
521.276	4891.21
521.643	4943.19
522.009	4963.3
522.376	4970.31
522.743	5081.04
523.11	5074.03
523.477	5135.95
523.843	5122.39
524.21	5257.08
524.577	5234.26
524.943	5262.05
525.31	5298.66
525.676	5368.04
526.043	5391.31
526.409	5378.43
526.776	5440.58
527.142	5489.62
527.508	5479.45
527.874	5541.82
528.241	5563.29
528.607	5550.63
528.973	5661.59
529.339	5633.34
529.705	5721.93
530.071	5723.28
530.437	5771.42
530.803	5780
531.169	5857.74
531.535	5883.73
531.901	5871.53
532.267	5889.83
532.632	5972.31
532.998	6009.15
533.364	6067
533.73	6024.52
534.095	6019.55
534.461	6097.96
534.826	6146.77
535.192	6130.95
535.557	6212.76
535.923	6229.71
536.288	6198.52
536.653	6251.63
537.019	6235.13
537.384	6278.52
537.749	6328.24
538.114	6332.08
538.479	6384.51
538.845	6425.18
539.21	6382.25
539.575	6399.42
539.94	6422.47
540.305	6461.12
540.67	6433.55
541.034	6530.94
541.399	6557.84
541.764	6516.03
542.129	6605.29
542.494	6701.79
542.858	6599.64
543.223	6628.12
543.587	6674.44
543.952	6704.5
544.316	6699.53
544.681	6700.66
545.045	6760.32
545.41	6768.45
545.774	6774.55
546.138	6861.78
546.503	6824.27
546.867	6817.49
547.231	6945.17
547.595	6900.88
547.959	6949.69
548.324	6923.7
548.688	6991.5
549.052	7000.76
549.416	7010.71
549.779	7004.6
550.143	7046.64
550.507	7113.08
550.871	7108.33
551.235	7131.15
551.599	7170.02
551.962	7189.68
552.326	7225.39
552.689	7238.04
553.053	7320.98
553.417	7305.16
553.78	7341.32
554.143	7338.15
554.507	7414.54
554.87	7400.3
555.234	7497.7
555.597	7490.01
555.96	7546.96
556.323	7555.55
556.686	7515.78
557.05	7560.75
557.413	7631.93
557.776	7678.71
558.139	7668.54
558.502	7757.58
558.865	7769.33
559.228	7832.83
559.59	7811.14
559.953	7843.23
560.316	7897.69
560.679	7927.52
561.041	7974.07
561.404	7923.9
561.767	8004.35
562.129	7990.11
562.492	8071.02
562.854	8115.08
563.217	8070.11
563.579	8158.7
563.941	8191.92
564.304	8251.8
564.666	8265.81
565.028	8272.37
565.39	8334.51
565.753	8302.65
566.115	8388.97
566.477	8397.79
566.839	8412.48
567.201	8503.77
567.563	8517.78
567.925	8535.41
568.287	8645.24
568.648	8620.38
569.01	8666.48
569.372	8720.49
569.734	8693.37
570.095	8755.52
570.457	8800.26
570.819	8811.79
571.18	8767.04
571.542	8814.5
571.903	8844.33
572.265	8932.91
572.626	8908.51
572.987	8898.57
573.349	8936.98
573.71	8995.51
574.071	9011.56
574.432	8999.81
574.794	9079.8
575.155	9121.84
575.516	9070.99
575.877	9087.49
576.238	9129.97
576.599	9207.26
576.96	9211.33
577.32	9254.49
577.681	9169.07
578.042	9254.71
578.403	9267.14
578.763	9257.88
579.124	9314.15
579.485	9356.18
579.845	9350.98
580.206	9371.32
580.566	9363.64
580.927	9385.78
581.287	9379.91
581.648	9278.89
582.008	9415.61
582.368	9402.06
582.728	9438.44
583.089	9414.71
583.449	9382.85
583.809	9453.13
584.169	9422.39
584.529	9378.33
584.889	9468.95
585.249	9473.24
585.609	9367.03
585.969	9387.59
586.329	9435.05
586.688	9462.84
587.048	9452
587.408	9443.64
587.768	9393.47
588.127	9461.04
588.487	9433.01
588.846	9530.87
589.206	9431.43
589.565	9454.71
589.925	9480.7
590.284	9425.11
590.643	9423.75
591.003	9401.6
591.362	9471.43
591.721	9430.75
592.08	9557.53
592.44	9409.74
592.799	9446.35
593.158	9452.9
593.517	9520.47
593.876	9441.83
594.235	9545.55
594.593	9515.95
594.952	9554.59
595.311	9544.42
595.67	9495.84
596.029	9634.37
596.387	9532
596.746	9616.74
597.104	9527.48
597.463	9567.02
597.822	9618.09
598.18	9585.55
598.538	9531.09
598.897	9606.8
599.255	9522.05
599.613	9650.41
599.972	9646.57
600.33	9605.21
600.688	9607.93
601.046	9643.18
601.404	9669.17
601.762	9671.43
602.12	9730.18
602.478	9678.21
602.836	9757.53
603.194	9670.3
603.552	9677.53
603.91	9579.45
604.268	9661.71
604.625	9668.49
604.983	9739.45
605.341	9711.88
605.698	9730.63
606.056	9715.49
606.413	9754.81
606.771	9783.97
607.128	9735.38
607.485	9725.21
607.843	9763.18
608.2	9817.86
608.557	9775.83
608.914	9854.7
609.272	9850.18
609.629	9863.29
609.986	9893.12
610.343	9806.56
610.7	9925.21
611.057	9902.15
611.414	9917.97
611.771	9923.62
612.127	9957.07
612.484	9935.37
612.841	10035.26
613.198	9966.11
613.554	9949.16
613.911	9996.39
614.267	10033.45
614.624	9935.83
614.98	9971.53
615.337	10077.52
615.693	10030.74
616.05	9987.58
616.406	9995.49
616.762	10079.78
617.118	10078.87
617.475	10018.76
617.831	10057.86
618.187	10025.99
618.543	10090.85
618.899	10181.24
619.255	10120.45
619.611	10186.44
619.967	10131.75
620.323	10148.48
620.678	10157.29
621.034	10114.35
621.39	10099.66
621.746	10125.65
622.101	10217.4
622.457	10142.15
622.812	10156.39
623.168	10141.24
623.523	10204.29
623.879	10114.58
624.234	10120.91
624.589	10141.7
624.945	10161.81
625.3	10223.05
625.655	10141.7
626.01	10173.11
626.365	10153.45
626.72	10160
627.075	10103.51
627.43	10154.8
627.785	10132.66
628.14	10095.82
628.495	10200.9
628.85	10173.79
629.205	10077.29
629.559	10197.97
629.914	10098.99
630.269	10174.92
630.623	10143.28
630.978	10123.17
631.332	10091.08
631.687	10125.88
632.041	10089.49
632.396	10146.22
632.75	10097.86
633.104	10111.19
633.459	10007.69
633.813	9990.51
634.167	9990.06
634.521	10038.2
634.875	9973.79
635.229	10040.68
635.583	9946.45
635.937	9948.48
636.291	9828.71
636.645	9866.68
636.999	9861.7
637.352	9918.88
637.706	9859.22
638.06	9951.65
638.413	9893.79
638.767	9883.62
639.121	9902.15
639.474	9794.59
639.828	9781.48
640.181	9868.03
640.534	9785.77
640.888	9761.82
641.241	9765.21
641.594	9798.65
641.947	9768.6
642.301	9692.89
642.654	9746
643.007	9708.94
643.36	9711.2
643.713	9741.03
644.066	9724.76
644.419	9652.67
644.771	9651.54
645.124	9542.84
645.477	9494.93
645.83	9413.35
646.182	9339.91
646.535	9388.95
646.888	9340.81
647.24	9324.54
647.593	9432.34
647.945	9382.85
648.298	9268.5
648.65	9301.04
649.002	9275.73
649.355	9321.83
649.707	9293.13
650.059	9307.14
650.411	9419.46
650.763	9447.25
651.115	9523.86
651.467	9460.81
651.819	9480.25
652.171	9426.24
652.523	9409.74
652.875	9389.17
653.227	9444.09
653.578	9418.78
653.93	9464.43
654.282	9433.47
654.633	9384.65
654.985	9482.05
655.337	9421.94
655.688	9397.08
656.039	9450.87
656.391	9351.21
656.742	9364.99
657.094	9414.26
657.445	9433.01
657.796	9365.22
658.147	9332
658.498	9327.93
658.849	9368.84
659.2	9343.98
659.551	9355.05
659.902	9346.01
660.253	9347.37
660.604	9320.02
660.955	9242.74
661.306	9272.79
661.656	9216.98
662.007	9268.05
662.358	9230.53
662.708	9267.82
663.059	9268.95
663.409	9223.3
663.76	9230.31
664.11	9298.33
664.461	9272.79
664.811	9310.31
665.161	9203.19
665.511	9276.18
665.862	9209.52
666.212	9235.51
666.562	9215.85
666.912	9248.16
667.262	9228.95
667.612	9308.72
667.962	9242.74
668.312	9185.34
668.662	9264.88
669.011	9137.66
669.361	9209.52
669.711	9178.33
670.06	9094.49
670.41	9120.25
670.76	9098.33
671.109	9143.08
671.459	9158.45
671.808	9087.04
672.157	9111.22
672.507	9078
672.856	9108.96
673.205	9107.6
673.554	9114.15
673.904	9076.41
674.253	9145.56
674.602	9050.2
674.951	8962.97
675.3	8925.01
675.649	8995.29
675.998	8978.79
676.346	9026.02
676.695	8972.46
677.044	9022.18
677.393	9019.92
677.741	9072.35
678.09	8994.16
678.438	8973.59
678.787	9052.91
679.135	8965.23
679.484	8959.58
679.832	8927.27
680.181	8922.07
680.529	8920.49
680.877	8947.38
681.225	8961.84
681.573	9009.75
681.922	8860.6
682.27	8894.72
682.618	8873.71
682.966	8899.47
683.314	8848.17
683.661	8834.39
684.009	8777.66
684.357	8781.28
684.705	8794.16
685.053	8817.44
685.4	8787.38
685.748	8756.2
686.095	8717.1
686.443	8681.62
686.79	8677.55
687.138	8662.64
687.485	8679.81
687.832	8674.62
688.18	8652.02
688.527	8636.65
688.874	8580.83
689.221	8560.27
689.568	8515.75
689.915	8567.5
690.262	8565.01
690.609	8512.13
690.956	8504.45
691.303	8389.2
691.65	8398.47
691.997	8458.8
692.344	8358.47
692.69	8336.32
693.037	8380.39
693.383	8324.57
693.73	8346.72
694.077	8297.45
694.423	8353.95
694.769	8300.84
695.116	8294.29
695.462	8219.49
695.808	8215.87
696.155	8218.13
696.501	8112.37
696.847	8146.49
697.193	8112.82
697.539	8160.73
697.885	8035.54
698.231	8080.51
698.577	8009.32
698.923	8009.55
699.269	8001.19
699.614	7985.6
699.96	7915.09
700.306	7953.73
700.651	7920.29
700.997	7895.65
701.342	7897.46
701.688	7886.84
702.033	7795.77
702.379	7821.76
702.724	7792.15
703.069	7825.83
703.415	7779.05
703.76	7767.97
704.105	7778.59
704.45	7728.65
704.795	7652.04
705.14	7655.21
705.485	7647.3
705.83	7609.33
706.175	7599.16
706.52	7569.56
706.865	7590.8
707.209	7577.24
707.554	7505.16
707.899	7553.52
708.243	7485.5
708.588	7541.31
708.932	7524.36
709.277	7491.14
709.621	7526.4
709.966	7390.13
710.31	7465.61
710.654	7399.62
710.998	7404.59
711.342	7389.23
711.687	7307.87
712.031	7354.43
712.375	7343.13
712.719	7354.65
713.063	7322.56
713.407	7287.99
713.75	7267.87
714.094	7261.09
714.438	7243.47
714.782	7214.77
715.125	7148.33
715.469	7199.85
715.812	7124.6
716.156	7198.27
716.499	7141.1
716.843	7076.01
717.186	7123.24
717.53	7089.35
717.873	7089.57
718.216	7102.68
718.559	7098.39
718.902	7000.76
719.246	7012.06
719.589	7024.72
719.932	6993.98
720.275	6996.92
720.617	7026.75
720.96	6965.06
721.303	6937.49
721.646	6946.07
721.989	6983.81
722.331	6994.21
722.674	6957.15
723.016	6964.38
723.359	6933.19
723.701	6826.53
724.044	6838.51
724.386	6815.68
724.729	6842.12
725.071	6865.4
725.413	6835.79
725.755	6774.1
726.097	6809.13
726.439	6775.46
726.782	6760.09
727.124	6772.52
727.465	6768
727.807	6753.31
728.149	6728.45
728.491	6703.37
728.833	6777.72
729.175	6682.35
729.516	6688.68
729.858	6718.96
730.199	6704.05
730.541	6684.39
730.882	6657.27
731.224	6656.82
731.565	6638.06
731.906	6659.53
732.248	6604.61
732.589	6605.97
732.93	6628.12
733.271	6551.28
733.612	6596.93
733.953	6582.02
734.294	6586.31
734.635	6565.52
734.976	6578.4
735.317	6551.06
735.658	6531.4
735.999	6550.6
736.339	6515.8
736.68	6514.45
737.021	6485.3
737.361	6470.61
737.702	6470.61
738.042	6434.68
738.383	6502.47
738.723	6460.89
739.063	6403.49
739.404	6424.05
739.744	6396.71
740.084	6392.42
740.424	6407.11
740.764	6391.06
741.104	6401.91
741.444	6350.84
741.784	6411.17
742.124	6318.97
742.464	6340.44
742.804	6309.26
743.143	6356.03
743.483	6350.61
743.823	6245.98
744.162	6264.74
744.502	6319.42
744.841	6251.86
745.181	6307.9
745.52	6233.78
745.86	6215.92
746.199	6262.93
746.538	6148.81
746.877	6252.53
747.216	6219.31
747.556	6211.4
747.895	6208.24
748.234	6214.57
748.573	6184.06
748.911	6178.41
749.25	6161.69
749.589	6116.94
749.928	6116.27
750.267	6151.29
750.605	6163.27
750.944	6126.89
751.283	6068.81
751.621	6098.19
751.96	6062.03
752.298	6020.45
752.636	6056.38
752.975	6091.18
753.313	6008.02
753.651	6008.47
753.989	6001.92
754.327	6005.08
754.666	5974.12
755.004	5956.04
755.342	5936.38
755.679	5942.94
756.017	5872.88
756.355	5887.57
756.693	5913.33
757.031	5854.8
757.368	5872.43
757.706	5858.19
758.044	5862.94
758.381	5827.23
758.719	5848.48
759.056	5808.03
759.394	5764.86
759.731	5765.99
760.068	5750.4
760.405	5731.42
760.743	5696.62
761.08	5667.46
761.417	5707.46
761.754	5669.05
762.091	5674.24
762.428	5650.97
762.765	5600.57
763.102	5694.13
763.438	5583.85
763.775	5597.86
764.112	5565.55
764.449	5560.8
764.785	5559.22
765.122	5524.19
765.458	5467.24
765.795	5493.01
766.131	5492.78
766.467	5508.15
766.804	5367.81
767.14	5439.9
767.476	5419.11
767.812	5381.37
768.148	5365.78
768.485	5365.33
768.821	5339.34
769.157	5291.88
769.492	5284.65
