Data from black_metal_pc_casing_FLMS001491_00077.txt Node
Date: Wed Feb 08 14:33:29 GMT 2017
User: dcchb
Spectrometer: FLMS00149
Trigger mode: 0
Integration Time (sec): 2.000000E-2
Scans to average: 10
Electric dark correction enabled: true
Nonlinearity correction enabled: false
Boxcar width: 0
XAxis mode: Wavelengths
Number of Pixels in Spectrum: 2048
>>>>>Begin Spectral Data<<<<<
341.393	-6.36
341.776	-6.36
342.16	-6.36
342.543	-52.91
342.927	-62.17
343.31	-78.67
343.693	-79.57
344.077	-53.59
344.46	-51.33
344.843	-35.28
345.226	-47.48
345.61	-40.93
345.993	-12.01
346.376	-12.46
346.759	20.54
347.142	25.06
347.525	38.61
347.908	39.74
348.291	62.34
348.674	101.21
349.057	123.81
349.44	119.52
349.823	152.74
350.206	153.64
350.588	190.48
350.971	199.29
351.354	195.22
351.737	223.24
352.119	235.9
352.502	264.37
352.884	251.04
353.267	283.35
353.65	288.55
354.032	276.12
354.414	320.19
354.797	278.61
355.179	315.9
355.562	292.39
355.944	296.01
356.326	299.4
356.709	320.64
357.091	326.06
357.473	352.05
357.855	327.42
358.238	326.29
358.62	342.56
359.002	322.68
359.384	338.95
359.766	333.97
360.148	337.36
360.53	334.43
360.912	331.26
361.294	336.46
361.676	332.17
362.057	318.38
362.439	317.93
362.821	312.96
363.203	324.93
363.584	330.81
363.966	332.84
364.348	331.94
364.729	303.47
365.111	323.35
365.493	331.04
365.874	329.68
366.256	312.73
366.637	309.79
367.019	318.61
367.4	311.15
367.781	309.57
368.163	320.42
368.544	326.97
368.925	310.02
369.306	318.16
369.688	312.73
370.069	302.79
370.45	324.26
370.831	319.96
371.212	300.75
371.593	327.87
371.974	313.41
372.355	322.68
372.736	309.79
373.117	302.11
373.498	307.76
373.879	313.18
374.26	306.86
374.641	310.7
375.021	322.68
375.402	319.29
375.783	307.99
376.163	343.69
376.544	358.83
376.925	330.36
377.305	348.44
377.686	351.15
378.066	329.68
378.447	349.79
378.827	340.53
379.208	338.04
379.588	355.44
379.968	337.59
380.349	346.4
380.729	314.77
381.109	334.88
381.489	357.93
381.87	347.53
382.25	345.05
382.63	347.76
383.01	350.02
383.39	381.88
383.77	339.17
384.15	357.48
384.53	354.99
384.91	366.74
385.29	364.93
385.67	368.1
386.049	376.91
386.429	357.7
386.809	352.96
387.189	368.55
387.568	368.55
387.948	358.61
388.328	398.83
388.707	374.88
389.087	388.66
389.466	393.63
389.846	385.27
390.225	410.58
390.605	398.83
390.984	395.67
391.363	380.3
391.743	392.5
392.122	397.25
392.501	404.25
392.881	412.39
393.26	410.36
393.639	410.13
394.018	401.77
394.397	413.29
394.776	423.01
395.155	415.55
395.534	395.22
395.913	427.98
396.292	428.66
396.671	409.9
397.05	401.32
397.429	420.07
397.808	414.2
398.186	428.89
398.565	431.82
398.944	440.86
399.323	445.61
399.701	436.57
400.08	467.3
400.458	468.43
400.837	431.6
401.215	445.16
401.594	471.82
401.972	451.94
402.351	434.99
402.729	453.52
403.107	477.02
403.486	465.72
403.864	473.63
404.242	469.11
404.62	466.85
404.999	451.71
405.377	473.18
405.755	486.74
406.133	453.97
406.511	480.86
406.889	485.83
407.267	496.23
407.645	503.01
408.023	531.71
408.401	530.81
408.779	514.53
409.156	535.1
409.534	526.06
409.912	524.48
410.29	530.13
410.667	536.68
411.045	542.56
411.422	533.07
411.8	531.48
412.178	559.28
412.555	551.14
412.933	568.32
413.31	554.76
413.687	570.35
414.065	567.64
414.442	588.88
414.819	575.32
415.197	571.71
415.574	576.45
415.951	586.62
416.328	609.45
416.705	588.2
417.082	601.76
417.46	605.38
417.837	603.57
418.214	608.77
418.591	622.33
418.967	604.93
419.344	628.66
419.721	633.4
420.098	624.81
420.475	640.86
420.852	660.75
421.228	652.84
421.605	668.88
421.982	657.81
422.358	679.05
422.735	688.54
423.111	686.06
423.488	663.01
423.864	669.56
424.241	699.61
424.617	709.78
424.994	701.42
425.37	689.45
425.746	701.42
426.123	717.24
426.499	726.51
426.875	697.13
427.251	714.08
427.627	723.57
428.003	750.46
428.379	748.43
428.756	758.82
429.132	749.56
429.507	803.57
429.883	799.95
430.259	771.25
430.635	793.17
431.011	792.04
431.387	795.66
431.763	824.58
432.138	807.63
432.514	825.71
432.89	819.16
433.265	855.32
433.641	855.32
434.016	833.17
434.392	865.94
434.767	878.59
435.143	875.2
435.518	901.19
435.894	912.72
436.269	888.99
436.644	911.59
437.02	945.48
437.395	944.13
437.77	954.97
438.145	947.74
438.52	984.8
438.895	943.22
439.271	957.01
439.646	978.48
440.021	988.19
440.395	988.65
440.77	980.06
441.145	995.2
441.52	1026.16
441.895	1016.22
442.27	1020.96
442.645	1014.86
443.019	1037.91
443.394	1030.45
443.769	1058.02
444.143	1042.43
444.518	1052.37
444.892	1053.5
445.267	1034.29
445.641	1069.77
446.016	1065.25
446.39	1082.43
446.764	1087.85
447.139	1086.04
447.513	1084.01
447.887	1103.22
448.262	1114.29
448.636	1124.46
449.01	1142.77
449.384	1161.75
449.758	1185.93
450.132	1162.88
450.506	1156.55
450.88	1156.1
451.254	1174.18
451.628	1190.45
452.002	1200.62
452.376	1211.69
452.75	1174.86
453.123	1238.36
453.497	1233.39
453.871	1242.65
454.244	1261.86
454.618	1267.06
454.992	1260.5
455.365	1284.91
455.739	1317.23
456.112	1310.67
456.486	1333.04
456.859	1352.48
457.232	1396.32
457.606	1361.29
457.979	1395.19
458.352	1401.29
458.725	1421.18
459.099	1437.22
459.472	1475.64
459.845	1480.16
460.218	1499.82
460.591	1511.8
460.964	1490.78
461.337	1520.16
461.71	1548.86
462.083	1539.37
462.456	1546.15
462.829	1601.06
463.201	1570.78
463.574	1589.99
463.947	1616.65
464.32	1679.93
464.692	1650.32
465.065	1653.26
465.438	1692.36
465.81	1720.38
466.183	1735.75
466.555	1748.63
466.928	1765.12
467.3	1780.26
467.672	1804.44
468.045	1842.41
468.417	1856.87
468.789	1869.3
469.161	1904.33
469.534	1910.88
469.906	1938.9
470.278	1972.12
470.65	1965.8
471.022	2007.38
471.394	2038.56
471.766	2091.67
472.138	2039.01
472.51	2122.18
472.882	2152.91
473.253	2199.24
473.625	2219.8
473.997	2246.69
474.369	2274.49
474.74	2275.39
475.112	2319.46
475.484	2344.09
475.855	2411.43
476.227	2421.6
476.598	2495.95
476.97	2475.16
477.341	2539.11
477.713	2561.94
478.084	2596.51
478.455	2647.13
478.827	2633.8
479.198	2727.81
479.569	2727.58
479.94	2824.08
480.311	2831.08
480.682	2870.86
481.053	2945.66
481.424	2953.79
481.795	2993.79
482.166	3071.76
482.537	3076.28
482.908	3129.83
483.279	3177.29
483.65	3227.46
484.021	3267.23
484.391	3316.04
484.762	3345.87
485.133	3375.25
485.503	3399.66
485.874	3481.01
486.244	3514.68
486.615	3589.03
486.985	3612.98
487.356	3706.31
487.726	3736.37
488.097	3798.29
488.467	3779.99
488.837	3891.39
489.207	3919.87
489.578	3949.92
489.948	3969.58
490.318	4034.67
490.688	4036.48
491.058	4125.51
491.428	4198.96
491.798	4226.98
492.168	4276.02
492.538	4332.97
492.908	4407.99
493.278	4361.89
493.648	4389.46
494.017	4473.98
494.387	4503.58
494.757	4553.52
495.126	4646.18
495.496	4600.53
495.866	4693.18
496.235	4704.48
496.605	4751.49
496.974	4757.81
497.344	4779.06
497.713	4803.91
498.082	4910.13
498.452	4948.99
498.821	4945.15
499.19	4977.02
499.559	4991.25
499.928	5016.56
500.298	5042.55
500.667	5078.48
501.036	5137.69
501.405	5121.64
501.774	5169.55
502.143	5248.65
502.512	5285.03
502.88	5310.11
503.249	5294.3
503.618	5385.37
503.987	5385.59
504.356	5435.31
504.724	5457.46
505.093	5476.89
505.462	5518.02
505.83	5541.07
506.199	5592.59
506.567	5664.91
506.936	5662.87
507.304	5736.77
507.672	5732.48
508.041	5806.37
508.409	5837.56
508.777	5866.03
509.145	5889.08
509.514	5979.93
509.882	6003.66
510.25	5995.97
510.618	6052.92
510.986	6049.98
511.354	6115.52
511.722	6161.17
512.09	6189.64
512.458	6212.24
512.826	6269.41
513.193	6308.96
513.561	6353.7
513.929	6406.13
514.297	6451.78
514.664	6535.39
515.032	6504.89
515.4	6590.08
515.767	6616.07
516.135	6678.89
516.502	6681.38
516.869	6755.27
517.237	6808.38
517.604	6736.52
517.972	6846.57
518.339	6927.02
518.706	6907.59
519.073	6984.42
519.44	6991.65
519.808	7077.98
520.175	7080.46
520.542	7222.38
520.909	7212.66
521.276	7244.98
521.643	7302.38
522.009	7371.3
522.376	7388.25
522.743	7464.18
523.11	7555.71
523.477	7592.54
523.843	7649.71
524.21	7746.66
524.577	7756.15
524.943	7837.96
525.31	7854.91
525.676	7960.44
526.043	7971.29
526.409	8069.59
526.776	8100.32
527.142	8183.71
527.508	8182.81
527.874	8256.48
528.241	8355.23
528.607	8357.94
528.973	8482.91
529.339	8444.04
529.705	8526.75
530.071	8605.4
530.437	8597.71
530.803	8644.26
531.169	8646.52
531.535	8744.6
531.901	8766.52
532.267	8741.21
532.632	8850.36
532.998	8889.46
533.364	8947.31
533.73	8983.24
534.095	9049.68
534.461	9088.55
534.826	9179.62
535.192	9169.45
535.557	9228.43
535.923	9237.47
536.288	9246.96
536.653	9364.02
537.019	9327.18
537.384	9454.41
537.749	9432.72
538.114	9445.15
538.479	9488.54
538.845	9517.91
539.21	9523.79
539.575	9563.11
539.94	9629.32
540.305	9706.61
540.67	9722.65
541.034	9733.5
541.399	9780.96
541.764	9720.39
542.129	9732.82
542.494	9812.37
542.858	9903.21
543.223	9922.87
543.587	9905.47
543.952	9971.69
544.316	10040.16
544.681	10056.2
545.045	10119.25
545.41	10166.48
545.774	10140.27
546.138	10257.78
546.503	10252.13
546.867	10250.78
547.231	10313.82
547.595	10371.22
547.959	10392.69
548.324	10396.31
548.688	10426.36
549.052	10432.01
549.416	10427.95
549.779	10570.99
550.143	10542.29
550.507	10614.61
550.871	10745.68
551.235	10653.93
551.599	10761.27
551.962	10729.86
552.326	10792.68
552.689	10877.65
553.053	10832
553.417	10887.14
553.78	10976.41
554.143	10969.4
554.507	11021.83
554.87	11129.85
555.234	11171.2
555.597	11114.93
555.96	11168.49
556.323	11246.46
556.686	11216.4
557.05	11352.44
557.413	11345.21
557.776	11414.36
558.139	11528.71
558.502	11516.05
558.865	11500.46
559.228	11606.45
559.59	11581.81
559.953	11686.9
560.316	11754.24
560.679	11776.61
561.041	11888.02
561.404	11934.57
561.767	11977.28
562.129	12001.92
562.492	12154.23
562.854	12154
563.217	12118.75
563.579	12177.73
563.941	12225.41
564.304	12352.42
564.666	12451.85
565.028	12448.91
565.39	12447.78
565.753	12511.73
566.115	12603.93
566.477	12593.99
566.839	12658.85
567.201	12811.84
567.563	12820.2
567.925	12869.92
568.287	12867.43
568.648	12844.38
569.01	12970.93
569.372	12990.82
569.734	12912.17
570.095	13105.16
570.457	13102.9
570.819	13170.25
571.18	13144.26
571.542	13250.24
571.903	13275.55
572.265	13305.84
572.626	13341.32
572.987	13431.71
573.349	13423.35
573.71	13493.63
574.071	13581.08
574.432	13554.19
574.794	13638.71
575.155	13667.86
575.516	13699.72
575.877	13683.68
576.238	13778.59
576.599	13798.7
576.96	13805.48
577.32	13797.58
577.681	13874.41
578.042	13845.94
578.403	13920.96
578.763	13878.93
579.124	13965.93
579.485	14007.74
579.845	14018.59
580.206	13964.58
580.566	14129.09
580.927	14096.55
581.287	14092.71
581.648	13982.43
582.008	14149.88
582.368	14060.84
582.728	14147.85
583.089	14081.86
583.449	14077.79
583.809	14114.63
584.169	14127.06
584.529	14082.31
584.889	14165.25
585.249	14136.1
585.609	14072.6
585.969	14231.24
586.329	14163.67
586.688	14264.46
587.048	14195.53
587.408	14036.21
587.768	14081.41
588.127	14202.54
588.487	14166.6
588.846	14237.11
589.206	14178.81
589.565	14177
589.925	14240.05
590.284	14185.14
590.643	14200.28
591.003	14184.23
591.362	14304
591.721	14206.83
592.08	14330.89
592.44	14284.79
592.799	14259.94
593.158	14334.51
593.517	14196.43
593.876	14225.59
594.235	14240.05
594.593	14338.8
594.952	14319.14
595.311	14162.76
595.67	14262.65
596.029	14286.83
596.387	14331.12
596.746	14412.47
597.104	14296.77
597.463	14267.17
597.822	14378.58
598.18	14373.38
598.538	14337.45
598.897	14491.12
599.255	14321.4
599.613	14494.28
599.972	14463.09
600.33	14461.29
600.688	14534.96
601.046	14472.81
601.404	14542.64
601.762	14472.81
602.12	14516.65
602.478	14465.13
602.836	14589.42
603.194	14501.29
603.552	14500.16
603.91	14518.69
604.268	14563.43
604.625	14576.09
604.983	14610.21
605.341	14535.86
605.698	14631
606.056	14764.1
606.413	14702.64
606.771	14757.1
607.128	14761.17
607.485	14647.27
607.843	14713.26
608.2	14760.49
608.557	14713.26
608.914	14717.1
609.272	14738.57
609.629	14808.4
609.986	14870.99
610.343	14790.77
610.7	14966.36
611.057	14889.98
611.414	14826.93
611.771	14901.95
612.127	14958.9
612.484	14931.56
612.841	14955.74
613.198	15019.69
613.554	14920.94
613.911	15036.64
614.267	14982.63
614.624	14930.2
614.98	15058.33
615.337	15161.38
615.693	15071.67
616.05	15070.08
616.406	15184.66
616.762	15135.62
617.118	15099.91
617.475	15145.11
617.831	15143.75
618.187	15146.01
618.543	15133.36
618.899	15266.91
619.255	15248.38
619.611	15185.79
619.967	15235.96
620.323	15260.81
620.678	15239.8
621.034	15197.54
621.39	15199.35
621.746	15191.89
622.101	15364.09
622.457	15289.29
622.812	15224.43
623.168	15298.33
623.523	15299
623.879	15333.35
624.234	15333.58
624.589	15352.56
624.945	15346.91
625.3	15296.52
625.655	15261.94
626.01	15364.54
626.365	15269.63
626.72	15315.05
627.075	15295.16
627.43	15233.92
627.785	15232.34
628.14	15208.39
628.495	15287.93
628.85	15232.11
629.205	15164.32
629.559	15305.33
629.914	15256.75
630.269	15231.21
630.623	15156.18
630.978	15077.32
631.332	15139.69
631.687	15201.83
632.041	15004.32
632.396	15165.45
632.75	15092.91
633.104	15124.09
633.459	15089.52
633.813	15086.13
634.167	15022.18
634.521	15096.3
634.875	15071.89
635.229	15025.57
635.583	14933.36
635.937	15002.06
636.291	14934.49
636.645	14944.44
636.999	14934.04
637.352	14976.98
637.706	14890.65
638.06	14862.41
638.413	14867.83
638.767	14936.53
639.121	14862.63
639.474	14730.43
639.828	14820.15
640.181	14761.62
640.534	14855.63
640.888	14757.55
641.241	14717.32
641.594	14689.3
641.947	14742.86
642.301	14662.19
642.654	14659.25
643.007	14691.79
643.36	14654.73
643.713	14549.87
644.066	14645.24
644.419	14536.76
644.771	14429.65
645.124	14334.06
645.477	14319.14
645.83	14289.54
646.182	14114.18
646.535	14090.67
646.888	14088.87
647.24	13995.54
647.593	14171.12
647.945	14096.1
648.298	13945.82
648.65	14007.06
649.002	13912.37
649.355	14003.67
649.707	14020.17
650.059	14075.08
650.411	14163.89
650.763	14210.22
651.115	14350.1
651.467	14264
651.819	14301.52
652.171	14280.27
652.523	14245.02
652.875	14216.32
653.227	14191.46
653.578	14219.26
653.93	14195.98
654.282	14121.86
654.633	14110.34
654.985	14175.64
655.337	14160.5
655.688	14120.73
656.039	14217.9
656.391	14072.37
656.742	14067.62
657.094	14083.67
657.445	14108.98
657.796	14104.46
658.147	14037.79
658.498	13969.55
658.849	14080.73
659.2	13967.74
659.551	13986.5
659.902	14072.6
660.253	13940.85
660.604	14033.73
660.955	13913.5
661.306	13998.25
661.656	13922.77
662.007	13902.88
662.358	13929.55
662.708	13836.9
663.059	13874.64
663.409	13825.6
663.76	14012.94
664.11	13920.51
664.461	13982.65
664.811	13955.76
665.161	13959.38
665.511	13860.17
665.862	13884.13
666.212	13923.45
666.562	13881.87
666.912	13899.27
667.262	13944.69
667.612	13842.77
667.962	13876.44
668.312	13861.53
668.662	14027.17
669.011	13973.84
669.361	13870.12
669.711	13820.85
670.06	13807.52
670.41	13781.76
670.76	13773.85
671.109	13823.79
671.459	13777.46
671.808	13858.82
672.157	13789.67
672.507	13581.31
672.856	13757.8
673.205	13804.81
673.554	13890
673.904	13677.13
674.253	13843.68
674.602	13694.3
674.951	13547.19
675.3	13465.61
675.649	13739.5
675.998	13675.09
676.346	13652.95
676.695	13721.42
677.044	13545.38
677.393	13668.99
677.741	13643.91
678.09	13556.9
678.438	13518.71
678.787	13572.95
679.135	13508.54
679.484	13412.05
679.832	13523.91
680.181	13436
680.529	13494.98
680.877	13480.07
681.225	13379.96
681.573	13549.22
681.922	13388.55
682.27	13355.55
682.618	13436.68
682.966	13371.15
683.314	13360.07
683.661	13338.83
684.009	13234.65
684.357	13219.96
684.705	13268.32
685.053	13261.32
685.4	13272.62
685.748	13162.79
686.095	13132.96
686.443	13062.68
686.79	13038.27
687.138	13092.96
687.485	13053.41
687.832	13024.04
688.18	13093.64
688.527	12965.05
688.874	12937.03
689.221	12890.03
689.568	12901.1
689.915	12846.64
690.262	12880.99
690.609	12709.02
690.956	12778.39
691.303	12747.43
691.65	12688.45
691.997	12685.29
692.344	12613.88
692.69	12600.77
693.037	12612.3
693.383	12442.81
693.73	12530.72
694.077	12493.88
694.423	12502.02
694.769	12386.76
695.116	12388.12
695.462	12425.18
695.808	12299.54
696.155	12383.15
696.501	12254.79
696.847	12267.45
697.193	12157.17
697.539	12167.34
697.885	12051.63
698.231	12085.08
698.577	12057.06
698.923	12036.04
699.269	11929.83
699.614	12004.18
699.96	11900
700.306	11883.05
700.651	11925.31
700.997	11821.36
701.342	11759.66
701.688	11862.26
702.033	11741.13
702.379	11711.53
702.724	11660.68
703.069	11654.81
703.415	11569.84
703.76	11611.42
704.105	11627.24
704.45	11554.02
704.795	11461.82
705.14	11467.47
705.485	11506.34
705.83	11423.63
706.175	11502.49
706.52	11398.77
706.865	11377.98
707.209	11422.04
707.554	11302.73
707.899	11313.8
708.243	11288.49
708.588	11215.5
708.932	11196.97
709.277	11206.68
709.621	11165.55
709.966	11063.86
710.31	11191.54
710.654	11018.44
710.998	11051.66
711.342	11060.92
711.687	10980.93
712.031	10952.9
712.375	10979.12
712.719	10931.44
713.063	10877.2
713.407	10950.42
713.75	10911.55
714.094	10847.6
714.438	10810.99
714.782	10813.7
715.125	10734.83
715.469	10824.55
715.812	10661.16
716.156	10697.09
716.499	10676.08
716.843	10785.22
717.186	10596.08
717.53	10698.22
717.873	10629.52
718.216	10609.18
718.559	10615.74
718.902	10532.12
719.246	10558.34
719.589	10484.44
719.932	10472.92
720.275	10387.72
720.617	10536.42
720.96	10482.18
721.303	10381.17
721.646	10435.63
721.989	10372.81
722.331	10406.7
722.674	10459.58
723.016	10400.6
723.359	10341.17
723.701	10347.95
724.044	10233.6
724.386	10270.66
724.729	10317.21
725.071	10236.99
725.413	10255.3
725.755	10231.57
726.097	10187.5
726.439	10194.28
726.782	10172.13
727.124	10188.86
727.465	10146.15
727.807	10138.24
728.149	10029.99
728.491	10108.41
728.833	10141.4
729.175	10033.61
729.516	10034.96
729.858	9999.03
730.199	10050.78
730.541	10004
730.882	9996.09
731.224	10020.95
731.565	9982.31
731.906	9971.69
732.248	9949.54
732.589	9881.07
732.93	9877.23
733.271	9859.37
733.612	9860.73
733.953	9896.66
734.294	9826.38
734.635	9844.68
734.976	9804.23
735.317	9799.49
735.658	9765.82
735.999	9813.73
736.339	9795.87
736.68	9792.26
737.021	9741.86
737.361	9710.9
737.702	9700.06
738.042	9685.37
738.383	9668.64
738.723	9698.7
739.063	9636.78
739.404	9679.27
739.744	9661.19
740.084	9596.1
740.424	9558.59
740.764	9576.44
741.104	9626.39
741.444	9606.05
741.784	9397.69
742.124	9481.53
742.464	9467.07
742.804	9482.89
743.143	9444.02
743.483	9427.07
743.823	9408.99
744.162	9413.28
744.502	9423.9
744.841	9293.29
745.181	9398.59
745.52	9372.83
745.86	9397.01
746.199	9379.61
746.538	9293.51
746.877	9368.99
747.216	9348.88
747.556	9378.26
747.895	9378.26
748.234	9316.11
748.573	9333.06
748.911	9271.14
749.25	9209
749.589	9192.72
749.928	9186.85
750.267	9195.89
750.605	9239.5
750.944	9133.52
751.283	9171.03
751.621	9096.23
751.96	9097.59
752.298	9117.92
752.636	9074.31
752.975	9029.79
753.313	8971.26
753.651	9010.81
753.989	9011.49
754.327	8914.99
754.666	8972.84
755.004	8894.43
755.342	8876.8
755.679	8899.85
756.017	8819.63
756.355	8888.33
756.693	8787.54
757.031	8833.86
757.368	8766.07
757.706	8768.1
758.044	8682.91
758.381	8773.53
758.719	8645.62
759.056	8711.61
