Data from black_plastic_tray_FLMS001491_030.txt Node
Date: Tue Feb 07 10:39:32 GMT 2017
User: dcchb
Spectrometer: FLMS00149
Trigger mode: 0
Integration Time (sec): 2.000000E-2
Scans to average: 10
Electric dark correction enabled: true
Nonlinearity correction enabled: false
Boxcar width: 0
XAxis mode: Wavelengths
Number of Pixels in Spectrum: 2048
>>>>>Begin Spectral Data<<<<<
341.393	-27.87
341.776	-27.87
342.16	-27.87
342.543	-54.08
342.927	-61.54
343.31	-64.48
343.693	-70.13
344.077	-60.63
344.46	-63.57
344.843	-55.21
345.226	-59.96
345.61	-33.74
345.993	-10.92
346.376	-7.98
346.759	19.36
347.142	41.74
347.525	57.55
347.908	52.81
348.291	65.46
348.674	95.07
349.057	94.62
349.44	152.24
349.823	154.95
350.206	141.62
350.588	191.34
350.971	187.04
351.354	189.53
351.737	246.25
352.119	235.18
352.502	266.14
352.884	276.08
353.267	259.36
353.65	290.77
354.032	294.61
354.414	273.37
354.797	297.77
355.179	294.84
355.562	311.11
355.944	329.86
356.326	342.07
356.709	325.57
357.091	334.38
357.473	325.12
357.855	334.84
358.238	335.06
358.62	336.19
359.002	341.84
359.384	327.6
359.766	347.49
360.148	318.79
360.53	315.18
360.912	313.82
361.294	332.12
361.676	324.21
362.057	345.01
362.439	336.64
362.821	314.05
363.203	340.03
363.584	321.95
363.966	311.11
364.348	332.58
364.729	310.66
365.111	315.85
365.493	317.66
365.874	301.16
366.256	316.98
366.637	306.14
367.019	301.16
367.4	317.44
367.781	299.36
368.163	324.44
368.544	297.77
368.925	314.72
369.306	298
369.688	304.33
370.069	304.1
370.45	303.65
370.831	311.79
371.212	295.74
371.593	296.87
371.974	321.05
372.355	307.49
372.736	300.26
373.117	299.13
373.498	312.01
373.879	312.24
374.26	328.06
374.641	318.34
375.021	293.03
375.402	300.03
375.783	330.77
376.163	346.13
376.544	331.45
376.925	338.23
377.305	344.33
377.686	328.28
378.066	340.94
378.447	337.77
378.827	323.76
379.208	318.34
379.588	340.49
379.968	360.6
380.349	312.46
380.729	349.75
381.109	332.35
381.489	348.17
381.87	360.6
382.25	350.43
382.63	350.65
383.01	347.49
383.39	349.98
383.77	353.37
384.15	355.4
384.53	345.01
384.91	369.41
385.29	367.6
385.67	359.69
386.049	350.65
386.429	372.35
386.809	363.08
387.189	368.28
387.568	360.6
387.948	375.96
388.328	379.35
388.707	388.62
389.087	379.35
389.466	385.68
389.846	390.88
390.225	358.34
390.605	394.5
390.984	381.61
391.363	383.2
391.743	411.67
392.122	370.99
392.501	400.6
392.881	408.05
393.26	410.99
393.639	393.14
394.018	407.83
394.397	435.4
394.776	413.25
395.155	437.66
395.534	424.33
395.913	406.25
396.292	424.55
396.671	413.25
397.05	414.83
397.429	399.24
397.808	389.07
398.186	447.38
398.565	440.82
398.944	424.55
399.323	443.53
399.701	431.1
400.08	428.84
400.458	440.37
400.837	416.87
401.215	447.38
401.594	480.59
401.972	445.79
402.351	442.18
402.729	438.79
403.107	450.76
403.486	453.25
403.864	477.43
404.242	472.46
404.62	458.67
404.999	447.6
405.377	502.52
405.755	488.96
406.133	486.02
406.511	450.54
406.889	481.27
407.267	500.48
407.645	499.58
408.023	475.17
408.401	471.56
408.779	500.26
409.156	496.87
409.534	506.58
409.912	524.21
410.29	512.91
410.667	527.6
411.045	545.23
411.422	531.44
411.8	537.09
412.178	553.36
412.555	555.4
412.933	552.23
413.31	562.17
413.687	567.37
414.065	563.98
414.442	567.6
414.819	559.46
415.197	593.81
415.574	560.37
415.951	576.41
416.328	581.83
416.705	614.6
417.082	586.81
417.46	593.81
417.837	623.87
418.214	611.89
418.591	600.37
418.967	619.35
419.344	628.84
419.721	622.74
420.098	641.72
420.475	641.72
420.852	640.36
421.228	652.79
421.605	644.66
421.982	660.93
422.358	659.8
422.735	665.67
423.111	669.06
423.488	662.06
423.864	678.33
424.241	693.92
424.617	708.39
424.994	675.17
425.37	714.03
425.746	701.61
426.123	695.28
426.499	723.3
426.875	716.52
427.251	728.05
427.627	744.54
428.003	750.42
428.379	750.87
428.756	716.52
429.132	772.34
429.507	772.56
429.883	783.41
430.259	786.58
430.635	779.8
431.011	800.13
431.387	808.5
431.763	839.23
432.138	815.28
432.514	837.42
432.89	831.32
433.265	860.47
433.641	884.65
434.016	873.13
434.392	870.64
434.767	896.4
435.143	886.69
435.518	872.9
435.894	885.78
436.269	917.87
436.644	953.8
437.02	921.49
437.395	931.66
437.77	937.76
438.145	945.44
438.52	956.97
438.895	951.32
439.271	974.37
439.646	988.15
440.021	975.04
440.395	989.96
440.77	1005.55
441.145	1003.52
441.52	1011.43
441.895	1036.06
442.27	1034.25
442.645	1022.05
443.019	1039
443.394	1018.21
443.769	1056.17
444.143	1046.91
444.518	1057.08
444.892	1050.3
445.267	1057.98
445.641	1082.61
446.016	1076.29
446.39	1089.62
446.764	1106.34
447.139	1086.45
447.513	1091.43
447.887	1128.04
448.262	1119.67
448.636	1102.05
449.01	1152.22
449.384	1133.91
449.758	1161.71
450.132	1151.31
450.506	1153.35
450.88	1165.77
451.254	1163.51
451.628	1176.62
452.002	1220.01
452.376	1202.38
452.75	1217.07
453.123	1223.4
453.497	1246.68
453.871	1250.29
454.244	1276.96
454.618	1288.94
454.992	1316.28
455.365	1301.82
455.739	1330.52
456.112	1334.58
456.486	1360.57
456.859	1357.86
457.232	1353.34
457.606	1411.64
457.979	1378.88
458.352	1414.58
458.725	1410.97
459.099	1448.93
459.472	1454.35
459.845	1469.95
460.218	1492.77
460.591	1479.21
460.964	1520.57
461.337	1533.22
461.71	1569.61
462.083	1587.46
462.456	1570.28
462.829	1597.85
463.201	1601.7
463.574	1610.28
463.947	1664.52
464.32	1644.86
464.692	1653.67
465.065	1699.55
465.438	1747.45
465.81	1741.8
466.183	1758.75
466.555	1784.52
466.928	1756.04
467.3	1805.53
467.672	1843.04
468.045	1859.54
468.417	1875.59
468.789	1856.15
469.161	1905.87
469.534	1930.5
469.906	1980.44
470.278	1986.77
470.65	2026.99
471.022	2027.67
471.394	2088.69
471.766	2081.91
472.138	2101.34
472.51	2170.04
472.882	2182.47
473.253	2205.3
473.625	2210.04
473.997	2286.42
474.369	2298.63
474.74	2304.05
475.112	2334.11
475.484	2369.81
475.855	2396.93
476.227	2402.13
476.598	2482.12
476.97	2498.85
477.341	2573.2
477.713	2603.02
478.084	2601.44
478.455	2708.11
478.827	2713.3
479.198	2781.55
479.569	2847.99
479.94	2862.9
480.311	2850.02
480.682	2902.45
481.053	2981.77
481.424	3025.39
481.795	3063.58
482.166	3135.21
482.537	3098.83
482.908	3208.88
483.279	3186.06
483.65	3294.98
484.021	3340.63
484.391	3354.64
484.762	3397.58
485.133	3437.35
485.503	3473.96
485.874	3553.96
486.244	3592.15
486.615	3631.7
486.985	3702.88
487.356	3723
487.726	3790.34
488.097	3836.66
488.467	3854.97
488.837	3904.69
489.207	4001.18
489.578	4026.94
489.948	4082.76
490.318	4105.81
490.688	4095.41
491.058	4159.59
491.428	4245.02
491.798	4252.92
492.168	4334.5
492.538	4333.83
492.908	4420.6
493.278	4533.14
493.648	4528.17
494.017	4568.4
494.387	4592.13
494.757	4592.8
495.126	4692.91
495.496	4725
495.866	4735.17
496.235	4759.58
496.605	4809.29
496.974	4823.76
497.344	4877.09
497.713	4873.25
498.082	4970.19
498.452	4989.85
498.821	5026.46
499.19	4990.98
499.559	5081.38
499.928	5127.7
500.298	5142.85
500.667	5159.34
501.036	5227.81
501.405	5227.59
501.774	5247.7
502.143	5271.66
502.512	5344.65
502.88	5428.04
503.249	5440.46
503.618	5379.22
503.987	5486.34
504.356	5492.44
504.724	5553
505.093	5541.03
505.462	5651.31
505.83	5680.46
506.199	5713.23
506.567	5788.03
506.936	5754.81
507.304	5804.07
507.672	5821.92
508.041	5936.95
508.409	5900.79
508.777	5988.7
509.145	6038.87
509.514	6018.08
509.882	6079.54
510.25	6069.37
510.618	6174.68
510.986	6131.75
511.354	6208.35
511.722	6313.21
512.09	6333.77
512.458	6341.01
512.826	6429.36
513.193	6411.51
513.561	6462.36
513.929	6470.72
514.297	6558.85
514.664	6587.1
515.032	6642.69
515.4	6673.65
515.767	6713.88
516.135	6796.13
516.502	6708.45
516.869	6815.12
517.237	6880.88
517.604	6851.5
517.972	6915
518.339	7003.81
518.706	7062.12
519.073	7085.62
519.44	7083.36
519.808	7199.06
520.175	7240.42
520.542	7347.31
520.909	7401.32
521.276	7385.5
521.643	7478.38
522.009	7498.26
522.376	7581.2
522.743	7600.18
523.11	7679.05
523.477	7762.89
523.843	7793.85
524.21	7890.12
524.577	7921.53
524.943	7953.17
525.31	8011.24
525.676	8078.14
526.043	8129.43
526.409	8186.38
526.776	8261.41
527.142	8305.02
527.508	8352.7
527.874	8391.57
528.241	8450.1
528.607	8428.63
528.973	8506.15
529.339	8575.07
529.705	8626.6
530.071	8760.15
530.437	8761.73
530.803	8842.41
531.169	8848.96
531.535	8814.16
531.901	8940.03
532.267	8980.94
532.632	8951.56
532.998	9064.78
533.364	9058.22
533.73	9098.22
534.095	9187.03
534.461	9224.32
534.826	9314.71
535.192	9370.76
535.557	9381.38
535.923	9436.97
536.288	9457.31
536.653	9507.93
537.019	9541.15
537.384	9584.99
537.749	9544.54
538.114	9593.8
538.479	9663.4
538.845	9670.41
539.21	9730.52
539.575	9730.3
539.94	9792.21
540.305	9803.51
540.67	9863.17
541.034	9845.55
541.399	9850.07
541.764	9970.97
542.129	9963.28
542.494	9957.41
542.858	10003.73
543.223	10043.73
543.587	10116.05
543.952	10053.22
544.316	10149.04
544.681	10107.69
545.045	10248.02
545.41	10256.61
545.774	10257.74
546.138	10294.12
546.503	10351.97
546.867	10320.79
547.231	10498.41
547.595	10423.16
547.959	10496.15
548.324	10483.95
548.688	10521.69
549.052	10524.85
549.416	10580.44
549.779	10581.12
550.143	10638.97
550.507	10737.05
550.871	10737.95
551.235	10764.39
551.599	10750.83
551.962	10846.42
552.326	10870.15
552.689	10984.73
553.053	10952.41
553.417	11014.78
553.78	11135.91
554.143	11107.43
554.507	11197.38
554.87	11182.69
555.234	11304.49
555.597	11311.04
555.96	11355.11
556.323	11324.83
556.686	11337.03
557.05	11394.21
557.413	11471.94
557.776	11522.56
558.139	11579.51
558.502	11557.37
558.865	11581.55
559.228	11800.98
559.59	11738.6
559.953	11807.08
560.316	11858.6
560.679	11889.56
561.041	11939.28
561.404	11948.09
561.767	12043.68
562.129	12081.42
562.492	12185.37
562.854	12224.92
563.217	12228.31
563.579	12238.93
563.941	12348.76
564.304	12416.33
564.666	12378.59
565.028	12491.58
565.39	12528.64
565.753	12567.96
566.115	12606.15
566.477	12718.69
566.839	12756.88
567.201	12716.88
567.563	12789.2
567.925	12883.66
568.287	12899.7
568.648	12942.41
569.01	12987.38
569.372	13040.49
569.734	13059.92
570.095	13145.12
570.457	13228.96
570.819	13185.57
571.18	13227.6
571.542	13351.22
571.903	13351.44
572.265	13330.2
572.626	13395.28
572.987	13378.11
573.349	13372.46
573.71	13515.51
574.071	13553.7
574.432	13494.94
574.794	13663.3
575.155	13637.54
575.516	13583.3
575.877	13670.76
576.238	13706.46
576.599	13766.35
576.96	13712.79
577.32	13734.48
577.681	13848.6
578.042	13913.24
578.403	13905.1
578.763	13940.81
579.124	13961.37
579.485	13975.83
579.845	14004.08
580.206	14019.45
580.566	13932.9
580.927	13928.6
581.287	14039.11
581.648	13885.67
582.008	14007.92
582.368	13985.55
582.728	14087.69
583.089	14115.49
583.449	14071.2
583.809	14087.47
584.169	14144.42
584.529	14062.84
584.889	14191.19
585.249	14029.84
585.609	14089.95
585.969	14064.87
586.329	14093.34
586.688	14150.52
587.048	14067.13
587.408	14053.12
587.768	14013.57
588.127	14104.64
588.487	14125.66
588.846	14119.78
589.206	14032.33
589.565	13909.39
589.925	14108.26
590.284	14101.93
590.643	14068.26
591.003	14189.39
591.362	14127.24
591.721	14178.31
592.08	14168.14
592.44	14196.39
592.799	14221.25
593.158	14159.78
593.517	14192.1
593.876	14172.44
594.235	14174.7
594.593	14170.4
594.952	14233.23
595.311	14146
595.67	14140.57
596.029	14292.89
596.387	14310.29
596.746	14254.02
597.104	14213.34
597.463	14205.43
597.822	14154.36
598.18	14162.27
598.538	14177.41
598.897	14284.98
599.255	14138.77
599.613	14368.59
599.972	14305.99
600.33	14345.77
600.688	14282.04
601.046	14247.46
601.404	14449.04
601.762	14402.71
602.12	14495.82
602.478	14432.09
602.836	14413.79
603.194	14354.13
603.552	14459.21
603.91	14317.75
604.268	14437.74
604.625	14382.38
604.983	14448.36
605.341	14354.81
605.698	14387.57
606.056	14490.4
606.413	14455.14
606.771	14422.15
607.128	14518.87
607.485	14370.62
607.843	14423.73
608.2	14583.5
608.557	14579.21
608.914	14508.7
609.272	14534.01
609.629	14589.83
609.986	14587.79
610.343	14498.76
610.7	14722.03
611.057	14683.16
611.414	14722.71
611.771	14700.79
612.127	14749.82
612.484	14640
612.841	14757.96
613.198	14703.05
613.554	14810.16
613.911	14823.04
614.267	14764.29
614.624	14773.1
614.98	14725.42
615.337	14816.26
615.693	14813.33
616.05	14819.43
616.406	14903.72
616.762	14842.48
617.118	14944.85
617.475	14874.79
617.831	14913.89
618.187	15002.92
618.543	14953.43
618.899	15088.35
619.255	14971.97
619.611	14939.65
619.967	15091.28
620.323	15054.9
620.678	14999.53
621.034	14964.28
621.39	14857.62
621.746	14874.11
622.101	15018.52
622.457	14901.23
622.812	14965.86
623.168	15102.81
623.523	15058.52
623.879	15107.78
624.234	14881.12
624.589	15031.62
624.945	15095.8
625.3	15011.96
625.655	14975.81
626.01	14966.54
626.365	15044.51
626.72	14992.98
627.075	15062.36
627.43	14965.19
627.785	14906.88
628.14	15008.12
628.495	15022.59
628.85	14992.98
629.205	14891.06
629.559	15054.67
629.914	14914.34
630.269	14889.71
630.623	14870.95
630.978	14880.67
631.332	14971.29
631.687	14922.47
632.041	14904.17
632.396	14986.88
632.75	14904.17
633.104	14864.4
633.459	14740.11
633.813	14750.28
634.167	14744.85
634.521	14767
634.875	14710.5
635.229	14707.57
635.583	14634.8
635.937	14578.08
636.291	14589.38
636.645	14667.79
636.999	14564.52
637.352	14656.72
637.706	14558.64
638.06	14539.21
638.413	14570.62
638.767	14561.58
639.121	14525.42
639.474	14393.68
639.828	14414.01
640.181	14399.78
640.534	14450.85
640.888	14355.71
641.241	14260.8
641.594	14364.52
641.947	14387.57
642.301	14309.84
642.654	14305.09
643.007	14358.2
643.36	14238.43
643.713	14213.34
644.066	14320.23
644.419	14184.42
644.771	14209.27
645.124	14097.19
645.477	14090.63
645.83	13882.05
646.182	13834.37
646.535	13802.73
646.888	13838.89
647.24	13697.87
647.593	13808.15
647.945	13686.8
648.298	13597.09
648.65	13580.14
649.002	13599.35
649.355	13767.7
649.707	13601.15
650.059	13640.93
650.411	13822.16
650.763	13896.97
651.115	13944.42
651.467	13970.64
651.819	13933.12
652.171	13895.38
652.523	13825.1
652.875	13868.72
653.227	13854.25
653.578	13871.66
653.93	13861.03
654.282	13740.13
654.633	13752.56
654.985	13834.14
655.337	13841.83
655.688	13793.69
656.039	13785.78
656.391	13680.25
656.742	13742.17
657.094	13747.59
657.445	13813.58
657.796	13832.33
658.147	13735.39
658.498	13692.45
658.849	13782.84
659.2	13736.29
659.551	13664.2
659.902	13685.22
660.253	13644.77
660.604	13749.85
660.955	13662.85
661.306	13651.55
661.656	13572.45
662.007	13644.09
662.358	13622.4
662.708	13509.4
663.059	13528.61
663.409	13527.71
663.76	13586.46
664.11	13630.53
664.461	13613.13
664.811	13556.86
665.161	13614.49
665.511	13579.46
665.862	13557.54
666.212	13463.53
666.562	13599.35
666.912	13518.22
667.262	13560.93
667.612	13510.53
667.962	13459.69
668.312	13508.05
668.662	13524.32
669.011	13461.72
669.361	13396.87
669.711	13411.78
670.06	13295.62
670.41	13325
670.76	13369.3
671.109	13424.89
671.459	13391.89
671.808	13360.26
672.157	13411.55
672.507	13301.5
672.856	13281.16
673.205	13360.71
673.554	13315.96
673.904	13283.2
674.253	13340.14
674.602	13293.14
674.951	13110.32
675.3	13051.56
675.649	13247.72
675.998	13266.47
676.346	13339.47
676.695	13343.08
677.044	13206.36
677.393	13272.35
677.741	13169.53
678.09	13123.65
678.438	13169.3
678.787	13134.05
679.135	13143.54
679.484	13011.11
679.832	13086.82
680.181	12983.54
680.529	13088.4
680.877	13082.75
681.225	12947.84
681.573	13155.97
681.922	13008.63
682.27	12982.41
682.618	12944.9
682.966	12868.97
683.314	12973.83
683.661	12948.06
684.009	12852.47
684.357	12820.38
684.705	12873.26
685.053	12807.5
685.4	12782.42
685.748	12829.87
686.095	12712.82
686.443	12696.32
686.79	12696.54
687.138	12608.86
687.485	12641.63
687.832	12710.56
688.18	12620.61
688.527	12531.58
688.874	12487.74
689.221	12488.87
689.568	12556.44
689.915	12398.93
690.262	12345.82
690.609	12380.17
690.956	12377.91
691.303	12217.01
691.65	12126.39
691.997	12134.98
692.344	12130.46
692.69	12142.21
693.037	12179.04
693.383	12126.62
693.73	12150.8
694.077	12121.87
694.423	12147.86
694.769	12004.59
695.116	11969.33
695.462	11967.52
695.808	11922.78
696.155	11899.5
696.501	11805.72
696.847	11910.35
697.193	11794.87
697.539	11881.42
697.885	11678.04
698.231	11695.44
698.577	11646.4
698.923	11629.91
699.269	11527.54
699.614	11529.34
699.96	11423.58
700.306	11483.47
700.651	11403.7
700.997	11372.06
701.342	11398.05
701.688	11360.76
702.033	11323.02
702.379	11335.9
702.724	11335.45
703.069	11321.67
703.415	11179.3
703.76	11181.33
704.105	11186.53
704.45	11196.7
704.795	11105.4
705.14	11101.78
705.485	11118.73
705.83	11056.81
706.175	10993.99
706.52	11045.29
706.865	10911.96
707.209	10954.67
707.554	10907.89
707.899	10981.11
708.243	10908.12
708.588	10838.51
708.932	10812.3
709.277	10858.4
709.621	10774.11
709.966	10719.42
710.31	10766.65
710.654	10772.08
710.998	10654.34
711.342	10726.88
711.687	10681.23
712.031	10595.58
712.375	10525.75
712.719	10632.19
713.063	10487.11
713.407	10537.28
713.75	10451.86
714.094	10476.72
714.438	10397.62
714.782	10405.08
715.125	10280.79
715.469	10387
715.812	10313.78
716.156	10200.11
716.499	10299.55
716.843	10250.06
717.186	10242.15
717.53	10336.61
717.873	10330.05
718.216	10190.17
718.559	10247.8
718.902	10208.93
719.246	10189.94
719.589	10171.87
719.932	10147.91
720.275	10125.54
720.617	10127.57
720.96	10098.42
721.303	10061.13
721.646	10066.56
721.989	9988.37
722.331	10034.24
722.674	9947.01
723.016	10035.6
723.359	9996.5
723.701	10011.64
724.044	9865.66
724.386	9848.71
724.729	9950.85
725.071	9869.95
725.413	9808.94
725.755	9826.11
726.097	9782.05
726.439	9732.55
726.782	9750.86
727.124	9761.03
727.465	9751.09
727.807	9746.79
728.149	9781.82
728.491	9722.84
728.833	9702.95
729.175	9682.84
729.516	9609.85
729.858	9629.28
730.199	9638.32
730.541	9575.5
730.882	9607.59
731.224	9580.24
731.565	9532.33
731.906	9465.9
732.248	9547.02
732.589	9502.73
732.93	9548.15
733.271	9487.14
733.612	9523.97
733.953	9387.71
734.294	9442.62
734.635	9390.64
734.976	9483.07
735.317	9408.04
735.658	9364.2
735.999	9361.72
736.339	9356.07
736.68	9354.26
737.021	9319.91
737.361	9262.06
737.702	9267.26
738.042	9228.16
738.383	9227.71
738.723	9273.58
739.063	9255.96
739.404	9225.22
739.744	9156.98
740.084	9119.92
740.424	9161.27
740.764	9140.25
741.104	9154.49
741.444	9099.35
741.784	9078.33
742.124	9181.61
742.464	9022.97
742.804	9047.6
743.143	8983.87
743.483	9062.52
743.823	8991.78
744.162	9003.53
744.502	9117.2
744.841	9039.69
745.181	9061.16
745.52	8974.61
745.86	8934.38
746.199	8981.39
746.538	8924.21
746.877	8968.51
747.216	8933.93
747.556	8842.63
747.895	8885.35
748.234	8842.63
748.573	8838.79
748.911	8826.36
749.25	8791.11
749.589	8762.64
749.928	8873.37
750.267	8736.42
750.605	8737.55
750.944	8766.48
751.283	8671.57
751.621	8715.41
751.96	8731.9
752.298	8703.88
752.636	8718.57
752.975	8614.62
753.313	8586.37
753.651	8637.67
753.989	8652.13
754.327	8603.32
754.666	8532.13
755.004	8567.61
755.342	8526.71
755.679	8535.3
756.017	8408.97
756.355	8418.47
756.693	8349.09
757.031	8402.65
757.368	8355.42
757.706	8293.04
758.044	8274.29
758.381	8281.52
758.719	8278.81
759.056	8288.53
759.394	8219.6
759.731	8131.92
760.068	8190.9
