Data from black_metal_pc_casing_FLMS001491_00018.txt Node
Date: Wed Feb 08 14:32:03 GMT 2017
User: dcchb
Spectrometer: FLMS00149
Trigger mode: 0
Integration Time (sec): 2.000000E-2
Scans to average: 10
Electric dark correction enabled: true
Nonlinearity correction enabled: false
Boxcar width: 0
XAxis mode: Wavelengths
Number of Pixels in Spectrum: 2048
>>>>>Begin Spectral Data<<<<<
341.393	-8.87
341.776	-8.87
342.16	-8.87
342.543	-36.44
342.927	-61.07
343.31	-60.39
343.693	-75.53
344.077	-67.85
344.46	-61.52
344.843	-53.61
345.226	-46.16
345.61	-7.06
345.993	-21.52
346.376	9.21
346.759	12.82
347.142	14.63
347.525	25.93
347.908	44.24
348.291	82.2
348.674	103.9
349.057	100.73
349.44	131.69
349.823	146.83
350.206	152.26
350.588	190.67
350.971	195.42
351.354	196.1
351.737	216.21
352.119	259.37
352.502	222.08
352.884	247.62
353.267	261.18
353.65	281.29
354.032	279.71
354.414	298.01
354.797	289.65
355.179	289.88
355.562	295.3
355.944	305.7
356.326	318.58
356.709	319.94
357.091	320.39
357.473	334.62
357.855	326.26
358.238	302.08
358.62	330.1
359.002	328.07
359.384	314.06
359.766	319.71
360.148	331.69
360.53	337.56
360.912	338.01
361.294	322.19
361.676	310.67
362.057	326.94
362.439	324.68
362.821	318.13
363.203	302.31
363.584	292.82
363.966	298.47
364.348	314.51
364.729	293.27
365.111	300.95
365.493	307.28
365.874	315.87
366.256	298.92
366.637	305.02
367.019	315.64
367.4	308.86
367.781	299.6
368.163	286.72
368.544	307.51
368.925	299.37
369.306	309.54
369.688	306.15
370.069	301.4
370.45	305.02
370.831	308.64
371.212	293.27
371.593	303.21
371.974	293.27
372.355	301.4
372.736	298.92
373.117	296.66
373.498	288.3
373.879	311.12
374.26	310.22
374.641	300.5
375.021	299.37
375.402	305.47
375.783	306.15
376.163	331.46
376.544	316.09
376.925	308.86
377.305	314.51
377.686	306.38
378.066	311.57
378.447	334.4
378.827	310.22
379.208	308.64
379.588	326.04
379.968	310.22
380.349	321.52
380.729	323.78
381.109	309.99
381.489	336.21
381.87	331.46
382.25	322.42
382.63	339.6
383.01	329.65
383.39	349.99
383.77	336.21
384.15	331.23
384.53	337.79
384.91	346.15
385.29	349.09
385.67	344.34
386.049	356.09
386.429	359.03
386.809	328.75
387.189	343.44
387.568	342.99
387.948	357.45
388.328	335.53
388.707	350.22
389.087	354.51
389.466	352.02
389.846	350.67
390.225	374.85
390.605	348.86
390.984	354.28
391.363	370.33
391.743	366.71
392.122	366.04
392.501	347.05
392.881	371.69
393.26	367.17
393.639	373.27
394.018	367.84
394.397	354.51
394.776	366.26
395.155	383.21
395.534	372.59
395.913	379.59
396.292	386.83
396.671	389.09
397.05	395.19
397.429	390.89
397.808	385.02
398.186	383.44
398.565	399.26
398.944	384.79
399.323	397
399.701	381.18
400.08	368.3
400.458	389.31
400.837	374.62
401.215	401.51
401.594	407.62
401.972	397.45
402.351	405.36
402.729	422.76
403.107	396.32
403.486	399.26
403.864	409.65
404.242	402.64
404.62	413.72
404.999	415.75
405.377	429.31
405.755	424.11
406.133	423.21
406.511	404.68
406.889	431.57
407.267	433.38
407.645	444.45
408.023	450.33
408.401	446.49
408.779	430.89
409.156	438.8
409.534	434.28
409.912	434.73
410.29	454.17
410.667	479.03
411.045	450.1
411.422	466.37
411.8	482.19
412.178	466.6
412.555	475.19
412.933	477.45
413.31	465.92
413.687	479.7
414.065	462.98
414.442	496.2
414.819	500.72
415.197	494.39
415.574	503.89
415.951	501.4
416.328	505.24
416.705	519.48
417.082	502.76
417.46	506.6
417.837	511.34
418.214	526.03
418.591	511.79
418.967	519.93
419.344	526.71
419.721	527.61
420.098	525.81
420.475	532.36
420.852	528.74
421.228	530.55
421.605	543.66
421.982	539.82
422.358	531.23
422.735	556.54
423.111	549.53
423.488	546.82
423.864	551.57
424.241	544.11
424.617	591.34
424.994	549.99
425.37	584.11
425.746	556.54
426.123	580.04
426.499	594.73
426.875	581.62
427.251	591.34
427.627	606.03
428.003	584.11
428.379	605.35
428.756	609.19
429.132	611
429.507	634.5
429.883	628.4
430.259	640.83
430.635	610.1
431.011	639.47
431.387	653.03
431.763	649.42
432.138	639.7
432.514	650.1
432.89	657.1
433.265	665.69
433.641	668.4
434.016	671.79
434.392	699.13
434.767	701.85
435.143	677.89
435.518	695.29
435.894	734.16
436.269	720.38
436.644	731.9
437.02	732.35
437.395	727.16
437.77	722.64
438.145	760.15
438.52	754.05
438.895	758.57
439.271	750.66
439.646	773.48
440.021	750.88
440.395	765.57
440.77	747.95
441.145	763.09
441.52	796.31
441.895	796.31
442.27	780.94
442.645	773.48
443.019	792.92
443.394	791.34
443.769	818.45
444.143	800.83
444.518	819.13
444.892	806.48
445.267	820.49
445.641	815.97
446.016	837.89
446.39	831.56
446.764	846.02
447.139	834.72
447.513	830.88
447.887	824.55
448.262	834.05
448.636	868.4
449.01	865.91
449.384	875.63
449.758	865.23
450.132	880.15
450.506	871.78
450.88	904.33
451.254	900.26
451.628	879.69
452.002	884.44
452.376	919.24
452.75	924.66
453.123	922.41
453.497	930.09
453.871	939.35
454.244	952.23
454.618	956.75
454.992	951.33
455.365	965.57
455.739	993.36
456.112	972.12
456.486	998.79
456.859	1008.5
457.232	1008.73
457.606	1011.67
457.979	1039.69
458.352	1047.15
458.725	1055.73
459.099	1070.2
459.472	1079.69
459.845	1060.71
460.218	1100.25
460.591	1097.54
460.964	1082.4
461.337	1124.21
461.71	1140.93
462.083	1140.25
462.456	1138.22
462.829	1176.64
463.201	1180.03
463.574	1209.4
463.947	1208.27
464.32	1235.39
464.692	1254.6
465.065	1252.34
465.438	1249.4
465.81	1255.5
466.183	1267.93
466.555	1259.8
466.928	1280.81
467.3	1310.64
467.672	1335.73
468.045	1356.97
468.417	1367.59
468.789	1351.32
469.161	1390.42
469.534	1386.8
469.906	1414.82
470.278	1406.23
470.65	1460.92
471.022	1466.8
471.394	1466.8
471.766	1476.51
472.138	1473.58
472.51	1533.01
472.882	1550.41
473.253	1567.81
473.625	1592.44
473.997	1597.42
474.369	1632.44
474.74	1649.84
475.112	1643.52
475.484	1690.75
475.855	1739.33
476.227	1730.07
476.598	1747.02
476.97	1799.67
477.341	1798.09
477.713	1824.53
478.084	1837.18
478.455	1882.15
478.827	1901.59
479.198	1950.85
479.569	1948.14
479.94	1989.95
480.311	2017.74
480.682	2057.74
481.053	2088.93
481.424	2079.44
481.795	2133.22
482.166	2156.5
482.537	2157.85
482.908	2217.06
483.279	2238.75
483.65	2288.92
484.021	2310.62
484.391	2349.71
484.762	2375.02
485.133	2373.67
485.503	2399.88
485.874	2420.67
486.244	2484.62
486.615	2493.66
486.985	2525.07
487.356	2543.61
487.726	2569.59
488.097	2642.13
488.467	2625.64
488.837	2678.74
489.207	2737.27
489.578	2760.55
489.948	2780.21
490.318	2825.63
490.688	2822.02
491.058	2903.37
491.428	2910.38
491.798	2970.03
492.168	2999.41
492.538	3025.85
492.908	3028.56
493.278	3080.09
493.648	3050.03
494.017	3122.35
494.387	3137.94
494.757	3173.65
495.126	3182.46
495.496	3168.22
495.866	3233.98
496.235	3264.72
496.605	3273.53
496.974	3326.86
497.344	3306.52
497.713	3361.66
498.082	3349.01
498.452	3399.63
498.821	3453.19
499.19	3443.02
499.559	3535.22
499.928	3530.7
500.298	3511.26
500.667	3574.54
501.036	3550.13
501.405	3594.88
501.774	3591.26
502.143	3593.52
502.512	3674.2
502.88	3664.48
503.249	3685.5
503.618	3701.32
503.987	3767.08
504.356	3766.85
504.724	3800.75
505.093	3770.24
505.462	3819.05
505.83	3866.73
506.199	3862.21
506.567	3920.52
506.936	3906.28
507.304	3941.31
507.672	3963
508.041	3995.32
508.409	4014.98
508.777	4057.01
509.145	4058.37
509.514	4068.31
509.882	4134.75
510.25	4110.8
510.618	4155.77
510.986	4137.91
511.354	4209.1
511.722	4250.45
512.09	4276.22
512.458	4246.84
512.826	4336.33
513.193	4344.91
513.561	4364.57
513.929	4387.85
514.297	4446.38
514.664	4489.77
515.032	4484.35
515.4	4513.05
515.767	4538.36
516.135	4577.68
516.502	4598.01
516.869	4609.31
517.237	4670.1
517.604	4672.14
517.972	4686.15
518.339	4679.82
518.706	4739.25
519.073	4749.88
519.44	4777.67
519.808	4875.75
520.175	4808.18
520.542	4899.7
520.909	4969.98
521.276	4976.76
521.643	5037.55
522.009	5065.35
522.376	5041.62
522.743	5109.64
523.11	5102.18
523.477	5248.62
523.843	5250.88
524.21	5260.82
524.577	5276.87
524.943	5377.2
525.31	5362.51
525.676	5406.58
526.043	5454.94
526.409	5476.86
526.776	5546.92
527.142	5605.45
527.508	5616.97
527.874	5634.37
528.241	5724.76
528.607	5696.74
528.973	5802.73
529.339	5752.79
529.705	5804.76
530.071	5832.33
530.437	5875.04
530.803	5926.12
531.169	5903.07
531.535	5921.82
531.901	6021.03
532.267	5992.78
532.632	6034.14
532.998	6026
533.364	6115.26
533.73	6117.97
534.095	6202.49
534.461	6193.9
534.826	6252.43
535.192	6238.2
535.557	6308.7
535.923	6278.2
536.288	6299.66
536.653	6405.65
537.019	6319.78
537.384	6387.8
537.749	6432.09
538.114	6477.97
538.479	6445.42
538.845	6472.09
539.21	6470.73
539.575	6519.09
539.94	6570.84
540.305	6586.44
540.67	6561.58
541.034	6559.55
541.399	6659.88
541.764	6669.15
542.129	6670.05
542.494	6743.5
542.858	6770.84
543.223	6751.63
543.587	6782.82
543.952	6773.78
544.316	6820.33
544.681	6802.02
545.045	6838.86
545.41	6937.39
545.774	6900.55
546.138	6886.77
546.503	6957.5
546.867	6969.7
547.231	6971.74
547.595	7049.48
547.959	7050.61
548.324	7055.8
548.688	7060.32
549.052	7071.62
549.416	7148.23
549.779	7089.7
550.143	7127.89
550.507	7191.84
550.871	7169.25
551.235	7222.8
551.599	7322.91
551.962	7261.22
552.326	7311.62
552.689	7399.97
553.053	7335.12
553.417	7326.08
553.78	7455.79
554.143	7423.7
554.507	7462.8
554.87	7534.43
555.234	7533.98
555.597	7553.64
555.96	7516.36
556.323	7621.66
556.686	7613.53
557.05	7695.56
557.413	7763.81
557.776	7769.91
558.139	7828.89
558.502	7750.7
558.865	7792.51
559.228	7861.66
559.59	7897.36
559.953	7926.06
560.316	7997.02
560.679	8024.14
561.041	8057.13
561.404	8079.96
561.767	8107.3
562.129	8121.54
562.492	8181.88
562.854	8195.21
563.217	8239.5
563.579	8243.57
563.941	8283.79
564.304	8335.32
564.666	8373.51
565.028	8368.09
565.39	8444.02
565.753	8470.91
566.115	8519.27
566.477	8592.49
566.839	8597.01
567.201	8619.38
567.563	8658.25
567.925	8693.5
568.287	8657.34
568.648	8676.78
569.01	8745.25
569.372	8782.99
569.734	8804.01
570.095	8901.4
570.457	8901.4
570.819	8882.87
571.18	8930.56
571.542	9010.33
571.903	8972.14
572.265	8992.48
572.626	9078.57
572.987	9022.98
573.349	9144.56
573.71	9135.07
574.071	9112.02
574.432	9246.71
574.794	9253.26
575.155	9225.46
575.516	9199.25
575.877	9275.18
576.238	9242.86
576.599	9274.05
576.96	9392.24
577.32	9340.49
577.681	9345.23
578.042	9393.59
578.403	9404.22
578.763	9394.05
579.124	9422.52
579.485	9477.43
579.845	9481.28
580.206	9526.7
580.566	9479.24
580.927	9472.24
581.287	9538.68
581.648	9468.4
582.008	9527.15
582.368	9605.79
582.728	9544.1
583.089	9528.96
583.449	9550.2
583.809	9540.03
584.169	9526.02
584.529	9543.65
584.889	9612.12
585.249	9523.08
585.609	9557.21
585.969	9574.61
586.329	9549.75
586.688	9502.29
587.048	9610.31
587.408	9561.5
587.768	9539.35
588.127	9580.71
588.487	9554.72
588.846	9569.64
589.206	9617.32
589.565	9572.35
589.925	9646.24
590.284	9568.05
590.643	9590.65
591.003	9639.24
591.362	9636.53
591.721	9637.88
592.08	9561.73
592.44	9594.72
592.799	9543.65
593.158	9582.06
593.517	9650.09
593.876	9691.21
594.235	9630.65
594.593	9604.21
594.952	9636.53
595.311	9592.23
595.67	9679.46
596.029	9693.7
596.387	9731.44
596.746	9787.93
597.104	9702.51
597.463	9669.52
597.822	9764.21
598.18	9745.9
598.538	9678.33
598.897	9731.21
599.255	9631.33
599.613	9770.99
599.972	9753.36
600.33	9769.63
600.688	9709.07
601.046	9759.91
601.404	9826.13
601.762	9758.78
602.12	9842.85
602.478	9797.65
602.836	9789.74
603.194	9757.2
603.552	9780.93
603.91	9790.87
604.268	9836.3
604.625	9829.97
604.983	9847.82
605.341	9792.45
605.698	9857.31
606.056	9851.21
606.413	9854.6
606.771	9859.8
607.128	9928.72
607.485	9867.93
607.843	9945.22
608.2	9843.07
608.557	9984.54
608.914	9907.03
609.272	9957.42
609.629	9978.66
609.986	10047.14
610.343	10016.18
610.7	10077.42
611.057	10066.12
611.414	10003.97
611.771	10022.73
612.127	10098.89
612.484	10089.17
612.841	10103.86
613.198	10032.9
613.554	10028.61
613.911	10132.56
614.267	10160.58
614.624	10090.98
614.98	10160.13
615.337	10188.6
615.693	10195.61
616.05	10120.36
616.406	10231.31
616.762	10147.47
617.118	10186.57
617.475	10186.12
617.831	10284.19
618.187	10163.07
618.543	10182.73
618.899	10333.91
619.255	10248.94
619.611	10220.47
619.967	10286.68
620.323	10340.46
620.678	10306.57
621.034	10281.93
621.39	10286.9
621.746	10283.06
622.101	10344.08
622.457	10243.06
622.812	10234.93
623.168	10345.66
623.523	10297.07
623.879	10344.76
624.234	10362.61
624.589	10245.55
624.945	10322.84
625.3	10323.97
625.655	10280.35
626.01	10321.71
626.365	10380.69
626.72	10291.88
627.075	10333.91
627.43	10290.29
627.785	10276.74
628.14	10373
628.495	10316.06
628.85	10289.84
629.205	10282.61
629.559	10297.75
629.914	10302.05
630.269	10258.43
630.623	10233.35
630.978	10241.03
631.332	10371.65
631.687	10279.67
632.041	10188.6
632.396	10262.5
632.75	10163.29
633.104	10192.22
633.459	10232.22
633.813	10114.03
634.167	10183.18
634.521	10200.81
634.875	10148.6
635.229	10224.08
635.583	10095.05
635.937	10124.88
636.291	10140.02
636.645	10156.29
636.999	10093.92
637.352	10095.95
637.706	9966.91
638.06	10062.5
638.413	10006.46
638.767	10103.41
639.121	10022.73
639.474	10006.01
639.828	9923.07
640.181	9945.9
640.534	9980.25
640.888	10004.88
641.241	9924.43
641.594	9970.98
641.947	9972.79
642.301	9948.16
642.654	9922.39
643.007	9916.97
643.36	9931.21
643.713	9903.41
644.066	9847.59
644.419	9877.2
644.771	9794.94
645.124	9699.12
645.477	9688.95
645.83	9647.15
646.182	9600.82
646.535	9587.26
646.888	9515.4
647.24	9480.15
647.593	9517.21
647.945	9513.59
648.298	9520.82
648.65	9496.87
649.002	9390.88
649.355	9470.88
649.707	9378
650.059	9474.95
650.411	9609.63
650.763	9645.34
651.115	9747.48
651.467	9609.41
651.819	9658.9
652.171	9576.64
652.523	9611.67
652.875	9636.3
653.227	9559.47
653.578	9615.74
653.93	9583.42
654.282	9529.41
654.633	9535.06
654.985	9588.17
655.337	9544.33
655.688	9538
656.039	9522.18
656.391	9453.03
656.742	9532.35
657.094	9527.83
657.445	9608.96
657.796	9531.22
658.147	9495.51
658.498	9516.98
658.849	9553.36
659.2	9519.24
659.551	9485.57
659.902	9527.15
660.253	9508.62
660.604	9488.28
660.955	9444.89
661.306	9522.18
661.656	9486.47
662.007	9525.12
662.358	9470.43
662.708	9425.23
663.059	9454.84
663.409	9385.01
663.76	9451.22
664.11	9428.62
664.461	9456.87
664.811	9444.21
665.161	9487.83
665.511	9399.47
665.862	9428.85
666.212	9438.79
666.562	9418.23
666.912	9368.74
667.262	9356.99
667.612	9399.24
667.962	9436.53
668.312	9399.7
668.662	9380.71
669.011	9418.68
669.361	9329.64
669.711	9314.95
670.06	9366.48
670.41	9391.79
670.76	9313.6
671.109	9337.78
671.459	9353.82
671.808	9319.7
672.157	9335.07
672.507	9233.6
672.856	9296.65
673.205	9237.44
673.554	9307.95
673.904	9273.82
674.253	9334.84
674.602	9235.63
674.951	9214.39
675.3	9135.75
675.649	9289.87
675.998	9220.49
676.346	9276.31
676.695	9313.14
677.044	9226.59
677.393	9245.8
677.741	9252.58
678.09	9221.4
678.438	9117.67
678.787	9167.61
679.135	9153.83
679.484	9159.02
679.832	9172.81
680.181	9103.21
680.529	9106.82
680.877	9059.82
681.225	9091.68
681.573	9104.34
681.922	9046.94
682.27	9039.48
682.618	9098.91
682.966	9082.19
683.314	9077.44
683.661	9011.23
684.009	8971.23
684.357	8894.17
684.705	8982.31
685.053	8924
685.4	8925.13
685.748	8882.87
686.095	8897.34
686.443	8833.38
686.79	8834.97
687.138	8856.66
687.485	8764.91
687.832	8836.1
688.18	8823.21
688.527	8740.73
688.874	8808.3
689.221	8759.94
689.568	8681.75
689.915	8759.94
690.262	8725.36
690.609	8704.12
690.956	8706.83
691.303	8590.23
691.65	8613.95
691.997	8606.72
692.344	8530.57
692.69	8603.11
693.037	8587.74
693.383	8499.83
693.73	8472.26
694.077	8517.01
694.423	8439.27
694.769	8377.8
695.116	8443.56
695.462	8363.57
695.808	8347.52
696.155	8438.14
696.501	8361.76
696.847	8306.39
697.193	8345.03
697.539	8294.64
697.885	8243.34
698.231	8214.87
698.577	8259.16
698.923	8197.47
699.269	8187.3
699.614	8150.24
699.96	8123.35
700.306	8100.3
700.651	8084.02
700.997	8015.33
701.342	8052.16
701.688	8072.05
702.033	8013.07
702.379	7999.06
702.724	7896.23
703.069	8025.04
703.415	7892.39
703.76	7916.8
704.105	7912.28
704.45	7890.13
704.795	7864.82
705.14	7777.82
705.485	7860.98
705.83	7722.9
706.175	7816.69
706.52	7730.81
706.865	7752.28
707.209	7733.3
707.554	7656.92
707.899	7694.2
708.243	7607.88
708.588	7626.64
708.932	7533.3
709.277	7634.55
709.621	7595.45
709.966	7526.07
710.31	7598.16
710.654	7525.62
710.998	7515.45
711.342	7569.91
711.687	7512.97
712.031	7478.84
712.375	7455.79
712.719	7426.19
713.063	7389.58
713.407	7445.85
713.75	7441.33
714.094	7406.08
714.438	7325.63
714.782	7362.91
715.125	7326.76
715.469	7338.51
715.812	7329.02
716.156	7296.7
716.499	7294.89
716.843	7350.94
717.186	7224.84
717.53	7316.59
717.873	7277.04
718.216	7218.74
718.559	7164.05
718.902	7170.38
719.246	7195.46
719.589	7192.3
719.932	7121.56
720.275	7214.44
720.617	7068.23
720.96	7092.86
721.303	7145.07
721.646	7139.64
721.989	7062.13
722.331	7134.22
722.674	7061.9
723.016	7047.89
723.359	7042.7
723.701	7050.61
724.044	7046.99
724.386	7004.96
724.729	6956.37
725.071	6988.46
725.413	6968.35
725.755	6981.45
726.097	6969.7
726.439	6980.78
726.782	6927.67
727.124	6910.04
727.465	6896.26
727.807	6938.74
728.149	6933.09
728.491	6894.68
728.833	6898.75
729.175	6815.81
729.516	6831.63
729.858	6795.92
730.199	6836.6
730.541	6850.38
730.882	6816.49
731.224	6772.42
731.565	6792.31
731.906	6797.5
732.248	6795.25
732.589	6751.86
732.93	6744.85
733.271	6712.54
733.612	6759.09
733.953	6744.62
734.294	6713.67
734.635	6686.1
734.976	6658.53
735.317	6614.01
735.658	6593.89
735.999	6633.44
736.339	6649.26
736.68	6656.49
737.021	6670.95
737.361	6609.04
737.702	6618.3
738.042	6613.55
738.383	6578.75
738.723	6605.19
739.063	6596.38
739.404	6547.79
739.744	6520
740.084	6520.45
740.424	6543.05
740.764	6519.32
741.104	6523.84
741.444	6500.11
741.784	6475.71
742.124	6499.66
742.464	6582.37
742.804	6530.85
743.143	6511.64
743.483	6453.11
743.823	6423.5
744.162	6382.15
744.502	6420.79
744.841	6424.41
745.181	6340.12
745.52	6360.68
745.86	6398.65
746.199	6405.88
746.538	6357.06
746.877	6405.2
747.216	6372.66
747.556	6348.03
747.895	6398.87
748.234	6288.14
748.573	6320.68
748.911	6252.66
749.25	6270.06
749.589	6247.46
749.928	6250.4
750.267	6225.54
750.605	6200.01
750.944	6193.45
751.283	6162.04
751.621	6239.33
751.96	6216.73
752.298	6162.72
752.636	6158.65
752.975	6170.4
753.313	6144.19
753.651	6148.03
753.989	6114.81
754.327	6119.1
754.666	6087.92
755.004	6077.75
755.342	6074.59
755.679	6061.48
756.017	6035.49
756.355	6035.49
756.693	6039.33
757.031	6041.59
757.368	5949.84
757.706	5995.72
758.044	5929.96
758.381	5910.52
758.719	5970.86
759.056	5932.67
759.394	5893.57
759.731	5897.64
760.068	5816.74
760.405	5794.59
760.743	5840.92
761.08	5828.04
761.417	5830.07
761.754	5771.09
762.091	5775.84
762.428	5694.94
762.765	5732.67
763.102	5736.74
763.438	5726.35
763.775	5707.36
764.112	5698.1
764.449	5696.97
764.785	5649.06
765.122	5647.25
765.458	5609.97
765.795	5604.99
766.131	5576.52
766.467	5591.43
766.804	5522.06
767.14	5567.93
767.476	5506.24
767.812	5481.61
768.148	5479.57
768.485	5426.92
768.821	5433.92
769.157	5422.17
