Data from black_plastic_tray_FLMS001491_045.txt Node
Date: Tue Feb 07 10:39:56 GMT 2017
User: dcchb
Spectrometer: FLMS00149
Trigger mode: 0
Integration Time (sec): 2.000000E-2
Scans to average: 10
Electric dark correction enabled: true
Nonlinearity correction enabled: false
Boxcar width: 0
XAxis mode: Wavelengths
Number of Pixels in Spectrum: 2048
>>>>>Begin Spectral Data<<<<<
341.393	2.63
341.776	2.63
342.16	2.63
342.543	-39.41
342.927	-64.26
343.31	-56.58
343.693	-59.74
344.077	-67.2
344.46	-66.3
344.843	-56.58
345.226	-39.63
345.61	-9.8
345.993	-21.78
346.376	-6.41
346.759	0.59
347.142	17.32
347.525	39.24
347.908	63.42
348.291	80.14
348.674	77.65
349.057	105.68
349.44	122.62
349.823	126.24
350.206	156.52
350.588	197.42
350.971	214.82
351.354	208.05
351.737	220.47
352.119	247.82
352.502	247.14
352.884	262.96
353.267	261.83
353.65	281.72
354.032	288.04
354.414	293.01
354.797	329.85
355.179	327.36
355.562	327.14
355.944	337.76
356.326	329.62
356.709	337.31
357.091	338.66
357.473	347.02
357.855	342.73
358.238	334.82
358.62	318.1
359.002	336.18
359.384	320.13
359.766	349.51
360.148	339.12
360.53	326.46
360.912	323.52
361.294	346.8
361.676	321.94
362.057	343.86
362.439	342.05
362.821	316.97
363.203	342.51
363.584	327.36
363.966	328.49
364.348	310.42
364.729	314.71
365.111	326.23
365.493	352.67
365.874	322.62
366.256	346.35
366.637	323.97
367.019	333.69
367.4	340.25
367.781	315.39
368.163	304.09
368.544	315.84
368.925	316.97
369.306	337.99
369.688	319.68
370.069	329.17
370.45	321.49
370.831	337.08
371.212	319.68
371.593	313.35
371.974	329.4
372.355	323.52
372.736	348.15
373.117	321.04
373.498	325.1
373.879	349.74
374.26	337.99
374.641	341.15
375.021	328.95
375.402	328.95
375.783	333.92
376.163	364.88
376.544	347.48
376.925	353.13
377.305	359.68
377.686	344.09
378.066	383.18
378.447	348.61
378.827	327.59
379.208	363.75
379.588	361.26
379.968	377.08
380.349	358.55
380.729	370.53
381.109	368.04
381.489	378.21
381.87	362.84
382.25	372.79
382.63	377.31
383.01	383.18
383.39	393.8
383.77	396.51
384.15	398.32
384.53	396.29
384.91	382.5
385.29	391.32
385.67	394.48
386.049	389.96
386.429	393.58
386.809	398.1
387.189	395.84
387.568	402.84
387.948	431.32
388.328	417.53
388.707	414.37
389.087	419.34
389.466	439.45
389.846	431.09
390.225	428.6
390.605	424.76
390.984	415.05
391.363	440.36
391.743	437.87
392.122	457.76
392.501	464.08
392.881	440.58
393.26	473.8
393.639	467.7
394.018	453.91
394.397	468.15
394.776	489.62
395.155	475.16
395.534	483.29
395.913	454.59
396.292	493.01
396.671	481.48
397.05	485.78
397.429	488.94
397.808	493.46
398.186	506.79
398.565	501.6
398.944	507.47
399.323	496.17
399.701	509.05
400.08	494.14
400.458	510.64
400.837	520.58
401.215	514.03
401.594	536.4
401.972	527.13
402.351	510.18
402.729	534.14
403.107	556.74
403.486	528.94
403.864	529.17
404.242	540.47
404.62	542.27
404.999	533.01
405.377	580.92
405.755	554.25
406.133	558.54
406.511	596.96
406.889	587.24
407.267	578.21
407.645	579.79
408.023	619.11
408.401	629.96
408.779	579.11
409.156	627.7
409.534	623.85
409.912	628.83
410.29	638.54
410.667	639.9
411.045	644.64
411.422	621.37
411.8	657.53
412.178	672.67
412.555	667.24
412.933	679.67
413.31	702.72
413.687	697.3
414.065	684.64
414.442	717.64
414.819	712.66
415.197	722.38
415.574	740.23
415.951	732.78
416.328	714.47
416.705	757.86
417.082	744.3
417.46	768.93
417.837	753.34
418.214	765.77
418.591	774.81
418.967	784.53
419.344	760.35
419.721	803.74
420.098	809.61
420.475	801.93
420.852	821.59
421.228	833.11
421.605	800.35
421.982	831.98
422.358	823.62
422.735	854.81
423.111	842.15
423.488	859.1
423.864	870.17
424.241	890.74
424.617	902.04
424.994	883.28
425.37	888.93
425.746	941.36
426.123	912.21
426.499	919.67
426.875	919.89
427.251	936.61
427.627	951.53
428.003	977.74
428.379	978.42
428.756	979.55
429.132	990.17
429.507	1002.15
429.883	993.79
430.259	1020.23
430.635	1055.48
431.011	1038.08
431.387	1049.83
431.763	1078.3
432.138	1102.49
432.514	1090.51
432.89	1103.84
433.265	1106.1
433.641	1143.16
434.016	1172.99
434.392	1151.3
434.767	1180.22
435.143	1175.48
435.518	1201.47
435.894	1207.57
436.269	1197.4
436.644	1250.96
437.02	1262.93
437.395	1233.78
437.77	1286.66
438.145	1303.84
438.52	1288.92
438.895	1284.18
439.271	1320.78
439.646	1376.15
440.021	1344.51
440.395	1333.67
440.77	1359.65
441.145	1380.67
441.52	1379.54
441.895	1368.01
442.27	1362.82
442.645	1389.94
443.019	1404.4
443.394	1414.12
443.769	1426.09
444.143	1418.18
444.518	1431.74
444.892	1465.64
445.267	1469.71
445.641	1466.54
446.016	1476.26
446.39	1496.37
446.764	1498.86
447.139	1500.89
447.513	1500.89
447.887	1519.65
448.262	1516.71
448.636	1535.24
449.01	1568.24
449.384	1599.65
449.758	1591.74
450.132	1656.37
450.506	1629.25
450.88	1592.87
451.254	1622.47
451.628	1652.3
452.002	1681
452.376	1680.32
452.75	1704.5
453.123	1714.22
453.497	1737.5
453.871	1719.42
454.244	1754.45
454.618	1761.9
454.992	1815.91
455.365	1823.14
455.739	1840.09
456.112	1860.88
456.486	1900.2
456.859	1903.37
457.232	1922.12
457.606	1929.81
457.979	1944.5
458.352	1966.19
458.725	1993.54
459.099	2032.86
459.472	2064.27
459.845	2082.35
460.218	2084.61
460.591	2132.51
460.964	2154.43
461.337	2181.55
461.71	2200.99
462.083	2251.83
462.456	2228.78
462.829	2259.97
463.201	2280.99
463.574	2305.17
463.947	2330.48
464.32	2362.79
464.692	2377.25
465.065	2426.29
465.438	2457.25
465.81	2470.36
466.183	2488.21
466.555	2535.44
466.928	2537.48
467.3	2580.19
467.672	2593.07
468.045	2694.99
468.417	2694.08
468.789	2704.7
469.161	2713.06
469.534	2757.36
469.906	2821.99
470.278	2859.05
470.65	2848.65
471.022	2904.25
471.394	2967.52
471.766	3022.43
472.138	3030.12
472.51	3098.82
472.882	3183.56
473.253	3139.04
473.625	3230.79
473.997	3288.19
474.369	3317.12
474.74	3324.35
475.112	3395.08
475.484	3422.2
475.855	3511.24
476.227	3508.07
476.598	3638.46
476.97	3612.7
477.341	3726.14
477.713	3803.43
478.084	3800.95
478.455	3859.47
478.827	3943.09
479.198	4046.14
479.569	4060.6
479.94	4152.12
480.311	4203.65
480.682	4224.89
481.053	4320.71
481.424	4428.95
481.795	4453.36
482.166	4524.99
482.537	4596.18
482.908	4691.54
483.279	4754.59
483.65	4778.09
484.021	4913.23
484.391	4897.19
484.762	4939.9
485.133	5060.12
485.503	5108.03
485.874	5182.83
486.244	5220.12
486.615	5332.43
486.985	5428.7
487.356	5519.77
487.726	5555.7
488.097	5645.87
488.467	5664.85
488.837	5816.26
489.207	5880.66
489.578	5906.2
489.948	6008.8
490.318	6047.89
490.688	6092.18
491.058	6217.38
491.428	6285.17
491.798	6282.24
492.168	6427.77
492.538	6442.23
492.908	6513.87
493.278	6560.87
493.648	6604.49
494.017	6645.16
494.387	6758.38
494.757	6802.9
495.126	6896.23
495.496	6955.89
495.866	6967.19
496.235	7050.13
496.605	7166.51
496.974	7135.55
497.344	7258.93
497.713	7309.78
498.082	7345.94
498.452	7381.19
498.821	7446.5
499.19	7441.98
499.559	7538.02
499.928	7589.77
500.298	7676.1
500.667	7756.1
501.036	7735.31
501.405	7739.37
501.774	7867.96
502.143	7917.45
502.512	7974.62
502.88	8041.06
503.249	8042.19
503.618	8119.25
503.987	8154.28
504.356	8189.98
504.724	8248.96
505.093	8274.5
505.462	8387.27
505.83	8442.41
506.199	8458
506.567	8551.1
506.936	8556.53
507.304	8748.61
507.672	8704.55
508.041	8730.76
508.409	8851.89
508.777	8948.38
509.145	8998.77
509.514	8998.32
509.882	9000.36
510.25	9104.99
510.618	9163.52
510.986	9172.78
511.354	9264.98
511.722	9371.19
512.09	9447.8
512.458	9498.65
512.826	9552.43
513.193	9592.66
513.561	9677.4
513.929	9656.38
514.297	9862.48
514.664	9897.51
515.032	9875.36
515.4	9967.34
515.767	9988.35
516.135	10142.93
516.502	10108.12
516.869	10247.33
517.237	10261.57
517.604	10304.96
517.972	10386.31
518.339	10474.44
518.706	10556.02
519.073	10591.73
519.44	10713.53
519.808	10815
520.175	10808.22
520.542	10956.69
520.909	11071.49
521.276	11056.8
521.643	11131.83
522.009	11225.16
522.376	11336.79
522.743	11356.68
523.11	11597.35
523.477	11627.41
523.843	11690.23
524.21	11837.57
524.577	11841.41
524.943	11977.23
525.31	11895.2
525.676	12116.66
526.043	12143.32
526.409	12286.82
526.776	12341.74
527.142	12413.6
527.508	12469.87
527.874	12551.68
528.241	12679.13
528.607	12759.13
528.973	12840.26
529.339	12895.17
529.705	13018.33
530.071	13120.7
530.437	13129.97
530.803	13226.69
531.169	13273.69
531.535	13280.7
531.901	13417.19
532.267	13463.97
532.632	13583.74
532.998	13671.65
533.364	13597.75
533.73	13736.28
534.095	13804.75
534.461	13861.25
534.826	13954.58
535.192	14021.02
535.557	14085.65
535.923	14103.05
536.288	14183.05
536.653	14200.9
537.019	14272.08
537.384	14323.38
537.749	14432.08
538.114	14394.57
538.479	14457.84
538.845	14595.92
539.21	14619.19
539.575	14626.88
539.94	14736.7
540.305	14695.35
540.67	14764.27
541.034	14800.66
541.399	14853.08
541.764	14955.45
542.129	15025.96
542.494	14941.67
542.858	15021.22
543.223	15005.62
543.587	15212.62
543.952	15100.54
544.316	15239.29
544.681	15178.05
545.045	15339.4
545.41	15388.89
545.774	15333.75
546.138	15480.86
546.503	15439.51
546.867	15515.44
547.231	15698.71
547.595	15694.19
547.959	15821.42
548.324	15859.84
548.688	15845.6
549.052	15936.22
549.416	15885.37
549.779	15910.23
550.143	15951.13
550.507	16104.58
550.871	16171.24
551.235	16217.57
551.599	16274.29
551.962	16309.54
552.326	16431.35
552.689	16425.7
553.053	16481.29
553.417	16443.55
553.78	16707.27
554.143	16646.03
554.507	16770.32
554.87	16783.43
555.234	16949.75
555.597	16931
555.96	17094.38
556.323	17029.52
556.686	17029.75
557.05	17202.85
557.413	17216.19
557.776	17193.81
558.139	17442.85
558.502	17431.1
558.865	17472
559.228	17649.17
559.59	17730.07
559.953	17796.74
560.316	17925.09
560.679	17833.34
561.041	18076.95
561.404	18062.04
561.767	18135.26
562.129	18120.57
562.492	18332.77
562.854	18380.45
563.217	18430.84
563.579	18488.02
563.941	18618.41
564.304	18652.08
564.666	18726.65
565.028	18805.52
565.39	18883.26
565.753	18872.87
566.115	18947.89
566.477	19031.28
566.839	19203.48
567.201	19306.98
567.563	19300.2
567.925	19386.98
568.287	19402.79
568.648	19447.99
569.01	19634.88
569.372	19795.33
569.734	19708.55
570.095	19836.68
570.457	19931.82
570.819	20001.2
571.18	20029.22
571.542	20139.95
571.903	20127.3
572.265	20258.82
572.626	20168.65
572.987	20250
573.349	20226.73
573.71	20295.43
574.071	20338.14
574.432	20551.24
574.794	20556.21
575.155	20575.19
575.516	20551.47
575.877	20617.45
576.238	20611.58
576.599	20648.19
576.96	20735.64
577.32	20729.31
577.681	20891.57
578.042	21094.95
578.403	20885.47
578.763	21122.98
579.124	21098.34
579.485	21160.04
579.845	21111
580.206	20928.86
580.566	20976.54
580.927	21038.46
581.287	21147.61
581.648	20957.56
582.008	21203.65
582.368	21211.33
582.728	21191
583.089	21115.74
583.449	21206.14
583.809	21146.03
584.169	21194.39
584.529	21222.18
584.889	21307.38
585.249	21178.57
585.609	21132.01
585.969	21192.35
586.329	21253.14
586.688	21176.08
587.048	21217.89
587.408	21229.64
587.768	21208.4
588.127	21195.06
588.487	21131.34
588.846	21361.61
589.206	21091.11
589.565	21035.07
589.925	21268.51
590.284	21192.35
590.643	21249.53
591.003	21080.04
591.362	21271.67
591.721	21186.25
592.08	21239.81
592.44	21353.03
592.799	21298.11
593.158	21322.07
593.517	21326.36
593.876	21353.03
594.235	21360.03
594.593	21333.14
594.952	21462.4
595.311	21405.68
595.67	21372.91
596.029	21483.64
596.387	21579.91
596.746	21512.8
597.104	21408.84
597.463	21542.17
597.822	21375.85
598.18	21295.85
598.538	21252.69
598.897	21423.31
599.255	21402.74
599.613	21655.17
599.972	21438.45
600.33	21590.99
600.688	21501.72
601.046	21605
601.404	21583.3
601.762	21643.64
602.12	21689.97
602.478	21740.13
602.836	21788.95
603.194	21553.02
603.552	21766.8
603.91	21622.62
604.268	21687.93
604.625	21599.8
604.983	21655.84
605.341	21614.26
605.698	21741.94
606.056	21734.71
606.413	21718.67
606.771	21737.87
607.128	21761.6
607.485	21696.07
607.843	21729.51
608.2	21910.3
608.557	21978.09
608.914	21928.38
609.272	22024.42
609.629	22054.7
609.986	22039.79
610.343	21944.42
610.7	22082.95
611.057	22118.88
611.414	22098.54
611.771	22200.24
612.127	22149.84
612.484	22184.64
612.841	22246.11
613.198	22235.04
613.554	22190.97
613.911	22320.68
614.267	22227.35
614.624	22166.79
614.98	22273.23
615.337	22376.05
615.693	22305.77
616.05	22275.26
616.406	22409.5
616.762	22381.93
617.118	22328.82
617.475	22317.52
617.831	22351.87
618.187	22367.91
618.543	22484.75
618.899	22718.19
619.255	22619.66
619.611	22619.43
619.967	22815.13
620.323	22621.24
620.678	22583.73
621.034	22551.19
621.39	22551.41
621.746	22456.05
622.101	22680.67
622.457	22562.94
622.812	22622.82
623.168	22755.25
623.523	22756.83
623.879	22778.07
624.234	22532.43
624.589	22612.65
624.945	22632.54
625.3	22637.96
625.655	22653.33
626.01	22599.1
626.365	22616.95
626.72	22608.13
627.075	22520.23
627.43	22566.78
627.785	22651.98
628.14	22636.16
628.495	22687
628.85	22563.16
629.205	22562.03
629.559	22635.7
629.914	22395.71
630.269	22568.81
630.623	22487.69
630.978	22416.27
631.332	22499.44
631.687	22551.64
632.041	22454.69
632.396	22555.03
632.75	22475.48
633.104	22397.07
633.459	22335.37
633.813	22227.35
634.167	22172.44
634.521	22178.54
634.875	22256.96
635.229	22126.57
635.583	22006.79
635.937	22073.91
636.291	21946.68
636.645	21941.49
636.999	21886.57
637.352	21962.28
637.706	21922.95
638.06	21877.98
638.413	21908.49
638.767	21879.11
639.121	21891.32
639.474	21723.19
639.828	21831.88
640.181	21833.69
640.534	21831.21
640.888	21602.51
641.241	21597.31
641.594	21502.85
641.947	21580.14
642.301	21470.31
642.654	21480.93
643.007	21505.34
643.36	21380.82
643.713	21495.17
644.066	21528.61
644.419	21393.25
644.771	21331.33
645.124	21043.43
645.477	20989.87
645.83	20880.04
646.182	20740.84
646.535	20658.58
646.888	20752.82
647.24	20592.59
647.593	20704
647.945	20512.37
648.298	20555.98
648.65	20443.22
649.002	20483.22
649.355	20497.46
649.707	20416.55
650.059	20612.48
650.411	20856.32
650.763	21047.95
651.115	21279.13
651.467	21080.94
651.819	21048.4
652.171	20859.93
652.523	20860.84
652.875	20917.33
653.227	20873.49
653.578	21008.18
653.93	20878.46
654.282	20821.29
654.633	20710.78
654.985	20640.5
655.337	20807.5
655.688	20705.13
656.039	20727.28
656.391	20623.78
656.742	20676.43
657.094	20672.82
657.445	20711.46
657.796	20694.74
658.147	20689.31
658.498	20753.95
658.849	20798.24
659.2	20689.31
659.551	20678.02
659.902	20768.63
660.253	20666.72
660.604	20705.59
660.955	20506.72
661.306	20517.57
661.656	20472.37
662.007	20475.76
662.358	20368.87
662.708	20391.7
663.059	20449.55
663.409	20389.89
663.76	20415.42
664.11	20511.47
664.461	20464.46
664.811	20440.96
665.161	20499.94
665.511	20369.55
665.862	20280.06
666.212	20412.26
666.562	20314.64
666.912	20371.13
667.262	20317.35
667.612	20321.19
667.962	20283
668.312	20153.28
668.662	20267.86
669.011	20285.71
669.361	20140.63
669.711	20127.3
670.06	20131.14
670.41	19945.61
670.76	19981.08
671.109	20063.12
671.459	20054.08
671.808	20057.92
672.157	20170.46
672.507	19974.98
672.856	19852.5
673.205	19937.24
673.554	19975.21
673.904	19965.27
674.253	19971.37
674.602	19923.46
674.951	19595.11
675.3	19479.18
675.649	19879.84
675.998	19915.55
676.346	19973.4
676.695	19911.48
677.044	19826.96
677.393	19726.18
677.741	19856.34
678.09	19653.18
678.438	19686.18
678.787	19752.16
679.135	19710.81
679.484	19600.98
679.832	19612.96
680.181	19553.07
680.529	19574.09
680.877	19644.37
681.225	19583.58
681.573	19670.36
681.922	19419.52
682.27	19336.81
682.618	19313.98
682.966	19305.4
683.314	19440.76
683.661	19296.81
684.009	19152.86
684.357	19149.02
684.705	19158.96
685.053	19303.14
685.4	19164.84
685.748	19076.48
686.095	18951.73
686.443	18849.59
686.79	18860.89
687.138	18915.58
687.485	18895.01
687.832	18895.01
688.18	18789.48
688.527	18716.26
688.874	18588.35
689.221	18575.47
689.568	18572.08
689.915	18501.8
690.262	18563.49
690.609	18463.16
690.956	18357.17
691.303	18304.29
691.65	18291.86
691.997	18276.95
692.344	18122.15
692.69	18140
693.037	18154.24
693.383	18068.59
693.73	18146.78
694.077	18084.86
694.423	18030.4
694.769	18079.21
695.116	17927.58
695.462	17942.49
695.808	17794.48
696.155	17788.83
696.501	17683.52
696.847	17647.36
697.193	17660.24
697.539	17661.37
697.885	17460.25
698.231	17476.29
698.577	17398.55
698.923	17368.5
699.269	17240.37
699.614	17185
699.96	17126.02
700.306	17092.57
700.651	17063.87
700.997	16934.61
701.342	16973.25
701.688	16957.21
702.033	16781.85
702.379	16944.55
702.724	16900.94
703.069	16959.02
703.415	16734.16
703.76	16754.95
704.105	16748.18
704.45	16684.67
704.795	16574.39
705.14	16527.16
705.485	16596.32
705.83	16415.53
706.175	16499.37
706.52	16401.07
706.865	16331.46
707.209	16340.28
707.554	16277.45
707.899	16256.44
708.243	16152.48
708.588	16206.04
708.932	16151.58
709.277	16011.47
709.621	16118.59
709.966	15961.08
710.31	16081.75
710.654	15926.05
710.998	15899.16
711.342	15847.86
711.687	15896.45
712.031	15785.71
712.375	15570.58
712.719	15665.72
713.063	15647.41
713.407	15610.8
713.75	15497.81
714.094	15427.08
714.438	15415.78
714.782	15399.96
715.125	15422.33
715.469	15403.13
715.812	15326.52
716.156	15319.51
716.499	15322.68
716.843	15226.86
717.186	15193.64
717.53	15214.43
717.873	15373.97
718.216	15259.85
718.559	15159.52
718.902	15073.42
719.246	15190.93
719.589	15123.81
719.932	15110.03
720.275	15072.51
720.617	15013.98
720.96	14968.34
721.303	14933.76
721.646	14956.36
721.989	14844.27
722.331	14814.44
722.674	14744.39
723.016	14824.16
723.359	14714.56
723.701	14822.58
724.044	14780.32
724.386	14574
724.729	14616.93
725.071	14540.1
725.413	14523.38
725.755	14467.78
726.097	14441.57
726.439	14413.77
726.782	14392.31
727.124	14485.64
727.465	14365.41
727.807	14358.18
728.149	14360.44
728.491	14286.09
728.833	14298.07
729.175	14282.03
729.516	14238.18
729.858	14206.77
730.199	14248.81
730.541	14114.8
730.882	14154.8
731.224	14142.59
731.565	14157.51
731.906	13997.51
732.248	14018.3
732.589	14032.54
732.93	14021.92
733.271	14097.4
733.612	13966.78
733.953	14075.48
734.294	14041.81
734.635	13885.2
734.976	13952.32
735.317	13899.66
735.658	13927.01
735.999	13890.62
736.339	13800
736.68	13771.76
737.021	13800.46
737.361	13723.62
737.702	13713.9
738.042	13657.18
738.383	13669.84
738.723	13758.42
739.063	13589.61
739.404	13633.68
739.744	13566.34
740.084	13487.92
740.424	13510.29
740.764	13473.69
741.104	13467.58
741.444	13463.06
741.784	13390.07
742.124	13407.92
742.464	13325.21
742.804	13280.02
743.143	13416.51
743.483	13333.35
743.823	13189.17
744.162	13364.99
744.502	13375.83
744.841	13290.19
745.181	13269.85
745.52	13303.75
745.86	13315.05
746.199	13202.28
746.538	13164.77
746.877	13206.57
747.216	13054.71
747.556	13040.25
747.895	13037.54
748.234	13045.67
748.573	12962.51
748.911	13052.23
749.25	12957.99
749.589	12892.91
749.928	12944.43
750.267	12905.79
750.605	12846.81
750.944	12852.23
751.283	12830.09
751.621	12855.4
751.96	12754.61
752.298	12802.74
752.636	12778.34
752.975	12563.65
753.313	12689.98
753.651	12706.47
753.989	12654.05
754.327	12602.75
754.666	12583.09
755.004	12506.25
755.342	12452.7
755.679	12431
756.017	12384.9
