Data from black_plastic_tray_FLMS001491_017.txt Node
Date: Tue Feb 07 10:39:22 GMT 2017
User: dcchb
Spectrometer: FLMS00149
Trigger mode: 0
Integration Time (sec): 2.000000E-2
Scans to average: 10
Electric dark correction enabled: true
Nonlinearity correction enabled: false
Boxcar width: 0
XAxis mode: Wavelengths
Number of Pixels in Spectrum: 2048
>>>>>Begin Spectral Data<<<<<
341.393	-5.78
341.776	-5.78
342.16	-5.78
342.543	-57.98
342.927	-62.95
343.31	-70.18
343.693	-70.18
344.077	-66.57
344.46	-63.63
344.843	-38.32
345.226	-42.84
345.61	-21.82
345.993	-6.91
346.376	11.85
346.759	0.55
347.142	26.99
347.525	33.32
347.908	35.8
348.291	83.03
348.674	79.87
349.057	109.02
349.44	131.39
349.823	132.07
350.206	142.69
350.588	180.43
350.971	213.65
351.354	213.2
351.737	230.38
352.119	227.89
352.502	249.13
352.884	244.39
353.267	249.36
353.65	278.28
354.032	282.8
354.414	286.42
354.797	293.42
355.179	296.81
355.562	306.98
355.944	322.12
356.326	313.31
356.709	337.27
357.091	304.72
357.473	315.12
357.855	338.17
358.238	334.33
358.62	332.07
359.002	333.42
359.384	344.27
359.766	328.23
360.148	298.17
360.53	321.22
360.912	327.55
361.294	305.63
361.676	313.08
362.057	328.45
362.439	294.33
362.821	318.73
363.203	306.76
363.584	303.37
363.966	291.39
364.348	302.69
364.729	312.18
365.111	303.37
365.493	314.89
365.874	280.32
366.256	304.27
366.637	292.75
367.019	299.53
367.4	323.03
367.781	294.78
368.163	305.4
368.544	309.24
368.925	314.21
369.306	310.37
369.688	277.83
370.069	298.85
370.45	293.42
370.831	309.7
371.212	310.83
371.593	317.83
371.974	295.23
372.355	304.05
372.736	291.16
373.117	299.07
373.498	306.76
373.879	292.07
374.26	295.91
374.641	303.37
375.021	292.97
375.402	309.47
375.783	320.77
376.163	294.55
376.544	330.94
376.925	304.95
377.305	323.25
377.686	309.24
378.066	331.16
378.447	305.18
378.827	333.88
379.208	291.84
379.588	325.29
379.968	320.09
380.349	333.2
380.729	303.37
381.109	313.76
381.489	315.8
381.87	320.09
382.25	329.13
382.63	332.29
383.01	301.33
383.39	349.47
383.77	331.84
384.15	332.52
384.53	335.68
384.91	335.68
385.29	346.76
385.67	328.45
386.049	350.37
386.429	340.43
386.809	324.16
387.189	332.97
387.568	358.06
387.948	324.84
388.328	355.57
388.707	370.03
389.087	339.3
389.466	341.33
389.846	365.06
390.225	341.78
390.605	371.16
390.984	365.96
391.363	345.63
391.743	381.56
392.122	360.32
392.501	351.73
392.881	334.33
393.26	362.8
393.639	356.47
394.018	377.49
394.397	378.62
394.776	363.03
395.155	384.04
395.534	373.2
395.913	373.87
396.292	388.11
396.671	360.32
397.05	391.28
397.429	377.94
397.808	375.91
398.186	392.86
398.565	375
398.944	370.71
399.323	402.35
399.701	376.81
400.08	394.66
400.458	390.82
400.837	410.71
401.215	400.31
401.594	412.07
401.972	393.99
402.351	408
402.729	411.39
403.107	401.22
403.486	412.52
403.864	417.26
404.242	417.26
404.62	433.99
404.999	415.23
405.377	427.43
405.755	422.01
406.133	431.5
406.511	428.34
406.889	426.98
407.267	443.25
407.645	421.33
408.023	434.44
408.401	443.93
408.779	420.2
409.156	437.6
409.534	473.53
409.912	460.2
410.29	459.3
410.667	452.97
411.045	464.95
411.422	465.17
411.8	451.61
412.178	468.79
412.555	451.84
412.933	467.21
413.31	470.82
413.687	478.5
414.065	475.34
414.442	466.53
414.819	479.63
415.197	490.03
415.574	510.37
415.951	498.84
416.328	476.24
416.705	493.87
417.082	517.83
417.46	504.04
417.837	502.91
418.214	533.64
418.591	514.44
418.967	529.58
419.344	524.6
419.721	518.96
420.098	511.27
420.475	530.03
420.852	539.97
421.228	539.97
421.605	559.86
421.982	532.97
422.358	565.51
422.735	546.3
423.111	561.21
423.488	575.68
423.864	561.89
424.241	556.24
424.617	589.24
424.994	570.71
425.37	583.13
425.746	577.03
426.123	586.75
426.499	597.6
426.875	598.95
427.251	598.95
427.627	597.15
428.003	611.61
428.379	596.02
428.756	607.99
429.132	647.09
429.507	624.49
429.883	617.94
430.259	646.64
430.635	650.7
431.011	662.23
431.387	681.44
431.763	687.76
432.138	666.07
432.514	664.49
432.89	684.83
433.265	694.09
433.641	689.12
434.016	704.71
434.392	704.49
434.767	705.17
435.143	716.69
435.518	751.72
435.894	712.4
436.269	718.72
436.644	708.55
437.02	748.1
437.395	749.68
437.77	753.98
438.145	760.3
438.52	775.22
438.895	787.87
439.271	763.47
439.646	798.72
440.021	789.23
440.395	795.33
440.77	787.2
441.145	780.87
441.52	819.06
441.895	807.54
442.27	806.41
442.645	826.29
443.019	802.11
443.394	834.65
443.769	822.45
444.143	827.65
444.518	812.51
444.892	827.42
445.267	843.92
445.641	839.62
446.016	829.68
446.39	860.19
446.764	856.8
447.139	852.05
447.513	884.6
447.887	838.95
448.262	871.49
448.636	871.26
449.01	886.63
449.384	898.38
449.758	906.52
450.132	893.18
450.506	926.4
450.88	949.68
451.254	919.85
451.628	934.99
452.002	931.37
452.376	943.12
452.75	946.51
453.123	946.97
453.497	983.12
453.871	950.13
454.244	1003.91
454.618	978.6
454.992	1009.79
455.365	1012.73
455.739	1037.81
456.112	1048.88
456.486	1040.52
456.859	1038.49
457.232	1057.47
457.606	1049.34
457.979	1081.2
458.352	1088.66
458.725	1094.31
459.099	1087.75
459.472	1124.14
459.845	1151.71
460.218	1123.91
460.591	1166.4
460.964	1173.63
461.337	1188.99
461.71	1198.94
462.083	1211.37
462.456	1201.42
462.829	1214.08
463.201	1229.9
463.574	1240.97
463.947	1231.7
464.32	1287.97
464.692	1280.29
465.065	1300.18
465.438	1290.91
465.81	1325.49
466.183	1334.53
466.555	1360.97
466.928	1358.03
467.3	1388.31
467.672	1368.42
468.045	1410.68
468.417	1443.68
468.789	1414.52
469.161	1433.06
469.534	1465.37
469.906	1502.88
470.278	1486.39
470.65	1523.45
471.022	1543.79
471.394	1550.79
471.766	1568.65
472.138	1572.94
472.51	1607.97
472.882	1633.05
473.253	1683.9
473.625	1667.63
473.997	1677.79
474.369	1729.77
474.74	1760.05
475.112	1781.75
475.484	1780.84
475.855	1827.62
476.227	1823.55
476.598	1890.44
476.97	1879.37
477.341	1918.92
477.713	1938.13
478.084	1941.52
478.455	1966.6
478.827	2004.79
479.198	2072.13
479.569	2058.58
479.94	2126.6
480.311	2155.3
480.682	2173.83
481.053	2205.92
481.424	2246.14
481.795	2267.16
482.166	2308.74
482.537	2326.59
482.908	2341.51
483.279	2400.04
483.65	2447.49
484.021	2455.85
484.391	2510.09
484.762	2515.96
485.133	2526.81
485.503	2550.54
485.874	2611.78
486.244	2636.64
486.615	2698.11
486.985	2711.67
487.356	2791.89
487.726	2775.85
488.097	2811.55
488.467	2862.85
488.837	2910.3
489.207	2935.84
489.578	2940.13
489.948	2973.35
490.318	3005.44
490.688	3046.8
491.058	3084.54
491.428	3132.22
491.798	3127.02
492.168	3241.14
492.538	3242.73
492.908	3252.22
493.278	3314.36
493.648	3298.77
494.017	3327.47
494.387	3360.46
494.757	3399.56
495.126	3408.82
495.496	3488.14
495.866	3477.52
496.235	3514.13
496.605	3519.55
496.974	3542.83
497.344	3584.19
497.713	3613.56
498.082	3611.08
498.452	3657.86
498.821	3637.97
499.19	3661.02
499.559	3741.24
499.928	3782.82
500.298	3793.22
500.667	3790.06
501.036	3860.34
501.405	3878.87
501.774	3843.61
502.143	3913.44
502.512	3902.82
502.88	3948.47
503.249	3974.68
503.618	4001.12
503.987	4013.33
504.356	4012.2
504.724	4072.99
505.093	4124.06
505.462	4131.06
505.83	4127.45
506.199	4208.35
506.567	4213.32
506.936	4228.24
507.304	4225.75
507.672	4270.04
508.041	4299.87
508.409	4347.78
508.777	4371.51
509.145	4422.36
509.514	4422.36
509.882	4423.26
510.25	4435.91
510.618	4498.06
510.986	4478.17
511.354	4530.83
511.722	4596.36
512.09	4630.71
512.458	4620.99
512.826	4624.16
513.193	4661.22
513.561	4672.52
513.929	4755
514.297	4797.03
514.664	4811.72
515.032	4817.6
515.4	4901.44
515.767	4910.48
516.135	4948.44
516.502	4953.64
516.869	5014.88
517.237	5062.11
517.604	5029.57
517.972	5063.69
518.339	5140.75
518.706	5142.79
519.073	5143.24
519.44	5213.97
519.808	5333.07
520.175	5272.05
520.542	5335.33
520.909	5362.9
521.276	5414.42
521.643	5457.58
522.009	5475.44
522.376	5495.32
522.743	5553.85
523.11	5613.28
523.477	5679.5
523.843	5687.86
524.21	5766.05
524.577	5768.31
524.943	5844.46
525.31	5853.28
525.676	5937.57
526.043	5915.42
526.409	5963.78
526.776	5999.26
527.142	6043.78
527.508	6048.75
527.874	6098.02
528.241	6177.11
528.607	6229.77
528.973	6306.37
529.339	6282.42
529.705	6302.98
530.071	6401.74
530.437	6372.36
530.803	6451.45
531.169	6460.49
531.535	6455.75
531.901	6520.38
532.267	6508.4
532.632	6517.22
532.998	6542.98
533.364	6605.12
533.73	6702.52
534.095	6713.59
534.461	6738.68
534.826	6757.21
535.192	6747.49
535.557	6848.28
535.923	6845.34
536.288	6905.23
536.653	6922.18
537.019	6921.05
537.384	6918.79
537.749	7014.15
538.114	6956.3
538.479	7012.8
538.845	7007.15
539.21	7028.61
539.575	7102.96
539.94	7134.6
540.305	7130.76
540.67	7147.03
541.034	7161.94
541.399	7227.93
541.764	7249.63
542.129	7258.44
542.494	7329.85
542.858	7307.03
543.223	7361.71
543.587	7398.1
543.952	7387.48
544.316	7427.7
544.681	7431.54
545.045	7527.36
545.41	7565.55
545.774	7471.31
546.138	7539.34
546.503	7591.76
546.867	7502.95
547.231	7575.94
547.595	7648.94
547.959	7631.08
548.324	7685.32
548.688	7679.22
549.052	7676.96
549.416	7754.47
549.779	7767.13
550.143	7813.45
550.507	7818.88
550.871	7857.52
551.235	7893.9
551.599	7971.87
551.962	7943.39
552.326	7933
552.689	8062.26
553.053	8032.66
553.417	8047.34
553.78	8143.16
554.143	8160.56
554.507	8130.96
554.87	8170.28
555.234	8231.75
555.597	8237.85
555.96	8307
556.323	8291.86
556.686	8331.63
557.05	8395.13
557.413	8356.04
557.776	8434.45
558.139	8502.93
558.502	8472.42
558.865	8529.59
559.228	8640.78
559.59	8639.19
559.953	8675.58
560.316	8703.82
560.679	8681
561.041	8780.21
561.404	8803.03
561.767	8787.66
562.129	8853.2
562.492	8940.43
562.854	8968.9
563.217	8948.79
563.579	8960.99
563.941	8988.11
564.304	9111.27
564.666	9122.8
565.028	9186.75
565.39	9232.85
565.753	9212.29
566.115	9218.61
566.477	9328.89
566.839	9290.93
567.201	9351.72
567.563	9351.72
567.925	9442.11
568.287	9494.31
568.648	9466.74
569.01	9591.03
569.372	9631.71
569.734	9605.72
570.095	9625.38
570.457	9754.87
570.819	9633.29
571.18	9807.07
571.542	9803.91
571.903	9823.34
572.265	9854.53
572.626	9813.17
572.987	9857.24
573.349	9946.5
573.71	9935.2
574.071	9981.53
574.432	9976.56
574.794	10040.06
575.155	10020.4
575.516	9984.24
575.877	10043
576.238	10112.6
576.599	10125.26
576.96	10170.9
577.32	10121.41
577.681	10222.43
578.042	10195.09
578.403	10158.7
578.763	10280.51
579.124	10333.39
579.485	10296.55
579.845	10291.58
580.206	10336.1
580.566	10267.17
580.927	10288.64
581.287	10317.34
581.648	10312.6
582.008	10409.77
582.368	10293.84
582.728	10398.92
583.089	10274.18
583.449	10289.09
583.809	10359.83
584.169	10395.76
584.529	10370.9
584.889	10394.85
585.249	10329.54
585.609	10424.23
585.969	10409.99
586.329	10391.46
586.688	10402.76
587.048	10388.53
587.408	10295.42
587.768	10393.27
588.127	10318.92
588.487	10440.95
588.846	10435.3
589.206	10349.43
589.565	10314.63
589.925	10444.12
590.284	10362.76
590.643	10388.53
591.003	10432.37
591.362	10420.39
591.721	10346.27
592.08	10425.14
592.44	10465.36
592.799	10447.96
593.158	10466.04
593.517	10423.78
593.876	10434.4
594.235	10515.08
594.593	10480.05
594.952	10497.22
595.311	10463.78
595.67	10452.25
596.029	10537.22
596.387	10463.55
596.746	10493.38
597.104	10474.17
597.463	10393.27
597.822	10507.62
598.18	10371.58
598.538	10520.27
598.897	10558.92
599.255	10544.23
599.613	10584
599.972	10542.65
600.33	10554.62
600.688	10610.89
601.046	10593.04
601.404	10603.66
601.762	10707.16
602.12	10703.32
602.478	10707.39
602.836	10745.58
603.194	10608.41
603.552	10702.87
603.91	10618.8
604.268	10668.07
604.625	10674.62
604.983	10778.8
605.341	10640.5
605.698	10647.28
606.056	10718.91
606.413	10688.18
606.771	10728.63
607.128	10741.51
607.485	10680.5
607.843	10685.47
608.2	10718.01
608.557	10765.69
608.914	10745.81
609.272	10804.56
609.629	10849.53
609.986	10872.13
610.343	10806.82
610.7	10797.56
611.057	10859.47
611.414	10831.45
611.771	10807.72
612.127	10889.76
612.484	10837.1
612.841	10883.88
613.198	10911
613.554	10888.17
613.911	10919.36
614.267	10992.58
614.624	10926.37
614.98	10917.78
615.337	11010.43
615.693	11035.51
616.05	10920.49
616.406	11113.25
616.762	10976.31
617.118	10956.42
617.475	11105.12
617.831	11068.51
618.187	11038.9
618.543	11028.96
618.899	11207.04
619.255	11138.56
619.611	11125
619.967	11173.14
620.323	11153.48
620.678	11045.46
621.034	11064.67
621.39	11101.73
621.746	11000.71
622.101	11235.74
622.457	11065.34
622.812	11168.39
623.168	11187.38
623.523	11172.46
623.879	11229.63
624.234	11058.11
624.589	11098.11
624.945	11141.27
625.3	11148.28
625.655	11083.65
626.01	11113.25
626.365	11083.42
626.72	11095.63
627.075	11099.24
627.43	11088.85
627.785	11060.6
628.14	11068.28
628.495	11049.3
628.85	11073.71
629.205	11001.17
629.559	11159.13
629.914	11090.65
630.269	11035.97
630.623	11052.92
630.978	11021.28
631.332	11149.18
631.687	11143.99
632.041	11068.73
632.396	11109.64
632.75	11026.02
633.104	11011.56
633.459	10942.64
633.813	11015.4
634.167	10952.35
634.521	10991.67
634.875	10921.85
635.229	10914.16
635.583	10913.03
635.937	10930.66
636.291	10845.24
636.645	10818.8
636.999	10784.67
637.352	10861.28
637.706	10722.3
638.06	10864.9
638.413	10824.67
638.767	10791.91
639.121	10748.97
639.474	10697.9
639.828	10741.06
640.181	10734.51
640.534	10733.83
640.888	10655.41
641.241	10635.53
641.594	10701.96
641.947	10693.6
642.301	10634.17
642.654	10619.93
643.007	10601.18
643.36	10624.9
643.713	10602.98
644.066	10634.62
644.419	10558.69
644.771	10526.38
645.124	10368.87
645.477	10432.14
645.83	10274.4
646.182	10268.76
646.535	10165.26
646.888	10218.81
647.24	10186.72
647.593	10213.84
647.945	10178.36
648.298	10141.98
648.65	10138.82
649.002	10112.83
649.355	10180.85
649.707	10116.67
650.059	10264.69
650.411	10298.81
650.763	10322.77
651.115	10443.44
651.467	10360.73
651.819	10332.48
652.171	10403.67
652.523	10319.6
652.875	10345.14
653.227	10270.56
653.578	10358.02
653.93	10333.61
654.282	10316.89
654.633	10227.63
654.985	10220.17
655.337	10221.07
655.688	10252.71
656.039	10227.63
656.391	10111.92
656.742	10152.15
657.094	10167.97
657.445	10278.25
657.796	10210
658.147	10199.6
658.498	10200.51
658.849	10231.02
659.2	10191.02
659.551	10133.84
659.902	10151.7
660.253	10242.09
660.604	10200.51
660.955	10105.37
661.306	10151.24
661.656	10127.06
662.007	10126.16
662.358	10162.32
662.708	10115.54
663.059	10120.96
663.409	10043.9
663.76	10080.06
664.11	10087.29
664.461	10111.25
664.811	10044.58
665.161	10072.6
665.511	10067.63
665.862	10102.43
666.212	10123.22
666.562	10127.52
666.912	10113.28
667.262	10061.98
667.612	10061.08
667.962	10032.38
668.312	9999.61
668.662	10054.3
669.011	9982.21
669.361	9988.76
669.711	9955.09
670.06	9981.98
670.41	9911.02
670.76	9994.64
671.109	10028.31
671.459	9947.63
671.808	9966.62
672.157	9937.46
672.507	9907.41
672.856	9904.25
673.205	9850.01
673.554	9932.49
673.904	9775.66
674.253	9963
674.602	9911.7
674.951	9689.56
675.3	9622.44
675.649	9788.77
675.998	9841.65
676.346	9820.41
676.695	9927.97
677.044	9856.11
677.393	9828.77
677.741	9841.42
678.09	9801.88
678.438	9718.04
678.787	9782.67
679.135	9800.07
679.484	9730.92
679.832	9779.73
680.181	9710.58
680.529	9705.15
680.877	9748.77
681.225	9661.09
681.573	9714.87
681.922	9641.88
682.27	9638.72
682.618	9666.96
682.966	9605.95
683.314	9666.29
683.661	9600.98
684.009	9539.28
684.357	9532.5
684.705	9539.74
685.053	9507.87
685.4	9540.41
685.748	9370.7
686.095	9416.35
686.443	9420.42
686.79	9419.51
687.138	9447.31
687.485	9431.04
687.832	9363.02
688.18	9413.64
688.527	9311.72
688.874	9327.09
689.221	9319.4
689.568	9273.75
689.915	9259.29
690.262	9224.26
690.609	9234.88
690.956	9184.04
691.303	9149.24
691.65	9110.59
691.997	9107.2
692.344	9069.01
692.69	9080.76
693.037	9123.25
693.383	8981.56
693.73	9083.93
694.077	9002.57
694.423	9062.91
694.769	8965.06
695.116	8957.83
695.462	8967.09
695.808	8853.43
696.155	8896.14
696.501	8815.01
696.847	8843.03
697.193	8789.02
697.539	8763.26
697.885	8740.89
698.231	8737.5
698.577	8698.85
698.923	8698.18
699.269	8634
699.614	8608.23
699.96	8513.55
700.306	8557.61
700.651	8518.97
700.997	8490.5
701.342	8427.9
701.688	8490.27
702.033	8456.83
702.379	8461.35
702.724	8446.88
703.069	8439.2
703.415	8349.26
703.76	8336.38
704.105	8412.76
704.45	8402.14
704.795	8321.69
705.14	8295.7
705.485	8268.81
705.83	8258.41
706.175	8197.17
706.52	8246.44
706.865	8177.96
707.209	8177.74
707.554	8160.56
707.899	8125.99
708.243	8097.74
708.588	8142.71
708.932	8062.26
709.277	8089.15
709.621	8019.1
709.966	7986.78
710.31	7998.98
710.654	7969.61
710.998	7923.05
711.342	7967.57
711.687	7907.01
712.031	7917.63
712.375	7916.95
712.719	7921.7
713.063	7910.4
713.407	7883.73
713.75	7836.28
714.094	7807.58
714.438	7776.17
714.782	7825.88
715.125	7722.83
715.469	7810.06
715.812	7666.79
716.156	7653
716.499	7694.36
716.843	7659.56
717.186	7574.36
717.53	7675.83
717.873	7607.36
718.216	7693.68
718.559	7617.53
718.902	7606.45
719.246	7653.46
719.589	7570.52
719.932	7598.09
720.275	7551.76
720.617	7543.4
720.96	7521.93
721.303	7554.7
721.646	7557.19
721.989	7491.43
722.331	7474.7
722.674	7446.91
723.016	7485.55
723.359	7425.89
723.701	7394.48
724.044	7368.49
724.386	7309.29
724.729	7387.93
725.071	7344.54
725.413	7367.81
725.755	7299.79
726.097	7297.53
726.439	7260.92
726.782	7294.37
727.124	7332.34
727.465	7246.69
727.807	7271.77
728.149	7188.16
728.491	7203.75
728.833	7257.99
729.175	7190.19
729.516	7208.27
729.858	7144.77
730.199	7192.23
730.541	7206.24
730.882	7153.36
731.224	7151.1
731.565	7086.47
731.906	7132.57
732.248	7108.84
732.589	7031.78
732.93	7032.46
733.271	7044.43
733.612	7031.78
733.953	7055.05
734.294	7027.71
734.635	6967.6
734.976	7021.16
735.317	6991.55
735.658	6984.32
735.999	6928.28
736.339	6881.95
736.68	6931.22
737.021	6942.74
737.361	6868.84
737.702	6996.75
738.042	6904.1
738.383	6897.54
738.723	6922.85
739.063	6844.66
739.404	6864.55
739.744	6825.46
740.084	6831.56
740.424	6885.57
740.764	6867.04
741.104	6837.89
741.444	6869.52
741.784	6741.16
742.124	6795.4
742.464	6813.48
742.804	6786.36
743.143	6753.37
743.483	6788.85
743.823	6693.48
744.162	6716.53
744.502	6798.11
744.841	6691
745.181	6710.43
745.52	6655.97
745.86	6688.96
746.199	6636.08
746.538	6625.69
746.877	6680.15
747.216	6676.31
747.556	6642.64
747.895	6626.59
748.234	6559.93
748.573	6571.68
748.911	6534.84
749.25	6594.05
749.589	6504.33
749.928	6582.07
750.267	6617.78
750.605	6531.45
750.944	6536.2
751.283	6467.95
751.621	6531.23
751.96	6448.52
752.298	6509.53
752.636	6427.27
752.975	6461.17
753.313	6371.23
753.651	6467.05
753.989	6391.8
754.327	6375.75
754.666	6321.29
755.004	6374.39
755.342	6327.84
755.679	6345.92
756.017	6271.57
756.355	6360.16
756.693	6287.62
757.031	6261.63
757.368	6226.6
757.706	6227.51
758.044	6252.59
758.381	6213.04
758.719	6189.09
759.056	6189.99
759.394	6147.73
759.731	6158.13
760.068	6124.68
760.405	6078.58
760.743	6075.42
761.08	6102.09
761.417	6001.97
761.754	6087.17
762.091	5977.12
762.428	6017.79
762.765	6008.53
763.102	5996.55
763.438	5974.86
763.775	5914.75
764.112	5916.33
764.449	5912.26
764.785	5905.71
765.122	5841.3
765.458	5818.25
765.795	5797.01
