Data from black_plastic_tray_FLMS001491_089.txt Node
Date: Tue Feb 07 10:40:52 GMT 2017
User: dcchb
Spectrometer: FLMS00149
Trigger mode: 0
Integration Time (sec): 2.000000E-2
Scans to average: 10
Electric dark correction enabled: true
Nonlinearity correction enabled: false
Boxcar width: 0
XAxis mode: Wavelengths
Number of Pixels in Spectrum: 2048
>>>>>Begin Spectral Data<<<<<
341.393	-27.85
341.776	-27.85
342.16	-27.85
342.543	-59.72
342.927	-72.14
343.31	-62.2
343.693	-93.16
344.077	-42.99
344.46	-59.49
344.843	-59.04
345.226	-49.09
345.61	-26.27
345.993	-21.07
346.376	10.56
346.759	7.85
347.142	27.97
347.525	40.17
347.908	63.22
348.291	77
348.674	92.6
349.057	93.95
349.44	127.4
349.823	124.91
350.206	153.16
350.588	189.32
350.971	194.74
351.354	215.08
351.737	222.99
352.119	249.2
352.502	254.85
352.884	262.76
353.267	252.14
353.65	275.19
354.032	307.73
354.414	290.33
354.797	309.77
355.179	310.9
355.562	317.22
355.944	311.35
356.326	297.79
356.709	318.13
357.091	325.58
357.473	324.23
357.855	311.35
358.238	337.11
358.62	322.87
359.002	305.25
359.384	326.71
359.766	332.82
360.148	303.66
360.53	311.8
360.912	327.39
361.294	299.82
361.676	332.14
362.057	316.09
362.439	309.09
362.821	331.23
363.203	316.77
363.584	310.22
363.966	323.55
364.348	336.21
364.729	313.38
365.111	314.74
365.493	332.14
365.874	301.4
366.256	311.57
366.637	309.54
367.019	323.32
367.4	314.96
367.781	324.23
368.163	304.79
368.544	303.66
368.925	304.79
369.306	317.9
369.688	312.25
370.069	303.89
370.45	298.01
370.831	339.82
371.212	291.24
371.593	321.29
371.974	306.83
372.355	297.56
372.736	281.74
373.117	318.35
373.498	306.83
373.879	302.99
374.26	313.61
374.641	311.12
375.021	324.23
375.402	314.06
375.783	330.78
376.163	322.19
376.544	301.63
376.925	331.01
377.305	325.13
377.686	338.24
378.066	327.84
378.447	329.65
378.827	332.36
379.208	343.66
379.588	311.57
379.968	344.34
380.349	332.82
380.729	332.82
381.109	350.22
381.489	334.85
381.87	337.56
382.25	336.88
382.63	327.62
383.01	332.59
383.39	349.54
383.77	337.79
384.15	359.71
384.53	342.99
384.91	347.05
385.29	355.64
385.67	362.87
386.049	362.19
386.429	367.17
386.809	345.02
387.189	349.09
387.568	365.36
387.948	372.14
388.328	378.24
388.707	376.66
389.087	381.63
389.466	386.6
389.846	376.43
390.225	361.52
390.605	388.18
390.984	358.58
391.363	397
391.743	401.97
392.122	380.05
392.501	385.7
392.881	388.18
393.26	412.14
393.639	388.41
394.018	393.83
394.397	400.84
394.776	388.63
395.155	394.51
395.534	409.2
395.913	406.94
396.292	417.79
396.671	408.97
397.05	413.27
397.429	431.34
397.808	416.66
398.186	392.25
398.565	422.53
398.944	414.85
399.323	427.95
399.701	423.89
400.08	432.47
400.458	437.9
400.837	434.96
401.215	447.39
401.594	434.96
401.972	441.29
402.351	428.86
402.729	435.41
403.107	467.28
403.486	428.86
403.864	441.97
404.242	445.58
404.62	455.07
404.999	464.11
405.377	487.84
405.755	454.39
406.133	492.36
406.511	481.74
406.889	484.45
407.267	488.29
407.645	487.39
408.023	510.44
408.401	476.09
408.779	496.88
409.156	510.66
409.534	497.78
409.912	510.21
410.29	536.2
410.667	513.6
411.045	517.67
411.422	553.6
411.8	516.77
412.178	538.23
412.555	531.23
412.933	542.53
413.31	535.75
413.687	567.16
414.065	558.12
414.442	537.33
414.819	556.31
415.197	548.63
415.574	560.61
415.951	583.88
416.328	559.02
416.705	577.33
417.082	588.63
417.46	575.75
417.837	577.78
418.214	587.05
418.591	594.73
418.967	598.12
419.344	606.48
419.721	611.45
420.098	611.23
420.475	619.14
420.852	651.23
421.228	622.07
421.605	629.98
421.982	622.3
422.358	653.94
422.735	638.12
423.111	643.32
423.488	649.64
423.864	670.21
424.241	669.08
424.617	669.98
424.994	689.87
425.37	671.56
425.746	691.22
426.123	692.13
426.499	694.16
426.875	674.05
427.251	701.62
427.627	737.78
428.003	726.93
428.379	723.31
428.756	740.49
429.132	759.92
429.507	741.84
429.883	749.98
430.259	779.81
430.635	757.89
431.011	793.37
431.387	811.22
431.763	807.15
432.138	796.08
432.514	803.76
432.89	828.62
433.265	838.34
433.641	834.27
434.016	833.59
434.392	852.12
434.767	853.48
435.143	885.12
435.518	843.54
435.894	864.1
436.269	904.55
436.644	895.97
437.02	910.88
437.395	903.65
437.77	919.47
438.145	920.82
438.52	941.61
438.895	915.63
439.271	944.78
439.646	951.78
440.021	939.35
440.395	965.12
440.77	996.98
441.145	979.35
441.52	989.3
441.895	991.1
442.27	992.69
442.645	989.75
443.019	1018.67
443.394	972.8
443.769	1034.27
444.143	1006.47
444.518	1023.87
444.892	1042.85
445.267	1034.49
445.641	1039.69
446.016	1037.88
446.39	1044.21
446.764	1066.36
447.139	1074.27
447.513	1079.01
447.887	1076.07
448.262	1063.42
448.636	1096.19
449.01	1102.06
449.384	1094.6
449.758	1111.78
450.132	1141.83
450.506	1126.69
450.88	1141.83
451.254	1128.73
451.628	1126.47
452.002	1163.75
452.376	1179.35
452.75	1165.34
453.123	1202.85
453.497	1240.36
453.871	1231.32
454.244	1254.37
454.618	1246.46
454.992	1237.65
455.365	1259.12
455.739	1281.49
456.112	1278.55
456.486	1289.63
456.859	1321.26
457.232	1321.94
457.606	1354.26
457.979	1373.47
458.352	1374.6
458.725	1384.99
459.099	1387.48
459.472	1419.79
459.845	1432.22
460.218	1477.42
460.591	1458.66
460.964	1470.41
461.337	1492.79
461.71	1526.01
462.083	1540.92
462.456	1547.25
462.829	1532.11
463.201	1542.73
463.574	1553.8
463.947	1606.68
464.32	1622.5
464.692	1621.6
465.065	1629.96
465.438	1671.99
465.81	1670.18
466.183	1684.87
466.555	1724.19
466.928	1743.85
467.3	1753.34
467.672	1756.06
468.045	1815.49
468.417	1790.4
468.789	1829.27
469.161	1857.07
469.534	1867.24
469.906	1889.84
470.278	1944.07
470.65	1948.82
471.022	1956.95
471.394	2045.31
471.766	2038.76
472.138	2053.45
472.51	2093.9
472.882	2137.51
473.253	2134.58
473.625	2162.15
473.997	2200.56
474.369	2205.54
474.74	2248.92
475.112	2313.78
475.484	2329.83
475.855	2334.35
476.227	2385.87
476.598	2392.87
476.97	2455.25
477.341	2467
477.713	2495.02
478.084	2512.19
478.455	2586.99
478.827	2626.77
479.198	2704.51
479.569	2687.1
479.94	2759.42
480.311	2744.73
480.682	2792.64
481.053	2891.17
481.424	2916.93
481.795	2953.76
482.166	2981.56
482.537	3060.43
482.908	3095.23
483.279	3101.33
483.65	3130.93
484.021	3219.07
484.391	3266.3
484.762	3275.34
485.133	3324.15
485.503	3339.52
485.874	3431.94
486.244	3497.03
486.615	3497.25
486.985	3553.75
487.356	3626.06
487.726	3666.29
488.097	3742.22
488.467	3730.69
488.837	3809.56
489.207	3835.77
489.578	3914.19
489.948	3925.72
490.318	3973.85
490.688	3999.84
491.058	4054.3
491.428	4120.74
491.798	4157.35
492.168	4242.77
492.538	4237.35
492.908	4290.45
493.278	4314.41
493.648	4372.94
494.017	4383.11
494.387	4447.28
494.757	4472.37
495.126	4564.8
495.496	4542.2
495.866	4574.51
496.235	4612.93
496.605	4640.73
496.974	4732.7
497.344	4763.89
497.713	4768.41
498.082	4803.66
498.452	4886.14
498.821	4855.86
499.19	4875.75
499.559	4930.21
499.928	4966.14
500.298	5056.31
500.667	5068.51
501.036	4995.07
501.405	5132.46
501.774	5131.33
502.143	5168.4
502.512	5202.74
502.88	5220.37
503.249	5227.15
503.618	5303.53
503.987	5356.86
504.356	5317.77
504.724	5397.09
505.093	5356.86
505.462	5397.54
505.83	5505.34
506.199	5511.44
506.567	5574.03
506.936	5618.78
507.304	5683.41
507.672	5627.82
508.041	5701.26
508.409	5726.35
508.777	5778.1
509.145	5856.29
509.514	5835.27
509.882	5874.37
510.25	5885.89
510.618	5898.09
510.986	5943.97
511.354	6053.34
511.722	6104.42
512.09	6164.08
512.458	6158.43
512.826	6243.62
513.193	6276.61
513.561	6313.45
513.929	6300.79
514.297	6353
514.664	6365.88
515.032	6433.45
515.4	6534.46
515.767	6560.45
516.135	6581.01
516.502	6522.94
516.869	6721.57
517.237	6702.82
517.604	6725.42
517.972	6792.76
518.339	6825.98
518.706	6883.6
519.073	6949.59
519.44	6982.36
519.808	7015.8
520.175	7066.2
520.542	7123.82
520.909	7237.04
521.276	7170.6
521.643	7239.75
522.009	7357.49
522.376	7372.18
522.743	7468.45
523.11	7472.74
523.477	7595.68
523.843	7588.9
524.21	7724.03
524.577	7692.4
524.943	7778.72
525.31	7778.72
525.676	7886.97
526.043	7994.31
526.409	7989.34
526.776	8083.57
527.142	8087.64
527.508	8139.16
527.874	8213.51
528.241	8345.71
528.607	8346.62
528.973	8458.03
529.339	8418.93
529.705	8511.36
530.071	8561.53
530.437	8587.97
530.803	8676.1
531.169	8679.26
531.535	8641.98
531.901	8733.27
532.267	8775.98
532.632	8793.61
532.998	8905.7
533.364	8928.3
533.73	8925.36
534.095	8972.14
534.461	9048.07
534.826	9107.73
535.192	9136.88
535.557	9259.36
535.923	9189.76
536.288	9259.59
536.653	9354.95
537.019	9246.93
537.384	9273.15
537.749	9324.44
538.114	9374.39
538.479	9464.33
538.845	9512.91
539.21	9488.51
539.575	9503.42
539.94	9555.4
540.305	9593.14
540.67	9543.65
541.034	9649.86
541.399	9755.85
541.764	9725.79
542.129	9744.55
542.494	9765.79
542.858	9778.22
543.223	9806.69
543.587	9954.48
543.952	9910.19
544.316	9903.86
544.681	9929.17
545.045	10032.67
545.41	10106.57
545.774	10036.74
546.138	10093.92
546.503	10137.3
546.867	10173.91
547.231	10261.82
547.595	10254.59
547.959	10268.37
548.324	10297.07
548.688	10380.01
549.052	10337.07
549.416	10347.47
549.779	10410.74
550.143	10441.7
550.507	10561.7
550.871	10554.02
551.235	10573.68
551.599	10637.4
551.962	10677.4
552.326	10666.56
552.689	10711.75
553.053	10792.65
553.417	10761.69
553.78	10885.76
554.143	10903.61
554.507	10985.64
554.87	10946.55
555.234	11078.52
555.597	10992.2
555.96	11132.08
556.323	11136.15
556.686	11220.44
557.05	11260.44
557.413	11320.78
557.776	11293.43
558.139	11400.32
558.502	11426.76
558.865	11522.13
559.228	11538.85
559.59	11561.22
559.953	11589.92
560.316	11647.55
560.679	11739.3
561.041	11827.66
561.404	11817.94
561.767	11871.5
562.129	11949.01
562.492	12092.28
562.854	12138.83
563.217	12045.05
563.579	12081.89
563.941	12186.29
564.304	12260.86
564.666	12330.24
565.028	12359.17
565.39	12430.35
565.753	12493.63
566.115	12471.03
566.477	12526.62
566.839	12483.46
567.201	12655.88
567.563	12617.46
567.925	12758.7
568.287	12693.4
568.648	12718.48
569.01	12770.91
569.372	12824.69
569.734	12922.09
570.095	13092.48
570.457	13053.39
570.819	13117.34
571.18	13094.29
571.542	13221.06
571.903	13156.43
572.265	13270.1
572.626	13313.04
572.987	13341.06
573.349	13430.32
573.71	13401.17
574.071	13408.86
574.432	13413.15
574.794	13592.35
575.155	13520.72
575.516	13539.7
575.877	13606.14
576.238	13593.03
576.599	13642.52
576.96	13616.08
577.32	13694.05
577.681	13755.06
578.042	13713.48
578.403	13772.91
578.763	13884.55
579.124	13869.64
579.485	13891.33
579.845	13904.66
580.206	13927.49
580.566	13808.85
580.927	13848.62
581.287	13929.07
581.648	13926.13
582.008	13975.4
582.368	13950.99
582.728	13990.31
583.089	14031.66
583.449	13979.46
583.809	14010.87
584.169	14061.27
584.529	14113.47
584.889	14112.34
585.249	14040.7
585.609	13981.27
585.969	14120.7
586.329	14017.2
586.688	14086.8
587.048	14031.66
587.408	14065.34
587.768	14031.66
588.127	13921.16
588.487	14071.44
588.846	14073.47
589.206	13938.56
589.565	13947.6
589.925	14110.76
590.284	14004.1
590.643	14063.53
591.003	14094.04
591.362	14097.43
591.721	14118.44
592.08	14164.09
592.44	14112.57
592.799	14123.41
593.158	14018.56
593.517	14160.93
593.876	14221.94
594.235	14218.1
594.593	14127.03
594.952	14167.03
595.311	14094.94
595.67	14154.37
596.029	14268.49
596.387	14227.37
596.746	14262.17
597.104	14165.45
597.463	14129.52
597.822	14162.73
598.18	14155.28
598.538	14198.44
598.897	14280.02
599.255	14129.74
599.613	14348.49
599.972	14211.32
600.33	14346.23
600.688	14247.48
601.046	14331.54
601.404	14315.73
601.762	14399.34
602.12	14388.27
602.478	14342.39
602.836	14407.7
603.194	14410.41
603.552	14413.12
603.91	14331.32
604.268	14453.57
604.625	14396.4
604.983	14378.55
605.341	14337.19
605.698	14486.12
606.056	14431.65
606.413	14443.41
606.771	14502.61
607.128	14607.02
607.485	14490.64
607.843	14449.51
608.2	14575.15
608.557	14622.84
608.914	14499.68
609.272	14564.53
609.629	14669.61
609.986	14673.46
610.343	14566.11
610.7	14690.63
611.057	14695.38
611.414	14696.51
611.771	14683.63
612.127	14801.81
612.484	14787.58
612.841	14827.12
613.198	14782.38
613.554	14818.08
613.911	14861.02
614.267	14812.44
614.624	14741.7
614.98	14781.25
615.337	14822.15
615.693	14837.07
616.05	14831.64
616.406	14818.08
616.762	14925.88
617.118	14956.39
617.475	14847.46
617.831	14943.73
618.187	14973.56
618.543	14978.08
618.899	15073.9
619.255	14965.43
619.611	15008.36
619.967	15100.11
620.323	15062.6
620.678	14980.34
621.034	14958.87
621.39	15016.5
621.746	14967.91
622.101	15121.81
622.457	15031.64
622.812	15040
623.168	15154.8
623.523	15033.9
623.879	15101.02
624.234	14924.97
624.589	15079.77
624.945	15054.69
625.3	15135.14
625.655	15037.29
626.01	15071.41
626.365	15136.49
626.72	15044.29
627.075	15022.15
627.43	15058.3
627.785	15040.23
628.14	15001.36
628.495	15002.26
628.85	14957.74
629.205	15042.03
629.559	14987.57
629.914	14967.69
630.269	15007.46
630.623	14945.99
630.978	14832.32
631.332	14942.6
631.687	14918.65
632.041	15070.73
632.396	14961.36
632.75	14840.68
633.104	14879.33
633.459	14862.6
633.813	14882.94
634.167	14746
634.521	14834.36
634.875	14801.59
635.229	14807.46
635.583	14662.83
635.937	14684.53
636.291	14595.04
636.645	14657.19
636.999	14617.64
637.352	14722.72
637.706	14536.28
638.06	14654.47
638.413	14596.4
638.767	14547.36
639.121	14617.86
639.474	14536.96
639.828	14470.98
640.181	14496.74
640.534	14484.08
640.888	14419.45
641.241	14308.72
641.594	14395.5
641.947	14411.99
642.301	14399.11
642.654	14475.27
643.007	14425.1
643.36	14377.42
643.713	14303.52
644.066	14397.53
644.419	14295.16
644.771	14181.94
645.124	14033.47
645.477	14044.77
645.83	13968.39
646.182	13891.56
646.535	13778.11
646.888	13954.6
647.24	13695.85
647.593	13790.09
647.945	13809.07
648.298	13718.23
648.65	13604.33
649.002	13727.27
649.355	13673.93
649.707	13685.91
650.059	13741.28
650.411	13972.46
650.763	14014.26
651.115	14084.77
651.467	14024.21
651.819	14008.39
652.171	14005.22
652.523	13952.35
652.875	13942.18
653.227	13947.37
653.578	14042.51
653.93	14017.88
654.282	13900.37
654.633	13869.86
654.985	14002.97
655.337	13874.38
655.688	13890.88
656.039	13881.16
656.391	13769.75
656.742	13813.59
657.094	13762.07
657.445	13863.08
657.796	13843.87
658.147	13774.5
658.498	13866.25
658.849	13893.59
659.2	13779.02
659.551	13717.77
659.902	13791.9
660.253	13812.24
660.604	13838.22
660.955	13654.05
661.306	13745.57
661.656	13634.39
662.007	13639.58
662.358	13757.55
662.708	13645.01
663.059	13695.4
663.409	13625.8
663.76	13668.28
664.11	13642.07
664.461	13692.46
664.811	13719.36
665.161	13710.32
665.511	13644.1
665.862	13654.73
666.212	13693.37
666.562	13695.63
666.912	13610.66
667.262	13607.27
667.612	13589.42
667.962	13564.33
668.312	13626.7
668.662	13663.54
669.011	13669.64
669.361	13586.7
669.711	13549.64
670.06	13617.21
670.41	13511.9
670.76	13560.26
671.109	13482.53
671.459	13598.23
671.808	13436.2
672.157	13488.85
672.507	13447.05
672.856	13484.56
673.205	13452.92
673.554	13554.62
673.904	13426.48
674.253	13549.19
674.602	13495.63
674.951	13267.39
675.3	13122.99
675.649	13382.64
675.998	13392.36
676.346	13359.82
676.695	13436.65
677.044	13381.29
677.393	13452.92
677.741	13386.48
678.09	13319.82
678.438	13327.5
678.787	13307.84
679.135	13289.31
679.484	13224.91
679.832	13234.17
680.181	13250.22
680.529	13193.04
680.877	13106.49
681.225	13280.72
681.573	13257.9
681.922	13197.56
682.27	13170.67
682.618	13134.74
682.966	13122.54
683.314	13131.12
683.661	13066.27
684.009	13049.77
684.357	12970
684.705	12946.5
685.053	12994.63
685.4	12986.04
685.748	12879.38
686.095	12840.74
686.443	12706.28
686.79	12757.57
687.138	12751.02
687.485	12807.06
687.832	12791.92
688.18	12717.35
688.527	12697.91
688.874	12589.89
689.221	12562.78
689.568	12518.94
689.915	12593.96
690.262	12519.84
690.609	12420.18
690.956	12335.44
691.303	12384.7
691.65	12317.59
691.997	12277.59
692.344	12212.73
692.69	12187.87
693.037	12217.93
693.383	12136.57
693.73	12253.63
694.077	12116.46
694.423	12189.45
694.769	12109
695.116	12120.53
695.462	12117.37
695.808	12043.47
696.155	12047.54
696.501	12006.18
696.847	12000.31
697.193	11825.85
697.539	11862.46
697.885	11775.23
698.231	11774.1
698.577	11768.45
698.923	11786.07
699.269	11714.66
699.614	11612.97
699.96	11676.92
700.306	11618.85
700.651	11631.5
700.997	11503.37
701.342	11494.33
701.688	11502.92
702.033	11411.85
702.379	11469.25
702.724	11420.43
703.069	11460.43
703.415	11382.92
703.76	11287.78
704.105	11250.95
704.45	11283.26
704.795	11165.75
705.14	11106.77
705.485	11178.18
705.83	11125.98
706.175	11180.89
706.52	11049.37
706.865	11102.02
707.209	11059.31
707.554	10913.55
707.899	11014.57
708.243	10939.09
708.588	10974.34
708.932	10905.87
709.277	10928.92
709.621	11053.21
709.966	10889.15
710.31	10917.17
710.654	10783.84
710.998	10846.89
711.342	10792.88
711.687	10780.68
712.031	10723.28
712.375	10629.04
712.719	10620
713.063	10666.78
713.407	10687.8
713.75	10658.87
714.094	10690.51
714.438	10607.35
714.782	10582.04
715.125	10547.46
715.469	10564.19
715.812	10567.58
716.156	10453
716.499	10528.03
716.843	10533.45
717.186	10419.56
717.53	10486.22
717.873	10488.03
718.216	10508.37
718.559	10362.61
718.902	10286.9
719.246	10301.37
719.589	10300.69
719.932	10292.55
720.275	10337.3
720.617	10304.08
720.96	10268.37
721.303	10232.67
721.646	10230.18
721.989	10178.43
722.331	10227.7
722.674	10133.46
723.016	10189.51
723.359	10166.23
723.701	10196.96
724.044	10124.2
724.386	10034.93
724.729	9990.87
725.071	10070.64
725.413	9994.71
725.755	9966.24
726.097	9917.87
726.439	9939.8
726.782	9903.64
727.124	10005.33
727.465	9941.38
727.807	9889.85
728.149	9913.81
728.491	9827.03
728.833	9938.67
729.175	9833.36
729.516	9821.83
729.858	9781.61
730.199	9844.88
730.541	9781.38
730.882	9806.92
731.224	9843.3
731.565	9658.9
731.906	9751.55
732.248	9726.92
732.589	9703.64
732.93	9645.11
733.271	9636.3
733.612	9714.72
733.953	9677.43
734.294	9563.99
734.635	9588.39
734.976	9578.45
735.317	9529.18
735.658	9535.96
735.999	9560.6
736.339	9504.55
736.68	9606.24
737.021	9452.8
737.361	9375.97
737.702	9488.96
738.042	9461.84
738.383	9459.81
738.723	9406.25
739.063	9386.14
739.404	9333.48
739.744	9352.47
740.084	9338.23
740.424	9355.63
740.764	9319.92
741.104	9405.35
741.444	9338.91
741.784	9295.74
742.124	9362.41
742.464	9253.26
742.804	9236.54
743.143	9197.67
743.483	9182.07
743.823	9196.54
744.162	9109.31
744.502	9259.81
744.841	9202.87
745.181	9179.82
745.52	9124.9
745.86	9213.71
746.199	9067.5
746.538	9120.16
746.877	9137.78
747.216	9024.11
747.556	8989.31
747.895	9031.8
748.234	9021.85
748.573	9022.98
748.911	8934.17
749.25	9026.6
749.589	8911.12
749.928	8919.93
750.267	8991.57
750.605	8926.26
750.944	8855.76
751.283	8854.4
751.621	8847.62
751.96	8847.39
752.298	8822.08
752.636	8777.34
752.975	8766.72
753.313	8676.1
753.651	8815.08
753.989	8723.33
754.327	8693.73
754.666	8695.08
755.004	8641.07
755.342	8653.73
755.679	8673.84
756.017	8525.82
756.355	8603.33
756.693	8489.21
757.031	8521.75
757.368	8468.42
757.706	8519.49
758.044	8487.4
758.381	8447.86
758.719	8422.77
759.056	8434.75
759.394	8371.25
759.731	8352.72
760.068	8338.71
