Data from black_plastic_tray_FLMS001491_014.txt Node
Date: Tue Feb 07 10:39:21 GMT 2017
User: dcchb
Spectrometer: FLMS00149
Trigger mode: 0
Integration Time (sec): 2.000000E-2
Scans to average: 10
Electric dark correction enabled: true
Nonlinearity correction enabled: false
Boxcar width: 0
XAxis mode: Wavelengths
Number of Pixels in Spectrum: 2048
>>>>>Begin Spectral Data<<<<<
341.393	-8.94
341.776	-8.94
342.16	-8.94
342.543	-77.41
342.927	-75.61
343.31	-78.32
343.693	-50.07
344.077	-63.85
344.46	-53.91
344.843	-53.01
345.226	-47.36
345.61	-32.22
345.993	-40.58
346.376	-13.91
346.759	4.17
347.142	30.15
347.525	54.79
347.908	65.63
348.291	78.97
348.674	75.8
349.057	123.71
349.44	139.98
349.823	132.98
350.206	140.43
350.588	188.12
350.971	192.18
351.354	211.17
351.737	210.71
352.119	226.08
352.502	229.92
352.884	243.03
353.267	249.58
353.65	264.5
354.032	284.16
354.414	276.7
354.797	291.39
355.179	309.7
355.562	307.44
355.944	318.96
356.326	294.55
356.709	313.08
357.091	321.9
357.473	331.84
357.855	298.17
358.238	333.2
358.62	315.8
359.002	317.83
359.384	313.54
359.766	335.91
360.148	329.36
360.53	316.25
360.912	312.86
361.294	305.18
361.676	326.64
362.057	314.67
362.439	296.81
362.821	303.14
363.203	310.6
363.584	291.16
363.966	302.69
364.348	312.18
364.729	294.78
365.111	310.15
365.493	321.45
365.874	288.45
366.256	292.29
366.637	279.64
367.019	268.11
367.4	288.9
367.781	297.49
368.163	297.49
368.544	285.74
368.925	286.42
369.306	283.26
369.688	306.08
370.069	306.31
370.45	293.2
370.831	291.62
371.212	282.35
371.593	293.2
371.974	302.01
372.355	294.55
372.736	300.2
373.117	285.06
373.498	291.16
373.879	312.86
374.26	280.54
374.641	286.19
375.021	314.67
375.402	305.85
375.783	310.6
376.163	323.71
376.544	312.63
376.925	315.8
377.305	309.24
377.686	303.37
378.066	304.05
378.447	318.96
378.827	319.86
379.208	316.25
379.588	326.64
379.968	331.16
380.349	322.12
380.729	345.63
381.109	316.93
381.489	332.75
381.87	313.31
382.25	316.25
382.63	331.62
383.01	317.6
383.39	339.3
383.77	329.81
384.15	322.58
384.53	335.68
384.91	340.65
385.29	333.65
385.67	335.23
386.049	340.88
386.429	323.03
386.809	344.04
387.189	338.62
387.568	333.88
387.948	337.94
388.328	334.33
388.707	347.43
389.087	341.11
389.466	377.94
389.846	346.3
390.225	361.22
390.605	354.44
390.984	349.47
391.363	368.9
391.743	353.31
392.122	348.34
392.501	354.21
392.881	364.16
393.26	369.13
393.639	344.04
394.018	351.5
394.397	353.99
394.776	368
395.155	360.32
395.534	388.56
395.913	369.58
396.292	370.71
396.671	377.49
397.05	383.14
397.429	382.24
397.808	379.3
398.186	390.15
398.565	401.44
398.944	366.87
399.323	375.46
399.701	379.98
400.08	396.92
400.458	377.94
400.837	388.79
401.215	378.17
401.594	356.02
401.972	400.09
402.351	393.53
402.729	389.24
403.107	411.61
403.486	406.42
403.864	411.84
404.242	413.2
404.62	424.72
404.999	396.47
405.377	415.68
405.755	415.91
406.133	408.9
406.511	421.78
406.889	413.2
407.267	433.99
407.645	431.27
408.023	409.58
408.401	449.35
408.779	459.75
409.156	440.77
409.534	452.97
409.912	454.32
410.29	442.8
410.667	461.78
411.045	447.09
411.422	466.53
411.8	464.27
412.178	437.38
412.555	465.62
412.933	469.24
413.31	483.02
413.687	491.39
414.065	495
414.442	471.95
414.819	471.05
415.197	504.72
415.574	510.82
415.951	508.33
416.328	493.87
416.705	508.33
417.082	487.54
417.46	499.75
417.837	500.2
418.214	522.8
418.591	526.64
418.967	506.3
419.344	530.03
419.721	530.71
420.098	534.77
420.475	532.97
420.852	536.81
421.228	511.05
421.605	556.24
421.982	538.16
422.358	566.64
422.735	541.55
423.111	557.15
423.488	561.44
423.864	572.97
424.241	558.28
424.617	581.55
424.994	576.81
425.37	574.32
425.746	597.82
426.123	577.94
426.499	585.62
426.875	616.58
427.251	602.12
427.627	597.37
428.003	597.82
428.379	595.56
428.756	627.88
429.132	615.22
429.507	637.82
429.883	621.1
430.259	643.02
430.635	646.18
431.011	653.64
431.387	645.73
431.763	666.3
432.138	646.86
432.514	662.23
432.89	667.65
433.265	685.73
433.641	701.55
434.016	694.09
434.392	704.71
434.767	703.58
435.143	717.37
435.518	712.4
435.894	722.11
436.269	739.06
436.644	744.03
437.02	734.09
437.395	740.87
437.77	764.37
438.145	748.78
438.52	764.82
438.895	776.12
439.271	779.51
439.646	774.99
440.021	782.9
440.395	798.04
440.77	806.86
441.145	796.69
441.52	813.86
441.895	811.15
442.27	809.12
442.645	826.07
443.019	829
443.394	808.67
443.769	836.01
444.143	818.38
444.518	848.66
444.892	822.45
445.267	852.05
445.641	845.5
446.016	839.62
446.39	847.08
446.764	851.83
447.139	858.16
447.513	852.28
447.887	862.9
448.262	884.37
448.636	868.1
449.01	897.7
449.384	899.96
449.758	899.74
450.132	906.29
450.506	918.49
450.88	903.35
451.254	911.71
451.628	937.7
452.002	944.48
452.376	944.25
452.75	972.73
453.123	953.07
453.497	972.73
453.871	988.77
454.244	981.09
454.618	995.55
454.992	976.12
455.365	1001.88
455.739	1017.93
456.112	1045.95
456.486	1022.22
456.859	1037.59
457.232	1075.55
457.606	1100.63
457.979	1090.47
458.352	1094.99
458.725	1108.54
459.099	1098.6
459.472	1111.26
459.845	1135.44
460.218	1155.1
460.591	1178.15
460.964	1165.27
461.337	1190.8
461.71	1184.47
462.083	1205.94
462.456	1205.72
462.829	1210.91
463.201	1250.46
463.574	1233.74
463.947	1260.18
464.32	1243
464.692	1282.1
465.065	1290.91
465.438	1337.92
465.81	1327.97
466.183	1338.59
466.555	1364.81
466.928	1369.1
467.3	1341.76
467.672	1385.15
468.045	1408.42
468.417	1412.72
468.789	1424.92
469.161	1443
469.534	1473.73
469.906	1481.42
470.278	1491.81
470.65	1505.82
471.022	1555.31
471.394	1558.93
471.766	1554.18
472.138	1587.63
472.51	1621.3
472.882	1658.59
473.253	1647.29
473.625	1647.29
473.997	1722.09
474.369	1712.6
474.74	1716.66
475.112	1767.96
475.484	1776.55
475.855	1809.99
476.227	1816.77
476.598	1884.57
476.97	1853.84
477.341	1926.38
477.713	1913.95
478.084	1954.17
478.455	1985.81
478.827	2012.93
479.198	2059.25
479.569	2051.12
479.94	2136.31
480.311	2109.87
480.682	2151.68
481.053	2186.48
481.424	2250.21
481.795	2253.6
482.166	2294.28
482.537	2298.8
482.908	2355.74
483.279	2401.39
483.65	2423.54
484.021	2488.62
484.391	2479.81
484.762	2510.99
485.133	2534.5
485.503	2576.75
485.874	2642.06
486.244	2631.22
486.615	2692.01
486.985	2716.19
487.356	2771.1
487.726	2780.59
488.097	2815.62
488.467	2846.8
488.837	2916.18
489.207	2894.71
489.578	2950.53
489.948	3005.67
490.318	3016.97
490.688	2992.11
491.058	3066.91
491.428	3101.71
491.798	3176.29
492.168	3215.16
492.538	3209.51
492.908	3289.5
493.278	3250.18
493.648	3286.34
494.017	3317.3
494.387	3359.78
494.757	3394.13
495.126	3457.41
495.496	3432.33
495.866	3451.99
496.235	3499.44
496.605	3491.08
496.974	3555.94
497.344	3572.66
497.713	3619.44
498.082	3650.85
498.452	3695.37
498.821	3717.29
499.19	3645.2
499.559	3738.31
499.928	3722.94
500.298	3785.08
500.667	3845.87
501.036	3834.57
501.405	3854.46
501.774	3867.79
502.143	3880.22
502.512	3927.68
502.88	3939.43
503.249	3944.18
503.618	3976.94
503.987	3992.08
504.356	4044.96
504.724	4103.27
505.093	4118.63
505.462	4076.15
505.83	4133.55
506.199	4166.99
506.567	4183.94
506.936	4214.68
507.304	4221.46
507.672	4281.79
508.041	4274.79
508.409	4352.53
508.777	4330.61
509.145	4389.81
509.514	4413.54
509.882	4419.42
510.25	4460.77
510.618	4487.89
510.986	4550.94
511.354	4596.14
511.722	4564.27
512.09	4591.16
512.458	4628.45
512.826	4638.62
513.193	4726.98
513.561	4712.97
513.929	4735.12
514.297	4773.08
514.664	4849.24
515.032	4820.76
515.4	4877.26
515.767	4912.06
516.135	4956.58
516.502	4934.43
516.869	5022.11
517.237	5061.21
517.604	5073.64
517.972	5094.65
518.339	5128.33
518.706	5148.44
519.073	5117.03
519.44	5213.52
519.808	5223.69
520.175	5256.23
520.542	5346.85
520.909	5381.65
521.276	5358.15
521.643	5511.14
522.009	5436.34
522.376	5508.88
522.743	5554.3
523.11	5570.12
523.477	5641.08
523.843	5652.15
524.21	5721.53
524.577	5796.56
524.943	5859.38
525.31	5838.59
525.676	5918.36
526.043	5926.72
526.409	5954.74
526.776	6051.47
527.142	6077.68
527.508	6035.65
527.874	6129.66
528.241	6172.82
528.607	6174.63
528.973	6243.55
529.339	6241.29
529.705	6297.79
530.071	6348.18
530.437	6384.56
530.803	6408.07
531.169	6487.84
531.535	6448.74
531.901	6529.64
532.267	6548.4
532.632	6564.22
532.998	6621.39
533.364	6603.09
533.73	6621.85
534.095	6696.65
534.461	6753.59
534.826	6702.3
535.192	6792.91
535.557	6820.03
535.923	6828.17
536.288	6897.54
536.653	6834.72
537.019	6882.86
537.384	6966.7
537.749	6982.51
538.114	6974.38
538.479	6965.11
538.845	7072.23
539.21	7064.55
539.575	7044.21
539.94	7120.14
540.305	7107.48
540.67	7167.82
541.034	7168.95
541.399	7210.53
541.764	7244.65
542.129	7287.14
542.494	7246.69
542.858	7368.27
543.223	7366.01
543.587	7378.66
543.952	7387.02
544.316	7386.57
544.681	7369.85
545.045	7449.17
545.41	7525.55
545.774	7509.28
546.138	7490.07
546.503	7555.61
546.867	7586.34
547.231	7652.33
547.595	7713.57
547.959	7691.42
548.324	7687.81
548.688	7719.67
549.052	7754.25
549.416	7775.94
549.779	7747.92
550.143	7831.31
550.507	7895.26
550.871	7882.38
551.235	7842.15
551.599	7886.22
551.962	7930.74
552.326	7963.73
552.689	8026.1
553.053	7928.48
553.417	8070.4
553.78	8166.66
554.143	8088.02
554.507	8138.19
554.87	8131.86
555.234	8235.14
555.597	8227.23
555.96	8326.21
556.323	8293.67
556.686	8337.51
557.05	8382.93
557.413	8407.79
557.776	8410.27
558.139	8483.04
558.502	8490.95
558.865	8503.83
559.228	8631.96
559.59	8646.88
559.953	8639.65
560.316	8726.42
560.679	8774.56
561.041	8797.38
561.404	8760.77
561.767	8826.76
562.129	8834.44
562.492	8919.86
562.854	8982.69
563.217	8969.35
563.579	9049.58
563.941	9008.45
564.304	9078.73
564.666	9126.41
565.028	9120.31
565.39	9144.72
565.753	9248.44
566.115	9254.54
566.477	9297.26
566.839	9334.77
567.201	9359.85
567.563	9380.42
567.925	9434.88
568.287	9457.25
568.648	9461.09
569.01	9545.38
569.372	9661.99
569.734	9604.82
570.095	9635.33
570.457	9695.44
570.819	9701.76
571.18	9736.79
571.542	9774.08
571.903	9773.63
572.265	9800.75
572.626	9836.9
572.987	9909.44
573.349	9921.42
573.71	9864.92
574.071	9963.9
574.432	9974.07
574.794	10007.75
575.155	9978.82
575.516	10036.22
575.877	10056.78
576.238	10028.76
576.599	10133.17
576.96	10122.77
577.32	10172.71
577.681	10116.22
578.042	10228.3
578.403	10153.73
578.763	10291.35
579.124	10249.32
579.485	10310.11
579.845	10301.97
580.206	10278.7
580.566	10265.37
580.927	10313.5
581.287	10344.91
581.648	10248.64
582.008	10414.74
582.368	10280.51
582.728	10368.87
583.089	10348.53
583.449	10337.91
583.809	10378.13
584.169	10385.81
584.529	10381.29
584.889	10486.38
585.249	10411.58
585.609	10340.62
585.969	10390.79
586.329	10349.88
586.688	10341.97
587.048	10385.36
587.408	10301.97
587.768	10335.65
588.127	10411.35
588.487	10318.7
588.846	10421.97
589.206	10353.72
589.565	10306.49
589.925	10357.11
590.284	10438.24
590.643	10336.78
591.003	10444.12
591.362	10455.64
591.721	10428.3
592.08	10467.17
592.44	10422.65
592.799	10469.43
593.158	10449.32
593.517	10466.49
593.876	10446.38
594.235	10437.79
594.593	10524.34
594.952	10441.63
595.311	10429.43
595.67	10458.81
596.029	10495.19
596.387	10525.25
596.746	10572.25
597.104	10476.21
597.463	10477.79
597.822	10511.46
598.18	10447.51
598.538	10464.23
598.897	10579.26
599.255	10452.25
599.613	10570.22
599.972	10537.9
600.33	10623.32
600.688	10495.42
601.046	10525.47
601.404	10616.54
601.762	10642.3
602.12	10732.02
602.478	10691.57
602.836	10683.66
603.194	10607.28
603.552	10564.57
603.91	10631.23
604.268	10644.56
604.625	10579.93
604.983	10706.03
605.341	10602.98
605.698	10662.87
606.056	10727.5
606.413	10675.75
606.771	10710.55
607.128	10741.51
607.485	10636.66
607.843	10707.61
608.2	10779.93
608.557	10787.61
608.914	10792.58
609.272	10798.23
609.629	10818.57
609.986	10813.6
610.343	10706.48
610.7	10825.58
611.057	10867.84
611.414	10856.99
611.771	10806.82
612.127	10849.53
612.484	10867.38
612.841	10874.84
613.198	10918
613.554	10902.86
613.911	10915.52
614.267	10962.3
614.624	10928.17
614.98	10969.53
615.337	10988.74
615.693	10986.48
616.05	10993.03
616.406	11011.11
616.762	10973.6
617.118	11007.72
617.475	10985.12
617.831	11042.07
618.187	11041.39
618.543	11094.5
618.899	11143.99
619.255	11127.72
619.611	11118
619.967	11176.3
620.323	11161.61
620.678	11156.87
621.034	11113.48
621.39	11174.95
621.746	11093.37
622.101	11175.62
622.457	11101.05
622.812	11118.9
623.168	11121.16
623.523	11144.44
623.879	11143.08
624.234	11092.69
624.589	11061.95
624.945	11138.34
625.3	11146.47
625.655	11082.29
626.01	11098.11
626.365	11105.57
626.72	11100.82
627.075	11134.5
627.43	11093.37
627.785	11073.71
628.14	11101.5
628.495	11143.99
628.85	11137.21
629.205	11078.68
629.559	11102.18
629.914	11146.02
630.269	11155.51
630.623	11031.67
630.978	11034.39
631.332	11063.08
631.687	11110.77
632.041	10982.63
632.396	11033.93
632.75	10972.47
633.104	11048.17
633.459	10992.13
633.813	10863.32
634.167	10918.23
634.521	10890.89
634.875	10927.72
635.229	10936.99
635.583	10832.13
635.937	10794.17
636.291	10825.35
636.645	10835.07
636.999	10741.06
637.352	10846.82
637.706	10701.29
638.06	10843.43
638.413	10753.94
638.767	10682.53
639.121	10745.13
639.474	10662.19
639.828	10750.55
640.181	10700.83
640.534	10638.69
640.888	10631.01
641.241	10648.41
641.594	10598.69
641.947	10657.45
642.301	10692.02
642.654	10603.66
643.007	10587.39
643.36	10598.01
643.713	10567.5
644.066	10635.53
644.419	10571.57
644.771	10487.51
645.124	10442.31
645.477	10460.61
645.83	10305.36
646.182	10275.99
646.535	10277.34
646.888	10299.94
647.24	10154.18
647.593	10212.71
647.945	10204.35
648.298	10069.21
648.65	10091.58
649.002	10043
649.355	10126.39
649.707	10133.62
650.059	10158.48
650.411	10323.67
650.763	10221.53
651.115	10486.83
651.467	10427.17
651.819	10346.49
652.171	10355.98
652.523	10312.82
652.875	10390.33
653.227	10284.12
653.578	10306.49
653.93	10357.11
654.282	10232.6
654.633	10191.24
654.985	10272.82
655.337	10168.65
655.688	10262.88
656.039	10339.04
656.391	10153.73
656.742	10175.88
657.094	10190.11
657.445	10234.63
657.796	10226.27
658.147	10167.06
658.498	10144.01
658.849	10310.79
659.2	10190.79
659.551	10146.27
659.902	10259.72
660.253	10183.56
660.604	10127.52
660.955	10159.61
661.306	10133.84
661.656	10135.43
662.007	10108.99
662.358	10113.51
662.708	10088.87
663.059	10066.27
663.409	9932.49
663.76	10129.55
664.11	10066.5
664.461	10073.51
664.811	10084.81
665.161	10019.95
665.511	10064.02
665.862	10085.03
666.212	10074.41
666.562	10073.73
666.912	10094.3
667.262	10046.16
667.612	9970.68
667.962	10061.08
668.312	10031.93
668.662	9983.11
669.011	10061.98
669.361	10006.16
669.711	10002.32
670.06	10035.77
670.41	10011.81
670.76	9965.94
671.109	9973.17
671.459	9916
671.808	10015.65
672.157	9897.92
672.507	9917.8
672.856	9849.11
673.205	9987.41
673.554	9937.92
673.904	9905.83
674.253	9937.01
674.602	9860.63
674.951	9678.49
675.3	9731.14
675.649	9828.99
675.998	9787.41
676.346	9885.04
676.695	9920.52
677.044	9875.32
677.393	9872.83
677.741	9886.17
678.09	9857.92
678.438	9847.98
678.787	9822.67
679.135	9756.45
679.484	9712.61
679.832	9804.59
680.181	9699.05
680.529	9767.53
680.877	9693.63
681.225	9696.57
681.573	9751.25
681.922	9647.75
682.27	9637.13
682.618	9644.82
682.966	9625.61
683.314	9681.88
683.661	9655.66
684.009	9556.46
684.357	9596.68
684.705	9560.07
685.053	9581.99
685.4	9536.8
685.748	9450.7
686.095	9471.26
686.443	9358.04
686.79	9408.67
687.138	9420.42
687.485	9381.77
687.832	9412.96
688.18	9372.96
688.527	9270.82
688.874	9341.32
689.221	9264.26
689.568	9225.17
689.915	9263.13
690.262	9320.08
690.609	9194.66
690.956	9167.09
691.303	9130.48
691.65	9108.79
691.997	9089.13
692.344	9115.79
692.69	9068.79
693.037	9038.51
693.383	9034.21
693.73	9004.38
694.077	8998.28
694.423	9019.3
694.769	8907.44
695.116	8958.96
695.462	8940.43
695.808	8824.5
696.155	8908.79
696.501	8843.71
696.847	8821.11
697.193	8796.48
697.539	8729.13
697.885	8738.4
698.231	8707.21
698.577	8639.87
698.923	8569.82
699.269	8666.76
699.614	8611.4
699.96	8548.57
700.306	8565.3
700.651	8479.65
700.997	8526.88
701.342	8443.72
701.688	8458.41
702.033	8481.91
702.379	8465.41
702.724	8408.24
703.069	8434.68
703.415	8345.19
703.76	8346.32
704.105	8361.23
704.45	8364.17
704.795	8263.38
705.14	8268.81
705.485	8314.23
705.83	8259.77
706.175	8210.05
706.52	8195.36
706.865	8184.29
707.209	8168.7
707.554	8109.04
707.899	8200.56
708.243	8124.18
708.588	8061.13
708.932	8006.89
709.277	8014.13
709.621	8028.36
709.966	8037.63
710.31	8049.83
710.654	8001.7
710.998	8014.13
711.342	7952.21
711.687	7981.36
712.031	7920.12
712.375	7878.31
712.719	7901.81
713.063	7931.64
713.407	7887.58
713.75	7900.23
714.094	7794.47
714.438	7770.06
714.782	7758.99
715.125	7785.43
715.469	7793.57
715.812	7690.29
716.156	7678.77
716.499	7700.24
716.843	7604.42
717.186	7683.96
717.53	7694.13
717.873	7649.39
718.216	7619.56
718.559	7584.31
718.902	7593.8
719.246	7578.43
719.589	7569.39
719.932	7566.91
720.275	7644.42
720.617	7576.85
720.96	7505.89
721.303	7542.05
721.646	7577.3
721.989	7563.06
722.331	7505.89
722.674	7508.38
723.016	7385.89
723.359	7440.58
723.701	7452.78
724.044	7382.5
724.386	7381.37
724.729	7342.28
725.071	7331.88
725.413	7382.5
725.755	7333.69
726.097	7333.01
726.439	7254.82
726.782	7228.16
727.124	7276.97
727.465	7254.15
727.807	7248.04
728.149	7228.84
728.491	7221.38
728.833	7228.38
729.175	7188.84
729.516	7138.44
729.858	7126.47
730.199	7165.11
730.541	7160.81
730.882	7197.2
731.224	7182.06
731.565	7096.86
731.906	7119.23
732.248	7064.32
732.589	7096.18
732.93	7048.5
733.271	7085.79
733.612	7088.27
733.953	7046.24
734.294	7035.85
734.635	6961.5
734.976	7005.11
735.317	6956.53
735.658	6968.96
735.999	6969.86
736.339	6996.07
736.68	7017.32
737.021	6981.61
737.361	6853.25
737.702	6986.13
738.042	6921.05
738.383	6873.14
738.723	6938.22
739.063	6871.78
739.404	6880.37
739.744	6868.62
740.084	6815.74
740.424	6888.05
740.764	6805.34
741.104	6847.83
741.444	6843.53
741.784	6766.02
742.124	6792.24
742.464	6822.29
742.804	6761.5
743.143	6722.18
743.483	6774.38
743.823	6724.89
744.162	6755.85
744.502	6746.81
744.841	6710.66
745.181	6702.52
745.52	6692.13
745.86	6659.58
746.199	6656.42
746.538	6665.91
746.877	6670.43
747.216	6647.83
747.556	6622.98
747.895	6568.29
748.234	6550.21
748.573	6584.11
748.911	6549.08
749.25	6580.49
749.589	6568.29
749.928	6600.38
750.267	6579.13
750.605	6533.49
750.944	6536.65
751.283	6544.33
751.621	6518.8
751.96	6426.37
752.298	6433.83
752.636	6505.46
752.975	6406.48
753.313	6378.91
753.651	6389.31
753.989	6368.97
754.327	6375.3
754.666	6316.09
755.004	6328.29
755.342	6320.61
755.679	6337.33
756.017	6289.88
756.355	6289.2
756.693	6234.74
757.031	6269.54
757.368	6272.48
757.706	6228.41
758.044	6152.93
758.381	6185.02
758.719	6140.28
759.056	6158.13
759.394	6136.21
759.731	6118.36
760.068	6113.84
760.405	6125.81
760.743	6066.38
761.08	6059.83
761.417	6015.08
761.754	6072.03
762.091	6004.23
762.428	6025.93
762.765	5971.69
763.102	5972.15
763.438	5920.62
763.775	5906.38
764.112	5902.99
764.449	5911.58
764.785	5840.17
765.122	5820.74
