Data from black_plastic_tray_FLMS001491_087.txt Node
Date: Tue Feb 07 10:40:52 GMT 2017
User: dcchb
Spectrometer: FLMS00149
Trigger mode: 0
Integration Time (sec): 2.000000E-2
Scans to average: 10
Electric dark correction enabled: true
Nonlinearity correction enabled: false
Boxcar width: 0
XAxis mode: Wavelengths
Number of Pixels in Spectrum: 2048
>>>>>Begin Spectral Data<<<<<
341.393	3.14
341.776	3.14
342.16	3.14
342.543	-61.72
342.927	-48.84
343.31	-85
343.693	-65.56
344.077	-59.69
344.46	-52.91
344.843	-43.42
345.226	-34.38
345.61	-52
345.993	-17.43
346.376	-8.16
346.759	10.37
347.142	32.97
347.525	41.33
347.908	55.11
348.291	78.16
348.674	76.35
349.057	124.26
349.44	123.36
349.823	133.53
350.206	143.02
350.588	174.2
350.971	192.74
351.354	188.67
351.737	234.32
352.119	241.1
352.502	254.43
352.884	240.87
353.267	277.93
353.65	294.65
354.032	292.39
354.414	276.8
354.797	307.76
355.179	305.5
355.562	315.67
355.944	317.48
356.326	327.19
356.709	342.11
357.091	322.9
357.473	319.06
357.855	326.74
358.238	320.64
358.62	312.05
359.002	340.98
359.384	340.75
359.766	348.44
360.148	327.65
360.53	333.97
360.912	341.88
361.294	333.75
361.676	326.97
362.057	336.23
362.439	324.03
362.821	332.39
363.203	330.36
363.584	332.62
363.966	316.8
364.348	309.34
364.729	309.12
365.111	329.68
365.493	308.21
365.874	324.48
366.256	319.06
366.637	300.98
367.019	312.96
367.4	322.9
367.781	329.68
368.163	314.77
368.544	305.27
368.925	305.05
369.306	303.47
369.688	302.11
370.069	277.25
370.45	306.18
370.831	315.22
371.212	339.85
371.593	314.99
371.974	318.16
372.355	316.57
372.736	315.67
373.117	325.39
373.498	323.35
373.879	313.86
374.26	309.57
374.641	296.69
375.021	330.81
375.402	308.89
375.783	342.79
376.163	336.91
376.544	323.13
376.925	335.33
377.305	322.9
377.686	326.29
378.066	342.11
378.447	350.02
378.827	327.65
379.208	320.87
379.588	325.61
379.968	357.7
380.349	317.93
380.729	334.2
381.109	348.21
381.489	343.92
381.87	345.73
382.25	358.38
382.63	347.53
383.01	362.45
383.39	371.26
383.77	351.83
384.15	342.11
384.53	343.24
384.91	349.12
385.29	340.53
385.67	349.79
386.049	374.65
386.429	356.12
386.809	365.16
387.189	357.93
387.568	356.12
387.948	357.02
388.328	372.17
388.707	371.26
389.087	377.81
389.466	371.94
389.846	379.85
390.225	381.2
390.605	395.22
390.984	395.89
391.363	380.53
391.743	392.5
392.122	397.48
392.501	396.8
392.881	404.93
393.26	407.19
393.639	391.6
394.018	386.18
394.397	395.67
394.776	400.64
395.155	397.7
395.534	388.66
395.913	417.59
396.292	428.44
396.671	417.36
397.05	419.17
397.429	414.42
397.808	411.94
398.186	417.59
398.565	412.84
398.944	424.59
399.323	438.6
399.701	413.75
400.08	441.54
400.458	429.11
400.837	436.57
401.215	467.53
401.594	450.36
401.972	448.55
402.351	439.51
402.729	426.85
403.107	447.87
403.486	443.12
403.864	467.53
404.242	467.98
404.62	460.52
404.999	477.93
405.377	488.77
405.755	484.48
406.133	483.57
406.511	471.6
406.889	486.06
407.267	490.81
407.645	495.55
408.023	493.97
408.401	485.61
408.779	502.56
409.156	492.39
409.534	517.7
409.912	500.75
410.29	510.92
410.667	506.17
411.045	521.54
411.422	533.52
411.8	542.78
412.178	553.63
412.555	533.52
412.933	541.2
413.31	534.19
413.687	559.96
414.065	572.16
414.442	559.28
414.819	552.73
415.197	575.1
415.574	591.14
415.951	574.42
416.328	574.19
416.705	601.31
417.082	588.66
417.46	602.67
417.837	600.18
418.214	586.17
418.591	595.66
418.967	589.11
419.344	627.3
419.721	620.07
420.098	580.75
420.475	624.14
420.852	609.67
421.228	623.46
421.605	634.53
421.982	628.43
422.358	630.69
422.735	655.55
423.111	661.2
423.488	655.55
423.864	667.75
424.241	669.78
424.617	695.09
424.994	675.89
425.37	685.38
425.746	687.86
426.123	720.18
426.499	706.62
426.875	712.04
427.251	715.66
427.627	732.61
428.003	736.22
428.379	740.52
428.756	743.46
429.132	748.88
429.507	744.13
429.883	764.25
430.259	778.03
430.635	770.12
431.011	783.91
431.387	813.74
431.763	808.99
432.138	793.62
432.514	845.15
432.89	810.57
433.265	828.88
433.641	826.39
434.016	850.12
434.392	853.28
434.767	849.21
435.143	855.77
435.518	871.36
435.894	879.27
436.269	923.56
436.644	890.8
437.02	911.59
437.395	888.54
437.77	910.68
438.145	924.24
438.52	915.43
438.895	953.39
439.271	927.18
439.646	926.95
440.021	959.49
440.395	966.95
440.77	980.96
441.145	999.04
441.52	984.35
441.895	1003.11
442.27	1013.5
442.645	1002.88
443.019	1022.54
443.394	1037.01
443.769	1029.1
444.143	1016.67
444.518	1033.62
444.892	1027.74
445.267	1036.55
445.641	1048.31
446.016	1050.79
446.39	1069.77
446.764	1077.23
447.139	1062.32
447.513	1088.53
447.887	1107.97
448.262	1110.68
448.636	1073.84
449.01	1106.16
449.384	1109.77
449.758	1118.36
450.132	1133.05
450.506	1142.09
450.88	1134.86
451.254	1131.69
451.628	1164.23
452.002	1170.56
452.376	1207.17
452.75	1192.03
453.123	1204.46
453.497	1199.94
453.871	1218.24
454.244	1222.09
454.618	1245.36
454.992	1251.92
455.365	1272.03
455.739	1299.6
456.112	1300.73
456.486	1302.08
456.859	1326.72
457.232	1354.06
457.606	1325.13
457.979	1347.51
458.352	1364.23
458.725	1385.02
459.099	1404.45
459.472	1411.46
459.845	1427.28
460.218	1462.53
460.591	1427.28
460.964	1467.28
461.337	1494.17
461.71	1513.15
462.083	1559.25
462.456	1516.32
462.829	1529.65
463.201	1549.08
463.574	1564
463.947	1604
464.32	1628.86
464.692	1593.83
465.065	1640.61
465.438	1674.05
465.81	1687.16
466.183	1723.77
466.555	1736.2
466.928	1705.01
467.3	1771.22
467.672	1778.68
468.045	1805.35
468.417	1821.17
468.789	1848.96
469.161	1822.52
469.534	1850.32
469.906	1906.36
470.278	1958.11
470.65	1923.09
471.022	1982.07
471.394	2006.47
471.766	2024.55
472.138	2039.47
472.51	2078.34
472.882	2119.24
473.253	2136.41
473.625	2176.64
473.997	2209.86
474.369	2208.28
474.74	2223.42
475.112	2279.46
475.484	2311.78
475.855	2339.35
476.227	2375.95
476.598	2451.21
476.97	2413.69
477.341	2497.53
477.713	2510.41
478.084	2551.32
478.455	2588.83
478.827	2592.9
479.198	2692.56
479.569	2704.99
479.94	2744.08
480.311	2791.76
480.682	2851.87
481.053	2915.83
481.424	2942.95
481.795	2970.52
482.166	2967.8
482.537	2997.86
482.908	3041.93
483.279	3141.58
483.65	3175.93
484.021	3229.49
484.391	3245.76
484.762	3339.77
485.133	3325.31
485.503	3350.39
485.874	3445.76
486.244	3477.17
486.615	3546.55
486.985	3588.35
487.356	3655.69
487.726	3688.46
488.097	3737.05
488.467	3717.16
488.837	3815.01
489.207	3850.72
489.578	3907.44
489.948	3954.44
490.318	3970.49
490.688	4019.08
491.058	4045.52
491.428	4130.71
491.798	4128.68
492.168	4223.59
492.538	4197.6
492.908	4294.32
493.278	4320.76
493.648	4388.33
494.017	4433.98
494.387	4472.17
494.757	4462.68
495.126	4551.04
495.496	4562.11
495.866	4544.03
496.235	4628.1
496.605	4715.33
496.974	4710.81
497.344	4738.6
497.713	4798.04
498.082	4806.85
498.452	4878.94
498.821	4852.73
499.19	4880.07
499.559	4945.15
499.928	4969.56
500.298	5020.86
500.667	5074.64
501.036	5058.14
501.405	5099.95
501.774	5137.46
502.143	5163.23
502.512	5192.6
502.88	5190.12
503.249	5240.51
503.618	5279.38
503.987	5305.14
504.356	5334.75
504.724	5354.41
505.093	5394.18
505.462	5393.5
505.83	5514.4
506.199	5535.87
506.567	5617.23
506.936	5604.34
507.304	5664.46
507.672	5693.16
508.041	5708.97
508.409	5739.26
508.777	5760.05
509.145	5869.65
509.514	5830.78
509.882	5924.79
510.25	5961.62
510.618	5958.69
510.986	5964.79
511.354	6059.47
511.722	6079.36
512.09	6208.4
512.458	6112.58
512.826	6223.54
513.193	6209.07
513.561	6302.18
513.929	6301.27
514.297	6366.13
514.664	6451.78
515.032	6451.78
515.4	6485.9
515.767	6546.69
516.135	6582.62
516.502	6602.51
516.869	6718.44
517.237	6733.58
517.604	6635.05
517.972	6821.26
518.339	6786.01
518.706	6848.15
519.073	6905.33
519.44	6953.24
519.808	6990.97
520.175	7021.71
520.542	7155.26
520.909	7231.42
521.276	7192.33
521.643	7267.35
522.009	7334.92
522.376	7386.67
522.743	7395.48
523.11	7489.04
523.477	7587.12
523.843	7616.49
524.21	7720.22
524.577	7762.93
524.943	7776.04
525.31	7813.1
525.676	7966.32
526.043	7974.68
526.409	8022.36
526.776	8090.83
527.142	8150.27
527.508	8188.23
527.874	8269.13
528.241	8282.01
528.607	8329.24
528.973	8422.8
529.339	8420.32
529.705	8494.66
530.071	8536.24
530.437	8607.2
530.803	8652.17
531.169	8701.66
531.535	8682.91
531.901	8693.53
532.267	8745.73
532.632	8816.46
532.998	8886.97
533.364	8920.19
533.73	8901.43
534.095	9038.6
534.461	9076.8
534.826	9100.98
535.192	9198.15
535.557	9196.11
535.923	9232.95
536.288	9250.58
536.653	9329.44
537.019	9299.61
537.384	9362.44
537.749	9429.33
538.114	9408.09
538.479	9402.44
538.845	9498.71
539.21	9525.15
539.575	9528.99
539.94	9599.49
540.305	9647.85
540.67	9623
541.034	9660.28
541.399	9738.92
541.764	9746.61
542.129	9792.48
542.494	9875.64
542.858	9857.57
543.223	9866.38
543.587	9921.07
543.952	9898.02
544.316	9999.26
544.681	9930.56
545.045	9979.6
545.41	10067.28
545.774	10036.32
546.138	10114.06
546.503	10099.82
546.867	10143.21
547.231	10214.84
547.595	10247.39
547.959	10317.44
548.324	10301.4
548.688	10322.41
549.052	10359.25
549.416	10421.17
549.779	10411.22
550.143	10407.61
550.507	10445.12
550.871	10516.53
551.235	10599.69
551.599	10658.9
551.962	10744.77
552.326	10706.58
552.689	10849.4
553.053	10782.74
553.417	10791.33
553.78	10975.05
554.143	10904.32
554.507	10952.45
554.87	10989.74
555.234	11097.53
555.597	10985.22
555.96	11124.43
556.323	11205.78
556.686	11154.03
557.05	11298.43
557.413	11255.72
557.776	11271.31
558.139	11477.64
558.502	11415.72
558.865	11391.31
559.228	11505.21
559.59	11606.45
559.953	11674.24
560.316	11712.43
560.679	11740.45
561.041	11798.08
561.404	11892.31
561.767	11887.12
562.129	11959.43
562.492	12045.98
562.854	12035.14
563.217	12069.94
563.579	12121.01
563.941	12228.8
564.304	12271.97
564.666	12397.61
565.028	12444.39
565.39	12421.57
565.753	12445.52
566.115	12482.13
566.477	12522.58
566.839	12519.19
567.201	12676.7
567.563	12647.32
567.925	12750.37
568.287	12784.04
568.648	12864.49
569.01	12915.34
569.372	12991.72
569.734	12905.17
570.095	13007.09
570.457	13120.98
570.819	13071.49
571.18	13113.07
571.542	13202.79
571.903	13183.13
572.265	13195.56
572.626	13270.13
572.987	13323.46
573.349	13389.9
573.71	13428.32
574.071	13456.12
574.432	13526.17
574.794	13602.33
575.155	13547.86
575.516	13490.24
575.877	13574.08
576.238	13568.65
576.599	13631.93
576.96	13635.77
577.32	13620.18
577.681	13725.26
578.042	13756.9
578.403	13734.75
578.763	13806.61
579.124	13843
579.485	13974.75
579.845	13834.18
580.206	13776.56
580.566	13879.83
580.927	13955.09
581.287	13925.48
581.648	13824.24
582.008	14008.42
582.368	13995.31
582.728	14022.2
583.089	14003.67
583.449	14000.28
583.809	14043.67
584.169	13985.59
584.529	14060.84
584.889	14140.84
585.249	14045.25
585.609	14030.11
585.969	14070.56
586.329	14064.01
586.688	14052.03
587.048	14047.29
587.408	13986.5
587.768	13935.88
588.127	13948.98
588.487	14027.17
588.846	14069.88
589.206	13965.03
589.565	13942.66
589.925	13986.95
590.284	13993.05
590.643	13992.82
591.003	14030.56
591.362	14049.77
591.721	14102.43
592.08	14111.69
592.44	14052.94
592.799	14108.53
593.158	14150.56
593.517	14079.6
593.876	14123.67
594.235	14135.87
594.593	14169.77
594.952	14258.81
595.311	14153.5
595.67	14188.07
596.029	14187.4
596.387	14214.29
596.746	14304
597.104	14187.4
597.463	14195.76
597.822	14186.94
598.18	14156.44
598.538	14119.83
598.897	14177.9
599.255	14173.84
599.613	14347.84
599.972	14217.23
600.33	14245.02
600.688	14255.19
601.046	14268.52
601.404	14315.98
601.762	14360.05
602.12	14419.71
602.478	14385.36
602.836	14447.95
603.194	14350.78
603.552	14451.8
603.91	14421.29
604.268	14403.89
604.625	14443.66
604.983	14436.2
605.341	14402.76
605.698	14475.52
606.056	14502.87
606.413	14473.26
606.771	14512.13
607.128	14492.47
607.485	14488.86
607.843	14472.36
608.2	14561.62
608.557	14620.6
608.914	14501.51
609.272	14660.38
609.629	14552.81
609.986	14690.43
610.343	14529.53
610.7	14716.19
611.057	14614.05
611.414	14767.49
611.771	14769.3
612.127	14729.75
612.484	14807.72
612.841	14811.33
613.198	14826.93
613.554	14751.45
613.911	14887.49
614.267	14788.28
614.624	14879.58
614.98	14786.93
615.337	14908.28
615.693	14885
616.05	14812.24
616.406	14944.89
616.762	14841.84
617.118	14976.53
617.475	14936.53
617.831	14986.24
618.187	15020.82
618.543	15025.79
618.899	15095.62
619.255	15044.77
619.611	15033.02
619.967	15143.53
620.323	15129.52
620.678	15033.25
621.034	14960.48
621.39	14930.43
621.746	14916.87
622.101	15180.36
622.457	14936.75
622.812	15090.87
623.168	15085.9
623.523	15056.75
623.879	15153.92
624.234	15023.31
624.589	15116.64
624.945	15102.63
625.3	15177.65
625.655	15082.74
626.01	15132.68
626.365	15081.38
626.72	15086.13
627.075	14983.98
627.43	15031.89
627.785	15006.13
628.14	14940.82
628.495	15029.41
628.85	14991.22
629.205	14966.58
629.559	15009.52
629.914	14998.67
630.269	14924.78
630.623	14907.6
630.978	14964.55
631.332	14989.63
631.687	15080.03
632.041	14948.05
632.396	15029.86
632.75	14971.1
633.104	14983.76
633.459	14848.39
633.813	14777.66
634.167	14740.83
634.521	14747.38
634.875	14814.95
635.229	14782.63
635.583	14668.06
635.937	14740.15
636.291	14706.7
636.645	14637.33
636.999	14609.76
637.352	14688.4
637.706	14623.09
638.06	14615.86
638.413	14600.04
638.767	14523.21
639.121	14641.62
639.474	14502.42
639.828	14487.05
640.181	14504.45
640.534	14511.23
640.888	14419.48
641.241	14406.6
641.594	14391.46
641.947	14412.47
642.301	14470.78
642.654	14390.33
643.007	14374.06
643.36	14312.59
643.713	14322.08
644.066	14378.35
644.419	14307.39
644.771	14150.33
645.124	14090.67
645.477	14111.01
645.83	13961.86
646.182	13858.36
646.535	13812.49
646.888	13927.29
647.24	13750.12
647.593	13734.3
647.945	13781.08
648.298	13570.46
648.65	13701.53
649.002	13651.82
649.355	13717.58
649.707	13727.75
650.059	13736.11
650.411	13879.61
650.763	13879.38
651.115	14024.91
651.467	14020.39
651.819	14069.88
652.171	14000.73
652.523	13934.07
652.875	13992.6
653.227	13883.67
653.578	14057.91
653.93	14016.78
654.282	13975.88
654.633	13840.29
654.985	13909.89
655.337	13954.86
655.688	13982.2
656.039	13865.14
656.391	13775.2
656.742	13840.06
657.094	13804.58
657.445	13882.54
657.796	13810
658.147	13817.24
658.498	13880.06
658.849	13845.48
659.2	13760.74
659.551	13787.86
659.902	13788.76
660.253	13834.64
660.604	13781.76
660.955	13689.1
661.306	13808.87
661.656	13700.63
662.007	13704.47
662.358	13664.92
662.708	13689.33
663.059	13638.71
663.409	13584.7
663.76	13724.36
664.11	13711.93
664.461	13700.63
664.811	13737.46
665.161	13607.07
665.511	13599.39
665.862	13677.35
666.212	13696.56
666.562	13664.92
666.912	13689.56
667.262	13666.96
667.612	13630.57
667.962	13692.04
668.312	13542.44
668.662	13694.75
669.011	13655.21
669.361	13559.62
669.711	13586.51
670.06	13474.19
670.41	13595.55
670.76	13540.63
671.109	13546.96
671.459	13542.89
671.808	13495.21
672.157	13544.25
672.507	13498.83
672.856	13435.1
673.205	13484.36
673.554	13588.32
673.904	13502.44
674.253	13525.04
674.602	13398.04
674.951	13309.68
675.3	13236.69
675.649	13473.29
675.998	13424.03
676.346	13456.79
676.695	13475.1
677.044	13350.13
677.393	13396.91
677.741	13419.96
678.09	13355.33
678.438	13219.29
678.787	13299.06
679.135	13318.72
679.484	13186.29
679.832	13264.26
680.181	13173.18
680.529	13216.8
680.877	13145.61
681.225	13166.18
681.573	13263.35
681.922	13210.47
682.27	13169.34
682.618	13219.74
682.966	13125.95
683.314	13027.2
683.661	13095.67
684.009	13051.83
684.357	12976.81
684.705	13030.36
685.053	13017.26
685.4	12969.57
685.748	12857.26
686.095	12795.57
686.443	12845.96
686.79	12705.17
687.138	12692.97
687.485	12775.68
687.832	12703.37
688.18	12737.04
688.527	12682.35
688.874	12634.89
689.221	12540.66
689.568	12535.01
689.915	12508.12
690.262	12532.3
690.609	12442.13
690.956	12488.91
691.303	12450.94
691.65	12423.6
691.997	12314
692.344	12335.24
692.69	12215.02
693.037	12242.36
693.383	12186.32
693.73	12272.42
694.077	12224.06
694.423	12184.28
694.769	12143.38
695.116	12158.07
695.462	12055.7
695.808	12071.74
696.155	12124.62
696.501	11928.02
696.847	11940.67
697.193	11938.64
697.539	11916.27
697.885	11861.58
698.231	11688.93
698.577	11803.73
698.923	11707.23
699.269	11713.56
699.614	11638.99
699.96	11678.31
700.306	11652.32
700.651	11497.75
700.997	11574.58
701.342	11497.07
701.688	11521.25
702.033	11425.89
702.379	11538.43
702.724	11429.28
703.069	11453.91
703.415	11281.26
703.76	11335.72
704.105	11332.78
704.45	11275.61
704.795	11216.17
705.14	11261.14
705.485	11193.35
705.83	11133.01
706.175	11153.58
706.52	11139.79
706.865	11050.3
707.209	11043.07
707.554	10995.84
707.899	11076.52
708.243	10973.02
708.588	10949.97
708.932	10903.87
709.277	10893.24
709.621	11010.76
709.966	10834.72
710.31	10916.07
710.654	10756.3
710.998	10756.75
711.342	10882.85
711.687	10772.12
712.031	10699.58
712.375	10751.55
712.719	10654.83
713.063	10729.18
713.407	10779.8
713.75	10683.53
714.094	10617.32
714.438	10625.68
714.782	10603.31
715.125	10516.08
715.469	10609.41
715.812	10491.9
716.156	10480.83
716.499	10452.13
716.843	10450.09
717.186	10441.51
717.53	10416.42
717.873	10455.06
718.216	10425.91
718.559	10400.38
718.902	10362.86
719.246	10349.98
719.589	10345.69
719.932	10285.58
720.275	10283.77
720.617	10281.96
720.96	10312.69
721.303	10321.28
721.646	10289.19
721.989	10164.68
722.331	10219.59
722.674	10195.86
723.016	10111.34
723.359	10146.82
723.701	10171.46
724.044	10141.63
724.386	10050.1
724.729	10161.96
725.071	10061.63
725.413	9982.53
725.755	9981.86
726.097	10018.47
726.439	9954.06
726.782	9872.71
727.124	9929.2
727.465	9943.21
727.807	9878.36
728.149	9926.49
728.491	9908.86
728.833	9942.76
729.175	9818.47
729.516	9800.62
729.858	9785.48
730.199	9806.49
730.541	9804.46
730.882	9747.51
731.224	9776.44
731.565	9790
731.906	9742.99
732.248	9744.8
732.589	9686.95
732.93	9717.46
733.271	9671.81
733.612	9679.94
733.953	9643.56
734.294	9642.88
734.635	9590.91
734.976	9636.33
735.317	9648.76
735.658	9577.57
735.999	9494.41
736.339	9478.37
736.68	9474.98
737.021	9463.45
737.361	9438.82
737.702	9497.8
738.042	9469.33
738.383	9431.14
738.723	9538.93
739.063	9395.43
739.404	9351.59
739.744	9430.68
740.084	9298.26
740.424	9336.45
740.764	9393.4
741.104	9414.64
741.444	9262.78
741.784	9290.12
742.124	9281.99
742.464	9238.6
742.804	9244.47
743.143	9238.37
743.483	9236.79
743.823	9248.99
744.162	9141.43
744.502	9176.91
744.841	9142.1
745.181	9189.56
745.52	9151.37
745.86	9192.05
746.199	9124.25
746.538	9100.98
746.877	9159.96
747.216	9134.42
747.556	9024.37
747.895	9016.46
748.234	9073.86
748.573	9012.39
748.911	9041.09
749.25	8998.83
749.589	8953.18
749.928	8973.07
750.267	8968.32
750.605	8940.08
750.944	8901.88
751.283	8901.43
751.621	8933.75
751.96	8812.62
752.298	8839.29
752.636	8796.35
752.975	8699.63
753.313	8750.7
753.651	8779.18
753.989	8668.44
754.327	8735.11
754.666	8727.2
755.004	8701.89
755.342	8630.48
755.679	8625.73
756.017	8502.57
756.355	8551.39
756.693	8538.5
757.031	8533.98
757.368	8525.62
757.706	8514.78
758.044	8496.47
758.381	8534.21
758.719	8411.5
759.056	8372.18
759.394	8441.56
759.731	8325.85
