Data from black_metal_pc_casing_FLMS001491_00097.txt Node
Date: Wed Feb 08 14:33:48 GMT 2017
User: dcchb
Spectrometer: FLMS00149
Trigger mode: 0
Integration Time (sec): 2.000000E-2
Scans to average: 10
Electric dark correction enabled: true
Nonlinearity correction enabled: false
Boxcar width: 0
XAxis mode: Wavelengths
Number of Pixels in Spectrum: 2048
>>>>>Begin Spectral Data<<<<<
341.393	-5.95
341.776	-5.95
342.16	-5.95
342.543	-53.18
342.927	-78.71
343.31	-76.68
343.693	-79.84
344.077	-57.24
344.46	-65.83
344.843	-66.96
345.226	-30.58
345.61	-33.74
345.993	-21.76
346.376	-10.47
346.759	-0.75
347.142	36.54
347.525	68.18
347.908	51
348.291	70.66
348.674	116.54
349.057	100.94
349.44	112.69
349.823	132.36
350.206	167.83
350.588	177.33
350.971	204.67
351.354	209.42
351.737	242.63
352.119	238.34
352.502	258.91
352.884	250.09
353.267	254.39
353.65	292.58
354.032	282.63
354.414	304.33
354.797	300.03
355.179	316.08
355.562	315.18
355.944	317.89
356.326	335.29
356.709	326.25
357.091	307.94
357.473	330.77
357.855	320.15
358.238	346.36
358.62	347.72
359.002	325.57
359.384	325.57
359.766	340.94
360.148	339.36
360.53	338.9
360.912	326.7
361.294	321.28
361.676	313.14
362.057	336.64
362.439	326.47
362.821	324.44
363.203	314.5
363.584	323.31
363.966	323.76
364.348	323.54
364.729	309.98
365.111	301.39
365.493	336.87
365.874	331.45
366.256	338
366.637	314.27
367.019	316.31
367.4	307.04
367.781	307.94
368.163	327.38
368.544	315.85
368.925	312.69
369.306	320.82
369.688	300.71
370.069	319.24
370.45	319.24
370.831	315.4
371.212	335.97
371.593	330.99
371.974	310.66
372.355	322.18
372.736	316.08
373.117	326.7
373.498	330.32
373.879	329.86
374.26	325.34
374.641	320.6
375.021	329.19
375.402	318.57
375.783	318.57
376.163	342.29
376.544	327.6
376.925	334.84
377.305	326.7
377.686	327.15
378.066	338.45
378.447	339.81
378.827	326.7
379.208	346.59
379.588	342.29
379.968	361.28
380.349	327.6
380.729	343.42
381.109	367.15
381.489	348.85
381.87	349.07
382.25	344.78
382.63	375.29
383.01	360.15
383.39	358.79
383.77	365.8
384.15	378.68
384.53	354.5
384.91	364.89
385.29	368.96
385.67	394.95
386.049	381.61
386.429	388.85
386.809	383.87
387.189	394.72
387.568	392.01
387.948	390.88
388.328	370.09
388.707	374.38
389.087	379.13
389.466	408.28
389.846	392.91
390.225	383.65
390.605	397.21
390.984	396.3
391.363	420.71
391.743	400.6
392.122	401.95
392.501	426.81
392.881	397.66
393.26	426.81
393.639	396.3
394.018	416.64
394.397	409.18
394.776	410.09
395.155	421.61
395.534	409.64
395.913	440.37
396.292	445.12
396.671	444.66
397.05	442.63
397.429	428.17
397.808	444.66
398.186	420.94
398.565	442.63
398.944	452.8
399.323	445.12
399.701	448.51
400.08	431.1
400.458	474.95
400.837	457.77
401.215	450.09
401.594	470.2
401.972	470.43
402.351	472.01
402.729	484.21
403.107	497.54
403.486	461.61
403.864	489.18
404.242	492.8
404.62	481.95
404.999	493.93
405.377	501.84
405.755	478.56
406.133	514.04
406.511	489.63
406.889	523.08
407.267	519.01
407.645	522.4
408.023	518.11
408.401	531.21
408.779	531.21
409.156	526.02
409.534	565.11
409.912	524.21
410.29	542.97
410.667	536.86
411.045	566.47
411.422	534.38
411.8	561.04
412.178	555.17
412.555	568.95
412.933	577.77
413.31	595.62
413.687	595.85
414.065	577.99
414.442	615.51
414.819	601.27
415.197	625.9
415.574	619.35
415.951	631.78
416.328	632.46
416.705	634.71
417.082	627.71
417.46	634.94
417.837	638.78
418.214	644.88
418.591	649.86
418.967	655.73
419.344	637.65
419.721	665.9
420.098	643.98
420.475	678.56
420.852	655.73
421.228	655.05
421.605	663.87
421.982	680.14
422.358	656.64
422.735	685.79
423.111	700.25
423.488	708.39
423.864	704.09
424.241	710.42
424.617	700.93
424.994	735.05
425.37	736.41
425.746	728.5
426.123	757.65
426.499	748.61
426.875	750.87
427.251	785.45
427.627	772.56
428.003	795.84
428.379	817.31
428.756	808.95
429.132	784.09
429.507	802.62
429.883	827.48
430.259	857.99
430.635	852.34
431.011	824.77
431.387	861.83
431.763	871.77
432.138	869.06
432.514	907.48
432.89	865.9
433.265	899.34
433.641	933.24
434.016	905.44
434.392	946.57
434.767	951.99
435.143	934.14
435.518	958.55
435.894	981.82
436.269	972.56
436.644	953.58
437.02	991.09
437.395	1020.24
437.77	1028.6
438.145	1016.63
438.52	1035.38
438.895	1027.92
439.271	1006.68
439.646	1029.05
440.021	1084.42
440.395	1046.91
440.77	1057.75
441.145	1049.62
441.52	1084.87
441.895	1078.09
442.27	1072.9
442.645	1073.35
443.019	1128.94
443.394	1103.18
443.769	1120.35
444.143	1121.48
444.518	1126
444.892	1144.08
445.267	1134.36
445.641	1161.48
446.016	1160.8
446.39	1188.15
446.764	1182.72
447.139	1165.1
447.513	1186.11
447.887	1196.51
448.262	1171.2
448.636	1207.36
449.01	1225.21
449.384	1221.82
449.758	1233.12
450.132	1247.58
450.506	1250.97
450.88	1273.57
451.254	1273.57
451.628	1271.99
452.002	1293.23
452.376	1286.22
452.75	1299.78
453.123	1301.59
453.497	1329.61
453.871	1326
454.244	1375.03
454.618	1369.61
454.992	1401.7
455.365	1367.58
455.739	1443.06
456.112	1450.29
456.486	1438.99
456.859	1470.4
457.232	1504.97
457.606	1489.83
457.979	1513.34
458.352	1542.94
458.725	1557.4
459.099	1565.99
459.472	1592.2
459.845	1604.41
460.218	1626.55
460.591	1618.19
460.964	1612.99
461.337	1677.63
461.71	1694.12
462.083	1731.64
462.456	1688.47
462.829	1708.81
463.201	1762.14
463.574	1734.57
463.947	1781.13
464.32	1810.5
464.692	1835.14
465.065	1862.48
465.438	1874
465.81	1906.32
466.183	1887.56
466.555	1935.92
466.928	1950.16
467.3	1945.19
467.672	1989.26
468.045	2050.72
468.417	2025.41
468.789	2032.87
469.161	2103.15
469.534	2103.15
469.906	2158.74
470.278	2136.37
470.65	2158.29
471.022	2183.83
471.394	2238.06
471.766	2290.26
472.138	2281.23
472.51	2319.64
472.882	2370.04
473.253	2408.23
473.625	2436.48
473.997	2474.44
474.369	2511.5
474.74	2512.63
475.112	2517.6
475.484	2578.84
475.855	2623.82
476.227	2679.18
476.598	2743.36
476.97	2752.4
477.341	2791.04
477.713	2808.67
478.084	2843.7
478.455	2928.67
478.827	2957.37
479.198	3021.77
479.569	3037.82
479.94	3078.49
480.311	3147.42
480.682	3153.29
481.053	3267.64
481.424	3289.56
481.795	3287.98
482.166	3348.32
482.537	3436.68
482.908	3477.8
483.279	3544.24
483.65	3589.21
484.021	3668.31
484.391	3697.91
484.762	3729.77
485.133	3757.12
485.503	3827.17
485.874	3902.2
486.244	3894.29
486.615	4028.75
486.985	4038.02
487.356	4070.1
487.726	4143.1
488.097	4220.16
488.467	4195.3
488.837	4302.19
489.207	4364.56
489.578	4456.31
489.948	4524.78
490.318	4515.52
490.688	4550.32
491.058	4614.27
491.428	4685.91
491.798	4716.19
492.168	4795.28
492.538	4819.01
492.908	4839.8
493.278	4916.86
493.648	4986.24
494.017	4981.49
494.387	5050.64
494.757	5068.5
495.126	5169.51
495.496	5122.28
495.866	5163.86
496.235	5256.06
496.605	5354.59
496.974	5333.8
497.344	5387.81
497.713	5387.81
498.082	5451.09
498.452	5511.42
498.821	5523.17
499.19	5578.77
499.559	5598.2
499.928	5640.69
500.298	5691.53
500.667	5746.67
501.036	5744.41
501.405	5791.64
501.774	5795.26
502.143	5902.6
502.512	5911.41
502.88	5938.53
503.249	5965.65
503.618	5997.96
503.987	6025.31
504.356	6062.14
504.724	6127.45
505.093	6130.62
505.462	6215.36
505.83	6197.73
506.199	6291.74
506.567	6371.74
506.936	6368.58
507.304	6358.63
507.672	6494
508.041	6502.58
508.409	6590.04
508.777	6632.07
509.145	6641.56
509.514	6577.38
509.882	6731.05
510.25	6757.49
510.618	6793.65
510.986	6837.94
511.354	6914.1
511.722	6945.28
512.09	7049.46
512.458	6959.75
512.826	7068.22
513.193	7131.72
513.561	7107.77
513.929	7233.19
514.297	7323.58
514.664	7289
515.032	7370.81
515.4	7411.49
515.767	7456.91
516.135	7505.27
516.502	7481.99
516.869	7581.2
517.237	7634.53
517.604	7667.75
517.972	7769.44
518.339	7847.86
518.706	7864.13
519.073	7849.21
519.44	7940.96
519.808	8065.71
520.175	7995.43
520.542	8186.15
520.909	8238.13
521.276	8187.96
521.643	8297.11
522.009	8300.5
522.376	8438.13
522.743	8525.58
523.11	8509.99
523.477	8657.78
523.843	8587.73
524.21	8735.52
524.577	8791.79
524.943	8844.22
525.31	8921.95
525.676	9047.15
526.043	9077.2
526.409	9141.16
526.776	9239.46
527.142	9244.88
527.508	9340.47
527.874	9373.47
528.241	9423.41
528.607	9458.66
528.973	9542.28
529.339	9580.02
529.705	9627.25
530.071	9671.77
530.437	9781.82
530.803	9862.27
531.169	9931.87
531.535	9935.71
531.901	9958.09
532.267	9956.5
532.632	9986.11
532.998	10144.75
533.364	10137.06
533.73	10218.19
534.095	10289.38
534.461	10334.35
534.826	10333.67
535.192	10438.3
535.557	10535.92
535.923	10469.71
536.288	10496.6
536.653	10546.09
537.019	10496.83
537.384	10650.5
537.749	10669.25
538.114	10725.98
538.479	10772.53
538.845	10804.39
539.21	10833.54
539.575	10887.33
539.94	10972.52
540.305	11005.29
540.67	10971.84
541.034	11057.04
541.399	11092.07
541.764	11082.58
542.129	11148.79
542.494	11224.94
542.858	11192.4
543.223	11291.38
543.587	11310.59
543.952	11371.61
544.316	11396.92
544.681	11398.95
545.045	11434.43
545.41	11590.59
545.774	11545.39
546.138	11511.27
546.503	11539.29
546.867	11662.67
547.231	11759.39
547.595	11705.16
547.959	11740.86
548.324	11843.91
548.688	11840.3
549.052	11908.09
549.416	11885.94
549.779	11918.03
550.143	11921.2
550.507	12068.09
550.871	12170.23
551.235	12066.96
551.599	12203.9
551.962	12197.57
552.326	12266.73
552.689	12324.58
553.053	12280.96
553.417	12376.1
553.78	12585.59
554.143	12505.59
554.507	12612.03
554.87	12613.84
555.234	12897.9
555.597	12597.79
555.96	12686.83
556.323	12785.81
556.686	12790.78
557.05	12892.02
557.413	12893.83
557.776	12930.89
558.139	13100.38
558.502	13016.31
558.865	13120.71
559.228	13209.98
559.59	13191.9
559.953	13373.59
560.316	13387.83
560.679	13495.85
561.041	13525.45
561.404	13579.46
561.767	13776.29
562.129	13716.4
562.492	13805.89
562.854	13840.92
563.217	13790.08
563.579	13938.55
563.941	14062.38
564.304	14070.29
564.666	14210.86
565.028	14169.73
565.39	14206.79
565.753	14316.62
566.115	14317.07
566.477	14393.9
566.839	14372.66
567.201	14570.39
567.563	14515.25
567.925	14611.52
568.287	14738.52
568.648	14637.74
569.01	14764.51
569.372	14941.68
569.734	14781.46
570.095	14892.65
570.457	15083.6
570.819	15033.43
571.18	15040.66
571.542	15146.65
571.903	15144.62
572.265	15221.9
572.626	15264.16
572.987	15256.03
573.349	15414.89
573.71	15332.63
574.071	15411.73
574.432	15504.38
574.794	15556.81
575.155	15616.69
575.516	15498.28
575.877	15589.58
576.238	15601.55
576.599	15738.95
576.96	15747.76
577.32	15769.91
577.681	15788.21
578.042	15847.65
578.403	15798.61
578.763	15841.32
579.124	15855.78
579.485	15908.21
579.845	15899.85
580.206	15964.48
580.566	15932.84
580.927	16000.41
581.287	16006.51
581.648	16090.35
582.008	16073.18
582.368	15963.58
582.728	16137.13
583.089	16033.86
583.449	16052.84
583.809	16025.72
584.169	16138.71
584.529	16056.91
584.889	16189.56
585.249	16073.18
585.609	16058.04
585.969	16169.22
586.329	16096.23
586.688	16121.54
587.048	16123.57
587.408	16074.99
587.768	16108.88
588.127	16119.28
588.487	16193.85
588.846	16279.28
589.206	16157.02
589.565	16132.39
589.925	16165.61
590.284	16149.79
590.643	16262.55
591.003	16284.47
591.362	16236.34
591.721	16267.07
592.08	16271.82
592.44	16299.39
592.799	16338.93
593.158	16294.42
593.517	16231.37
593.876	16335.09
594.235	16227.98
594.593	16229.11
594.952	16349.1
595.311	16215.77
595.67	16217.13
596.029	16439.27
596.387	16411.48
596.746	16409.22
597.104	16338.03
597.463	16340.06
597.822	16432.04
598.18	16387.52
598.538	16445.82
598.897	16480.63
599.255	16385.94
599.613	16554.75
599.972	16497.35
600.33	16495.31
600.688	16402.44
601.046	16593.62
601.404	16611.92
601.762	16515.65
602.12	16625.71
602.478	16517.24
602.836	16629.32
603.194	16590.91
603.552	16503.9
603.91	16514.3
604.268	16690.79
604.625	16579.15
604.983	16604.01
605.341	16555.2
605.698	16666.61
606.056	16677.91
606.413	16726.04
606.771	16856.89
607.128	16719.94
607.485	16675.42
607.843	16677.23
608.2	16892.82
608.557	16900.95
608.914	16862.54
609.272	16978.24
609.629	16954.51
609.986	16948.86
610.343	16888.07
610.7	16972.59
611.057	17008.52
611.414	17056.2
611.771	17046.26
612.127	17026.15
612.484	17088.75
612.841	17198.12
613.198	17161.74
613.554	17092.81
613.911	17116.77
614.267	17092.59
614.624	17066.37
614.98	17221.4
615.337	17231.34
615.693	17321.96
616.05	17190.89
616.406	17395.86
616.762	17267.95
617.118	17239.02
617.475	17344.56
617.831	17308.17
618.187	17322.41
618.543	17342.98
618.899	17394.5
619.255	17356.99
619.611	17408.06
619.967	17446.02
620.323	17511.56
620.678	17449.19
621.034	17393.14
621.39	17333.48
621.746	17347.04
622.101	17522.41
622.457	17436.76
622.812	17401.96
623.168	17505.68
623.523	17420.04
623.879	17592.69
624.234	17434.73
624.589	17476.98
624.945	17429.08
625.3	17483.76
625.655	17526.93
626.01	17508.17
626.365	17517.66
626.72	17493.93
627.075	17434.05
627.43	17549.52
627.785	17451.45
628.14	17529.64
628.495	17545.91
628.85	17448.28
629.205	17335.74
629.559	17425.23
629.914	17291.9
630.269	17432.69
630.623	17328.74
630.978	17409.87
631.332	17379.13
631.687	17456.87
632.041	17349.76
632.396	17408.51
632.75	17231.79
633.104	17284.9
633.459	17285.35
633.813	17220.95
634.167	17211.91
634.521	17276.99
634.875	17110.67
635.229	17202.64
635.583	17110.21
635.937	17178.23
636.291	17132.36
636.645	17062.76
636.999	17039.71
637.352	17192.92
637.706	17080.38
638.06	17126.71
638.413	17030.44
638.767	17039.71
639.121	17027.28
639.474	16860.5
639.828	16853.05
640.181	16820.5
640.534	16932.59
640.888	16903.89
641.241	16730.34
641.594	16869.77
641.947	16822.09
642.301	16899.37
642.654	16832.71
643.007	16810.79
643.36	16855.31
643.713	16724.01
644.066	16787.28
644.419	16750
644.771	16566.73
645.124	16438.14
645.477	16374.87
645.83	16248.54
646.182	16270.69
646.535	16162.89
646.888	16238.82
647.24	16078.38
647.593	16215.77
647.945	16173.06
648.298	16112.5
648.65	16084.48
649.002	16103.46
649.355	16087.42
649.707	16190.01
650.059	16155.66
650.411	16258.26
650.763	16318.37
651.115	16509.78
651.467	16465.49
651.819	16331.03
652.171	16433.17
652.523	16265.49
652.875	16274.3
653.227	16226.62
653.578	16377.13
653.93	16300.07
654.282	16246.96
654.633	16210.58
654.985	16253.51
655.337	16256
655.688	16214.64
656.039	16332.61
656.391	16162.22
656.742	16184.14
657.094	16170.35
657.445	16190.24
657.796	16129.22
658.147	16148.88
658.498	16153.4
658.849	16177.58
659.2	16063.24
659.551	16040.86
659.902	16127.41
660.253	16129.22
660.604	16115.21
660.955	15997.02
661.306	16019.62
661.656	16020.98
662.007	15994.31
662.358	16066.4
662.708	15960.41
663.059	16053.97
663.409	15937.36
663.76	16011.03
664.11	15986.4
664.461	15992.28
664.811	15969
665.161	16030.47
665.511	16008.55
665.862	15912.28
666.212	15990.47
666.562	16003.8
666.912	15872.05
667.262	15917.48
667.612	15930.13
667.962	15912.05
668.312	15911.83
668.662	15996.34
669.011	15900.08
669.361	15886.07
669.711	15893.52
670.06	15853.98
670.41	15756.58
670.76	15807.65
671.109	15912.28
671.459	15814.43
671.808	15740.53
672.157	15838.16
672.507	15724.49
672.856	15699.4
673.205	15789.12
673.554	15734.2
673.904	15677.26
674.253	15747.31
674.602	15697.82
674.951	15519.97
675.3	15465.06
675.649	15631.16
675.998	15667.31
676.346	15669.57
676.695	15711.15
677.044	15527.88
677.393	15548.9
677.741	15671.61
678.09	15494.21
678.438	15515.68
678.787	15540.54
679.135	15482.69
679.484	15415.57
679.832	15502.57
680.181	15436.13
680.529	15455.12
680.877	15418.28
681.225	15415.12
681.573	15485.4
681.922	15328.34
682.27	15253.77
682.618	15301.45
682.966	15267.78
683.314	15370.37
683.661	15314.55
684.009	15206.31
684.357	15263.03
684.705	15232.52
685.053	15178.97
685.4	15117.27
685.748	15038.18
686.095	15025.52
686.443	14981.46
686.79	14955.92
687.138	14978.07
687.485	15001.79
687.832	14902.36
688.18	14950.95
688.527	14893.55
688.874	14820.78
689.221	14816.49
689.568	14824.62
689.915	14742.37
690.262	14752.31
690.609	14603.61
690.956	14622.6
691.303	14577.4
691.65	14528.59
691.997	14586.66
692.344	14426.67
692.69	14474.58
693.037	14477.74
693.383	14343.73
693.73	14458.76
694.077	14383.28
694.423	14295.82
694.769	14255.6
695.116	14181.03
695.462	14191.65
695.808	14145.77
696.155	14189.39
696.501	14048.83
696.847	14010.86
697.193	13901.94
697.539	13976.51
697.885	13844.31
698.231	13819.9
698.577	13843.41
698.923	13816.29
699.269	13723.18
699.614	13637.54
699.96	13756.86
700.306	13638.89
700.651	13645.45
700.997	13574.26
701.342	13552.34
701.688	13484.55
702.033	13500.37
702.379	13440.48
702.724	13375.4
703.069	13460.37
703.415	13297.43
703.76	13281.84
704.105	13283.42
704.45	13253.82
704.795	13182.63
705.14	13216.08
705.485	13158.45
705.83	13062.18
706.175	13099.25
706.52	13028.51
706.865	13021.28
707.209	12974.96
707.554	12952.81
707.899	12980.83
708.243	12871.91
708.588	12944.45
708.932	12840.27
709.277	12871.68
709.621	12868.29
709.966	12722.76
710.31	12720.05
710.654	12629.65
710.998	12679.82
711.342	12609.09
711.687	12674.85
712.031	12637.79
712.375	12567.28
712.719	12550.33
713.063	12497.45
713.407	12534.29
713.75	12457.45
714.094	12437.57
714.438	12438.47
714.782	12459.49
715.125	12417.68
715.469	12385.59
715.812	12338.81
716.156	12274.41
716.499	12267.4
716.843	12247.74
717.186	12154.19
717.53	12275.09
717.873	12245.48
718.216	12285.03
718.559	12167.52
718.902	12068.31
719.246	12071.7
719.589	12040.97
719.932	11976.11
720.275	12014.53
720.617	12014.98
720.96	11968.2
721.303	12015.43
721.646	12052.04
721.989	11866.06
722.331	11985.6
722.674	12005.26
723.016	11936.11
723.359	11806.85
723.701	11873.74
724.044	11816.57
724.386	11739.28
724.729	11784.25
725.071	11794.65
725.413	11761.65
725.755	11770.47
726.097	11689.34
726.439	11666.29
726.782	11664.48
727.124	11740.41
727.465	11570.92
727.807	11575.22
728.149	11596.46
728.491	11593.3
728.833	11586.29
729.175	11637.82
729.516	11596.69
729.858	11494.09
730.199	11577.48
730.541	11503.13
730.882	11447.76
731.224	11499.06
731.565	11426.52
731.906	11415.22
732.248	11335.9
732.589	11321.67
732.93	11318.5
733.271	11271.5
733.612	11362.12
733.953	11309.69
734.294	11299.52
734.635	11296.58
734.976	11324.6
735.317	11211.84
735.658	11207.32
735.999	11235.79
736.339	11198.28
736.68	11238.96
737.021	11148.56
737.361	11162.8
737.702	11170.71
738.042	11065.63
738.383	11098.85
738.723	11086.64
739.063	11052.75
739.404	11071.95
739.744	11060.66
740.084	10999.19
740.424	11094.1
740.764	10966.87
741.104	10979.98
741.444	11007.1
741.784	10909.7
742.124	10924.16
742.464	10844.62
742.804	10868.57
743.143	10884.16
743.483	10914.44
743.823	10834.67
744.162	10881.68
744.502	10824.73
744.841	10773.88
745.181	10852.3
745.52	10739.53
745.86	10749.48
746.199	10791.74
746.538	10736.82
746.877	10688.46
747.216	10633.32
747.556	10597.16
747.895	10643.04
748.234	10575.02
748.573	10597.62
748.911	10602.59
749.25	10604.85
749.589	10573.66
749.928	10507.22
750.267	10570.72
750.605	10450.28
750.944	10485.53
751.283	10403.5
751.621	10452.08
751.96	10341.35
752.298	10354.91
752.636	10319.43
752.975	10292.54
753.313	10276.04
753.651	10338.41
753.989	10235.37
754.327	10235.37
754.666	10158.76
755.004	10186.55
755.342	10227.91
755.679	10108.36
756.017	10187.46
756.355	10170.51
756.693	10114.69
757.031	10077.18
