Data from black_plastic_tray_FLMS001491_059.txt Node
Date: Tue Feb 07 10:40:10 GMT 2017
User: dcchb
Spectrometer: FLMS00149
Trigger mode: 0
Integration Time (sec): 2.000000E-2
Scans to average: 10
Electric dark correction enabled: true
Nonlinearity correction enabled: false
Boxcar width: 0
XAxis mode: Wavelengths
Number of Pixels in Spectrum: 2048
>>>>>Begin Spectral Data<<<<<
341.393	3.46
341.776	3.46
342.16	3.46
342.543	-69.98
342.927	-68.85
343.31	-73.37
343.693	-60.72
344.077	-58.68
344.46	-62.07
344.843	-48.97
345.226	-31.12
345.61	-41.96
345.993	-4
346.376	-14.17
346.759	0.07
347.142	7.53
347.525	51.59
347.908	61.31
348.291	76.23
348.674	87.75
349.057	110.58
349.44	141.31
349.823	153.96
350.206	168.88
350.588	193.51
350.971	202.78
351.354	220.63
351.737	250.23
352.119	250.23
352.502	253.85
352.884	265.83
353.267	268.09
353.65	277.13
354.032	298.14
354.414	316.67
354.797	304.47
355.179	299.27
355.562	319.38
355.944	318.93
356.326	323.45
356.709	324.13
357.091	344.92
357.473	337.24
357.855	332.72
358.238	323
358.62	355.77
359.002	326.16
359.384	334.98
359.766	331.59
360.148	333.85
360.53	333.17
360.912	340.63
361.294	327.07
361.676	332.94
362.057	309.44
362.439	347.86
362.821	328.42
363.203	345.6
363.584	313.06
363.966	328.65
364.348	322.32
364.729	327.07
365.111	313.51
365.493	306.73
365.874	306.28
366.256	306.5
366.637	326.62
367.019	325.03
367.4	303.11
367.781	319.38
368.163	304.92
368.544	310.57
368.925	304.7
369.306	351.7
369.688	341.3
370.069	314.86
370.45	299.72
370.831	295.66
371.212	320.51
371.593	303.34
371.974	285.71
372.355	322.1
372.736	328.88
373.117	321.42
373.498	310.34
373.879	315.32
374.26	310.12
374.641	325.71
375.021	345.37
375.402	323.9
375.783	324.81
376.163	337.69
376.544	334.75
376.925	332.49
377.305	330.68
377.686	328.42
378.066	358.93
378.447	331.59
378.827	330.01
379.208	342.21
379.588	355.09
379.968	336.78
380.349	357.58
380.729	363.22
381.109	348.76
381.489	366.61
381.87	357.58
382.25	353.06
382.63	375.2
383.01	363.45
383.39	351.47
383.77	348.31
384.15	367.52
384.53	367.52
384.91	358.03
385.29	363.45
385.67	364.58
386.049	363.45
386.429	370.46
386.809	393.28
387.189	368.2
387.568	379.72
387.948	403.68
388.328	386.95
388.707	373.85
389.087	412.26
389.466	360.51
389.846	387.86
390.225	400.74
390.605	374.07
390.984	401.87
391.363	410
391.743	385.37
392.122	386.73
392.501	405.03
392.881	419.27
393.26	409.78
393.639	390.57
394.018	409.33
394.397	424.01
394.776	408.42
395.155	404.35
395.534	421.53
395.913	419.27
396.292	428.08
396.671	412.94
397.05	415.88
397.429	432.6
397.808	438.7
398.186	443.45
398.565	424.69
398.944	418.14
399.323	444.8
399.701	452.71
400.08	445.71
400.458	467.63
400.837	443.9
401.215	441.64
401.594	442.09
401.972	461.08
402.351	466.95
402.729	464.01
403.107	475.76
403.486	473.73
403.864	490.23
404.242	480.06
404.62	504.24
404.999	490
405.377	484.35
405.755	494.97
406.133	491.36
406.511	496.78
406.889	500.17
407.267	514.18
407.645	518.02
408.023	527.97
408.401	512.15
408.779	516.89
409.156	514.63
409.534	535.65
409.912	551.69
410.29	539.72
410.667	555.99
411.045	573.84
411.422	549.89
411.8	560.06
412.178	560.51
412.555	557.57
412.933	595.08
413.31	574.74
413.687	584.69
414.065	580.17
414.442	583.56
414.819	596.89
415.197	604.12
415.574	609.55
415.951	607.51
416.328	643.9
416.705	612.26
417.082	611.81
417.46	627.17
417.837	638.25
418.214	632.82
418.591	641.18
418.967	644.12
419.344	656.32
419.721	659.71
420.098	652.26
420.475	653.84
420.852	672.14
421.228	672.37
421.605	660.62
421.982	696.1
422.358	702.88
422.735	684.12
423.111	702.43
423.488	703.33
423.864	724.8
424.241	700.39
424.617	722.31
424.994	729.99
425.37	728.41
425.746	735.42
426.123	757.79
426.499	734.29
426.875	738.13
427.251	770.67
427.627	765.7
428.003	792.37
428.379	806.38
428.756	787.17
429.132	807.51
429.507	809.77
429.883	835.75
430.259	837.11
430.635	822.87
431.011	814.06
431.387	852.03
431.763	881.4
432.138	870.1
432.514	854.51
432.89	865.13
433.265	915.53
433.641	894.51
434.016	908.52
434.392	922.76
434.767	955.07
435.143	960.05
435.518	949.88
435.894	954.4
436.269	963.66
436.644	967.73
437.02	982.87
437.395	1017.22
437.77	992.36
438.145	994.17
438.52	1009.08
438.895	1010.67
439.271	1034.62
439.646	1060.38
440.021	1050.21
440.395	1070.32
440.77	1046.14
441.145	1041.85
441.52	1079.14
441.895	1058.8
442.27	1083.43
442.645	1077.1
443.019	1110.1
443.394	1084.79
443.769	1111
444.143	1110.32
444.518	1144
444.892	1108.97
445.267	1148.51
445.641	1127.5
446.016	1149.19
446.39	1149.42
446.764	1170.66
447.139	1120.72
447.513	1193.49
447.887	1175.41
448.262	1160.49
448.636	1206.82
449.01	1192.13
449.384	1217.89
449.758	1223.77
450.132	1226.25
450.506	1220.38
450.88	1242.3
451.254	1255.4
451.628	1281.39
452.002	1293.6
452.376	1287.49
452.75	1291.79
453.123	1301.96
453.497	1335.85
453.871	1339.92
454.244	1362.75
454.618	1357.32
454.992	1380.6
455.365	1349.19
455.739	1403.2
456.112	1431.67
456.486	1421.5
456.859	1449.75
457.232	1493.82
457.606	1479.35
457.979	1475.96
458.352	1520.26
458.725	1504.89
459.099	1563.42
459.472	1579.92
459.845	1555.28
460.218	1590.31
460.591	1568.39
460.964	1589.63
461.337	1654.04
461.71	1657.88
462.083	1676.18
462.456	1688.84
462.829	1688.84
463.201	1730.65
463.574	1757.31
463.947	1770.19
464.32	1812.9
464.692	1809.74
465.065	1845.9
465.438	1814.03
465.81	1844.54
466.183	1874.82
466.555	1912.56
466.928	1927.93
467.3	1924.31
467.672	1962.5
468.045	2020.58
468.417	2023.75
468.789	1995.72
469.161	2029.4
469.534	2062.84
469.906	2165.44
470.278	2118.66
470.65	2118.43
471.022	2167.47
471.394	2218.09
471.766	2239.33
472.138	2258.99
472.51	2315.94
472.882	2338.99
473.253	2396.62
473.625	2421.93
473.997	2451.98
474.369	2464.64
474.74	2479.55
475.112	2512.32
475.484	2574.69
475.855	2604.97
476.227	2665.76
476.598	2698.3
476.97	2692.66
477.341	2794.35
477.713	2825.99
478.084	2828.24
478.455	2894.68
478.827	2900.79
479.198	2986.43
479.569	3013.32
479.94	3127.9
480.311	3075.47
480.682	3155.92
481.053	3203.83
481.424	3259.87
481.795	3290.61
482.166	3346.42
482.537	3430.26
482.908	3456.02
483.279	3484.05
483.65	3531.96
484.021	3593.87
484.391	3604.72
484.762	3670.26
485.133	3689.92
485.503	3799.97
485.874	3851.95
486.244	3836.81
486.615	3888.33
486.985	3983.92
487.356	4079.06
487.726	4107.31
488.097	4197.25
488.467	4175.33
488.837	4262.33
489.207	4298.71
489.578	4356.57
489.948	4399.05
490.318	4473.4
490.688	4472.72
491.058	4565.83
491.428	4543.91
491.798	4624.13
492.168	4710.91
492.538	4745.26
492.908	4795.42
493.278	4852.6
493.648	4849.21
494.017	4908.42
494.387	4955.42
494.757	5037
495.126	5055.3
495.496	5115.87
495.866	5105.25
496.235	5149.31
496.605	5247.84
496.974	5276.32
497.344	5325.81
497.713	5333.26
498.082	5390.89
498.452	5453.71
498.821	5451.23
499.19	5481.96
499.559	5506.82
499.928	5584.56
500.298	5636.08
500.667	5618.23
501.036	5645.12
501.405	5696.42
501.774	5731.9
502.143	5819.58
502.512	5801.27
502.88	5860.93
503.249	5884.21
503.618	5997.65
503.987	5917.2
504.356	6037.43
504.724	6031.1
505.093	6089.18
505.462	6092.79
505.83	6151.77
506.199	6193.58
506.567	6314.03
506.936	6289.62
507.304	6333.24
507.672	6395.16
508.041	6413.01
508.409	6401.26
508.777	6523.97
509.145	6594.7
509.514	6566.45
509.882	6644.64
510.25	6614.13
510.618	6682.83
510.986	6699.78
511.354	6781.81
511.722	6860.23
512.09	6971.41
512.458	6923.73
512.826	7013.67
513.193	7083.5
513.561	7036.5
513.929	7101.35
514.297	7162.37
514.664	7210.95
515.032	7256.83
515.4	7326.43
515.767	7376.83
516.135	7435.81
516.502	7358.3
516.869	7516.71
517.237	7485.98
517.604	7582.47
517.972	7605.75
518.339	7646.42
518.706	7699.53
519.073	7778.85
519.44	7882.35
519.808	7893.87
520.175	7913.53
520.542	8084.83
520.909	8099.07
521.276	8128.22
521.643	8203.47
522.009	8231.27
522.376	8276.24
522.743	8358.72
523.11	8435.56
523.477	8515.1
523.843	8531.37
524.21	8601.43
524.577	8690.24
524.943	8729.56
525.31	8764.13
525.676	8821.08
526.043	9036.22
526.409	8963.45
526.776	9095.88
527.142	9098.14
527.508	9159.15
527.874	9215.65
528.241	9264.46
528.607	9311.92
528.973	9390.56
529.339	9428.07
529.705	9480.27
530.071	9551.23
530.437	9618.57
530.803	9652.47
531.169	9672.13
531.535	9626.71
531.901	9776.54
532.267	9874.16
532.632	9952.13
532.998	9905.12
533.364	9961.84
533.73	10019.02
534.095	10126.58
534.461	10085.68
534.826	10175.17
535.192	10228.5
535.557	10303.53
535.923	10252.46
536.288	10276.86
536.653	10371.78
537.019	10378.1
537.384	10482.05
537.749	10510.3
538.114	10509.4
538.479	10488.61
538.845	10593.24
539.21	10596.63
539.575	10655.61
539.94	10710.98
540.305	10765.89
540.67	10800.24
541.034	10757.53
541.399	10868.94
541.764	10917.3
542.129	10897.86
542.494	10906
542.858	10991.19
543.223	10943.74
543.587	10997.3
543.952	11057.86
544.316	11071.87
544.681	11145.54
545.045	11182.6
545.41	11247.68
545.774	11302.15
546.138	11268.25
546.503	11389.83
546.867	11444.06
547.231	11495.36
547.595	11444.97
547.959	11568.35
548.324	11571.97
548.688	11588.01
549.052	11602.03
549.416	11629.14
549.779	11621.91
550.143	11704.4
550.507	11772.87
550.871	11816.48
551.235	11792.98
551.599	11884.96
551.962	11936.71
552.326	11994.56
552.689	12129.92
553.053	12091.5
553.417	12153.42
553.78	12300.99
554.143	12199.3
554.507	12294.66
554.87	12256.92
555.234	12399.52
555.597	12416.47
555.96	12361.78
556.323	12503.92
556.686	12511.15
557.05	12640.87
557.413	12724.93
557.776	12631.6
558.139	12787.76
558.502	12796.57
558.865	12870.47
559.228	12856.23
559.59	12995.44
559.953	13022.55
560.316	13143.68
560.679	13057.35
561.041	13141.19
561.404	13219.84
561.767	13339.15
562.129	13277.69
562.492	13469.32
562.854	13461.19
563.217	13493.05
563.579	13542.54
563.941	13574.4
564.304	13636.32
564.666	13771.23
565.028	13840.38
565.39	13823.89
565.753	13833.61
566.115	13942.75
566.477	14048.74
566.839	13952.02
567.201	14207.38
567.563	14181.84
567.925	14169.87
568.287	14206.7
568.648	14279.02
569.01	14356.08
569.372	14455.96
569.734	14441.95
570.095	14493.25
570.457	14530.31
570.819	14676.29
571.18	14709.97
571.542	14779.34
571.903	14746.12
572.265	14750.42
572.626	14813.24
572.987	14786.8
573.349	14830.87
573.71	14916.29
574.071	15024.53
574.432	15012.33
574.794	15176.17
575.155	15119.9
575.516	15065.66
575.877	15107.02
576.238	15173.68
576.599	15230.86
576.96	15171.65
577.32	15181.37
577.681	15320.12
578.042	15342.72
578.403	15386.56
578.763	15441.7
579.124	15453.9
579.485	15399.44
579.845	15548.36
580.206	15512.66
580.566	15404.41
580.927	15463.62
581.287	15542.26
581.648	15427.46
582.008	15547.23
582.368	15531.64
582.728	15460.46
583.089	15522.83
583.449	15577.06
583.809	15671.97
584.169	15683.27
584.529	15528.93
584.889	15735.7
585.249	15582.49
585.609	15491.41
585.969	15594.91
586.329	15637.63
586.688	15643.05
587.048	15643.95
587.408	15560.11
587.768	15549.49
588.127	15540.45
588.487	15652.54
588.846	15598.08
589.206	15467.01
589.565	15558.08
589.925	15579.32
590.284	15589.04
590.643	15581.58
591.003	15634.91
591.362	15780.67
591.721	15692.77
592.08	15764.63
592.44	15753.55
592.799	15817.96
593.158	15723.05
593.517	15721.69
593.876	15791.52
594.235	15710.84
594.593	15770.73
594.952	15751.75
595.311	15711.97
595.67	15736.15
596.029	15836.49
596.387	15746.78
596.746	15780.22
597.104	15744.52
597.463	15697.28
597.822	15787.45
598.18	15754.68
598.538	15658.87
598.897	15783.61
599.255	15726.66
599.613	15987.45
599.972	15797.17
600.33	15861.35
600.688	15863.61
601.046	15948.58
601.404	15956.04
601.762	15871.07
602.12	16035.81
602.478	16075.35
602.836	15936.83
603.194	15952.42
603.552	16039.65
603.91	15875.59
604.268	16020.89
604.625	16022.93
604.983	16041.46
605.341	15852.54
605.698	16077.39
606.056	15979.54
606.413	16051.17
606.771	16018.86
607.128	16038.07
607.485	16033.55
607.843	16092.3
608.2	16113.09
608.557	16273.99
608.914	16150.61
609.272	16209.14
609.629	16101.57
609.986	16174.56
610.343	16129.36
610.7	16159.87
611.057	16171.17
611.414	16201.23
611.771	16318.96
612.127	16342.01
612.484	16278.51
612.841	16385.18
613.198	16315.35
613.554	16403.03
613.911	16427.66
614.267	16418.85
614.624	16333.43
614.98	16453.2
615.337	16509.92
615.693	16427.44
616.05	16353.99
616.406	16599.41
616.762	16544.72
617.118	16605.51
617.475	16528.22
617.831	16600.76
618.187	16637.6
618.543	16611.61
618.899	16718.05
619.255	16685.28
619.611	16615.23
619.967	16716.47
620.323	16806.86
620.678	16726.18
621.034	16521.22
621.39	16695.9
621.746	16617.03
622.101	16807.31
622.457	16669.91
622.812	16779.97
623.168	16721.21
623.523	16671.72
623.879	16767.77
624.234	16675.34
624.589	16752.4
624.945	16744.72
625.3	16711.72
625.655	16758.05
626.01	16792.85
626.365	16790.36
626.72	16718.5
627.075	16710.37
627.43	16789.23
627.785	16698.61
628.14	16741.78
628.495	16770.93
628.85	16747.2
629.205	16723.92
629.559	16873.07
629.914	16704.26
630.269	16687.77
630.623	16628.11
630.978	16539.07
631.332	16673.98
631.687	16820.87
632.041	16573.42
632.396	16793.98
632.75	16636.47
633.104	16590.59
633.459	16416.14
633.813	16460.43
634.167	16431.73
634.521	16469.02
634.875	16464.5
635.229	16333.88
635.583	16373.88
635.937	16303.14
636.291	16269.25
636.645	16262.02
636.999	16233.09
637.352	16285.74
637.706	16146.54
638.06	16181.34
638.413	16217.05
638.767	16121.91
639.121	16172.98
639.474	16099.31
639.828	15971.18
640.181	16072.19
640.534	16068.8
640.888	16020.89
641.241	15937.28
641.594	15978.63
641.947	16080.33
642.301	15921.91
642.654	15936.37
643.007	15892.76
643.36	15919.43
643.713	15846.89
644.066	15939.54
644.419	15898.18
644.771	15825.64
645.124	15625.65
645.477	15558.31
645.83	15453.9
646.182	15329.39
646.535	15261.82
646.888	15337.75
647.24	15315.6
647.593	15379.33
647.945	15325.32
648.298	15171.88
648.65	15197.41
649.002	15144.31
649.355	15198.99
649.707	15195.83
650.059	15239.44
650.411	15427.69
650.763	15431.98
651.115	15644.63
651.467	15566.21
651.819	15536.61
652.171	15474.47
652.523	15389.04
652.875	15478.31
653.227	15368.25
653.578	15432.21
653.93	15465.65
654.282	15356.5
654.633	15389.04
654.985	15283.51
655.337	15346.11
655.688	15358.99
656.039	15304.98
656.391	15159.22
656.742	15256.39
657.094	15258.43
657.445	15362.6
657.796	15327.35
658.147	15327.58
658.498	15259.1
658.849	15310.18
659.2	15303.4
659.551	15198.54
659.902	15335.49
660.253	15214.59
660.604	15208.26
660.955	15210.52
661.306	15227.92
661.656	15145.44
662.007	15154.47
662.358	15050.3
662.708	15062.27
663.059	15068.6
663.409	15017.3
663.76	15087.36
664.11	15105.44
664.461	15152.67
664.811	15160.35
665.161	15176.17
665.511	14974.14
665.862	15021.6
666.212	15115.15
666.562	15093.91
666.912	14982.05
667.262	14995.38
667.612	14929.85
667.962	15056.17
668.312	14940.92
668.662	15038.55
669.011	14967.59
669.361	15062.27
669.711	14909.06
670.06	14911.32
670.41	14831.32
670.76	14810.53
671.109	14969.17
671.459	14877.65
671.808	14802.17
672.157	14939.11
672.507	14789.51
672.856	14855.5
673.205	14805.56
673.554	14859.79
673.904	14818.21
674.253	14900.92
674.602	14716.75
674.951	14644.66
675.3	14511.33
675.649	14685.33
675.998	14686.01
676.346	14710.87
676.695	14806.01
677.044	14680.59
677.393	14752.45
677.741	14776.41
678.09	14638.78
678.438	14633.36
678.787	14578.67
679.135	14558.11
679.484	14641.27
679.832	14590.2
680.181	14557.43
680.529	14575.96
680.877	14536.86
681.225	14539.58
681.573	14548.61
681.922	14377.55
682.27	14440.14
682.618	14403.31
682.966	14424.1
683.314	14447.37
683.661	14388.62
684.009	14319.02
684.357	14251.9
684.705	14193.14
685.053	14272.69
685.4	14274.72
685.748	14201.96
686.095	14166.25
686.443	13975.07
686.79	14003.54
687.138	14064.11
687.485	14070.44
687.832	13953.38
688.18	13991.34
688.527	13943.21
688.874	13884.68
689.221	13947.95
689.568	13845.36
689.915	13874.06
690.262	13855.3
690.609	13763.32
690.956	13690.11
691.303	13697.56
691.65	13581.41
691.997	13648.75
692.344	13517.23
692.69	13544.35
693.037	13416.44
693.383	13404.69
693.73	13485.59
694.077	13455.54
694.423	13419.38
694.769	13390.45
695.116	13310
695.462	13281.53
695.808	13249.44
696.155	13251.02
696.501	13210.12
696.847	13212.83
697.193	13099.16
697.539	13171.48
697.885	13041.08
698.231	12947.75
698.577	13014.87
698.923	13003.57
699.269	12928.77
699.614	12928.32
699.96	12862.56
700.306	12808.32
700.651	12762.22
700.997	12790.69
701.342	12627.54
701.688	12689.23
702.033	12606.97
702.379	12665.73
702.724	12571.49
703.069	12682.67
703.415	12485.17
703.76	12541.89
704.105	12518.16
704.45	12498.27
704.795	12425.96
705.14	12446.52
705.485	12383.47
705.83	12308
706.175	12265.28
706.52	12298.5
706.865	12254.66
707.209	12230.48
707.554	12159.3
707.899	12230.94
708.243	12160.88
708.588	12167.43
708.932	12073.88
709.277	12084.95
709.621	12041.56
709.966	11953.88
710.31	12023.94
710.654	11866.2
710.998	11890.15
711.342	11878.85
711.687	11910.72
712.031	11843.38
712.375	11701.68
712.719	11713.43
713.063	11779.2
713.407	11770.61
713.75	11693.77
714.094	11663.94
714.438	11630.05
714.782	11613.32
715.125	11563.16
715.469	11616.71
715.812	11560.9
716.156	11440.22
716.499	11481.58
716.843	11434.8
717.186	11362.71
717.53	11554.8
717.873	11459.66
718.216	11387.34
718.559	11504.4
718.902	11320.45
719.246	11362.26
719.589	11271.86
719.932	11336.27
720.275	11270.51
720.617	11205.2
720.96	11151.64
721.303	11218.53
721.646	11178.53
721.989	11090.85
722.331	11119.33
722.674	11056.05
723.016	11096.05
723.359	11091.76
723.701	11105.32
724.044	11068.71
724.386	11002.27
724.729	11005.66
725.071	10924.08
725.413	11014.47
725.755	10896.73
726.097	10867.36
726.439	10887.92
726.782	10825.32
727.124	10879.56
727.465	10841.82
727.807	10872.55
728.149	10841.59
728.491	10804.08
728.833	10834.59
729.175	10746.91
729.516	10755.72
729.858	10628.27
730.199	10706.68
730.541	10748.49
730.882	10709.39
731.224	10717.98
731.565	10670.75
731.906	10604.99
732.248	10583.07
732.589	10614.48
732.93	10492
733.271	10581.04
733.612	10574.48
733.953	10571.09
734.294	10510.08
734.635	10509.17
734.976	10530.42
735.317	10517.08
735.658	10501.94
735.999	10444.77
736.339	10312.57
736.68	10341.27
737.021	10327.48
737.361	10304.21
737.702	10393.02
738.042	10320.7
738.383	10322.74
738.723	10294.94
739.063	10188.73
739.404	10317.09
739.744	10230.54
740.084	10210.65
740.424	10212.23
740.764	10197.09
741.104	10281.16
741.444	10173.81
741.784	10106.92
742.124	10177.66
742.464	10152.12
742.804	10082.29
743.143	10125.91
743.483	10145.11
743.823	10080.48
744.162	10117.09
744.502	10079.13
744.841	10028.96
745.181	10041.16
745.52	10008.85
745.86	10056.3
746.199	10077.09
746.538	9989.86
746.877	9920.49
747.216	9901.05
747.556	9809.76
747.895	9866.93
748.234	9914.84
748.573	9881.39
748.911	9845.69
749.25	9898.34
749.589	9823.09
749.928	9814.5
750.267	9808.4
750.605	9738.8
750.944	9766.37
751.283	9768.85
751.621	9678.23
751.96	9674.39
752.298	9656.31
752.636	9624.22
752.975	9631.23
753.313	9597.78
753.651	9607.73
753.989	9580.84
754.327	9537.67
754.666	9530.44
755.004	9446.83
755.342	9419.71
755.679	9405.7
756.017	9415.19
756.355	9347.62
756.693	9339.26
757.031	9360.73
757.368	9323.67
757.706	9366.6
758.044	9342.88
