Data from black_metal_pc_casing_FLMS001491_00003.txt Node
Date: Wed Feb 08 14:31:50 GMT 2017
User: dcchb
Spectrometer: FLMS00149
Trigger mode: 0
Integration Time (sec): 2.000000E-2
Scans to average: 10
Electric dark correction enabled: true
Nonlinearity correction enabled: false
Boxcar width: 0
XAxis mode: Wavelengths
Number of Pixels in Spectrum: 2048
>>>>>Begin Spectral Data<<<<<
341.393	-16.24
341.776	-16.24
342.16	-16.24
342.543	-48.56
342.927	-70.48
343.31	-68.67
343.693	-97.82
344.077	-58.28
344.46	-56.47
344.843	-57.82
345.226	-30.71
345.61	-47.43
345.993	-8.79
346.376	-7.88
346.759	8.39
347.142	34.6
347.525	39.35
347.908	72.79
348.291	77.54
348.674	95.39
349.057	105.79
349.44	119.35
349.823	130.65
350.206	178.1
350.588	183.75
350.971	202.96
351.354	235.28
351.737	209.74
352.119	217.2
352.502	265.11
352.884	259.68
353.267	263.98
353.65	289.96
354.032	280.92
354.414	300.59
354.797	298.33
355.179	317.31
355.562	323.86
355.944	314.6
356.326	312.34
356.709	324.31
357.091	336.97
357.473	340.58
357.855	319.57
358.238	336.97
358.62	326.12
359.002	327.25
359.384	321.15
359.766	329.06
360.148	327.25
360.53	321.38
360.912	316.18
361.294	323.18
361.676	337.19
362.057	326.57
362.439	321.6
362.821	313.01
363.203	286.12
363.584	322.73
363.966	319.57
364.348	315.27
364.729	315.73
365.111	314.37
365.493	307.82
365.874	328.61
366.256	292
366.637	319.34
367.019	312.56
367.4	304.43
367.781	292.22
368.163	324.54
368.544	302.17
368.925	305.56
369.306	306.01
369.688	296.74
370.069	316.18
370.45	301.72
370.831	311.43
371.212	323.18
371.593	297.42
371.974	294.26
372.355	314.6
372.736	322.73
373.117	312.79
373.498	312.34
373.879	297.87
374.26	303.75
374.641	296.07
375.021	299.23
375.402	323.18
375.783	319.12
376.163	322.51
376.544	320.92
376.925	321.6
377.305	309.17
377.686	324.77
378.066	331.54
378.447	314.6
378.827	323.18
379.208	342.17
379.588	323.64
379.968	325.44
380.349	324.31
380.729	343.3
381.109	360.47
381.489	341.94
381.87	346.91
382.25	306.23
382.63	311.21
383.01	323.41
383.39	350.53
383.77	338.78
384.15	346.01
384.53	350.75
384.91	335.61
385.29	348.04
385.67	349.85
386.049	358.89
386.429	364.09
386.809	360.47
387.189	351.66
387.568	348.04
387.948	352.34
388.328	363.63
388.707	341.26
389.087	338.55
389.466	383.3
389.846	370.41
390.225	369.06
390.605	360.02
390.984	364.09
391.363	362.73
391.743	383.07
392.122	366.8
392.501	384.42
392.881	395.5
393.26	384.88
393.639	388.72
394.018	379.45
394.397	382.84
394.776	379.68
395.155	369.74
395.534	392.56
395.913	375.16
396.292	384.88
396.671	390.98
397.05	400.7
397.429	397.31
397.808	415.84
398.186	389.62
398.565	388.27
398.944	380.58
399.323	398.89
399.701	422.84
400.08	414.71
400.458	427.36
400.837	407.02
401.215	417.19
401.594	401.6
401.972	414.48
402.351	399.57
402.729	428.94
403.107	428.27
403.486	421.71
403.864	440.24
404.242	416.51
404.62	430.75
404.999	407.25
405.377	439.79
405.755	446.12
406.133	455.84
406.511	455.61
406.889	454.48
407.267	456.74
407.645	447.02
408.023	437.98
408.401	467.36
408.779	451.77
409.156	457.19
409.534	454.25
409.912	466.23
410.29	485.44
410.667	488.83
411.045	484.99
411.422	494.03
411.8	472.56
412.178	494.25
412.555	497.87
412.933	499.22
413.31	495.16
413.687	501.71
414.065	498.32
414.442	524.76
414.819	522.73
415.197	507.13
415.574	514.59
415.951	500.13
416.328	529.28
416.705	527.47
417.082	543.29
417.46	544.65
417.837	545.32
418.214	544.87
418.591	564.99
418.967	546
419.344	564.08
419.721	566.57
420.098	557.08
420.475	543.29
420.852	595.27
421.228	559.34
421.605	589.17
421.982	589.84
422.358	579.67
422.735	584.87
423.111	591.2
423.488	579.9
423.864	571.31
424.241	596.85
424.617	608.6
424.994	618.32
425.37	612.89
425.746	609.5
426.123	618.77
426.499	619.67
426.875	649.73
427.251	638.66
427.627	639.56
428.003	664.87
428.379	658.54
428.756	651.08
429.132	658.09
429.507	657.41
429.883	672.55
430.259	689.5
430.635	700.35
431.011	695.6
431.387	697.64
431.763	703.74
432.138	709.84
432.514	700.12
432.89	731.31
433.265	742.38
433.641	738.54
434.016	747.81
434.392	771.31
434.767	770.86
435.143	769.5
435.518	744.19
435.894	770.4
436.269	769.73
436.644	796.17
437.02	797.3
437.395	797.52
437.77	822.61
438.145	820.35
438.52	826.67
438.895	837.29
439.271	842.27
439.646	835.94
440.021	822.15
440.395	833.45
440.77	850.18
441.145	851.76
441.52	871.19
441.895	858.54
442.27	861.47
442.645	856.28
443.019	865.54
443.394	886.56
443.769	876.16
444.143	900.12
444.518	895.82
444.892	885.2
445.267	925.65
445.641	912.55
446.016	918.42
446.39	924.98
446.764	900.8
447.139	921.59
447.513	936.5
447.887	924.3
448.262	939.66
448.636	937.86
449.01	964.07
449.384	943.28
449.758	953.22
450.132	979.89
450.506	983.96
450.88	970.62
451.254	973.11
451.628	1012.88
452.002	1010.4
452.376	1018.31
452.75	1021.02
453.123	1059.66
453.497	1051.3
453.871	1039.77
454.244	1059.89
454.618	1077.97
454.992	1104.86
455.365	1101.24
455.739	1106.44
456.112	1138.76
456.486	1085.42
456.859	1121.13
457.232	1151.41
457.606	1141.47
457.979	1178.53
458.352	1196.61
458.725	1188.92
459.099	1225.31
459.472	1217.4
459.845	1232.31
460.218	1239.09
460.591	1253.1
460.964	1256.72
461.337	1282.48
461.71	1298.3
462.083	1319.32
462.456	1309.37
462.829	1305.08
463.201	1336.72
463.574	1315.25
463.947	1346.21
464.32	1396.38
464.692	1359.31
465.065	1382.59
465.438	1386.88
465.81	1431.18
466.183	1461.01
466.555	1485.86
466.928	1474.57
467.3	1477.05
467.672	1485.41
468.045	1535.13
468.417	1540.78
468.789	1549.14
469.161	1559.54
469.534	1567.67
469.906	1587.56
470.278	1625.75
470.65	1632.08
471.022	1660.78
471.394	1665.07
471.766	1690.15
472.138	1725.86
472.51	1731.28
472.882	1805.63
473.253	1788
473.625	1812.18
473.997	1875.91
474.369	1848.57
474.74	1896.7
475.112	1889.92
475.484	1915.01
475.855	1946.87
476.227	1964.95
476.598	2020.99
476.97	2005.63
477.341	2050.37
477.713	2087.21
478.084	2125.4
478.455	2153.19
478.827	2162.23
479.198	2241.1
479.569	2238.39
479.94	2304.6
480.311	2321.1
480.682	2325.39
481.053	2391.83
481.424	2465.95
481.795	2443.58
482.166	2467.31
482.537	2519.96
482.908	2556.57
483.279	2593.63
483.65	2604.03
484.021	2674.53
484.391	2719.28
484.762	2757.02
485.133	2773.06
485.503	2736.91
485.874	2878.14
486.244	2883.34
486.615	2919.27
486.985	2937.13
487.356	2982.32
487.726	3023.68
488.097	3081.3
488.467	3060.06
488.837	3149.78
489.207	3150
489.578	3206.27
489.948	3215.76
490.318	3288.3
490.688	3263.22
491.058	3344.8
491.428	3379.37
491.798	3365.14
492.168	3508.41
492.538	3478.58
492.908	3553.83
493.278	3584.79
493.648	3582.08
494.017	3628.18
494.387	3646.26
494.757	3643.77
495.126	3740.49
495.496	3750.66
495.866	3758.35
496.235	3800.83
496.605	3826.14
496.974	3853.71
497.344	3903.43
497.713	3895.97
498.082	3938.68
498.452	3936.42
498.821	3966.7
499.19	3995.86
499.559	4043.76
499.928	4085.8
500.298	4119.02
500.667	4124.21
501.036	4139.58
501.405	4166.47
501.774	4190.88
502.143	4227.26
502.512	4248.28
502.88	4287.83
503.249	4266.58
503.618	4348.61
503.987	4324.43
504.356	4364.66
504.724	4345.9
505.093	4456.63
505.462	4437.2
505.83	4472.23
506.199	4537.54
506.567	4546.58
506.936	4599.23
507.304	4639.91
507.672	4646.23
508.041	4653.47
508.409	4670.64
508.777	4768.04
509.145	4746.8
509.514	4777.08
509.882	4822.95
510.25	4833.12
510.618	4870.18
510.986	4856.85
511.354	4959.22
511.722	4984.08
512.09	5000.8
512.458	4985.43
512.826	5063.62
513.193	5051.19
513.561	5119.89
513.929	5135.26
514.297	5218.65
514.664	5202.83
515.032	5242.6
515.4	5284.86
515.767	5350.4
516.135	5378.64
516.502	5365.99
516.869	5439.89
517.237	5453.44
517.604	5472.43
517.972	5531.18
518.339	5582.93
518.706	5544.06
519.073	5605.98
519.44	5628.13
519.808	5707.22
520.175	5701.57
520.542	5798.52
520.909	5826.09
521.276	5881.91
521.643	5852.53
522.009	5852.08
522.376	5996.25
522.743	5993.99
523.11	6091.17
523.477	6145.86
523.843	6141.79
524.21	6203.93
524.577	6257.94
524.943	6326.87
525.31	6323.93
525.676	6400.31
526.043	6469.24
526.409	6528.22
526.776	6541.33
527.142	6514.21
527.508	6560.53
527.874	6599.85
528.241	6645.28
528.607	6673.07
528.973	6763.92
529.339	6785.16
529.705	6817.48
530.071	6858.15
530.437	6911.26
530.803	6992.61
531.169	7047.75
531.535	6927.53
531.901	7083.91
532.267	7057.92
532.632	7095.66
532.998	7151.93
533.364	7140.18
533.73	7177.92
534.095	7313.96
534.461	7304.47
534.826	7329.33
535.192	7363.9
535.557	7421.75
535.923	7476.44
536.288	7450
536.653	7460.85
537.019	7469.89
537.384	7493.16
537.749	7499.49
538.114	7603.44
538.479	7638.47
538.845	7722.31
539.21	7650.9
539.575	7675.98
539.94	7745.59
540.305	7697.9
540.67	7757.79
541.034	7733.16
541.399	7839.6
541.764	7878.92
542.129	7837.11
542.494	7934.28
542.858	7941.74
543.223	7959.59
543.587	7998.01
543.952	7985.81
544.316	8014.73
544.681	8056.31
545.045	8039.14
545.41	8128.63
545.774	8148.97
546.138	8138.12
546.503	8210.89
546.867	8252.24
547.231	8293.37
547.595	8338.11
547.959	8332.92
548.324	8323.2
548.688	8306.93
549.052	8449.98
549.416	8411.11
549.779	8393.71
550.143	8494.49
550.507	8476.19
550.871	8558.22
551.235	8456.98
551.599	8594.38
551.962	8547.6
552.326	8660.37
552.689	8668.95
553.053	8674.38
553.417	8741.72
553.78	8790.53
554.143	8766.58
554.507	8757.54
554.87	8850.42
555.234	8913.24
555.597	8857.65
555.96	8942.17
556.323	8965.89
556.686	8955.05
557.05	9036.85
557.413	9017.64
557.776	9043.63
558.139	9155.95
558.502	9153.46
558.865	9172.89
559.228	9283.17
559.59	9287.92
559.953	9334.47
560.316	9439.55
560.679	9390.29
561.041	9451.98
561.404	9529.04
561.767	9595.93
562.129	9535.82
562.492	9646.55
562.854	9658.98
563.217	9635.93
563.579	9717.29
563.941	9749.15
564.304	9783.27
564.666	9908.92
565.028	9898.98
565.39	9920.22
565.753	9958.41
566.115	9989.37
566.477	10044.06
566.839	10093.1
567.201	10177.84
567.563	10154.34
567.925	10255.13
568.287	10296.03
568.648	10297.16
569.01	10358.85
569.372	10360.66
569.734	10415.8
570.095	10451.28
570.457	10508
570.819	10477.49
571.18	10499.19
571.542	10612.18
571.903	10575.57
572.265	10702.35
572.626	10705.96
572.987	10734.66
573.349	10726.75
573.71	10728.79
574.071	10768.78
574.432	10856.92
574.794	10939.18
575.155	10935.11
575.516	10844.71
575.877	10914.54
576.238	10858.95
576.599	10929.23
576.96	10952.06
577.32	10989.34
577.681	11080.41
578.042	11041.09
578.403	10989.8
578.763	11071.83
579.124	11085.16
579.485	11091.71
579.845	11091.49
580.206	11105.27
580.566	11224.59
580.927	11203.58
581.287	11199.06
581.648	11122
582.008	11173.07
582.368	11173.29
582.728	11218.26
583.089	11164.25
583.449	11210.35
583.809	11150.47
584.169	11260.75
584.529	11221.65
584.889	11262.33
585.249	11269.79
585.609	11210.58
585.969	11323.8
586.329	11336.45
586.688	11355.44
587.048	11278.83
587.408	11236.34
587.768	11264.36
588.127	11305.95
588.487	11208.1
588.846	11291.71
589.206	11250.81
589.565	11294.87
589.925	11345.72
590.284	11326.51
590.643	11298.04
591.003	11289.67
591.362	11383.46
591.721	11305.27
592.08	11320.86
592.44	11387.07
592.799	11398.6
593.158	11331.93
593.517	11361.54
593.876	11340.97
594.235	11367.86
594.593	11403.12
594.952	11366.51
595.311	11317.24
595.67	11428.88
596.029	11426.39
596.387	11451.03
596.746	11485.38
597.104	11383.01
597.463	11453.06
597.822	11446.05
598.18	11426.62
598.538	11361.76
598.897	11436.79
599.255	11344.59
599.613	11550.23
599.972	11487.41
600.33	11488.31
600.688	11437.02
601.046	11545.49
601.404	11560.85
601.762	11521.08
602.12	11573.96
602.478	11590.91
602.836	11577.12
603.194	11518.14
603.552	11562.44
603.91	11559.95
604.268	11615.32
604.625	11640.63
604.983	11638.82
605.341	11573.06
605.698	11633.85
606.056	11646.73
606.413	11642.89
606.771	11650.8
607.128	11735.76
607.485	11684.01
607.843	11650.57
608.2	11738.25
608.557	11696.9
608.914	11772.83
609.272	11775.09
609.629	11818.25
609.986	11868.87
610.343	11798.14
610.7	11873.39
611.057	11830.23
611.414	11823.67
611.771	11824.12
612.127	11933.95
612.484	11987.74
612.841	11974.4
613.198	11974.4
613.554	11867.06
613.911	11936.89
614.267	11927.85
614.624	11997
614.98	11942.09
615.337	12051.46
615.693	11987.96
616.05	12023.21
616.406	12029.54
616.762	12025.93
617.118	11965.82
617.475	12006.04
617.831	12069.32
618.187	12058.24
618.543	12008.07
618.899	12195.41
619.255	12190.44
619.611	12066.38
619.967	12159.26
620.323	12160.39
620.678	12133.04
621.034	12071.58
621.39	12080.39
621.746	12064.57
622.101	12157.22
622.457	12116.32
622.812	12122.65
623.168	12101.4
623.523	12159.93
623.879	12220.72
624.234	12172.36
624.589	12088.52
624.945	12083.1
625.3	12196.54
625.655	12150.44
626.01	12237.45
626.365	12190.89
626.72	12149.54
627.075	12068.41
627.43	12227.73
627.785	12081.29
628.14	12109.09
628.495	12200.84
628.85	12088.07
629.205	12118.81
629.559	12230.22
629.914	12109.54
630.269	12158.8
630.623	12086.49
630.978	12064.8
631.332	12137.11
631.687	12138.69
632.041	12032.48
632.396	12133.27
632.75	11969.88
633.104	12059.37
633.459	11984.12
633.813	11963.56
634.167	11985.7
634.521	11939.83
634.875	12008.53
635.229	11930.56
635.583	11883.78
635.937	11813.73
636.291	11909.32
636.645	11936.66
636.999	11860.96
637.352	11900.05
637.706	11815.76
638.06	11916.1
638.413	11795.65
638.767	11801.53
639.121	11891.92
639.474	11699.16
639.828	11783.22
640.181	11775.09
640.534	11833.84
640.888	11728.08
641.241	11719.27
641.594	11660.96
641.947	11759.04
642.301	11663.22
642.654	11682.43
643.007	11634.75
643.36	11613.06
643.713	11685.37
644.066	11717.46
644.419	11598.14
644.771	11518.82
645.124	11460.52
645.477	11377.36
645.83	11326.06
646.182	11211.26
646.535	11243.57
646.888	11235.44
647.24	11094.88
647.593	11259.85
647.945	11199.28
648.298	11138.04
648.65	11146.18
649.002	11074.99
649.355	11149.57
649.707	11121.54
650.059	11242.9
650.411	11258.94
650.763	11290.35
651.115	11429.56
651.467	11376
651.819	11322.44
652.171	11295.78
652.523	11375.55
652.875	11345.72
653.227	11269.79
653.578	11390.01
653.93	11286.51
654.282	11260.98
654.633	11234.08
654.985	11277.47
655.337	11262.78
655.688	11261.88
656.039	11314.08
656.391	11189.34
656.742	11272.27
657.094	11171.26
657.445	11296
657.796	11234.99
658.147	11226.17
658.498	11214.2
658.849	11146.18
659.2	11208.1
659.551	11160.64
659.902	11157.93
660.253	11209.45
660.604	11197.93
660.955	11103.92
661.306	11202.67
661.656	11130.36
662.007	11119.28
662.358	11147.98
662.708	11062.56
663.059	11177.81
663.409	11066.86
663.76	11185.95
664.11	11063.24
664.461	11109.11
664.811	11114.99
665.161	11119.06
665.511	11112.5
665.862	11030.7
666.212	11106.85
666.562	11101.66
666.912	11056.69
667.262	11050.13
667.612	11033.18
667.962	11048.1
668.312	11027.53
668.662	11146.4
669.011	11042.68
669.361	11078.61
669.711	11053.97
670.06	11048.1
670.41	10968.55
670.76	11017.59
671.109	11007.65
671.459	10957.25
671.808	10973.3
672.157	10974.2
672.507	10895.79
672.856	10903.7
673.205	10919.06
673.554	10965.62
673.904	10901.21
674.253	10935.56
674.602	10942.57
674.951	10860.31
675.3	10740.99
675.649	10940.98
675.998	10881.32
676.346	10919.97
676.695	10932.4
677.044	10790.48
677.393	10853.98
677.741	10873.64
678.09	10846.3
678.438	10795.22
678.787	10823.7
679.135	10874.09
679.484	10712.29
679.832	10804.49
680.181	10755.23
680.529	10786.86
680.877	10748.45
681.225	10752.29
681.573	10769.01
681.922	10720.2
682.27	10604.27
682.618	10592.74
682.966	10628.9
683.314	10688.11
683.661	10633.87
684.009	10609.69
684.357	10570.37
684.705	10551.84
685.053	10520.66
685.4	10518.85
685.748	10555.68
686.095	10448.79
686.443	10462.58
686.79	10377.16
687.138	10449.47
687.485	10424.61
687.832	10354.33
688.18	10417.16
688.527	10367.89
688.874	10277.27
689.221	10295.8
689.568	10325.63
689.915	10244.73
690.262	10248.57
690.609	10216.03
690.956	10160.67
691.303	10150.95
691.65	10129.93
691.997	10115.02
692.344	10054.91
692.69	10052.42
693.037	10084.96
693.383	10020.56
693.73	9957.05
694.077	9965.42
694.423	10016.71
694.769	9928.35
695.116	9840.45
695.462	9895.81
695.808	9860.56
696.155	9876.83
696.501	9815.82
696.847	9825.76
697.193	9724.07
697.539	9708.93
697.885	9715.93
698.231	9635.03
698.577	9726.55
698.923	9656.5
699.269	9687.46
699.614	9551.64
699.96	9509.83
700.306	9472.77
700.651	9490.85
700.997	9414.7
701.342	9436.84
701.688	9460.12
702.033	9461.93
702.379	9371.53
702.724	9433.9
703.069	9387.8
703.415	9317.98
703.76	9292.44
704.105	9358.65
704.45	9316.17
704.795	9310.29
705.14	9154.59
705.485	9166.57
705.83	9155.72
706.175	9116.85
706.52	9120.69
706.865	9077.53
707.209	9068.94
707.554	9051.09
707.899	9120.92
708.243	9057.42
708.588	9005.44
708.932	8945.33
709.277	9027.36
709.621	8913.69
709.966	8880.7
710.31	8931.54
710.654	8861.49
710.998	8878.89
711.342	8868.27
711.687	8822.4
712.031	8834.82
712.375	8749.63
712.719	8718.9
713.063	8797.76
713.407	8691.1
713.75	8684.09
714.094	8714.38
714.438	8684.32
714.782	8721.38
715.125	8608.84
715.469	8730.87
715.812	8610.88
716.156	8582.18
716.499	8612.68
716.843	8551.22
717.186	8596.64
717.53	8579.01
717.873	8546.47
718.216	8502.86
718.559	8486.81
718.902	8437.55
719.246	8542.63
719.589	8506.02
719.932	8379.02
720.275	8377.44
720.617	8386.93
720.96	8357.77
721.303	8419.02
721.646	8382.18
721.989	8287.04
722.331	8391.22
722.674	8316.19
723.016	8359.81
723.359	8254.73
723.701	8347.15
724.044	8253.37
724.386	8234.16
724.729	8224.67
725.071	8220.38
725.413	8224.9
725.755	8238.91
726.097	8175.86
726.439	8141.06
726.782	8116.65
727.124	8141.74
727.465	8071.68
727.807	8100.61
728.149	8115.52
728.491	8126.14
728.833	8081.4
729.175	8082.53
729.516	8114.62
729.858	8025.13
730.199	8012.7
730.541	7997.33
730.882	7988.29
731.224	8070.78
731.565	7941.06
731.906	7929.76
732.248	7964.79
732.589	7879.82
732.93	7943.32
733.271	7943.32
733.612	7923.89
733.953	7975.86
734.294	7835.75
734.635	7894.96
734.976	7901.74
735.317	7837.56
735.658	7781.29
735.999	7837.56
736.339	7767.06
736.68	7864
737.021	7786.94
737.361	7814.96
737.702	7819.94
738.042	7809.99
738.383	7776.09
738.723	7781.97
739.063	7705.59
739.404	7738.58
739.744	7730.45
740.084	7711.01
740.424	7704.91
740.764	7686.61
741.104	7693.84
741.444	7636.66
741.784	7624.91
742.124	7699.94
742.464	7586.95
742.804	7591.92
743.143	7551.02
743.483	7582.88
743.823	7579.72
744.162	7567.96
744.502	7575.2
744.841	7487.06
745.181	7560.06
745.52	7509.21
745.86	7506.5
746.199	7411.58
746.538	7478.93
746.877	7490.23
747.216	7442.32
747.556	7464.01
747.895	7460.62
748.234	7424.24
748.573	7382.66
748.911	7418.36
749.25	7412.26
749.589	7367.52
749.928	7392.6
750.267	7397.57
750.605	7303.34
750.944	7317.12
751.283	7311.7
751.621	7271.25
751.96	7235.32
752.298	7246.62
752.636	7257.24
752.975	7181.08
753.313	7181.08
753.651	7191.7
753.989	7186.51
754.327	7174.75
754.666	7157.13
755.004	7194.64
755.342	7151.93
755.679	7110.58
756.017	7095.66
756.355	7129.33
756.693	7071.48
757.031	7081.88
757.368	7003.91
757.706	7005.95
758.044	6995.78
758.381	7046.85
758.719	6960.98
759.056	6938.38
759.394	6908.1
759.731	6847.98
760.068	6847.53
760.405	6828.55
760.743	6780.64
761.08	6865.16
761.417	6759.4
761.754	6762.56
762.091	6774.09
762.428	6710.59
762.765	6697.25
763.102	6658.61
763.438	6702
