Data from black_metal_pc_casing_FLMS001491_00033.txt Node
Date: Wed Feb 08 14:32:34 GMT 2017
User: dcchb
Spectrometer: FLMS00149
Trigger mode: 0
Integration Time (sec): 2.000000E-2
Scans to average: 10
Electric dark correction enabled: true
Nonlinearity correction enabled: false
Boxcar width: 0
XAxis mode: Wavelengths
Number of Pixels in Spectrum: 2048
>>>>>Begin Spectral Data<<<<<
341.393	-0.1
341.776	-0.1
342.16	-0.1
342.543	-69.48
342.927	-70.38
343.31	-52.53
343.693	-49.82
344.077	-70.61
344.46	-61.57
344.843	-76.03
345.226	-47.1
345.61	-39.65
345.993	-4.62
346.376	-17.05
346.759	18.43
347.142	12.56
347.525	36.74
347.908	67.24
348.291	66.57
348.674	97.53
349.057	119.9
349.44	112.44
349.823	140.69
350.206	176.62
350.588	165.77
350.971	188.14
351.354	211.2
351.737	229.73
352.119	236.05
352.502	250.52
352.884	265.66
353.267	268.82
353.65	270.63
354.032	273.11
354.414	276.5
354.797	298.88
355.179	323.73
355.562	306.79
355.944	315.83
356.326	326.22
356.709	308.82
357.091	305.2
357.473	326.9
357.855	345.88
358.238	336.84
358.62	321.93
359.002	326.67
359.384	334.81
359.766	329.61
360.148	343.17
360.53	330.29
360.912	309.95
361.294	321.02
361.676	319.21
362.057	321.02
362.439	349.95
362.821	319.89
363.203	332.77
363.584	324.86
363.966	317.63
364.348	331.87
364.729	298.42
365.111	311.98
365.493	336.39
365.874	307.01
366.256	331.64
366.637	318.54
367.019	287.8
367.4	322.38
367.781	310.18
368.163	298.2
368.544	325.99
368.925	324.41
369.306	311.08
369.688	293.23
370.069	305.66
370.45	315.6
370.831	305.88
371.212	310.63
371.593	317.18
371.974	302.49
372.355	303.17
372.736	343.39
373.117	302.04
373.498	300.23
373.879	319.44
374.26	301.81
374.641	337.29
375.021	313.79
375.402	317.41
375.783	300.23
376.163	326.45
376.544	332.1
376.925	314.02
377.305	322.38
377.686	325.54
378.066	332.77
378.447	325.54
378.827	326.67
379.208	317.63
379.588	319.89
379.968	314.24
380.349	343.62
380.729	331.87
381.109	324.86
381.489	336.62
381.87	333.23
382.25	331.64
382.63	344.52
383.01	342.49
383.39	333.68
383.77	357.18
384.15	342.94
384.53	338.88
384.91	337.29
385.29	355.82
385.67	331.19
386.049	364.41
386.429	351.76
386.809	343.85
387.189	357.18
387.568	366.22
387.948	370.74
388.328	379.33
388.707	367.58
389.087	359.44
389.466	375.71
389.846	367.12
390.225	376.39
390.605	379.55
390.984	375.71
391.363	373
391.743	367.58
392.122	389.5
392.501	375.48
392.881	371.64
393.26	376.39
393.639	381.59
394.018	388.59
394.397	408.03
394.776	388.14
395.155	400.79
395.534	404.86
395.913	412.55
396.292	422.26
396.671	409.38
397.05	384.52
397.429	416.61
397.808	404.86
398.186	385.43
398.565	411.87
398.944	410.06
399.323	393.11
399.701	403.28
400.08	390.63
400.458	414.58
400.837	421.36
401.215	455.03
401.594	427.46
401.972	419.55
402.351	415.94
402.729	427.46
403.107	443.96
403.486	416.16
403.864	439.21
404.242	425.65
404.62	424.07
404.999	438.76
405.377	456.84
405.755	442.15
406.133	446.44
406.511	448.25
406.889	443.96
407.267	463.84
407.645	449.61
408.023	471.75
408.401	482.6
408.779	463.39
409.156	486.67
409.534	455.71
409.912	478.31
410.29	490.28
410.667	485.54
411.045	488.93
411.422	486.22
411.8	501.81
412.178	493.9
412.555	489.15
412.933	505.42
413.31	514.69
413.687	505.65
414.065	512.43
414.442	535.03
414.819	520.57
415.197	519.21
415.574	536.16
415.951	541.81
416.328	518.08
416.705	525.76
417.082	564.63
417.46	545.88
417.837	539.77
418.214	552.65
418.591	555.82
418.967	568.93
419.344	574.12
419.721	565.76
420.098	548.59
420.475	567.57
420.852	563.73
421.228	576.61
421.605	607.34
421.982	574.12
422.358	614.8
422.735	592.43
423.111	583.84
423.488	593.78
423.864	608.47
424.241	630.84
424.617	622.94
424.994	626.33
425.37	616.61
425.746	624.29
426.123	640.79
426.499	632.88
426.875	617.74
427.251	662.71
427.627	660.45
428.003	658.41
428.379	663.39
428.756	679.43
429.132	669.49
429.507	679.21
429.883	687.79
430.259	687.79
430.635	710.16
431.011	708.13
431.387	703.39
431.763	739.99
432.138	709.26
432.514	746.55
432.89	747.23
433.265	763.04
433.641	758.07
434.016	760.11
434.392	778.19
434.767	778.64
435.143	771.63
435.518	791.07
435.894	789.94
436.269	787.23
436.644	805.98
437.02	808.02
437.395	813.21
437.77	820.22
438.145	823.16
438.52	805.98
438.895	843.95
439.271	840.56
439.646	855.25
440.021	850.05
440.395	847.56
440.77	850.27
441.145	860.44
441.52	892.53
441.895	881.91
442.27	898.63
442.645	874.68
443.019	881.46
443.394	894.11
443.769	921.68
444.143	883.95
444.518	913.55
444.892	897.05
445.267	899.31
445.641	931.63
446.016	917.17
446.39	932.98
446.764	951.74
447.139	957.39
447.513	951.06
447.887	932.76
448.262	966.43
448.636	976.82
449.01	968.01
449.384	955.81
449.758	985.41
450.132	981.57
450.506	980.44
450.88	999.87
451.254	994.23
451.628	999.65
452.002	1025.86
452.376	1028.35
452.75	1037.16
453.123	1038.74
453.497	1069.7
453.871	1075.58
454.244	1060.44
454.618	1085.75
454.992	1090.27
455.365	1112.64
455.739	1125.75
456.112	1155.58
456.486	1141.11
456.859	1156.03
457.232	1147.44
457.606	1157.16
457.979	1173.66
458.352	1179.98
458.725	1176.59
459.099	1217.04
459.472	1217.5
459.845	1268.79
460.218	1257.5
460.591	1233.99
460.964	1248.68
461.337	1277.38
461.71	1319.41
462.083	1324.16
462.456	1325.52
462.829	1324.39
463.201	1351.5
463.574	1338.4
463.947	1366.87
464.32	1388.11
464.692	1387.44
465.065	1400.54
465.438	1436.7
465.81	1467.66
466.183	1441.22
466.555	1467.43
466.928	1492.74
467.3	1476.02
467.672	1472.4
468.045	1542.01
468.417	1540.43
468.789	1559.41
469.161	1567.09
469.534	1577.26
469.906	1638.73
470.278	1645.96
470.65	1649.8
471.022	1703.36
471.394	1684.15
471.766	1736.13
472.138	1739.52
472.51	1754.88
472.882	1760.98
473.253	1808.44
473.625	1798.05
473.997	1851.38
474.369	1843.92
474.74	1885.5
475.112	1939.96
475.484	1940.64
475.855	1979.96
476.227	1979.96
476.598	2056.12
476.97	2020.86
477.341	2067.42
477.713	2102.22
478.084	2124.37
478.455	2160.97
478.827	2179.96
479.198	2247.07
479.569	2249.56
479.94	2304.93
480.311	2316.68
480.682	2370.69
481.053	2390.35
481.424	2451.14
481.795	2450.23
482.166	2490.23
482.537	2527.07
482.908	2587.63
483.279	2571.58
483.65	2617.23
484.021	2717.57
484.391	2708.76
484.762	2743.56
485.133	2786.49
485.503	2793.73
485.874	2836.89
486.244	2878.47
486.615	2911.01
486.985	2954.85
487.356	3000.73
487.726	3059.71
488.097	3074.85
488.467	3081.4
488.837	3160.04
489.207	3169.54
489.578	3200.49
489.948	3270.32
490.318	3316.88
490.688	3305.12
491.058	3378.8
491.428	3383.31
491.798	3420.6
492.168	3502.41
492.538	3494.27
492.908	3527.27
493.278	3591.9
493.648	3578.11
494.017	3592.8
494.387	3666.92
494.757	3696.3
495.126	3698.79
495.496	3717.54
495.866	3743.53
496.235	3829.18
496.605	3836.86
496.974	3874.6
497.344	3864.43
497.713	3912.79
498.082	3933.36
498.452	3964.99
498.821	4012.23
499.19	4002.96
499.559	4096.52
499.928	4067.82
500.298	4101.26
500.667	4112.11
501.036	4131.77
501.405	4143.97
501.774	4206.12
502.143	4202.28
502.512	4262.39
502.88	4281.14
503.249	4319.11
503.618	4355.94
503.987	4383.29
504.356	4373.35
504.724	4412.89
505.093	4417.86
505.462	4439.56
505.83	4488.82
506.199	4513.68
506.567	4581.25
506.936	4548.48
507.304	4618.08
507.672	4603.62
508.041	4660.12
508.409	4771.98
508.777	4719.55
509.145	4756.61
509.514	4772.43
509.882	4806.55
510.25	4840
510.618	4875.71
510.986	4887.46
511.354	4941.47
511.722	4979.66
512.09	5053.78
512.458	5006.78
512.826	5033.89
513.193	5106.89
513.561	5079.32
513.929	5178.07
514.297	5149.14
514.664	5265.98
515.032	5274.34
515.4	5306.43
515.767	5324.28
516.135	5350.72
516.502	5340.55
516.869	5385.75
517.237	5446.76
517.604	5440.66
517.972	5501
518.339	5546.65
518.706	5582.35
519.073	5602.01
519.44	5609.02
519.808	5724.95
520.175	5656.7
520.542	5746.42
520.909	5866.41
521.276	5873.42
521.643	5882.46
522.009	5962.23
522.376	6024.38
522.743	5978.5
523.11	6063.47
523.477	6059.4
523.843	6186.86
524.21	6189.12
524.577	6266.18
524.943	6280.87
525.31	6326.74
525.676	6380.07
526.043	6409.22
526.409	6482.44
526.776	6534.19
527.142	6582.55
527.508	6569.22
527.874	6627.75
528.241	6698.03
528.607	6707.97
528.973	6785.26
529.339	6790.46
529.705	6820.06
530.071	6943
530.437	6931.24
530.803	6960.4
531.169	7006.27
531.535	7005.14
531.901	7013.95
532.267	7097.12
532.632	7098.7
532.998	7187.96
533.364	7166.94
533.73	7253.5
534.095	7298.69
534.461	7317
534.826	7376.88
535.192	7423.66
535.557	7436.99
535.923	7469.08
536.288	7438.58
536.653	7514.73
537.019	7542.08
537.384	7505.92
537.749	7625.46
538.114	7600.61
538.479	7608.97
538.845	7644.22
539.21	7692.81
539.575	7671.79
539.94	7771.22
540.305	7795.4
540.67	7763.31
541.034	7797.66
541.399	7909.07
541.764	7890.99
542.129	7955.85
542.494	7926.02
542.858	7954.49
543.223	7998.56
543.587	8083.98
543.952	8039.92
544.316	8164.21
544.681	8114.49
545.045	8164.43
545.41	8208.05
545.774	8226.58
546.138	8216.41
546.503	8279.91
546.867	8209.63
547.231	8326.46
547.595	8340.92
547.959	8354.03
548.324	8376.63
548.688	8422.96
549.052	8409.85
549.416	8414.82
549.779	8427.93
550.143	8519.9
550.507	8621.37
550.871	8602.39
551.235	8599.22
551.599	8704.98
551.962	8702.05
552.326	8731.65
552.689	8766
553.053	8751.99
553.417	8789.73
553.78	8901.36
554.143	8807.81
554.507	8943.85
554.87	8940.91
555.234	9043.05
555.597	8919.89
555.96	9009.16
556.323	9111.53
556.686	9137.06
557.05	9150.17
557.413	9158.76
557.776	9144.97
558.139	9293.89
558.502	9300
558.865	9275.59
559.228	9378.86
559.59	9446.88
559.953	9464.74
560.316	9517.39
560.679	9556.71
561.041	9612.53
561.404	9572.3
561.767	9641.91
562.129	9610.27
562.492	9751.51
562.854	9773.88
563.217	9732.75
563.579	9878.96
563.941	9897.95
564.304	9988.11
564.666	9962.35
565.028	10010.49
565.39	10047.77
565.753	10092.52
566.115	10182.23
566.477	10241.67
566.839	10184.94
567.201	10283.02
567.563	10302.91
567.925	10341.1
568.287	10347.43
568.648	10417.25
569.01	10442.56
569.372	10638.94
569.734	10552.17
570.095	10619.73
570.457	10678.26
570.819	10635.1
571.18	10669.45
571.542	10758.04
571.903	10727.53
572.265	10820.41
572.626	10812.05
572.987	10896.34
573.349	10974.98
573.71	11031.48
574.071	10950.57
574.432	10964.13
574.794	11137.01
575.155	11101.98
575.516	11033.51
575.877	11057.01
576.238	11218.82
576.599	11236.22
576.96	11113.96
577.32	11179.27
577.681	11235.09
578.042	11274.18
578.403	11232.6
578.763	11203
579.124	11312.15
579.485	11326.83
579.845	11380.17
580.206	11334.29
580.566	11337.68
580.927	11414.97
581.287	11358.7
581.648	11362.99
582.008	11402.54
582.368	11383.1
582.728	11459.26
583.089	11412.03
583.449	11405.93
583.809	11432.37
584.169	11448.41
584.529	11487.28
584.889	11497.45
585.249	11486.38
585.609	11447.06
585.969	11501.29
586.329	11435.53
586.688	11495.64
587.048	11474.85
587.408	11449.77
587.768	11459.03
588.127	11507.4
588.487	11478.47
588.846	11499.71
589.206	11465.36
589.565	11536.32
589.925	11525.25
590.284	11439.6
590.643	11542.2
591.003	11539.48
591.362	11550.56
591.721	11527.51
592.08	11522.08
592.44	11592.36
592.799	11572.93
593.158	11584.68
593.517	11578.81
593.876	11531.58
594.235	11588.07
594.593	11545.59
594.952	11586.26
595.311	11603.44
595.67	11604.12
596.029	11676.88
596.387	11634.17
596.746	11599.14
597.104	11602.31
597.463	11581.07
597.822	11663.1
598.18	11638.01
598.538	11646.15
598.897	11654.06
599.255	11625.13
599.613	11724.11
599.972	11689.76
600.33	11653.15
600.688	11709.65
601.046	11709.2
601.404	11746.03
601.762	11722.76
602.12	11756.2
602.478	11878.23
602.836	11901.06
603.194	11748.74
603.552	11767.95
603.91	11778.35
604.268	11912.81
604.625	11827.39
604.983	11878.46
605.341	11854.73
605.698	11922.53
606.056	11854.96
606.413	11918.23
606.771	11924.56
607.128	11926.14
607.485	11892.7
607.843	11895.63
608.2	11942.19
608.557	12001.39
608.914	11918.23
609.272	12136.31
609.629	12031.68
609.986	12118.45
610.343	12090.66
610.7	12130.88
611.057	12073.03
611.414	12124.33
611.771	12111.9
612.127	12129.75
612.484	12128.62
612.841	12112.8
613.198	12177.43
613.554	12153.03
613.911	12243.65
614.267	12199.58
614.624	12183.31
614.98	12213.14
615.337	12229.41
615.693	12300.59
616.05	12219.92
616.406	12270.54
616.762	12229.18
617.118	12227.6
617.475	12272.12
617.831	12308.73
618.187	12415.39
618.543	12349.18
618.899	12412
619.255	12386.24
619.611	12372.91
619.967	12454.04
620.323	12365.45
620.678	12394.15
621.034	12368.62
621.39	12379.69
621.746	12390.76
622.101	12440.7
622.457	12358.45
622.812	12376.75
623.168	12451.1
623.523	12449.52
623.879	12475.51
624.234	12412.23
624.589	12480.02
624.945	12530.65
625.3	12463.08
625.655	12433.47
626.01	12398.9
626.365	12475.73
626.72	12425.11
627.075	12458.1
627.43	12478.44
627.785	12335.4
628.14	12443.87
628.495	12478.67
628.85	12417.65
629.205	12326.58
629.559	12412.46
629.914	12337.43
630.269	12409.52
630.623	12270.31
630.978	12308.73
631.332	12332.46
631.687	12432.34
632.041	12313.7
632.396	12330.2
632.75	12320.93
633.104	12350.08
633.459	12267.6
633.813	12232.12
634.167	12280.71
634.521	12264.66
634.875	12246.81
635.229	12293.82
635.583	12158.45
635.937	12199.58
636.291	12129.07
636.645	12192.57
636.999	12140.82
637.352	12133.14
637.706	12107.83
638.06	12095.18
638.413	12056.31
638.767	12134.5
639.121	12147.15
639.474	12016.53
639.828	12057.89
640.181	12113.48
640.534	12008.85
640.888	11929.76
641.241	12016.08
641.594	11962.75
641.947	11944.67
642.301	11920.27
642.654	11952.81
643.007	11927.72
643.36	11939.47
643.713	11891.79
644.066	11960.49
644.419	11858.35
644.771	11788.52
645.124	11670.1
645.477	11636.43
645.83	11631.69
646.182	11463.1
646.535	11501.52
646.888	11551.24
647.24	11538.13
647.593	11619.26
647.945	11468.75
648.298	11480.73
648.65	11362.09
649.002	11286.16
649.355	11444.12
649.707	11379.49
650.059	11458.13
650.411	11655.64
650.763	11611.12
651.115	11644.11
651.467	11662.42
651.819	11619.71
652.171	11639.14
652.523	11600.73
652.875	11554.63
653.227	11537.22
653.578	11699.48
653.93	11613.16
654.282	11534.29
654.633	11501.07
654.985	11548.98
655.337	11551.01
655.688	11547.39
656.039	11592.82
656.391	11467.17
656.742	11464.46
657.094	11492.03
657.445	11458.81
657.796	11499.94
658.147	11398.02
658.498	11439.83
658.849	11411.35
659.2	11377.23
659.551	11382.65
659.902	11487.51
660.253	11447.06
660.604	11434.63
660.955	11419.49
661.306	11413.16
661.656	11480.5
662.007	11368.87
662.358	11480.28
662.708	11401.64
663.059	11423.33
663.409	11319.15
663.76	11327.96
664.11	11361.18
664.461	11350.34
664.811	11414.74
665.161	11344.91
665.511	11304.69
665.862	11356.89
666.212	11335.2
666.562	11340.17
666.912	11312.6
667.262	11355.31
667.612	11283.9
667.962	11367.96
668.312	11341.52
668.662	11374.74
669.011	11374.07
669.361	11339.04
669.711	11337.46
670.06	11276.67
670.41	11242.32
670.76	11246.84
671.109	11333.61
671.459	11292.71
671.808	11211.13
672.157	11254.75
672.507	11152.6
672.856	11190.12
673.205	11172.94
673.554	11206.84
673.904	11117.57
674.253	11264.01
674.602	11183.79
674.951	11021.76
675.3	10973.85
675.649	11122.09
675.998	11110.8
676.346	11158.03
676.695	11124.81
677.044	11096.33
677.393	11144.24
677.741	11173.62
678.09	11078.93
678.438	11022.66
678.787	11032.83
679.135	11047.07
679.484	11002.55
679.832	11027.63
680.181	10930.24
680.529	10956.22
680.877	10978.6
681.225	10922.1
681.573	11010.01
681.922	10868.54
682.27	10892.27
682.618	10968.65
682.966	10869.22
683.314	10815.21
683.661	10877.81
684.009	10774.99
684.357	10870.58
684.705	10789.67
685.053	10759.62
685.4	10870.58
685.748	10778.6
686.095	10677.13
686.443	10671.48
686.79	10663.35
687.138	10681.43
687.485	10613.18
687.832	10669.23
688.18	10570.7
688.527	10634.88
688.874	10544.26
689.221	10565.95
689.568	10567.98
689.915	10463.81
690.262	10532.28
690.609	10494.77
690.956	10472.62
691.303	10385.62
691.65	10327.54
691.997	10383.58
692.344	10364.83
692.69	10204.83
693.037	10234.21
693.383	10199.18
693.73	10223.59
694.077	10184.72
694.423	10172.29
694.769	10079.41
695.116	10155.11
695.462	10135.23
695.808	10125.28
696.155	10097.71
696.501	10007.1
696.847	10035.12
697.193	9948.11
697.539	10016.81
697.885	9933.88
698.231	9878.06
698.577	9863.37
698.923	9897.27
699.269	9852.3
699.614	9804.39
699.96	9775.46
700.306	9759.87
700.651	9687.56
700.997	9656.82
701.342	9652.3
701.688	9682.58
702.033	9606.65
702.379	9561.23
702.724	9538.86
703.069	9667.44
703.415	9562.36
703.76	9528.69
704.105	9562.81
704.45	9537.05
704.795	9428.81
705.14	9444.85
705.485	9385.42
705.83	9392.2
706.175	9316.49
706.52	9337.96
706.865	9301.8
707.209	9293.89
707.554	9236.95
707.899	9235.14
708.243	9202.6
708.588	9246.44
708.932	9216.38
709.277	9181.58
709.621	9172.54
709.966	9105.88
710.31	9127.8
710.654	9105.88
710.998	9112.2
711.342	9099.55
711.687	9065.65
712.031	9014.35
712.375	9046.44
712.719	8987.69
713.063	9010.51
713.407	9011.19
713.75	8942.49
714.094	8951.08
714.438	8925.77
714.782	8892.77
715.125	8890.74
715.469	8904.75
715.812	8846.67
716.156	8815.04
716.499	8753.8
716.843	8801.25
717.186	8765.55
717.53	8832.44
717.873	8777.52
718.216	8748.82
718.559	8763.96
718.902	8668.83
719.246	8706.56
719.589	8653.91
719.932	8601.48
720.275	8579.79
720.617	8620.47
720.96	8580.01
721.303	8571.88
721.646	8639.45
721.989	8559.22
722.331	8620.69
722.674	8493.92
723.016	8563.07
723.359	8556.96
723.701	8526
724.044	8435.84
724.386	8395.39
724.729	8390.41
725.071	8427.7
725.413	8483.97
725.755	8392.9
726.097	8414.82
726.439	8322.62
726.782	8340.25
727.124	8387.25
727.465	8301.6
727.807	8315.39
728.149	8265.9
728.491	8270.19
728.833	8356.52
729.175	8213.47
729.516	8223.87
729.858	8204.88
730.199	8283.07
730.541	8220.02
730.882	8221.61
731.224	8156.97
731.565	8199.23
731.906	8155.39
732.248	8221.61
732.589	8156.52
732.93	8117.65
733.271	8083.98
733.612	8102.51
733.953	8133.47
734.294	8098.45
734.635	8090.54
734.976	8134.15
735.317	8071.1
735.658	8062.74
735.999	8017.54
736.339	8080.14
736.68	8038.56
737.021	8075.4
737.361	8041.95
737.702	7975.28
738.042	7956.08
738.383	7908.39
738.723	7914.72
739.063	7949.97
739.404	7945.68
739.744	7912.46
740.084	7865.68
740.424	7959.24
740.764	7839.92
741.104	7905
741.444	7850.54
741.784	7847.38
742.124	7834.95
742.464	7751.79
742.804	7840.37
743.143	7797.89
743.483	7814.84
743.823	7704.56
744.162	7741.84
744.502	7737.55
744.841	7741.84
745.181	7768.28
745.52	7710.43
745.86	7734.61
746.199	7656.65
746.538	7770.32
746.877	7660.94
747.216	7651.68
747.556	7630.66
747.895	7703.2
748.234	7634.73
748.573	7623.66
748.911	7643.32
749.25	7573.71
749.589	7574.39
749.928	7547.95
750.267	7542.98
750.605	7564.9
750.944	7573.71
751.283	7445.36
751.621	7493.94
751.96	7415.75
752.298	7458.91
752.636	7469.31
752.975	7437.9
753.313	7357.45
753.651	7466.82
753.989	7371.23
754.327	7350.67
754.666	7331.69
755.004	7288.75
755.342	7343.21
755.679	7289.43
756.017	7170.11
756.355	7306.6
756.693	7206.04
757.031	7217.34
757.368	7183.89
757.706	7169.43
758.044	7146.83
758.381	7132.82
758.719	7148.19
759.056	7157.68
759.394	7096.44
759.731	7069.55
760.068	7086.49
760.405	7021.19
760.743	7027.74
761.08	7061.18
761.417	6987.51
761.754	6955.2
762.091	6980.51
762.428	6962.66
762.765	6866.39
