Data from black_metal_pc_casing_FLMS001491_00091.txt Node
Date: Wed Feb 08 14:33:47 GMT 2017
User: dcchb
Spectrometer: FLMS00149
Trigger mode: 0
Integration Time (sec): 2.000000E-2
Scans to average: 10
Electric dark correction enabled: true
Nonlinearity correction enabled: false
Boxcar width: 0
XAxis mode: Wavelengths
Number of Pixels in Spectrum: 2048
>>>>>Begin Spectral Data<<<<<
341.393	10.49
341.776	10.49
342.16	10.49
342.543	-74.48
342.927	-74.25
343.31	-69.96
343.693	-76.74
344.077	-69.5
344.46	-59.11
344.843	-71.54
345.226	-38.09
345.61	-26.34
345.993	-24.53
346.376	-16.17
346.759	16.37
347.142	26.76
347.525	49.59
347.908	72.87
348.291	73.32
348.674	105.86
349.057	107.21
349.44	118.74
349.823	104.73
350.206	154.22
350.588	192.41
350.971	203.48
351.354	232.18
351.737	235.12
352.119	243.26
352.502	228.12
352.884	258.17
353.267	266.98
353.65	278.74
354.032	281
354.414	318.28
354.797	302.69
355.179	289.13
355.562	290.03
355.944	320.32
356.326	333.2
356.709	331.84
357.091	328
357.473	315.12
357.855	365.96
358.238	347.89
358.62	330.03
359.002	330.49
359.384	331.62
359.766	305.85
360.148	343.82
360.53	329.58
360.912	345.4
361.294	321.9
361.676	332.97
362.057	326.87
362.439	318.06
362.821	312.18
363.203	319.64
363.584	310.15
363.966	310.37
364.348	317.38
364.729	298.17
365.111	302.69
365.493	310.15
365.874	295.68
366.256	310.83
366.637	318.28
367.019	306.98
367.4	313.08
367.781	303.82
368.163	321.67
368.544	285.97
368.925	321.22
369.306	326.64
369.688	295.01
370.069	309.92
370.45	319.64
370.831	322.12
371.212	300.66
371.593	323.71
371.974	295.91
372.355	311.05
372.736	306.53
373.117	342.01
373.498	312.41
373.879	301.56
374.26	323.93
374.641	317.38
375.021	306.08
375.402	318.73
375.783	330.03
376.163	339.98
376.544	314.44
376.925	334.1
377.305	321.67
377.686	311.05
378.066	335.01
378.447	351.28
378.827	334.78
379.208	339.98
379.588	340.65
379.968	337.27
380.349	334.1
380.729	346.3
381.109	345.4
381.489	335.46
381.87	349.02
382.25	352.63
382.63	358.06
383.01	341.33
383.39	361.22
383.77	349.24
384.15	347.66
384.53	358.51
384.91	350.15
385.29	359.86
385.67	339.3
386.049	371.39
386.429	352.18
386.809	378.62
387.189	356.02
387.568	371.61
387.948	374.55
388.328	382.24
388.707	381.11
389.087	363.71
389.466	391.05
389.846	385.63
390.225	388.79
390.605	386.98
390.984	386.53
391.363	397.83
391.743	368
392.122	398.05
392.501	404.61
392.881	427.21
393.26	402.35
393.639	405.51
394.018	397.15
394.397	418.62
394.776	427.21
395.155	438.51
395.534	396.92
395.913	409.13
396.292	438.96
396.671	411.84
397.05	433.08
397.429	448
397.808	451.84
398.186	409.58
398.565	445.51
398.944	424.49
399.323	456.13
399.701	459.75
400.08	456.13
400.458	468.56
400.837	453.42
401.215	474.66
401.594	452.74
401.972	453.42
402.351	462.69
402.729	466.53
403.107	470.59
403.486	471.72
403.864	470.14
404.242	483.25
404.62	487.32
404.999	462.91
405.377	462.91
405.755	497.26
406.133	513.31
406.511	495.45
406.889	506.53
407.267	487.09
407.645	491.39
408.023	528.67
408.401	508.11
408.779	515.11
409.156	524.83
409.534	529.8
409.912	547.43
410.29	539.75
410.667	535
411.045	525.51
411.422	549.69
411.8	558.28
412.178	549.69
412.555	567.32
412.933	589.69
413.31	567.77
413.687	558.28
414.065	590.37
414.442	597.82
414.819	595.34
415.197	610.03
415.574	607.09
415.951	622.46
416.328	615.68
416.705	645.73
417.082	623.59
417.46	627.65
417.837	641.89
418.214	629.46
418.591	632.4
418.967	636.24
419.344	653.87
419.721	678.5
420.098	665.17
420.475	664.71
420.852	680.76
421.228	668.78
421.605	667.65
421.982	669.01
422.358	678.27
422.735	703.13
423.111	678.05
423.488	715.33
423.864	722.11
424.241	725.96
424.617	718.05
424.994	728.89
425.37	737.93
425.746	737.93
426.123	736.58
426.499	755.33
426.875	746.07
427.251	769.57
427.627	760.3
428.003	779.29
428.379	789.68
428.756	790.59
429.132	797.37
429.507	816.35
429.883	823.35
430.259	834.88
430.635	844.37
431.011	826.97
431.387	854.77
431.763	857.48
432.138	864.71
432.514	891.83
432.89	894.54
433.265	904.93
433.641	922.79
434.016	925.72
434.392	933.41
434.767	933.63
435.143	935.67
435.518	966.85
435.894	974.99
436.269	983.35
436.644	1013.63
437.02	968.66
437.395	992.16
437.77	1010.24
438.145	1023.12
438.52	1033.74
438.895	1028.77
439.271	1051.82
439.646	1050.01
440.021	1060.86
440.395	1071.03
440.77	1043.24
441.145	1069
441.52	1071.71
441.895	1084.59
442.27	1110.13
442.645	1084.82
443.019	1131.37
443.394	1137.24
443.769	1126.4
444.143	1123.01
444.518	1125.27
444.892	1159.16
445.267	1169.79
445.641	1144.7
446.016	1170.92
446.39	1149.67
446.764	1172.5
447.139	1160.75
447.513	1170.92
447.887	1184.25
448.262	1207.3
448.636	1203.46
449.01	1209.11
449.384	1234.42
449.758	1243.23
450.132	1234.64
450.506	1272.38
450.88	1251.59
451.254	1264.47
451.628	1268.77
452.002	1284.13
452.376	1298.82
452.75	1298.37
453.123	1333.62
453.497	1339.5
453.871	1333.85
454.244	1343.79
454.618	1366.62
454.992	1394.64
455.365	1396.9
455.739	1425.15
456.112	1445.94
456.486	1452.72
456.859	1468.53
457.232	1483.45
457.606	1483.9
457.979	1500.17
458.352	1506.27
458.725	1555.31
459.099	1564.58
459.472	1589.66
459.845	1585.59
460.218	1612.71
460.591	1612.26
460.964	1608.87
461.337	1654.07
461.71	1715.76
462.083	1724.57
462.456	1708.75
462.829	1715.76
463.201	1724.57
463.574	1751.69
463.947	1788.75
464.32	1785.59
464.692	1837.11
465.065	1834.17
465.438	1834.17
465.81	1888.41
466.183	1911.91
466.555	1947.39
466.928	1935.42
467.3	1927.51
467.672	1994.85
468.045	2007.28
468.417	2041.4
468.789	2038.46
469.161	2078.01
469.534	2065.36
469.906	2129.76
470.278	2140.61
470.65	2165.47
471.022	2210.66
471.394	2265.35
471.766	2249.08
472.138	2304.9
472.51	2338.57
472.882	2384.67
473.253	2377.66
473.625	2418.79
473.997	2455.4
474.369	2449.75
474.74	2508.73
475.112	2525.68
475.484	2576.08
475.855	2630.09
476.227	2637.77
476.598	2736.75
476.97	2760.48
477.341	2788.95
477.713	2796.86
478.084	2865.11
478.455	2928.16
478.827	2966.57
479.198	3019.68
479.569	3058.1
479.94	3091.09
480.311	3102.62
480.682	3197.3
481.053	3260.13
481.424	3299.9
481.795	3353.46
482.166	3376.06
482.537	3440.69
482.908	3480.23
483.279	3540.57
483.65	3563.62
484.021	3656.73
484.391	3683.62
484.762	3685.65
485.133	3761.13
485.503	3767.01
485.874	3894.23
486.244	3923.39
486.615	3973.78
486.985	4026.89
487.356	4105.3
487.726	4127.22
488.097	4238.41
488.467	4235.69
488.837	4294.22
489.207	4324.5
489.578	4472.98
489.948	4477.04
490.318	4590.03
490.688	4505.52
491.058	4566.98
491.428	4626.87
491.798	4709.13
492.168	4788
492.538	4821.89
492.908	4818.5
493.278	4941.89
493.648	4938.95
494.017	5007.65
494.387	5058.5
494.757	5112.96
495.126	5150.92
495.496	5136.91
495.866	5205.61
496.235	5225.72
496.605	5317.7
496.974	5285.16
497.344	5402.67
497.713	5434.08
498.082	5454.64
498.452	5479.5
498.821	5567.86
499.19	5580.07
499.559	5650.35
499.928	5635.43
500.298	5723.34
500.667	5765.15
501.036	5763.11
501.405	5764.69
501.774	5762.66
502.143	5877.68
502.512	5887.85
502.88	5948.87
503.249	5982.31
503.618	6028.19
503.987	6033.39
504.356	6117.68
504.724	6117
505.093	6148.19
505.462	6196.77
505.83	6228.86
506.199	6322.19
506.567	6378.69
506.936	6394.51
507.304	6467.95
507.672	6451.91
508.041	6524.9
508.409	6595.18
508.777	6626.82
509.145	6665.01
509.514	6626.14
509.882	6687.15
510.25	6786.59
510.618	6823.65
510.986	6871.78
511.354	6849.86
511.722	6944.32
512.09	7010.08
512.458	7028.39
512.826	7062.74
513.193	7136.18
513.561	7110.42
513.929	7259.79
514.297	7289.4
514.664	7353.8
515.032	7392.67
515.4	7386.8
515.767	7439.45
516.135	7559.45
516.502	7510.64
516.869	7682.61
517.237	7721.03
517.604	7666.11
517.972	7774.58
518.339	7775.71
518.706	7853.45
519.073	7884.86
519.44	7952.43
519.808	8056.38
520.175	8026.1
520.542	8111.07
520.909	8201.47
521.276	8198.75
521.643	8334.12
522.009	8362.82
522.376	8425.64
522.743	8434
523.11	8530.04
523.477	8641.91
523.843	8673.09
524.21	8749.25
524.577	8838.28
524.943	8885.29
525.31	8914.44
525.676	9013.2
526.043	9072.63
526.409	9080.99
526.776	9220.87
527.142	9264.94
527.508	9314.66
527.874	9367.99
528.241	9434.65
528.607	9478.72
528.973	9549.68
529.339	9617.02
529.705	9658.83
530.071	9730.92
530.437	9803.68
530.803	9778.82
531.169	9857.92
531.535	9933.62
531.901	9980.85
532.267	9957.8
532.632	10128.87
532.998	10121.64
533.364	10194.86
533.73	10144.92
534.095	10300.17
534.461	10352.14
534.826	10374.29
535.192	10416.77
535.557	10469.43
535.923	10522.99
536.288	10577.22
536.653	10679.14
537.019	10619.03
537.384	10687.05
537.749	10624.68
538.114	10812.02
538.479	10722.98
538.845	10835.75
539.21	10845.92
539.575	10944.67
539.94	10834.16
540.305	10987.83
540.67	11056.53
541.034	11014.27
541.399	11102.86
541.764	11110.99
542.129	11124.33
542.494	11192.12
542.858	11160.71
543.223	11322.74
543.587	11346.02
543.952	11335.85
544.316	11302.4
544.681	11381.04
545.045	11428.72
545.41	11495.84
545.774	11575.16
546.138	11532.45
546.503	11627.59
546.867	11621.49
547.231	11805.44
547.595	11716.63
547.959	11770.86
548.324	11803.18
548.688	11781.71
549.052	11901.48
549.416	11894.7
549.779	11915.04
550.143	11905.1
550.507	12115.71
550.871	12162.49
551.235	12108.26
551.599	12199.78
551.962	12234.58
552.326	12264.64
552.689	12312.32
553.053	12357.06
553.417	12365.42
553.78	12485.42
554.143	12555.93
554.507	12551.86
554.87	12596.15
555.234	12684.51
555.597	12626.21
555.96	12700.56
556.323	12748.24
556.686	12845.86
557.05	12921.34
557.413	12934.22
557.776	12913.66
558.139	13052.86
558.502	13065.97
558.865	13115.91
559.228	13207.21
559.59	13278.85
559.953	13237.94
560.316	13431.61
560.679	13439.75
561.041	13488.56
561.404	13622.34
561.767	13667.54
562.129	13657.59
562.492	13802.45
562.854	13721.32
563.217	13861.66
563.579	13940.3
563.941	13924.25
564.304	14076.56
564.666	14129.9
565.028	14080.41
565.39	14285.6
565.753	14348.2
566.115	14290.8
566.477	14363.34
566.839	14540.51
567.201	14564.01
567.563	14495.54
567.925	14630.67
568.287	14602.88
568.648	14651.01
569.01	14825.25
569.372	14920.84
569.734	14840.39
570.095	14909.09
570.457	14991.57
570.819	14961.97
571.18	15035.41
571.542	15107.05
571.903	15212.35
572.265	15198.12
572.626	15218.46
572.987	15299.36
573.349	15302.07
573.71	15394.5
574.071	15505.91
574.432	15446.47
574.794	15648.73
575.155	15541.61
575.516	15587.26
575.877	15599.01
576.238	15574.38
576.599	15662.51
576.96	15716.97
577.32	15762.17
577.681	15732.11
578.042	15832.68
578.403	15792
578.763	15755.62
579.124	15809.63
579.485	16052.33
579.845	15973.46
580.206	15952.67
580.566	15981.37
580.927	16036.06
581.287	16104.53
581.648	16035.16
582.008	16177.75
582.368	16081.71
582.728	16063.18
583.089	16085.1
583.449	16055.95
583.809	16096.85
584.169	16050.98
584.529	16090.3
584.889	16162.39
585.249	16069.96
585.609	16101.37
585.969	16151.99
586.329	16160.58
586.688	16149.28
587.048	16107.25
587.408	16173.23
587.768	16094.14
588.127	16132.33
588.487	16209.84
588.846	16210.97
589.206	16107.7
589.565	16158.32
589.925	16246.68
590.284	16220.92
590.643	16174.59
591.003	16297.98
591.362	16356.28
591.721	16260.24
592.08	16274.7
592.44	16278.09
592.799	16377.52
593.158	16223.85
593.517	16247.58
593.876	16258.65
594.235	16249.39
594.593	16231.99
594.952	16311.53
595.311	16279.44
595.67	16270.86
596.029	16470.4
596.387	16456.62
596.746	16412.1
597.104	16322.16
597.463	16382.04
597.822	16324.19
598.18	16340.23
598.538	16408.71
598.897	16471.76
599.255	16313.12
599.613	16640.79
599.972	16500.68
600.33	16551.53
600.688	16505.65
601.046	16521.92
601.404	16532.77
601.762	16554.24
602.12	16629.04
602.478	16583.84
602.836	16626.1
603.194	16551.75
603.552	16611.19
603.91	16584.75
604.268	16606.22
604.625	16683.73
604.983	16722.37
605.341	16577.29
605.698	16684.18
606.056	16680.79
606.413	16738.64
606.771	16794.91
607.128	16823.61
607.485	16735.25
607.843	16782.03
608.2	16757.4
608.557	16932.54
608.914	16794.69
609.272	16916.94
609.629	16961.69
609.986	16986.77
610.343	16965.08
610.7	17003.04
611.057	17031.52
611.414	16977.05
611.771	17042.59
612.127	17043.94
612.484	17038.52
612.841	17124.39
613.198	16964.62
613.554	17083.04
613.911	17204.17
614.267	17065.86
614.624	17159.42
614.98	17119.65
615.337	17278.97
615.693	17245.07
616.05	17190.38
616.406	17305.63
616.762	17196.03
617.118	17299.53
617.475	17265.86
617.831	17351.06
618.187	17380.66
618.543	17364.84
618.899	17426.99
619.255	17423.14
619.611	17363.48
619.967	17476.02
620.323	17496.14
620.678	17479.87
621.034	17349.47
621.39	17399.64
621.746	17379.3
622.101	17524.16
622.457	17329.36
622.812	17466.31
623.168	17468.79
623.523	17460.66
623.879	17570.48
624.234	17425.63
624.589	17451.17
624.945	17548.79
625.3	17439.19
625.655	17500.2
626.01	17607.09
626.365	17566.19
626.72	17504.72
627.075	17553.08
627.43	17475.35
627.785	17477.83
628.14	17496.36
628.495	17579.07
628.85	17528.23
629.205	17446.65
629.559	17485.97
629.914	17424.95
630.269	17358.51
630.623	17366.65
630.978	17340.89
631.332	17394.67
631.687	17466.53
632.041	17351.73
632.396	17370.04
632.75	17294.56
633.104	17342.02
633.459	17296.14
633.813	17197.84
634.167	17205.97
634.521	17184.28
634.875	17140.21
635.229	17181.57
635.583	17264.05
635.937	17177.73
636.291	17157.84
636.645	17111.74
636.999	17022.93
637.352	17114.68
637.706	17039.42
638.06	17086.2
638.413	17103.38
638.767	17044.62
639.121	17004.85
639.474	16836.72
639.828	16846.66
640.181	16938.64
640.534	16947.22
640.888	16837.85
641.241	16804.4
641.594	16867.45
641.947	16788.36
642.301	16838.75
642.654	16871.29
643.007	16802.37
643.36	16852.31
643.713	16788.36
644.066	16858.64
644.419	16711.07
644.771	16509.72
645.124	16444.19
645.477	16356.73
645.83	16314.25
646.182	16247.36
646.535	16134.59
646.888	16200.8
647.24	16091.43
647.593	16255.04
647.945	16201.48
648.298	16065.89
648.65	16045.55
649.002	15968.94
649.355	16069.51
649.707	16044.65
650.059	16084.2
650.411	16296.85
650.763	16329.61
651.115	16426.79
651.467	16358.31
651.819	16370.06
652.171	16293.23
652.523	16362.38
652.875	16280.35
653.227	16225.21
653.578	16282.83
653.93	16299.56
654.282	16117.87
654.633	16089.17
654.985	16322.38
655.337	16271.08
655.688	16208.26
656.039	16384.98
656.391	16224.98
656.742	16137.3
657.094	16103.18
657.445	16206.68
657.796	16128.04
658.147	16114.93
658.498	16126
658.849	16114.03
659.2	16127.58
659.551	16029.73
659.902	16098.43
660.253	16133.91
660.604	16142.73
660.955	15986.35
661.306	15997.42
661.656	16021.15
662.007	15946.12
662.358	15967.81
662.708	16004.42
663.059	16020.92
663.409	15889.17
663.76	15998.1
664.11	15953.58
664.461	15955.39
664.811	15946.57
665.161	15962.39
665.511	15933.47
665.862	15976.63
666.212	16038.32
666.562	15940.02
666.912	15904.77
667.262	15923.75
667.612	15899.12
667.962	15929.17
668.312	15870.87
668.662	15969.4
669.011	15864.09
669.361	15866.35
669.711	15859.57
670.06	15939.34
670.41	15832.9
670.76	15824.54
671.109	15817.54
671.459	15815.28
671.808	15757.42
672.157	15782.51
672.507	15733.47
672.856	15751.32
673.205	15726.01
673.554	15881.04
673.904	15663.87
674.253	15824.54
674.602	15672
674.951	15483.31
675.3	15420.03
675.649	15682.85
675.998	15588.84
676.346	15532.57
676.695	15717.65
677.044	15575.28
677.393	15589.29
677.741	15589.07
678.09	15544.1
678.438	15523.53
678.787	15503.19
679.135	15512.91
679.484	15396.08
679.832	15476.08
680.181	15405.8
680.529	15470.2
680.877	15422.07
681.225	15312.01
681.573	15461.16
681.922	15314.5
682.27	15395.63
682.618	15304.33
682.966	15244.44
683.314	15315.85
683.661	15246.93
684.009	15158.57
684.357	15110.66
684.705	15156.31
685.053	15119.02
685.4	15125.35
685.748	14996.31
686.095	15074.28
686.443	14988.63
686.79	15037.9
687.138	14953.83
687.485	14998.57
687.832	14908.18
688.18	14954.73
688.527	14891.68
688.874	14833.38
689.221	14784.79
689.568	14743.67
689.915	14686.27
690.262	14675.87
690.609	14639.71
690.956	14625.93
691.303	14594.07
691.65	14555.65
691.997	14484.24
692.344	14355.2
692.69	14472.26
693.037	14451.02
693.383	14287.63
693.73	14449.89
694.077	14308.2
694.423	14254.64
694.769	14192.04
695.116	14256.9
695.462	14160.18
695.808	14098.71
696.155	14111.14
696.501	13900.98
696.847	14039.96
697.193	13905.04
697.539	13949.79
697.885	13980.75
698.231	13921.99
698.577	13812.39
698.923	13732.62
699.269	13695.11
699.614	13683.13
699.96	13607.2
700.306	13744.6
700.651	13620.76
700.997	13574.66
701.342	13578.27
701.688	13475.45
702.033	13453.3
702.379	13453.53
702.724	13508.22
703.069	13456.02
703.415	13287.66
703.76	13298.96
704.105	13356.81
704.45	13301.9
704.795	13183.48
705.14	13233.2
705.485	13190.71
705.83	13090.15
706.175	13190.26
706.52	13033.43
706.865	13028
707.209	12957.5
707.554	13000.66
707.899	13054.44
708.243	12891.06
708.588	12841.8
708.932	12839.08
709.277	12799.08
709.621	12821.23
709.966	12718.41
710.31	12775.13
710.654	12672.31
710.998	12685.87
711.342	12705.75
711.687	12636.38
712.031	12590.28
712.375	12571.75
712.719	12534.23
713.063	12524.97
713.407	12555.93
713.75	12497.4
714.094	12558.86
714.438	12498.53
714.782	12399.32
715.125	12430.73
715.469	12389.15
715.812	12285.88
716.156	12265.77
716.499	12291.53
716.843	12250.4
717.186	12173.56
717.53	12336.05
717.873	12249.72
718.216	12128.82
718.559	12214.47
718.902	12065.54
719.246	12082.27
719.589	12030.74
719.932	12060.12
720.275	12021.03
720.617	12000.46
720.96	11980.35
721.303	11967.02
721.646	12000.24
721.989	11851.09
722.331	11995.72
722.674	11923.63
723.016	11908.49
723.359	11841.6
723.701	11886.79
724.044	11739.45
724.386	11734.25
724.729	11769.28
725.071	11751.88
725.413	11757.76
725.755	11703.75
726.097	11621.04
726.439	11631.66
726.782	11661.71
727.124	11806.57
727.465	11562.28
727.807	11598.66
728.149	11604.31
728.491	11537.2
728.833	11510.08
729.175	11579.23
729.516	11510.76
729.858	11532.23
730.199	11544.43
730.541	11477.31
730.882	11475.05
731.224	11513.24
731.565	11423.08
731.906	11442.28
732.248	11409.06
732.589	11346.47
732.93	11298.78
733.271	11318.22
733.612	11297.65
733.953	11391.44
734.294	11230.54
734.635	11306.24
734.976	11326.13
735.317	11180.6
735.658	11193.25
735.999	11237.54
736.339	11230.09
736.68	11252.91
737.021	11235.74
737.361	11067.38
737.702	11148.28
738.042	11070.99
738.383	11143.53
738.723	11129.3
739.063	11049.3
739.404	11102.41
739.744	11087.04
740.084	10978.57
740.424	11006.59
740.764	11008.62
741.104	11124.33
741.444	10928.17
741.784	10950.77
742.124	10963.43
742.464	10878.68
742.804	10864.22
743.143	10903.32
743.483	10848.18
743.823	10867.84
744.162	10831.9
744.502	10839.14
744.841	10834.62
745.181	10791.91
745.52	10858.34
745.86	10735.41
746.199	10725.24
746.538	10755.07
746.877	10751.45
747.216	10728.63
747.556	10662.64
747.895	10639.82
748.234	10616.09
748.573	10563.66
748.911	10611.57
749.25	10597.33
749.589	10588.75
749.928	10561.86
750.267	10460.16
750.605	10524.12
750.944	10525.7
751.283	10434.17
751.621	10438.24
751.96	10413.84
752.298	10314.63
752.636	10363.44
752.975	10342.65
753.313	10291.13
753.651	10334.97
753.989	10231.92
754.327	10235.99
754.666	10198.02
755.004	10232.82
755.342	10167.52
755.679	10254.29
756.017	10120.06
756.355	10158.25
756.693	10090
