Data from black_metal_pc_casing_FLMS001491_00030.txt Node
Date: Wed Feb 08 14:32:16 GMT 2017
User: dcchb
Spectrometer: FLMS00149
Trigger mode: 0
Integration Time (sec): 2.000000E-2
Scans to average: 10
Electric dark correction enabled: true
Nonlinearity correction enabled: false
Boxcar width: 0
XAxis mode: Wavelengths
Number of Pixels in Spectrum: 2048
>>>>>Begin Spectral Data<<<<<
341.393	-14.29
341.776	-14.29
342.16	-14.29
342.543	-52.03
342.927	-52.26
343.31	-71.47
343.693	-63.33
344.077	-61.3
344.46	-75.53
344.843	-64.91
345.226	-49.32
345.61	-33.05
345.993	-32.82
346.376	3.79
346.759	17.34
347.142	12.15
347.525	51.02
347.908	63.22
348.291	71.35
348.674	99.15
349.057	133.73
349.44	121.3
349.823	124.91
350.206	151.58
350.588	183.67
350.971	172.82
351.354	222.08
351.737	228.41
352.119	225.93
352.502	222.76
352.884	265.25
353.267	278.13
353.65	299.37
354.032	303.66
354.414	305.47
354.797	314.74
355.179	315.64
355.562	315.19
355.944	310.67
356.326	324.68
356.709	316.32
357.091	312.03
357.473	316.77
357.855	335.08
358.238	328.07
358.62	323.32
359.002	318.58
359.384	341.18
359.766	310.9
360.148	332.14
360.53	320.16
360.912	317.45
361.294	331.01
361.676	324.68
362.057	341.86
362.439	339.37
362.821	304.79
363.203	319.94
363.584	314.74
363.966	294.4
364.348	326.26
364.729	327.17
365.111	310.22
365.493	303.66
365.874	307.05
366.256	310.22
366.637	304.79
367.019	288.98
367.4	303.44
367.781	291.01
368.163	303.89
368.544	300.95
368.925	309.77
369.306	333.72
369.688	305.25
370.069	302.31
370.45	300.05
370.831	298.01
371.212	316.77
371.593	310.22
371.974	307.05
372.355	313.16
372.736	306.38
373.117	305.25
373.498	316.77
373.879	302.76
374.26	293.95
374.641	305.47
375.021	302.99
375.402	316.32
375.783	320.39
376.163	312.93
376.544	321.29
376.925	322.87
377.305	346.38
377.686	315.87
378.066	313.38
378.447	336.88
378.827	328.3
379.208	333.04
379.588	327.17
379.968	340.05
380.349	343.44
380.729	336.21
381.109	345.47
381.489	338.01
381.87	333.04
382.25	300.95
382.63	347.5
383.01	354.74
383.39	341.4
383.77	338.24
384.15	328.97
384.53	325.81
384.91	350.67
385.29	372.59
385.67	345.25
386.049	334.85
386.429	366.49
386.809	372.36
387.189	349.09
387.568	361.29
387.948	357.67
388.328	395.41
388.707	359.26
389.087	361.52
389.466	355.19
389.846	353.38
390.225	379.59
390.605	364
390.984	381.4
391.363	389.54
391.743	367.62
392.122	379.82
392.501	384.11
392.881	401.06
393.26	378.01
393.639	394.28
394.018	385.02
394.397	371.01
394.776	390.67
395.155	397.67
395.534	392.02
395.913	398.8
396.292	409.2
396.671	419.59
397.05	410.1
397.429	415.53
397.808	412.14
398.186	391.8
398.565	421.18
398.944	427.28
399.323	404.9
399.701	423.44
400.08	425.7
400.458	427.28
400.837	414.4
401.215	422.53
401.594	415.75
401.972	445.81
402.351	405.13
402.729	426.82
403.107	427.05
403.486	453.26
403.864	436.32
404.242	450.55
404.62	427.73
404.999	437.9
405.377	455.52
405.755	455.52
406.133	453.04
406.511	465.24
406.889	448.97
407.267	475.64
407.645	500.27
408.023	476.77
408.401	472.93
408.779	490.1
409.156	489.87
409.534	460.04
409.912	486.03
410.29	491.46
410.667	485.13
411.045	499.14
411.422	483.32
411.8	516.77
412.178	517.44
412.555	505.69
412.933	524.9
413.31	514.51
413.687	510.66
414.065	511.79
414.442	544.34
414.819	535.3
415.197	538.91
415.574	537.78
415.951	545.69
416.328	569.65
416.705	559.02
417.082	536.65
417.46	574.84
417.837	583.21
418.214	567.61
418.591	565.58
418.967	568.74
419.344	555.86
419.721	578.01
420.098	582.98
420.475	592.24
420.852	580.95
421.228	593.83
421.605	606.26
421.982	618.23
422.358	624.11
422.735	607.84
423.111	625.69
423.488	625.92
423.864	615.29
424.241	622.75
424.617	631.34
424.994	648.06
425.37	645.8
425.746	653.71
426.123	659.59
426.499	665.46
426.875	658.23
427.251	662.52
427.627	678.34
428.003	686.71
428.379	670.43
428.756	716.08
429.132	693.94
429.507	729.87
429.883	723.99
430.259	717.89
430.635	714.95
431.011	726.03
431.387	737.78
431.763	726.7
432.138	759.92
432.514	775.29
432.89	755.63
433.265	755.4
433.641	766.03
434.016	780.26
434.392	780.71
434.767	798.34
435.143	799.47
435.518	817.32
435.894	802.41
436.269	839.24
436.644	858.9
437.02	841.28
437.395	847.83
437.77	858.9
438.145	853.48
438.52	872.24
438.895	878.11
439.271	877.43
439.646	875.4
440.021	896.64
440.395	904.78
440.77	915.63
441.145	912.91
441.52	938.68
441.895	941.16
442.27	915.85
442.645	944.55
443.019	932.57
443.394	966.47
443.769	966.7
444.143	955.85
444.518	959.01
444.892	961.73
445.267	968.05
445.641	959.47
446.016	966.25
446.39	995.62
446.764	992.46
447.139	977.32
447.513	981.61
447.887	992.91
448.262	1025.91
448.636	1015.74
449.01	1039.46
449.384	1035.85
449.758	1029.52
450.132	1060.03
450.506	1061.38
450.88	1034.49
451.254	1054.38
451.628	1090.99
452.002	1062.06
452.376	1100.71
452.75	1079.01
453.123	1104.1
453.497	1136.18
453.871	1128.5
454.244	1136.18
454.618	1154.72
454.992	1164.21
455.365	1184.77
455.739	1199.01
456.112	1189.52
456.486	1210.53
456.859	1203.75
457.232	1246.01
457.606	1247.82
457.979	1258.44
458.352	1271.1
458.725	1287.82
459.099	1324.65
459.472	1327.14
459.845	1332.56
460.218	1330.08
460.591	1330.76
460.964	1352.9
461.337	1361.72
461.71	1385.44
462.083	1414.82
462.456	1424.09
462.829	1407.36
463.201	1443.97
463.574	1455.05
463.947	1484.2
464.32	1486.46
464.692	1507.25
465.065	1526.46
465.438	1522.62
465.81	1570.3
466.183	1564.65
466.555	1559.9
466.928	1603.74
467.3	1617.3
467.672	1629.28
468.045	1712.44
468.417	1696.17
468.789	1680.8
469.161	1689.39
469.534	1748.6
469.906	1773
470.278	1750.41
470.65	1796.05
471.022	1804.42
471.394	1831.99
471.766	1869.05
472.138	1840.8
472.51	1915.37
472.882	1940.01
473.253	1956.28
473.625	1983.17
473.997	2020.46
474.369	2022.26
474.74	2049.83
475.112	2070.85
475.484	2109.04
475.855	2150.17
476.227	2174.58
476.598	2243.73
476.97	2224.52
477.341	2252.54
477.713	2309.04
478.084	2301.8
478.455	2357.85
478.827	2411.63
479.198	2444.85
479.569	2463.38
479.94	2528.01
480.311	2526.2
480.682	2622.47
481.053	2621.8
481.424	2674.45
481.795	2704.51
482.166	2737.5
482.537	2752.87
482.908	2827.67
483.279	2850.26
483.65	2928.68
484.021	2958.51
484.391	3032.41
484.762	2991.96
485.133	2987.21
485.503	3087.09
485.874	3142.69
486.244	3142.01
486.615	3192.63
486.985	3305.62
487.356	3359.63
487.726	3328.9
488.097	3360.08
488.467	3383.81
488.837	3463.36
489.207	3520.98
489.578	3539.74
489.948	3609.57
490.318	3654.54
490.688	3661.09
491.058	3713.97
491.428	3724.82
491.798	3830.8
492.168	3866.28
492.538	3870.12
492.908	3916.22
493.278	3948.99
493.648	3983.12
494.017	4019.05
494.387	4052.49
494.757	4099.04
495.126	4151.47
495.496	4131.59
495.866	4197.57
496.235	4247.29
496.605	4251.81
496.974	4268.08
497.344	4341.98
497.713	4387.62
498.082	4386.04
498.452	4406.83
498.821	4471.01
499.19	4425.14
499.559	4487.74
499.928	4518.92
500.298	4545.81
500.667	4601.18
501.036	4601.4
501.405	4660.16
501.774	4651.57
502.143	4701.06
502.512	4705.36
502.88	4762.53
503.249	4787.16
503.618	4828.74
503.987	4843.66
504.356	4891.57
504.724	4905.13
505.093	4934.5
505.462	4932.47
505.83	5018.34
506.199	5096.31
506.567	5118.23
506.936	5097.89
507.304	5140.37
507.672	5133.82
508.041	5181.73
508.409	5231.44
508.777	5237.32
509.145	5330.65
509.514	5326.36
509.882	5381.72
510.25	5423.3
510.618	5408.16
510.986	5418.33
511.354	5469.86
511.722	5547.82
512.09	5558.89
512.458	5616.52
512.826	5626.01
513.193	5674.82
513.561	5671.43
513.929	5786.23
514.297	5816.74
514.664	5792.79
515.032	5837.08
515.4	5926.79
515.767	5953.91
516.135	5967.47
516.502	5971.99
516.869	6102.38
517.237	6103.51
517.604	6059.9
517.972	6172.21
518.339	6205.43
518.706	6218.99
519.073	6250.17
519.44	6320.23
519.808	6382.6
520.175	6346.44
520.542	6425.31
520.909	6472.99
521.276	6516.61
521.643	6559.55
522.009	6630.96
522.376	6664.63
522.743	6727.68
523.11	6750.27
523.477	6830.72
523.843	6865.53
524.21	6964.96
524.577	6981.91
524.943	6969.93
525.31	7061
525.676	7170.15
526.043	7200.88
526.409	7185.07
526.776	7327.66
527.142	7323.37
527.508	7375.57
527.874	7390.94
528.241	7456.47
528.607	7467.09
528.973	7558.16
529.339	7570.59
529.705	7629.12
530.071	7666.86
530.437	7717.93
530.803	7803.58
531.169	7788.67
531.535	7818.72
531.901	7892.62
532.267	7922.9
532.632	7985.5
532.998	8017.81
533.364	8028.88
533.73	8047.42
534.095	8175.55
534.461	8143.68
534.826	8270.23
535.192	8239.27
535.557	8313.17
535.923	8270.91
536.288	8389.1
536.653	8343.9
537.019	8392.49
537.384	8424.35
537.749	8454.18
538.114	8449.66
538.479	8511.81
538.845	8521.3
539.21	8609.21
539.575	8550.68
539.94	8590.45
540.305	8697.57
540.67	8632.03
541.034	8704.8
541.399	8717.68
541.764	8744.12
542.129	8787.51
542.494	8780.73
542.858	8866.15
543.223	8853.04
543.587	8916.32
543.952	8949.99
544.316	8960.39
544.681	8957.45
545.045	9051
545.41	9095.3
545.774	9105.24
546.138	9163.77
546.503	9100.95
546.867	9212.13
547.231	9248.97
547.595	9308.63
547.959	9271.56
548.324	9271.79
548.688	9362.86
549.052	9383.2
549.416	9392.01
549.779	9386.82
550.143	9447.83
550.507	9459.81
550.871	9533.25
551.235	9556.3
551.599	9640.37
551.962	9612.57
552.326	9695.28
552.689	9693.25
553.053	9674.94
553.417	9688.95
553.78	9817.09
554.143	9770.31
554.507	9855.73
554.87	9891.89
555.234	9957.87
555.597	9934.37
555.96	10015.73
556.323	9995.84
556.686	10016.86
557.05	10131.65
557.413	10112.22
557.776	10119.45
558.139	10207.58
558.502	10208.04
558.865	10258.66
559.228	10343.63
559.59	10326.23
559.953	10464.98
560.316	10530.97
560.679	10510.4
561.041	10562.38
561.404	10712.88
561.767	10741.81
562.129	10717.85
562.492	10789.26
562.854	10782.26
563.217	10737.74
563.579	10880.11
563.941	10932.09
564.304	10965.08
564.666	11052.53
565.028	11037.17
565.39	11128.46
565.753	11161.68
566.115	11154.9
566.477	11267.44
566.839	11212.76
567.201	11394.45
567.563	11344.5
567.925	11448
568.287	11486.87
568.648	11477.38
569.01	11587.21
569.372	11626.53
569.734	11590.15
570.095	11713.99
570.457	11634.89
570.819	11716.02
571.18	11769.58
571.542	11841.44
571.903	11762.57
572.265	11829.69
572.626	11842.12
572.987	11924.83
573.349	11954.21
573.71	12061.77
574.071	12003.92
574.432	12109.23
574.794	12197.59
575.155	12104.48
575.516	12132.73
575.877	12182.45
576.238	12238.04
576.599	12273.97
576.96	12276.68
577.32	12319.17
577.681	12275.55
578.042	12303.57
578.403	12428.32
578.763	12338.83
579.124	12369.79
579.485	12464.7
579.845	12470.12
580.206	12493.63
580.566	12555.32
580.927	12515.77
581.287	12667.86
581.648	12472.84
582.008	12578.14
582.368	12539.73
582.728	12557.13
583.089	12599.16
583.449	12589.89
583.809	12623.57
584.169	12528.2
584.529	12468.54
584.889	12666.5
585.249	12569.33
585.609	12553.96
585.969	12642.55
586.329	12540.4
586.688	12617.01
587.048	12503.34
587.408	12494.3
587.768	12563.91
588.127	12656.79
588.487	12610.91
588.846	12710.12
589.206	12506.06
589.565	12625.83
589.925	12673.06
590.284	12543.12
590.643	12680.97
591.003	12661.08
591.362	12670.34
591.721	12652.27
592.08	12651.36
592.44	12672.38
592.799	12645.94
593.158	12622.89
593.517	12716.45
593.876	12692.49
594.235	12669.89
594.593	12687.75
594.952	12758.93
595.311	12680.74
595.67	12659.72
596.029	12758.7
596.387	12750.79
596.746	12828.31
597.104	12695.88
597.463	12664.92
597.822	12815.43
598.18	12705.15
598.538	12791.92
598.897	12843.22
599.255	12746.95
599.613	12880.28
599.972	12848.19
600.33	12880.73
600.688	12823.11
601.046	12871.02
601.404	12912.37
601.762	12912.6
602.12	12959.6
602.478	12892.49
602.836	12985.82
603.194	12893.62
603.552	12929.77
603.91	12953.95
604.268	12885.93
604.625	12942.43
604.983	12958.25
605.341	12914.41
605.698	12969.32
606.056	12958.02
606.413	12883.22
606.771	13022.65
607.128	13056.55
607.485	12992.37
607.843	12992.14
608.2	13026.04
608.557	13155.98
608.914	13092.25
609.272	13138.58
609.629	13168.41
609.986	13233.95
610.343	13148.07
610.7	13219.48
611.057	13248.41
611.414	13253.15
611.771	13254.51
612.127	13257
612.484	13318.46
612.841	13285.7
613.198	13334.73
613.554	13251.35
613.911	13359.82
614.267	13356.88
614.624	13339.25
614.98	13294.51
615.337	13456.54
615.693	13352.59
616.05	13338.58
616.406	13487.95
616.762	13473.26
617.118	13410.66
617.475	13455.63
617.831	13482.3
618.187	13412.92
618.543	13496.09
618.899	13558.46
619.255	13543.77
619.611	13577.67
619.967	13611.79
620.323	13620.15
620.678	13512.81
621.034	13484.79
621.39	13497.22
621.746	13540.38
622.101	13673.71
622.457	13569.08
622.812	13519.81
623.168	13544.22
623.523	13598
623.879	13639.58
624.234	13540.6
624.589	13594.16
624.945	13613.37
625.3	13612.01
625.655	13705.8
626.01	13518.68
626.365	13678.45
626.72	13623.31
627.075	13564.11
627.43	13607.5
627.785	13572.92
628.14	13576.99
628.495	13573.15
628.85	13559.36
629.205	13533.15
629.559	13544.9
629.914	13487.05
630.269	13490.66
630.623	13434.39
630.978	13494.05
631.332	13542.19
631.687	13543.54
632.041	13519.14
632.396	13560.49
632.75	13464.9
633.104	13435.07
633.459	13337.45
633.813	13405.92
634.167	13352.81
634.521	13395.07
634.875	13376.09
635.229	13350.55
635.583	13293.83
635.937	13323.21
636.291	13288.18
636.645	13280.95
636.999	13236.66
637.352	13294.28
637.706	13134.97
638.06	13281.85
638.413	13223.32
638.767	13139.26
639.121	13172.48
639.474	13181.74
639.828	13071.92
640.181	13191.24
640.534	13080.28
640.888	13014.29
641.241	13034.86
641.594	13101.75
641.947	13160.73
642.301	13042.09
642.654	13038.7
643.007	13080.28
643.36	12959.6
643.713	12981.3
644.066	13071.24
644.419	12915.54
644.771	12850.45
645.124	12730.68
645.477	12808.65
645.83	12665.83
646.182	12654.07
646.535	12553.06
646.888	12582.21
647.24	12521.2
647.593	12499.05
647.945	12514.64
648.298	12440.97
648.65	12433.74
649.002	12424.48
649.355	12455.89
649.707	12404.59
650.059	12562.78
650.411	12616.33
650.763	12677.58
651.115	12757.35
651.467	12695.65
651.819	12723.22
652.171	12737.91
652.523	12644.36
652.875	12644.81
653.227	12615.88
653.578	12712.6
653.93	12624.92
654.282	12622.21
654.633	12595.32
654.985	12605.71
655.337	12565.26
655.688	12581.99
656.039	12595.09
656.391	12550.8
656.742	12515.55
657.094	12517.13
657.445	12539.5
657.796	12488.65
658.147	12493.63
658.498	12391.93
658.849	12459.05
659.2	12550.35
659.551	12500.41
659.902	12488.2
660.253	12460.86
660.604	12480.75
660.955	12462.89
661.306	12436.68
661.656	12422.22
662.007	12342.22
662.358	12441.42
662.708	12412.5
663.059	12479.62
663.409	12361.43
663.76	12403.91
664.11	12411.37
664.461	12398.71
664.811	12451.37
665.161	12364.36
665.511	12351.94
665.862	12354.87
666.212	12361.88
666.562	12354.65
666.912	12360.97
667.262	12349.45
667.612	12271.94
667.962	12351.71
668.312	12353.29
668.662	12326.85
669.011	12329.79
669.361	12363.23
669.711	12360.3
670.06	12263.8
670.41	12294.08
670.76	12259.96
671.109	12287.53
671.459	12242.33
671.808	12229.68
672.157	12226.29
672.507	12162.79
672.856	12142
673.205	12150.81
673.554	12204.14
673.904	12168.44
674.253	12304.25
674.602	12288.66
674.951	12020.64
675.3	11908.33
675.649	12158.04
675.998	12214.09
676.346	12111.49
676.695	12123.69
677.044	12060.19
677.393	12155.1
677.741	12111.72
678.09	12134.77
678.438	12066.97
678.787	12113.75
679.135	12075.78
679.484	12000.98
679.832	12029.23
680.181	11962.57
680.529	11955.79
680.877	11892.96
681.225	11912.62
681.573	12018.38
681.922	12019.74
682.27	11898.39
682.618	11954.88
682.966	11882.57
683.314	11957.14
683.661	11864.04
684.009	11785.62
684.357	11718.51
684.705	11745.4
685.053	11749.01
685.4	11715.57
685.748	11665.63
686.095	11651.61
686.443	11620.65
686.79	11631.95
687.138	11645.29
687.485	11616.36
687.832	11633.76
688.18	11515.57
688.527	11485.52
688.874	11459.3
689.221	11520.32
689.568	11363.49
689.915	11373.88
690.262	11470.6
690.609	11413.65
690.956	11325.3
691.303	11288.69
691.65	11273.55
691.997	11312.19
692.344	11170.95
692.69	11209.14
693.037	11276.71
693.383	11074.23
693.73	11200.33
694.077	11085.3
694.423	11091.4
694.769	11005.76
695.116	11005.53
695.462	11071.29
695.808	11028.35
696.155	10977.06
696.501	10929.83
696.847	10909.71
697.193	10826.33
697.539	10902.26
697.885	10835.36
698.231	10753.56
698.577	10728.02
698.923	10747.91
699.269	10622.94
699.614	10681.7
699.96	10663.39
700.306	10641.7
700.651	10549.5
700.997	10504.98
701.342	10502.04
701.688	10540.91
702.033	10493.23
702.379	10417.07
702.724	10481.25
703.069	10460.01
703.415	10373
703.76	10323.74
704.105	10305.66
704.45	10332.55
704.795	10230.41
705.14	10212.56
705.485	10271.09
705.83	10161.94
706.175	10200.58
706.52	10136.85
706.865	10103.63
707.209	10039.68
707.554	10070.19
707.899	10064.54
708.243	10013.92
708.588	10025.22
708.932	9988.83
709.277	9963.07
709.621	9919.23
709.966	9932.79
710.31	9916.07
710.654	9859.8
710.998	9854.83
711.342	9797.43
711.687	9825.9
712.031	9763.53
712.375	9725.56
712.719	9741.16
713.063	9733.47
713.407	9709.29
713.75	9664.1
714.094	9651.67
714.438	9637.66
714.782	9699.58
715.125	9580.48
715.469	9638.33
715.812	9591.56
716.156	9473.37
716.499	9511.33
716.843	9547.94
717.186	9532.12
717.53	9441.05
717.873	9458.68
718.216	9494.16
718.559	9478.34
718.902	9427.72
719.246	9449.64
719.589	9336.65
719.932	9348.85
720.275	9392.01
720.617	9284.9
720.96	9254.39
721.303	9279.47
721.646	9267.04
721.989	9224.33
722.331	9236.08
722.674	9201.74
723.016	9254.16
723.359	9253.49
723.701	9239.47
724.044	9102.98
724.386	9110.89
724.729	9145.47
725.071	9105.47
725.413	9112.25
725.755	9106.6
726.097	9045.81
726.439	9036.32
726.782	9013.27
727.124	9060.27
727.465	8991.57
727.807	8991.12
728.149	9002.42
728.491	8983.21
728.833	8976.43
729.175	9001.51
729.516	8936.88
729.858	8913.16
730.199	8972.14
730.541	8919.93
730.882	8905.7
731.224	8898.47
731.565	8859.6
731.906	8807.62
732.248	8898.24
732.589	8889.88
732.93	8803.33
733.271	8750.9
733.612	8839.49
733.953	8768.53
734.294	8829.77
734.635	8777.11
734.976	8826.83
735.317	8677.23
735.658	8755.87
735.999	8654.41
736.339	8712.71
736.68	8708.42
737.021	8673.39
737.361	8624.8
737.702	8598.14
738.042	8653.05
738.383	8601.98
738.723	8657.79
739.063	8659.83
739.404	8631.13
739.744	8552.71
740.084	8553.84
740.424	8592.94
740.764	8505.03
741.104	8534.63
741.444	8431.36
741.784	8481.3
742.124	8500.51
742.464	8462.09
742.804	8518.36
743.143	8453.05
743.483	8413.06
743.823	8361.98
744.162	8361.76
744.502	8434.52
744.841	8357.46
745.181	8439.95
745.52	8341.87
745.86	8301.42
746.199	8273.62
746.538	8354.07
746.877	8402.66
747.216	8298.26
747.556	8288.31
747.895	8293.28
748.234	8233.17
748.573	8245.38
748.911	8248.54
749.25	8214.64
749.589	8176.23
749.928	8194.08
750.267	8168.77
750.605	8120.86
750.944	8146.85
751.283	8105.95
751.621	8117.24
751.96	8059.62
752.298	8053.07
752.636	8087.87
752.975	8026.85
753.313	8022.78
753.651	7964.93
753.989	8012.84
754.327	7953.18
754.666	7931.26
755.004	7986.85
755.342	7922.45
755.679	7876.35
756.017	7858.72
756.355	7847.87
756.693	7851.94
757.031	7855.56
757.368	7840.42
757.706	7797.93
758.044	7764.49
758.381	7770.36
758.719	7729.91
759.056	7732.17
759.394	7625.51
759.731	7667.54
760.068	7658.95
760.405	7651.04
760.743	7599.29
761.08	7578.05
761.417	7514.32
