Data from black_metal_pc_casing_FLMS001491_00039.txt Node
Date: Wed Feb 08 14:32:36 GMT 2017
User: dcchb
Spectrometer: FLMS00149
Trigger mode: 0
Integration Time (sec): 2.000000E-2
Scans to average: 10
Electric dark correction enabled: true
Nonlinearity correction enabled: false
Boxcar width: 0
XAxis mode: Wavelengths
Number of Pixels in Spectrum: 2048
>>>>>Begin Spectral Data<<<<<
341.393	-15.3
341.776	-15.3
342.16	-15.3
342.543	-50.78
342.927	-41.06
343.31	-65.92
343.693	-58.68
344.077	-65.24
344.46	-50.32
344.843	-72.02
345.226	-39.7
345.61	-26.37
345.993	-26.6
346.376	-4
346.759	19.96
347.142	11.37
347.525	22.89
347.908	68.32
348.291	79.62
348.674	96.34
349.057	110.35
349.44	110.35
349.823	135.89
350.206	158.94
350.588	196.22
350.971	216.11
351.354	195.55
351.737	229.44
352.119	237.8
352.502	253.62
352.884	277.13
353.267	260.4
353.65	277.13
354.032	296.33
354.414	315.54
354.797	291.81
355.179	295.66
355.562	323.45
355.944	317.35
356.326	318.93
356.709	322.1
357.091	324.13
357.473	326.16
357.855	339.72
358.238	332.72
358.62	351.25
359.002	334.3
359.384	337.24
359.766	319.84
360.148	310.57
360.53	337.46
360.912	319.61
361.294	346.28
361.676	314.41
362.057	316.22
362.439	330.46
362.821	315.32
363.203	331.36
363.584	304.7
363.966	308.31
364.348	314.19
364.729	313.73
365.111	309.44
365.493	308.99
365.874	314.41
366.256	308.09
366.637	307.18
367.019	323.23
367.4	309.44
367.781	341.53
368.163	306.05
368.544	313.28
368.925	310.57
369.306	308.76
369.688	308.54
370.069	308.54
370.45	330.01
370.831	312.15
371.212	306.73
371.593	311.47
371.974	313.96
372.355	293.4
372.736	310.34
373.117	316.22
373.498	312.83
373.879	319.61
374.26	318.71
374.641	324.81
375.021	318.93
375.402	340.4
375.783	345.15
376.163	336.11
376.544	317.58
376.925	319.16
377.305	314.19
377.686	326.62
378.066	349.44
378.447	341.76
378.827	332.04
379.208	321.64
379.588	325.71
379.968	327.97
380.349	324.36
380.729	347.63
381.109	333.17
381.489	355.09
381.87	333.4
382.25	345.37
382.63	310.12
383.01	335.88
383.39	346.73
383.77	355.09
384.15	360.06
384.53	342.89
384.91	351.25
385.29	349.44
385.67	362.55
386.049	364.13
386.429	374.52
386.809	351.02
387.189	352.83
387.568	342.21
387.948	350.34
388.328	358.71
388.707	346.05
389.087	366.16
389.466	371.59
389.846	392.15
390.225	368.87
390.605	357.35
390.984	360.74
391.363	369.78
391.743	389.89
392.122	395.99
392.501	367.97
392.881	388.76
393.26	388.31
393.639	385.15
394.018	374.75
394.397	391.02
394.776	394.18
395.155	391.92
395.534	400.29
395.913	392.83
396.292	395.99
396.671	404.81
397.05	405.94
397.429	401.64
397.808	389.66
398.186	419.27
398.565	399.38
398.944	418.59
399.323	419.49
399.701	421.98
400.08	406.61
400.458	431.92
400.837	429.21
401.215	447.06
401.594	437.35
401.972	411.59
402.351	435.54
402.729	454.97
403.107	435.54
403.486	440.51
403.864	446.61
404.242	431.92
404.62	448.65
404.999	437.35
405.377	444.13
405.755	453.39
406.133	451.13
406.511	447.06
406.889	457.23
407.267	461.75
407.645	479.15
408.023	469.44
408.401	482.77
408.779	458.36
409.156	473.05
409.534	443.45
409.912	478.02
410.29	488.87
410.667	485.03
411.045	495.2
411.422	478.48
411.8	484.35
412.178	511.7
412.555	511.02
412.933	531.81
413.31	518.02
413.687	520.06
414.065	513.5
414.442	541.53
414.819	508.53
415.197	539.72
415.574	527.06
415.951	522.32
416.328	549.89
416.705	547.4
417.082	532.71
417.46	562.09
417.837	556.21
418.214	570.45
418.591	558.47
418.967	567.51
419.344	565.71
419.721	577.46
420.098	576.33
420.475	601.64
420.852	560.28
421.228	582.88
421.605	576.1
421.982	607.29
422.358	584.91
422.735	601.86
423.111	621.52
423.488	616.78
423.864	585.59
424.241	625.14
424.617	612.94
424.994	630.79
425.37	631.24
425.746	648.42
426.123	646.38
426.499	621.52
426.875	648.42
427.251	639.83
427.627	675.76
428.003	669.21
428.379	677.57
428.756	690.67
429.132	708.07
429.507	703.33
429.883	690.67
430.259	693.61
430.635	703.78
431.011	713.05
431.387	728.19
431.763	725.02
432.138	720.28
432.514	738.36
432.89	746.72
433.265	754.18
433.641	740.39
434.016	766.6
434.392	762.54
434.767	772.93
435.143	782.2
435.518	782.87
435.894	769.09
436.269	768.64
436.644	803.67
437.02	821.07
437.395	815.19
437.77	821.07
438.145	826.94
438.52	852.25
438.895	831.46
439.271	859.26
439.646	858.35
440.021	846.38
440.395	850.44
440.77	864.23
441.145	870.78
441.52	900.61
441.895	870.1
442.27	895.19
442.645	899.93
443.019	895.64
443.394	886.37
443.769	918.24
444.143	916.66
444.518	923.66
444.892	908.75
445.267	932.7
445.641	922.31
446.016	922.98
446.39	946.26
446.764	940.84
447.139	932.25
447.513	978.12
447.887	971.34
448.262	944.9
448.636	964.57
449.01	976.99
449.384	985.58
449.758	986.03
450.132	993.26
450.506	1002.3
450.88	1004.34
451.254	1000.27
451.628	998.46
452.002	993.94
452.376	1015.64
452.75	1034.62
453.123	1062.42
453.497	1008.86
453.871	1046.6
454.244	1084.79
454.618	1084.56
454.992	1107.16
455.365	1073.04
455.739	1108.29
456.112	1121.85
456.486	1103.54
456.859	1129.31
457.232	1162.53
457.606	1168.63
457.979	1175.63
458.352	1164.11
458.725	1227.83
459.099	1192.81
459.472	1240.26
459.845	1242.52
460.218	1219.7
460.591	1275.29
460.964	1273.94
461.337	1285.01
461.71	1331.34
462.083	1338.34
462.456	1278.23
462.829	1331.11
463.201	1350.32
463.574	1367.94
463.947	1358.23
464.32	1367.27
464.692	1377.21
465.065	1402.97
465.438	1391.45
465.81	1441.16
466.183	1460.82
466.555	1482.52
466.928	1521.16
467.3	1490.88
467.672	1506.02
468.045	1559.8
468.417	1516.87
468.789	1553.93
469.161	1567.94
469.534	1599.12
469.906	1596.19
470.278	1658.78
470.65	1644.55
471.022	1695.39
471.394	1675.96
471.766	1711.21
472.138	1695.62
472.51	1723.42
472.882	1804.77
473.253	1808.16
473.625	1819.23
473.997	1860.81
474.369	1895.84
474.74	1876.63
475.112	1922.05
475.484	1920.02
475.855	1954.14
476.227	2008.61
476.598	2015.84
476.97	2024.2
477.341	2093.35
477.713	2100.58
478.084	2108.04
478.455	2182.39
478.827	2200.69
479.198	2225.55
479.569	2212.22
479.94	2325.89
480.311	2327.24
480.682	2354.58
481.053	2416.5
481.424	2425.54
481.795	2463.51
482.166	2489.27
482.537	2529.5
482.908	2558.87
483.279	2614.69
483.65	2617.4
484.021	2710.06
484.391	2727.23
484.762	2723.84
485.133	2738.3
485.503	2791.41
485.874	2814.46
486.244	2875.93
486.615	2902.37
486.985	2950.5
487.356	2981.91
487.726	3041.12
488.097	3075.02
488.467	3039.76
488.837	3162.25
489.207	3152.08
489.578	3229.82
489.948	3241.79
490.318	3262.58
490.688	3278.4
491.058	3345.29
491.428	3388
491.798	3463.48
492.168	3511.39
492.538	3512.07
492.908	3549.81
493.278	3540.32
493.648	3560.43
494.017	3634.33
494.387	3676.36
494.757	3688.11
495.126	3732.63
495.496	3749.58
495.866	3773.76
496.235	3772.63
496.605	3844.72
496.974	3860.53
497.344	3920.87
497.713	3919.06
498.082	3940.08
498.452	3959.29
498.821	3987.76
499.19	4012.85
499.559	4042.45
499.928	4109.79
500.298	4090.81
500.667	4153.18
501.036	4154.31
501.405	4192.28
501.774	4172.84
502.143	4216.23
502.512	4238.38
502.88	4268.88
503.249	4313.18
503.618	4352.27
503.987	4371.48
504.356	4388.2
504.724	4415.77
505.093	4401.99
505.462	4454.42
505.83	4497.13
506.199	4503.68
506.567	4574.64
506.936	4554.75
507.304	4603.57
507.672	4625.26
508.041	4648.31
508.409	4729.44
508.777	4745.93
509.145	4777.35
509.514	4742.09
509.882	4819.38
510.25	4845.82
510.618	4893.28
510.986	4877.68
511.354	4951.35
511.722	5008.98
512.09	5028.86
512.458	5042.42
512.826	5045.36
513.193	5123.55
513.561	5127.62
513.929	5185.25
514.297	5177.56
514.664	5202.87
515.032	5257.79
515.4	5316.32
515.767	5331.23
516.135	5374.17
516.502	5345.01
516.869	5436.54
517.237	5440.38
517.604	5441.51
517.972	5494.62
518.339	5549.3
518.706	5548.4
519.073	5607.38
519.44	5667.72
519.808	5681.5
520.175	5743.2
520.542	5801.95
520.909	5823.19
521.276	5853.93
521.643	5868.84
522.009	5926.24
522.376	6014.83
522.743	6015.73
523.11	6105.67
523.477	6108.61
523.843	6132.11
524.21	6233.13
524.577	6255.73
524.943	6265.89
525.31	6325.78
525.676	6382.28
526.043	6452.33
526.409	6429.96
526.776	6537.3
527.142	6549.05
527.508	6583.17
527.874	6657.97
528.241	6711.31
528.607	6673.12
528.973	6735.26
529.339	6735.03
529.705	6762.6
530.071	6837.18
530.437	6896.39
530.803	6965.09
531.169	6998.53
531.535	6993.33
531.901	7055.7
532.267	7073.1
532.632	7098.19
532.998	7176.15
533.364	7199.2
533.73	7236.26
534.095	7306.55
534.461	7287.56
534.826	7339.76
535.192	7349.26
535.557	7401.23
535.923	7416.15
536.288	7467.67
536.653	7506.09
537.019	7509.25
537.384	7484.17
537.749	7622.24
538.114	7670.38
538.479	7610.49
538.845	7643.94
539.21	7668.34
539.575	7709.25
539.94	7688
540.305	7818.85
540.67	7772.75
541.034	7880.99
541.399	7867.66
541.764	7896.36
542.129	7906.76
542.494	7910.82
542.858	7926.87
543.223	7985.85
543.587	8083.93
543.952	8042.12
544.316	8032.18
544.681	8101.78
545.045	8136.58
545.41	8156.24
545.774	8223.81
546.138	8171.16
546.503	8244.37
546.867	8273.07
547.231	8357.82
547.595	8376.8
547.959	8383.58
548.324	8404.14
548.688	8445.5
549.052	8450.7
549.416	8456.57
549.779	8450.02
550.143	8526.17
550.507	8558.49
550.871	8582.9
551.235	8609.34
551.599	8668.54
551.962	8657.7
552.326	8691.82
552.689	8796.68
553.053	8778.37
553.417	8734.3
553.78	8864.24
554.143	8893.85
554.507	8936.56
554.87	8986.73
555.234	9057.23
555.597	9035.99
555.96	9059.72
556.323	9052.94
556.686	9131.81
557.05	9193.5
557.413	9219.49
557.776	9142.66
558.139	9292.71
558.502	9288.41
558.865	9372.25
559.228	9405.7
559.59	9378.81
559.953	9414.06
560.316	9535.64
560.679	9589.87
561.041	9562.98
561.404	9650.21
561.767	9636.43
562.129	9706.03
562.492	9786.93
562.854	9795.29
563.217	9743.09
563.579	9849.53
563.941	9858.79
564.304	9960.49
564.666	10004.1
565.028	10023.08
565.39	10145.79
565.753	10079.58
566.115	10192.34
566.477	10177.88
566.839	10263.98
567.201	10336.75
567.563	10336.75
567.925	10447.71
568.287	10410.64
568.648	10435.73
569.01	10534.93
569.372	10567.93
569.734	10557.31
570.095	10534.48
570.457	10708.94
570.819	10690.86
571.18	10703.29
571.542	10733.8
571.903	10775.38
572.265	10810.86
572.626	10872.78
572.987	10909.61
573.349	10900.8
573.71	10945.09
574.071	10971.08
574.432	10999.33
574.794	11051.76
575.155	11087.69
575.516	11015.37
575.877	11115.26
576.238	11089.04
576.599	11168.36
576.96	11171.08
577.32	11181.47
577.681	11283.16
578.042	11265.54
578.403	11258.31
578.763	11329.94
579.124	11276.16
579.485	11357.74
579.845	11388.02
580.206	11348.25
580.566	11344.86
580.927	11366.78
581.287	11448.58
581.648	11361.35
582.008	11424.18
582.368	11491.07
582.728	11480.22
583.089	11449.94
583.449	11384.18
583.809	11472.76
584.169	11407.91
584.529	11396.83
584.889	11505.76
585.249	11385.99
585.609	11466.66
585.969	11529.48
586.329	11473.89
586.688	11523.84
587.048	11493.55
587.408	11482.93
587.768	11382.82
588.127	11448.81
588.487	11439.32
588.846	11562.93
589.206	11488.36
589.565	11469.6
589.925	11558.41
590.284	11481.12
590.643	11482.93
591.003	11532.2
591.362	11545.08
591.721	11526.1
592.08	11586.88
592.44	11606.77
592.799	11570.16
593.158	11551.41
593.517	11532.42
593.876	11583.49
594.235	11572.65
594.593	11539.2
594.952	11611.97
595.311	11574.68
595.67	11559.31
596.029	11652.87
596.387	11621.46
596.746	11644.51
597.104	11568.13
597.463	11578.3
597.822	11643.83
598.18	11586.43
598.538	11595.7
598.897	11673.21
599.255	11656.71
599.613	11711.85
599.972	11699.42
600.33	11705.53
600.688	11638.63
601.046	11713.66
601.404	11728.12
601.762	11713.66
602.12	11854
602.478	11791.17
602.836	11756.37
603.194	11693.32
603.552	11716.82
603.91	11737.62
604.268	11820.32
604.625	11752.53
604.983	11819.42
605.341	11786.88
605.698	11840.21
606.056	11936.93
606.413	11916.59
606.771	11882.92
607.128	12053.54
607.485	11868.01
607.843	11967.44
608.2	11941.68
608.557	12016.25
608.914	11983.03
609.272	12052.86
609.629	12073.2
609.986	12063.03
610.343	12020.55
610.7	12120.43
611.057	12042.69
611.414	12138.96
611.771	12143.93
612.127	12144.16
612.484	12093.54
612.841	12146.87
613.198	12183.48
613.554	12119.3
613.911	12216.02
614.267	12155.91
614.624	12173.76
614.98	12235
615.337	12346.41
615.693	12276.58
616.05	12306.64
616.406	12305.96
616.762	12271.84
617.118	12293.31
617.475	12348.45
617.831	12354.32
618.187	12361.33
618.543	12312.52
618.899	12389.12
619.255	12472.29
619.611	12371.95
619.967	12392.97
620.323	12395.68
620.678	12371.27
621.034	12315.9
621.39	12408.11
621.746	12386.41
622.101	12467.77
622.457	12416.02
622.812	12399.52
623.168	12406.98
623.523	12407.88
623.879	12487.88
624.234	12363.14
624.589	12456.69
624.945	12429.12
625.3	12466.86
625.655	12458.05
626.01	12430.48
626.365	12420.08
626.72	12381.44
627.075	12466.64
627.43	12474.77
627.785	12464.83
628.14	12399.74
628.495	12414.21
628.85	12353.64
629.205	12327.43
629.559	12467.54
629.914	12376.02
630.269	12415.11
630.623	12324.49
630.978	12256.02
631.332	12282.46
631.687	12438.16
632.041	12345.73
632.396	12332.18
632.75	12266.64
633.104	12305.74
633.459	12313.19
633.813	12253.99
634.167	12266.87
634.521	12247.88
634.875	12261.22
635.229	12242.69
635.583	12137.15
635.937	12268.45
636.291	12220.99
636.645	12129.7
636.999	12128.79
637.352	12253.99
637.706	12124.95
638.06	12086.31
638.413	12105.97
638.767	12057.61
639.121	12061.22
639.474	11937.38
639.828	12045.4
640.181	12064.61
640.534	12125.4
640.888	11973.09
641.241	11942.58
641.594	11957.04
641.947	12039.3
642.301	12025.07
642.654	11981
643.007	11995.69
643.36	11915.92
643.713	11888.35
644.066	11910.94
644.419	11865.07
644.771	11862.13
645.124	11700.78
645.477	11646.32
645.83	11647.9
646.182	11505.3
646.535	11478.86
646.888	11607
647.24	11461.24
647.593	11596.38
647.945	11515.25
648.298	11450.84
648.65	11379.88
649.002	11366.78
649.355	11344.41
649.707	11444.74
650.059	11506.66
650.411	11555.7
650.763	11599.77
651.115	11737.16
651.467	11648.35
651.819	11567.22
652.171	11689.71
652.523	11554.8
652.875	11538.98
653.227	11593.66
653.578	11650.61
653.93	11546.43
654.282	11574.91
654.633	11534.68
654.985	11583.95
655.337	11581.46
655.688	11471.63
656.039	11626.21
656.391	11469.37
656.742	11464.63
657.094	11467.34
657.445	11526.55
657.796	11536.49
658.147	11414.46
658.498	11466.66
658.849	11422.82
659.2	11454.01
659.551	11422.37
659.902	11474.8
660.253	11386.21
660.604	11425.31
660.955	11377.85
661.306	11455.36
661.656	11436.61
662.007	11435.25
662.358	11386.89
662.708	11357.74
663.059	11418.98
663.409	11368.81
663.76	11368.81
664.11	11353.22
664.461	11415.82
664.811	11450.62
665.161	11433.89
665.511	11258.76
665.862	11343.28
666.212	11352.54
666.562	11362.03
666.912	11312.32
667.262	11399.32
667.612	11321.58
667.962	11313.45
668.312	11355.7
668.662	11345.76
669.011	11344.18
669.361	11291.75
669.711	11257.85
670.06	11272.99
670.41	11291.07
670.76	11220.34
671.109	11262.83
671.459	11266.22
671.808	11250.4
672.157	11249.27
672.507	11193.22
672.856	11216.95
673.205	11183.05
673.554	11178.99
673.904	11265.99
674.253	11255.82
674.602	11226.89
674.951	10971.08
675.3	10994.13
675.649	11158.65
675.998	11072.32
676.346	11091.76
676.695	11151.19
677.044	11086.33
677.393	11125.2
677.741	11152.77
678.09	11077.29
678.438	11036.84
678.787	11117.07
679.135	11036.39
679.484	10995.49
679.832	11041.81
680.181	10957.07
680.529	11019.22
680.877	10951.2
681.225	10900.57
681.573	11043.4
681.922	10938.31
682.27	10889.05
682.618	10941.25
682.966	10904.87
683.314	10888.6
683.661	10852.89
684.009	10829.39
684.357	10824.19
684.705	10772.44
685.053	10799.56
685.4	10784.87
685.748	10753.46
686.095	10706.68
686.443	10662.62
686.79	10630.75
687.138	10728.38
687.485	10656.51
687.832	10637.08
688.18	10619.9
688.527	10596.85
688.874	10574.93
689.221	10567.02
689.568	10514.14
689.915	10497.87
690.262	10475.5
690.609	10519.79
690.956	10416.75
691.303	10423.3
691.65	10356.63
691.997	10361.83
692.344	10287.94
692.69	10321.38
693.037	10295.62
693.383	10187.6
693.73	10279.57
694.077	10173.81
694.423	10210.88
694.769	10129.3
695.116	10140.82
695.462	10136.08
695.808	10070.99
696.155	10118
696.501	9971.33
696.847	10031.22
697.193	9948.96
697.539	10022.86
697.885	9879.13
698.231	9874.61
698.577	9875.97
698.923	9861.51
699.269	9836.42
699.614	9778.8
699.96	9809.53
700.306	9717.56
700.651	9680.27
700.997	9696.31
701.342	9627.39
701.688	9635.52
702.033	9623.32
702.379	9571.8
702.724	9578.8
703.069	9638.69
703.415	9505.13
703.76	9562.31
704.105	9526.15
704.45	9492.93
704.795	9409.77
705.14	9370.9
705.485	9426.72
705.83	9359.37
706.175	9454.96
706.52	9370.9
706.865	9296.1
707.209	9312.59
707.554	9284.12
707.899	9309.43
708.243	9172.94
708.588	9207.96
708.932	9150.56
709.277	9143.11
709.621	9163.22
709.966	9090.68
710.31	9141.07
710.654	9087.52
710.998	9100.4
711.342	9135.65
711.687	9022.43
712.031	8993.51
712.375	9040.74
712.719	9000.06
713.063	9017.23
713.407	9058.82
713.75	8912.6
714.094	8945.37
714.438	8902.66
714.782	8947.86
715.125	8891.36
715.469	8923.23
715.812	8777.92
716.156	8845.94
716.499	8833.74
716.843	8788.77
717.186	8727.3
717.53	8790.35
717.873	8797.58
718.216	8794.42
718.559	8677.36
718.902	8721.88
719.246	8701.99
719.589	8628.09
719.932	8597.13
720.275	8629
720.617	8629
720.96	8598.49
721.303	8583.8
721.646	8574.99
721.989	8593.74
722.331	8528.43
722.674	8588.32
723.016	8581.54
723.359	8484.14
723.701	8478.94
724.044	8467.87
724.386	8396.01
724.729	8431.04
725.071	8406.4
725.413	8432.84
725.755	8408.44
726.097	8358.04
726.439	8355.11
726.782	8420.64
727.124	8411.83
727.465	8395.1
727.807	8298.16
728.149	8282.11
728.491	8270.81
728.833	8305.61
729.175	8256.12
729.516	8275.56
729.858	8210.48
730.199	8289.57
730.541	8225.62
730.882	8198.95
731.224	8231.49
731.565	8181.1
731.906	8184.04
732.248	8234.66
732.589	8160.53
732.93	8132.29
733.271	8124.38
733.612	8132.51
733.953	8094.55
734.294	8095
734.635	8083.7
734.976	8116.92
735.317	8054.77
735.658	8068.79
735.999	8074.66
736.339	8011.61
736.68	7999.86
737.021	7985.85
737.361	7923.93
737.702	7991.05
738.042	7932.52
738.383	7951.5
738.723	7938.39
739.063	7956.02
739.404	8018.62
739.744	7923.7
740.084	7910.82
740.424	7919.86
740.764	7870.82
741.104	7973.42
741.444	7907.21
741.784	7818.85
742.124	7819.3
742.464	7798.74
742.804	7784.95
743.143	7845.06
743.483	7792.41
743.823	7762.58
744.162	7746.31
744.502	7753.99
744.841	7682.81
745.181	7701.56
745.52	7738.4
745.86	7728.91
746.199	7713.31
746.538	7653.88
746.877	7704.27
747.216	7636.93
747.556	7669.7
747.895	7665.41
748.234	7660.66
748.573	7617.05
748.911	7597.84
749.25	7645.29
749.589	7517.84
749.928	7562.13
750.267	7585.18
750.605	7568.46
750.944	7562.13
751.283	7533.43
751.621	7489.59
751.96	7479.87
752.298	7483.26
752.636	7457.28
752.975	7378.41
753.313	7384.96
753.651	7428.35
753.989	7413.89
754.327	7352.65
754.666	7316.71
755.004	7328.01
755.342	7297.28
755.679	7270.84
756.017	7213.89
756.355	7247.34
756.693	7220.45
757.031	7337.28
757.368	7289.14
757.706	7211.86
758.044	7156.27
758.381	7177.06
758.719	7153.33
759.056	7165.98
759.394	7168.47
759.731	7025.65
760.068	7031.3
760.405	7070.17
760.743	7040.34
761.08	6978.19
761.417	6981.13
761.754	6922.83
762.091	6915.82
762.428	6920.34
762.765	6842.83
