Data from black_plastic_tray_FLMS001491_092.txt Node
Date: Tue Feb 07 10:41:02 GMT 2017
User: dcchb
Spectrometer: FLMS00149
Trigger mode: 0
Integration Time (sec): 2.000000E-2
Scans to average: 10
Electric dark correction enabled: true
Nonlinearity correction enabled: false
Boxcar width: 0
XAxis mode: Wavelengths
Number of Pixels in Spectrum: 2048
>>>>>Begin Spectral Data<<<<<
341.393	-8.79
341.776	-8.79
342.16	-8.79
342.543	-86.07
342.927	-54.89
343.31	-49.69
343.693	-71.61
344.077	-83.13
344.46	-50.82
344.843	-37.48
345.226	-40.87
345.61	-57.37
345.993	-14.66
346.376	4.32
346.759	5
347.142	25.34
347.525	27.82
347.908	59.69
348.291	78.22
348.674	94.26
349.057	110.99
349.44	120.93
349.823	132.23
350.206	138.1
350.588	187.82
350.971	190.98
351.354	201.15
351.737	212.45
352.119	228.5
352.502	258.55
352.884	256.29
353.267	267.14
353.65	245.45
354.032	299.23
354.414	284.31
354.797	276.86
355.179	308.49
355.562	317.76
355.944	310.75
356.326	317.99
356.709	317.53
357.091	308.49
357.473	303.3
357.855	334.93
358.238	316.18
358.62	310.3
359.002	320.7
359.384	311.21
359.766	332.22
360.148	319.57
360.53	323.41
360.912	316.63
361.294	323.86
361.676	329.06
362.057	311.66
362.439	309.4
362.821	297.2
363.203	311.88
363.584	295.61
363.966	286.8
364.348	281.83
364.729	291.32
365.111	290.19
365.493	301.26
365.874	305.1
366.256	302.85
366.637	292.68
367.019	298.33
367.4	305.1
367.781	281.83
368.163	291.55
368.544	303.3
368.925	292.22
369.306	310.53
369.688	296.52
370.069	294.26
370.45	302.17
370.831	293.13
371.212	284.77
371.593	295.16
371.974	286.57
372.355	301.26
372.736	316.4
373.117	314.6
373.498	276.18
373.879	311.66
374.26	304.65
374.641	302.17
375.021	304.43
375.402	310.75
375.783	332.45
376.163	313.01
376.544	321.15
376.925	304.43
377.305	303.07
377.686	303.52
378.066	301.26
378.447	308.27
378.827	316.86
379.208	297.87
379.588	302.17
379.968	329.96
380.349	343.97
380.729	295.16
381.109	314.37
381.489	324.31
381.87	302.85
382.25	317.76
382.63	327.93
383.01	321.83
383.39	319.34
383.77	319.12
384.15	339.23
384.53	336.06
384.91	337.42
385.29	326.57
385.67	331.54
386.049	340.13
386.429	346.91
386.809	322.28
387.189	353.47
387.568	351.21
387.948	340.36
388.328	334.26
388.707	335.61
389.087	348.49
389.466	328.61
389.846	336.29
390.225	342.84
390.605	349.4
390.984	341.04
391.363	365.89
391.743	345.33
392.122	365.67
392.501	369.28
392.881	360.02
393.26	340.36
393.639	369.51
394.018	353.69
394.397	384.42
394.776	373.13
395.155	361.6
395.534	354.82
395.913	377.42
396.292	370.87
396.671	347.59
397.05	384.65
397.429	362.28
397.808	388.72
398.186	365.67
398.565	361.6
398.944	383.07
399.323	389.62
399.701	385.78
400.08	372.67
400.458	383.3
400.837	384.2
401.215	390.53
401.594	389.85
401.972	390.98
402.351	395.72
402.729	389.17
403.107	397.53
403.486	395.05
403.864	385.1
404.242	409.96
404.62	422.62
404.999	420.13
405.377	407.93
405.755	403.86
406.133	412.9
406.511	411.09
406.889	418.55
407.267	426.68
407.645	415.16
408.023	430.75
408.401	431.43
408.779	408.83
409.156	436.63
409.534	417.64
409.912	437.53
410.29	454.03
410.667	433.92
411.045	458.77
411.422	437.53
411.8	456.06
412.178	460.81
412.555	455.61
412.933	475.72
413.31	486.34
413.687	460.13
414.065	478.21
414.442	477.08
414.819	475.72
415.197	475.5
415.574	473.24
415.951	482.95
416.328	523.63
416.705	491.77
417.082	491.54
417.46	500.58
417.837	491.31
418.214	506.23
418.591	490.41
418.967	482.5
419.344	508.26
419.721	496.29
420.098	486.12
420.475	516.17
420.852	519.56
421.228	504.42
421.605	494.48
421.982	534.48
422.358	524.31
422.735	517.98
423.111	520.69
423.488	545.78
423.864	518.88
424.241	560.24
424.617	535.16
424.994	543.52
425.37	558.88
425.746	564.31
426.123	571.54
426.499	557.3
426.875	576.74
427.251	598.43
427.627	572.22
428.003	583.29
428.379	587.36
428.756	603.4
429.132	597.53
429.507	600.24
429.883	584.19
430.259	625.32
430.635	611.31
431.011	624.42
431.387	631.88
431.763	630.52
432.138	640.69
432.514	640.01
432.89	660.35
433.265	645.44
433.641	655.6
434.016	683.85
434.392	675.94
434.767	668.49
435.143	691.54
435.518	686.56
435.894	662.84
436.269	699.22
436.644	701.93
437.02	695.83
437.395	707.35
437.77	707.35
438.145	723.17
438.52	738.54
438.895	707.81
439.271	735.15
439.646	726.79
440.021	762.49
440.395	752.78
440.77	759.1
441.145	750.07
441.52	756.17
441.895	759.33
442.27	757.75
442.645	766.56
443.019	770.63
443.394	784.41
443.769	782.83
444.143	796.84
444.518	804.75
444.892	803.4
445.267	801.14
445.641	811.53
446.016	783.06
446.39	828.03
446.764	807.46
447.139	828.26
447.513	821.25
447.887	797.97
448.262	834.13
448.636	855.37
449.01	825.77
449.384	843.4
449.758	862.38
450.132	870.06
450.506	864.86
450.88	877.97
451.254	860.8
451.628	858.54
452.002	889.27
452.376	899.21
452.75	887.46
453.123	871.87
453.497	908.03
453.871	895.15
454.244	928.14
454.618	925.65
454.992	914.13
455.365	939.89
455.739	952.09
456.112	976.95
456.486	985.54
456.859	959.1
457.232	988.93
457.606	997.52
457.979	1012.43
458.352	1017.18
458.725	1030.51
459.099	1050.85
459.472	1054.46
459.845	1068.25
460.218	1062.37
460.591	1100.79
460.964	1100.79
461.337	1108.25
461.71	1120
462.083	1127
462.456	1122.71
462.829	1156.83
463.201	1154.12
463.574	1149.15
463.947	1174.69
464.32	1196.15
464.692	1168.13
465.065	1231.18
465.438	1220.34
465.81	1240.22
466.183	1218.75
466.555	1243.84
466.928	1286.1
467.3	1287.9
467.672	1292.2
468.045	1296.27
468.417	1307.56
468.789	1337.85
469.161	1357.96
469.534	1349.6
469.906	1373.55
470.278	1362.03
470.65	1383.27
471.022	1427.79
471.394	1441.12
471.766	1473.89
472.138	1488.8
472.51	1481.35
472.882	1515.24
473.253	1515.69
473.625	1547.56
473.997	1571.51
474.369	1585.98
474.74	1602.02
475.112	1625.3
475.484	1636.82
475.855	1644.05
476.227	1677.27
476.598	1712.07
476.97	1721.79
477.341	1787.1
477.713	1801.79
478.084	1825.29
478.455	1824.84
478.827	1866.65
479.198	1891.28
479.569	1906.19
479.94	1943.03
480.311	1988.9
480.682	1988
481.053	2044.27
481.424	2075.91
481.795	2094.89
482.166	2103.93
482.537	2150.93
482.908	2187.09
483.279	2214.43
483.65	2225.51
484.021	2240.2
484.391	2252.4
484.762	2295.11
485.133	2345.96
485.503	2379.85
485.874	2403.58
486.244	2398.84
486.615	2453.3
486.985	2472.73
487.356	2510.02
487.726	2579.62
488.097	2577.36
488.467	2596.34
488.837	2689.45
489.207	2650.58
489.578	2687.87
489.948	2740.3
490.318	2768.54
490.688	2785.72
491.058	2818.71
491.428	2852.38
491.798	2847.19
492.168	2960.85
492.538	2938.48
492.908	2943.45
493.278	3008.99
493.648	2999.5
494.017	3028.88
494.387	3072.26
494.757	3063.9
495.126	3145.93
495.496	3152.71
495.866	3176.44
496.235	3184.58
496.605	3227.74
496.974	3216.89
497.344	3309.09
497.713	3279.49
498.082	3321.97
498.452	3372.37
498.821	3382.54
499.19	3342.31
499.559	3445.36
499.928	3431.12
500.298	3446.72
500.667	3470.22
501.036	3476.32
501.405	3503.21
501.774	3522.42
502.143	3564.91
502.512	3588.41
502.88	3607.62
503.249	3581.18
503.618	3656.66
503.987	3660.72
504.356	3665.92
504.724	3681.06
505.093	3670.44
505.462	3710.67
505.83	3768.06
506.199	3777.1
506.567	3804.9
506.936	3844.67
507.304	3885.8
507.672	3910.89
508.041	3896.42
508.409	3946.37
508.777	3963.99
509.145	3978
509.514	3994.27
509.882	4056.87
510.25	4088.28
510.618	4064.1
510.986	4074.05
511.354	4116.3
511.722	4142.07
512.09	4247.6
512.458	4223.65
512.826	4231.56
513.193	4313.14
513.561	4295.73
513.929	4298.67
514.297	4320.14
514.664	4358.78
515.032	4413.02
515.4	4394.94
515.767	4473.13
516.135	4508.38
516.502	4436.3
516.869	4517.88
517.237	4535.05
517.604	4533.47
517.972	4632.22
518.339	4665.89
518.706	4695.5
519.073	4684.88
519.44	4711.99
519.808	4780.92
520.175	4785.67
520.542	4874.93
520.909	4870.63
521.276	4859.79
521.643	4977.98
522.009	4926.45
522.376	5002.83
522.743	5055.26
523.11	5031.99
523.477	5125.32
523.843	5130.06
524.21	5158.99
524.577	5230.63
524.943	5244.86
525.31	5267.01
525.676	5377.74
526.043	5385.42
526.409	5370.28
526.776	5429.04
527.142	5453.9
527.508	5528.7
527.874	5533.67
528.241	5571.18
528.607	5628.81
528.973	5630.61
529.339	5662.03
529.705	5789.48
530.071	5780.22
530.437	5796.03
530.803	5817.95
531.169	5859.76
531.535	5831.51
531.901	5859.31
532.267	5888.46
532.632	5995.12
532.998	6007.33
533.364	5949.93
533.73	5988.57
534.095	6081
534.461	6047.78
534.826	6144.05
535.192	6141.79
535.557	6224.05
535.923	6172.07
536.288	6207.32
536.653	6295.91
537.019	6223.14
537.384	6252.75
537.749	6299.07
538.114	6323.25
538.479	6357.38
538.845	6365.74
539.21	6386.98
539.575	6411.61
539.94	6452.29
540.305	6451.38
540.67	6436.24
541.034	6476.69
541.399	6560.53
541.764	6554.88
542.129	6603.02
542.494	6573.41
542.858	6612.06
543.223	6635.33
543.587	6674.43
543.952	6681.21
544.316	6748.55
544.681	6693.41
545.045	6771.15
545.41	6783.58
545.774	6784.26
546.138	6802.56
546.503	6874.88
546.867	6801.21
547.231	6905.84
547.595	6878.27
547.959	6911.94
548.324	6917.81
548.688	6950.35
549.052	6997.13
549.416	6986.96
549.779	6970.69
550.143	7068.77
550.507	7118.49
550.871	7098.6
551.235	7108.99
551.599	7150.12
551.962	7195.09
552.326	7160.97
552.689	7228.99
553.053	7241.65
553.417	7285.71
553.78	7365.48
554.143	7352.15
554.507	7389.89
554.87	7362.09
555.234	7516.21
555.597	7434.86
555.96	7481.19
556.323	7495.88
556.686	7579.49
557.05	7568.19
557.413	7587.4
557.776	7608.64
558.139	7658.13
558.502	7676.89
558.865	7721.63
559.228	7788.07
559.59	7780.84
559.953	7841.63
560.316	7893.83
560.679	7821.29
561.041	7955.75
561.404	7951.23
561.767	7988.29
562.129	8008.86
562.492	8068.97
562.854	8058.57
563.217	8144.22
563.579	8128.18
563.941	8199.59
564.304	8188.06
564.666	8240.94
565.028	8323.43
565.39	8257.89
565.753	8321.17
566.115	8356.19
566.477	8405
566.839	8410.88
567.201	8471.22
567.563	8497.21
567.925	8527.71
568.287	8564.1
568.648	8612.23
569.01	8603.19
569.372	8711.89
569.734	8687.71
570.095	8801.15
570.457	8782.62
570.819	8828.72
571.18	8823.3
571.542	8810.42
571.903	8858.33
572.265	8889.96
572.626	8955.27
572.987	8930.64
573.349	8946.23
573.71	8953.92
574.071	9008.15
574.432	9003.63
574.794	9071.88
575.155	9073.24
575.516	9122.73
575.877	9109.85
576.238	9111.65
576.599	9098.09
576.96	9189.17
577.32	9143.52
577.681	9270.97
578.042	9251.54
578.403	9240.92
578.763	9323.4
579.124	9332.44
579.485	9391.87
579.845	9367.92
580.206	9293.8
580.566	9310.07
580.927	9306.22
581.287	9404.53
581.648	9335.6
582.008	9354.36
582.368	9390.29
582.728	9417.86
583.089	9386.22
583.449	9422.61
583.809	9360.46
584.169	9402.04
584.529	9426.67
584.889	9438.42
585.249	9413.11
585.609	9393.23
585.969	9454.02
586.329	9448.82
586.688	9464.41
587.048	9381.7
587.408	9383.51
587.768	9371.99
588.127	9396.84
588.487	9383.96
588.846	9541.92
589.206	9401.59
589.565	9358.43
589.925	9409.5
590.284	9406.79
590.643	9434.13
591.003	9451.08
591.362	9462.83
591.721	9458.08
592.08	9430.06
592.44	9482.94
592.799	9498.99
593.158	9517.07
593.517	9488.82
593.876	9541.92
594.235	9534.47
594.593	9562.26
594.952	9506.9
595.311	9530.17
595.67	9465.54
596.029	9568.59
596.387	9589.15
596.746	9534.01
597.104	9490.85
597.463	9496.28
597.822	9525.88
598.18	9570.85
598.538	9535.6
598.897	9559.32
599.255	9533.56
599.613	9580.57
599.972	9542.38
600.33	9599.78
600.688	9583.05
601.046	9655.82
601.404	9616.72
601.762	9683.62
602.12	9636.84
602.478	9658.53
602.836	9721.35
603.194	9671.19
603.552	9663.73
603.91	9648.14
604.268	9643.16
604.625	9674.35
604.983	9705.76
605.341	9719.55
605.698	9719.77
606.056	9742.82
606.413	9605.88
606.771	9712.54
607.128	9728.59
607.485	9727.68
607.843	9767
608.2	9794.12
608.557	9762.94
608.914	9794.8
609.272	9764.29
609.629	9832.54
609.986	9839.09
610.343	9821.24
610.7	9859.66
611.057	9824.63
611.414	9912.08
611.771	9868.92
612.127	9932.65
612.484	9908.47
612.841	9983.49
613.198	9952.99
613.554	9968.13
613.911	9964.74
614.267	9940.11
614.624	10017.17
614.98	9960.9
615.337	10093.32
615.693	10026.43
616.05	10061.46
616.406	10055.13
616.762	9943.72
617.118	10021.69
617.475	10012.65
617.831	10073.66
618.187	10021.69
618.543	10071.85
618.899	10124.73
619.255	10125.64
619.611	10155.24
619.967	10190.27
620.323	10087.67
620.678	10071.63
621.034	10082.25
621.39	10118.41
621.746	10054
622.101	10207.67
622.457	10134
622.812	10102.36
623.168	10118.41
623.523	10101.01
623.879	10123.15
624.234	10119.99
624.589	10140.1
624.945	10182.59
625.3	10191.17
625.655	10113.21
626.01	10228.23
626.365	10155.02
626.72	10154.11
627.075	10175.81
627.43	10161.57
627.785	10169.93
628.14	10195.69
628.495	10133.32
628.85	10113.43
629.205	10164.96
629.559	10188.46
629.914	10040.89
630.269	10121.8
630.623	10084.06
630.978	10083.83
631.332	10103.94
631.687	10152.3
632.041	10059.88
632.396	10002.48
632.75	10054
633.104	10012.87
633.459	10043.15
633.813	10023.49
634.167	9991.86
634.521	10010.16
634.875	10038.86
635.229	9988.01
635.583	9889.71
635.937	9801.13
636.291	9884.06
636.645	9901.46
636.999	9835.93
637.352	9830.96
637.706	9789.6
638.06	9813.56
638.413	9819.21
638.767	9817.4
639.121	9840.22
639.474	9790.73
639.828	9773.56
640.181	9777.85
640.534	9781.01
640.888	9717.51
641.241	9708.47
641.594	9645.88
641.947	9714.12
642.301	9667.8
642.654	9719.77
643.007	9773.33
643.36	9717.29
643.713	9722.94
644.066	9730.17
644.419	9629.83
644.771	9576.95
645.124	9486.78
645.477	9502.6
645.83	9424.87
646.182	9411.98
646.535	9344.42
646.888	9343.74
647.24	9313.46
647.593	9381.7
647.945	9300.8
648.298	9310.97
648.65	9324.3
649.002	9238.2
649.355	9346.9
649.707	9277.07
650.059	9311.2
650.411	9438.88
650.763	9416.5
651.115	9558.2
651.467	9485.2
651.819	9491.3
652.171	9498.99
652.523	9445.43
652.875	9429.38
653.227	9433.45
653.578	9506.22
653.93	9446.11
654.282	9392.1
654.633	9395.49
654.985	9456.73
655.337	9390.52
655.688	9361.36
656.039	9410.85
656.391	9341.48
656.742	9358.88
657.094	9385.54
657.445	9386
657.796	9384.19
658.147	9332.21
658.498	9301.93
658.849	9303.74
659.2	9331.31
659.551	9275.72
659.902	9365.43
660.253	9334.25
660.604	9302.61
660.955	9304.87
661.306	9309.16
661.656	9258.77
662.007	9253.12
662.358	9176.51
662.708	9235.94
663.059	9309.16
663.409	9216.96
663.76	9270.29
664.11	9220.58
664.461	9241.37
664.811	9277.3
665.161	9262.61
665.511	9191.42
665.862	9245.66
666.212	9141.26
666.562	9203.18
666.912	9181.93
667.262	9229.39
667.612	9127.47
667.962	9194.36
668.312	9165.89
668.662	9199.11
669.011	9204.31
669.361	9119.56
669.711	9145.55
670.06	9051.54
670.41	9118.88
670.76	9047.25
671.109	9156.85
671.459	9063.52
671.808	9070.75
672.157	9104.2
672.507	9080.92
672.856	9063.07
673.205	9088.6
673.554	9154.82
673.904	9051.54
674.253	9097.87
674.602	9036.4
674.951	8901.26
675.3	8885.22
675.649	9053.35
675.998	9050.19
676.346	9025.78
676.695	9089.73
677.044	8946.23
677.393	8970.64
677.741	9044.99
678.09	8955.27
678.438	9001.37
678.787	8985.78
679.135	9034.37
679.484	8922.96
679.832	8967.48
680.181	8927.7
680.529	8962.28
680.877	8881.15
681.225	8864.43
681.573	8977.87
681.922	8844.54
682.27	8884.54
682.618	8929.51
682.966	8853.13
683.314	8819.23
683.661	8842.73
684.009	8809.06
684.357	8762.28
684.705	8727.26
685.053	8747.14
685.4	8735.39
685.748	8733.58
686.095	8664.43
686.443	8686.13
686.79	8622.85
687.138	8642.96
687.485	8680.03
687.832	8659.91
688.18	8612.91
688.527	8551.89
688.874	8650.42
689.221	8548.5
689.568	8547.37
689.915	8545.79
690.262	8483.65
690.609	8452.01
690.956	8410.2
691.303	8475.96
691.65	8361.39
691.997	8375.63
692.344	8336.08
692.69	8347.61
693.037	8325.69
693.383	8254.05
693.73	8322.3
694.077	8303.76
694.423	8319.13
694.769	8250.66
695.116	8233.94
695.462	8239.59
695.808	8215.41
696.155	8132.7
696.501	8147.84
696.847	8098.35
697.193	8092.24
697.539	8169.76
697.885	8064
698.231	8043.88
698.577	7993.72
698.923	8009.08
699.269	7938.35
699.614	7944.23
699.96	7939.25
700.306	7960.04
700.651	7925.24
700.997	7892.25
701.342	7860.84
701.688	7836.21
702.033	7864
702.379	7866.04
702.724	7826.26
703.069	7821.97
703.415	7809.31
703.76	7761.86
704.105	7737.9
704.45	7707.17
704.795	7687.96
705.14	7665.36
705.485	7692.26
705.83	7644.8
706.175	7582.2
706.52	7547.85
706.865	7564.12
707.209	7563.67
707.554	7527.97
707.899	7513.73
708.243	7488.42
708.588	7529.1
708.932	7448.42
709.277	7416.1
709.621	7453.39
709.966	7451.58
710.31	7417.46
710.654	7409.78
710.998	7341.76
711.342	7340.85
711.687	7344.69
712.031	7352.38
712.375	7293.85
712.719	7373.85
713.063	7260.18
713.407	7328.65
713.75	7304.02
714.094	7238.26
714.438	7201.19
714.782	7207.75
715.125	7146.73
715.469	7174.53
715.812	7164.13
716.156	7072.84
716.499	7092.27
716.843	7190.12
717.186	7108.99
717.53	7098.82
717.873	7163.46
718.216	7118.03
718.559	7045.04
718.902	7027.19
719.246	7055.44
719.589	7008.21
719.932	7015.21
720.275	6959.39
720.617	6929.79
720.96	6934.76
721.303	6944.93
721.646	6945.38
721.989	6929.34
722.331	6946.96
722.674	6924.59
723.016	6913.07
723.359	6896.12
723.701	6831.49
724.044	6853.41
724.386	6820.19
724.729	6832.62
725.071	6809.34
725.413	6783.8
725.755	6839.4
726.097	6773.86
726.439	6726.63
726.782	6759.17
727.124	6756.46
727.465	6694.09
727.807	6724.37
728.149	6732.05
728.491	6718.27
728.833	6780.64
729.175	6685.95
729.516	6711.94
729.858	6681.89
730.199	6672.17
730.541	6651.38
730.882	6621.32
731.224	6668.1
731.565	6669.46
731.906	6624.71
732.248	6585.62
732.589	6591.95
732.93	6575.67
733.271	6567.31
733.612	6573.41
733.953	6582.45
734.294	6507.88
734.635	6557.14
734.976	6584.94
735.317	6529.8
735.658	6513.08
735.999	6498.84
736.339	6461.33
736.68	6513.53
737.021	6487.32
737.361	6433.31
737.702	6513.3
738.042	6403.25
738.383	6415
738.723	6438.5
739.063	6427.66
739.404	6465.39
739.744	6392.18
740.084	6355.57
740.424	6400.76
740.764	6384.04
741.104	6422.23
741.444	6368.45
741.784	6356.92
742.124	6370.26
742.464	6304.5
742.804	6342.91
743.143	6334.32
743.483	6298.17
743.823	6280.54
744.162	6313.76
744.502	6203.71
744.841	6249.58
745.181	6272.86
745.52	6219.75
745.86	6256.59
746.199	6245.74
746.538	6250.94
746.877	6194.22
747.216	6184.72
747.556	6157.61
747.895	6164.16
748.234	6163.26
748.573	6143.6
748.911	6144.05
749.25	6178.17
749.589	6144.73
749.928	6148.12
750.267	6182.69
750.605	6127.78
750.944	6073.31
751.283	6066.54
751.621	6113.77
751.96	6066.08
752.298	6023.82
752.636	6031.06
752.975	5989.48
753.313	5993.09
753.651	6033.09
753.989	5964.39
754.327	5946.76
754.666	5937.73
755.004	5999.42
755.342	5935.69
755.679	5929.82
756.017	5863.15
756.355	5824.96
756.693	5902.02
757.031	5848.91
757.368	5794.45
757.706	5844.62
758.044	5778.86
758.381	5823.6
758.719	5796.71
759.056	5794
759.394	5731.18
759.731	5751.29
760.068	5705.87
760.405	5659.09
760.743	5680.56
761.08	5682.14
761.417	5665.87
761.754	5652.31
762.091	5648.92
762.428	5616.15
762.765	5588.13
763.102	5610.73
763.438	5602.14
763.775	5507.91
764.112	5589.03
764.449	5569.15
764.785	5523.05
765.122	5543.61
765.458	5460.9
765.795	5451.18
766.131	5480.34
766.467	5457.06
766.804	5399.21
767.14	5362.15
767.476	5399.43
767.812	5345.42
768.148	5369.38
768.485	5334.13
768.821	5291.87
769.157	5303.39
769.492	5313.79
769.828	5245.77
770.164	5241.25
