Data from black_plastic_tray_FLMS001491_034.txt Node
Date: Tue Feb 07 10:39:42 GMT 2017
User: dcchb
Spectrometer: FLMS00149
Trigger mode: 0
Integration Time (sec): 2.000000E-2
Scans to average: 10
Electric dark correction enabled: true
Nonlinearity correction enabled: false
Boxcar width: 0
XAxis mode: Wavelengths
Number of Pixels in Spectrum: 2048
>>>>>Begin Spectral Data<<<<<
341.393	-15.14
341.776	-15.14
342.16	-15.14
342.543	-51.52
342.927	-69.6
343.31	-52.88
343.693	-65.54
344.077	-54.91
344.46	-62.37
344.843	-45.65
345.226	-33.67
345.61	-40.9
345.993	-14.91
346.376	-8.59
346.759	12.88
347.142	18.3
347.525	30.06
347.908	69.6
348.291	58.98
348.674	93.78
349.057	95.82
349.44	115.7
349.823	122.03
350.206	146.21
350.588	187.11
350.971	204.74
351.354	213.1
351.737	219.66
352.119	244.74
352.502	251.74
352.884	264.17
353.267	252.42
353.65	291.29
354.032	295.13
354.414	281.35
354.797	306.88
355.179	315.7
355.562	327.68
355.944	346.21
356.326	329.93
356.709	327.9
357.091	321.12
357.473	337.84
357.855	348.47
358.238	317.73
358.62	336.26
359.002	341.46
359.384	331.52
359.766	341.46
360.148	322.48
360.53	332.19
360.912	332.65
361.294	334.45
361.676	336.94
362.057	319.99
362.439	323.16
362.821	333.78
363.203	312.76
363.584	328.58
363.966	326.77
364.348	306.66
364.729	328.13
365.111	322.7
365.493	318.18
365.874	317.28
366.256	338.52
366.637	311.4
367.019	324.06
367.4	313.66
367.781	313.21
368.163	299.2
368.544	313.89
368.925	297.85
369.306	317.28
369.688	324.96
370.069	319.54
370.45	323.38
370.831	308.47
371.212	322.93
371.593	327.9
371.974	309.37
372.355	344.4
372.736	339.88
373.117	338.3
373.498	313.44
373.879	321.8
374.26	323.83
374.641	325.64
375.021	308.47
375.402	303.95
375.783	321.12
376.163	334.23
376.544	362.7
376.925	323.61
377.305	336.49
377.686	323.38
378.066	358.41
378.447	331.52
378.827	348.47
379.208	316.38
379.588	353.44
379.968	342.82
380.349	359.99
380.729	363.83
381.109	362.02
381.489	345.08
381.87	343.04
382.25	341.01
382.63	345.08
383.01	364.96
383.39	356.15
383.77	361.35
384.15	370.84
384.53	378.07
384.91	354.11
385.29	371.97
385.67	375.36
386.049	389.37
386.429	379.43
386.809	388.01
387.189	361.57
387.568	383.49
387.948	391.4
388.328	402.25
388.707	386.43
389.087	389.37
389.466	401.35
389.846	392.98
390.225	423.27
390.605	390.5
390.984	421.01
391.363	410.84
391.743	431.18
392.122	412.87
392.501	428.69
392.881	425.3
393.26	424.17
393.639	470.04
394.018	444.96
394.397	452.64
394.776	441.12
395.155	445.41
395.534	465.07
395.913	431.4
396.292	427.56
396.671	457.16
397.05	458.29
397.429	440.21
397.808	452.64
398.186	455.13
398.565	460.78
398.944	466.65
399.323	455.36
399.701	453.32
400.08	462.59
400.458	465.75
400.837	475.92
401.215	479.31
401.594	498.29
401.972	493.55
402.351	499.87
402.729	505.07
403.107	513.66
403.486	505.52
403.864	498.52
404.242	470.5
404.62	528.35
404.999	521.57
405.377	543.26
405.755	517.73
406.133	547.56
406.511	534.9
406.889	537.84
407.267	536.26
407.645	561.79
408.023	557.73
408.401	562.92
408.779	569.25
409.156	574.67
409.534	572.87
409.912	571.06
410.29	570.61
410.667	574
411.045	573.77
411.422	618.29
411.8	615.58
412.178	613.77
412.555	629.14
412.933	638.63
413.31	627.1
413.687	642.02
414.065	650.38
414.442	657.61
414.819	644.95
415.197	647.21
415.574	653.32
415.951	649.47
416.328	651.51
416.705	663.71
417.082	689.25
417.46	690.6
417.837	722.01
418.214	682.69
418.591	705.29
418.967	682.02
419.344	711.17
419.721	724.95
420.098	708.91
420.475	731.28
420.852	730.15
421.228	724.73
421.605	744.84
421.982	739.42
422.358	748.68
422.735	768.79
423.111	776.48
423.488	773.54
423.864	788.68
424.241	788
424.617	799.53
424.994	797.49
425.37	797.95
425.746	829.81
426.123	815.57
426.499	815.8
426.875	854.21
427.251	841.56
427.627	852.63
428.003	875.91
428.379	866.87
428.756	896.25
429.132	916.13
429.507	914.1
429.883	908.22
430.259	920.2
430.635	930.82
431.011	944.38
431.387	956.13
431.763	1001.33
432.138	977.83
432.514	982.12
432.89	1004.27
433.265	1020.09
433.641	1029.8
434.016	1044.27
434.392	1023.02
434.767	1059.86
435.143	1052.4
435.518	1083.36
435.894	1063.02
436.269	1060.99
436.644	1102.57
437.02	1095.11
437.395	1125.17
437.77	1114.09
438.145	1156.13
438.52	1163.59
438.895	1155.9
439.271	1145.51
439.646	1170.14
440.021	1183.02
440.395	1169.01
440.77	1170.14
441.145	1206.75
441.52	1236.58
441.895	1230.25
442.27	1208.56
442.645	1213.98
443.019	1266.86
443.394	1291.04
443.769	1273.19
444.143	1260.76
444.518	1245.39
444.892	1284.49
445.267	1305.5
445.641	1291.04
446.016	1354.09
446.39	1338.04
446.764	1347.99
447.139	1293.98
447.513	1321.55
447.887	1328.33
448.262	1341.21
448.636	1355.22
449.01	1381.43
449.384	1397.03
449.758	1379.4
450.132	1411.71
450.506	1437.93
450.88	1405.39
451.254	1403.58
451.628	1430.47
452.002	1476.35
452.376	1465.27
452.75	1468.66
453.123	1501.2
453.497	1494.88
453.871	1506.63
454.244	1549.11
454.618	1551.37
454.992	1581.2
455.365	1596.57
455.739	1661.43
456.112	1618.04
456.486	1618.94
456.859	1674.98
457.232	1694.87
457.606	1685.83
457.979	1719.73
458.352	1730.35
458.725	1726.51
459.099	1784.81
459.472	1785.04
459.845	1806.96
460.218	1843.79
460.591	1884.7
460.964	1879.27
461.337	1910.68
461.71	1916.33
462.083	1985.26
462.456	1940.06
462.829	1975.77
463.201	2016.9
463.574	1992.94
463.947	2066.39
464.32	2072.26
464.692	2082.66
465.065	2104.13
465.438	2105.03
465.81	2174.18
466.183	2150.68
466.555	2241.75
466.928	2221.64
467.3	2244.23
467.672	2241.07
468.045	2346.83
468.417	2315.87
468.789	2348.41
469.161	2369.88
469.534	2405.13
469.906	2522.19
470.278	2475.42
470.65	2490.56
471.022	2516.54
471.394	2584.56
471.766	2592.25
472.138	2616.43
472.51	2696.88
472.882	2707.27
473.253	2722.64
473.625	2772.81
473.997	2827.04
474.369	2883.77
474.74	2875.86
475.112	2952.01
475.484	2924.89
475.855	3041.28
476.227	3067.72
476.598	3122.18
476.97	3136.19
477.341	3242.63
477.713	3240.59
478.084	3311.55
478.455	3368.95
478.827	3359.23
479.198	3480.13
479.569	3507.25
479.94	3593.8
480.311	3629.06
480.682	3678.1
481.053	3776.17
481.424	3804.87
481.795	3855.04
482.166	3918.77
482.537	3988.14
482.908	4025.43
483.279	4078.99
483.65	4150.17
484.021	4231.98
484.391	4277.18
484.762	4281.47
485.133	4299.77
485.503	4414.57
485.874	4528.92
486.244	4553.33
486.615	4623.16
486.985	4650.27
487.356	4764.39
487.726	4777.95
488.097	4844.39
488.467	4876.71
488.837	5011.62
489.207	5115.8
489.578	5130.94
489.948	5188.56
490.318	5263.14
490.688	5315.57
491.058	5358.28
491.428	5391.5
491.798	5418.16
492.168	5539.97
492.538	5561.89
492.908	5605.28
493.278	5718.04
493.648	5750.58
494.017	5773.41
494.387	5874.87
494.757	5928.88
495.126	5960.07
495.496	5948.54
495.866	6013.4
496.235	6130.01
496.605	6186.96
496.974	6182.66
497.344	6236.22
497.713	6268.76
498.082	6298.59
498.452	6410
498.821	6412.94
499.19	6437.8
499.559	6465.59
499.928	6607.51
500.298	6546.49
500.667	6633.72
501.036	6697.45
501.405	6669.88
501.774	6732.93
502.143	6786.94
502.512	6833.04
502.88	6891.12
503.249	6952.36
503.618	6934.28
503.987	6977.67
504.356	7029.19
504.724	7062.87
505.093	7122.98
505.462	7176.53
505.83	7209.08
506.199	7310.54
506.567	7377.43
506.936	7341.05
507.304	7504.66
507.672	7560.71
508.041	7557.32
508.409	7530.2
508.777	7598.22
509.145	7661.49
509.514	7703.98
509.882	7839.34
510.25	7858.55
510.618	7853.58
510.986	7909.62
511.354	7937.19
511.722	8064.19
512.09	8181.93
512.458	8121.14
512.826	8211.76
513.193	8220.35
513.561	8260.8
513.929	8330.18
514.297	8428.48
514.664	8476.61
515.032	8507.57
515.4	8569.27
515.767	8673.22
516.135	8663.28
516.502	8628.93
516.869	8801.8
517.237	8741.92
517.604	8857.17
517.972	8937.17
518.339	8964.96
518.706	9009.25
519.073	9101.68
519.44	9183.26
519.808	9291.28
520.175	9251.28
520.542	9369.92
520.909	9503.03
521.276	9496.93
521.643	9546.19
522.009	9622.57
522.376	9688.33
522.743	9742.57
523.11	9810.36
523.477	9998.83
523.843	9915.45
524.21	10105.05
524.577	10164.03
524.943	10184.14
525.31	10257.58
525.676	10387.3
526.043	10511.36
526.409	10482.89
526.776	10585.94
527.142	10695.09
527.508	10665.26
527.874	10854.63
528.241	10871.8
528.607	10942.31
528.973	11013.5
529.339	11059.6
529.705	11080.61
530.071	11233.6
530.437	11312.7
530.803	11392.69
531.169	11392.24
531.535	11411
531.901	11471.79
532.267	11599.92
532.632	11574.38
532.998	11601.05
533.364	11755.17
533.73	11755.4
534.095	11848.5
534.461	11868.61
534.826	11954.04
535.192	11977.09
535.557	12107.25
535.923	12088.27
536.288	12177.53
536.653	12187.93
537.019	12268.15
537.384	12208.04
537.749	12276.97
538.114	12407.58
538.479	12465.43
538.845	12470.63
539.21	12506.11
539.575	12572.78
539.94	12562.61
540.305	12681.25
540.67	12667.69
541.034	12712.21
541.399	12784.3
541.764	12762.6
542.129	12854.8
542.494	12928.7
542.858	12871.07
543.223	12921.24
543.587	13008.25
543.952	12921.92
544.316	13031.97
544.681	13059.09
545.045	13137.96
545.41	13204.17
545.774	13236.04
546.138	13335.69
546.503	13270.16
546.867	13369.14
547.231	13481.91
547.595	13521
547.959	13565.29
548.324	13511.96
548.688	13575.91
549.052	13580.43
549.416	13757.15
549.779	13616.59
550.143	13719.87
550.507	13880.76
550.871	13815.91
551.235	13890.03
551.599	13990.82
551.962	13982.91
552.326	13972.74
552.689	14163.24
553.053	14105.17
553.417	14133.19
553.78	14307.42
554.143	14341.77
554.507	14349.68
554.87	14451.15
555.234	14604.81
555.597	14480.75
555.96	14590.58
556.323	14617.02
556.686	14680.74
557.05	14743.12
557.413	14796.45
557.776	14896.56
558.139	14998.48
558.502	15014.75
558.865	15073.28
559.228	15178.36
559.59	15261.97
559.953	15172.03
560.316	15393.27
560.679	15353.27
561.041	15557.56
561.404	15465.58
561.767	15673.49
562.129	15622.19
562.492	15749.42
562.854	15824.44
563.217	15753.03
563.579	15936.53
563.941	15943.99
564.304	16036.41
564.666	16051.1
565.028	16132.01
565.39	16225.34
565.753	16347.14
566.115	16252.91
566.477	16441.38
566.839	16515.95
567.201	16627.59
567.563	16681.37
567.925	16759.79
568.287	16655.83
568.648	16769.95
569.01	16773.57
569.372	16934.92
569.734	16856.05
570.095	17019.44
570.457	17130.62
570.819	17167.23
571.18	17165.65
571.542	17232.32
571.903	17303.95
572.265	17284.74
572.626	17381.24
572.987	17513.44
573.349	17523.83
573.71	17538.3
574.071	17619.88
574.432	17657.61
574.794	17788.46
575.155	17713.66
575.516	17769.7
575.877	17831.85
576.238	17809.25
576.599	17830.72
576.96	17857.61
577.32	17884.73
577.681	17995.91
578.042	18166.53
578.403	18071.16
578.763	18083.14
579.124	18181.22
579.485	18181.89
579.845	18171.27
580.206	18202.46
580.566	18145.51
580.927	18194.32
581.287	18209.46
581.648	18141.44
582.008	18344.83
582.368	18242.01
582.728	18240.88
583.089	18146.42
583.449	18248.33
583.809	18198.62
584.169	18300.54
584.529	18265.06
584.889	18368.1
585.249	18223.93
585.609	18277.49
585.969	18339.86
586.329	18402.23
586.688	18303.47
587.048	18399.52
587.408	18221.67
587.768	18345.51
588.127	18290.37
588.487	18305.06
588.846	18372.62
589.206	18295.11
589.565	18180.09
589.925	18256.92
590.284	18270.48
590.643	18282.68
591.003	18434.54
591.362	18453.98
591.721	18417.59
592.08	18256.02
592.44	18337.37
592.799	18451.72
593.158	18324.49
593.517	18441.55
593.876	18431.15
594.235	18347.09
594.593	18341.66
594.952	18426.41
595.311	18334.89
595.67	18410.59
596.029	18503.92
596.387	18558.61
596.746	18490.59
597.104	18446.97
597.463	18464.15
597.822	18571.49
598.18	18449.68
598.538	18349.57
598.897	18599.96
599.255	18422.79
599.613	18633.63
599.972	18563.81
600.33	18692.62
600.688	18569
601.046	18654.88
601.404	18684.71
601.762	18666.18
602.12	18749.56
602.478	18754.99
602.836	18701.43
603.194	18642
603.552	18671.6
603.91	18592.51
604.268	18826.4
604.625	18623.47
604.983	18782.56
605.341	18701.2
605.698	18805.61
606.056	18821.88
606.413	18653.07
606.771	18690.36
607.128	18761.99
607.485	18685.61
607.843	18731.03
608.2	18917.69
608.557	18937.58
608.914	18936.9
609.272	18944.13
609.629	19004.02
609.986	19105.03
610.343	18900.75
610.7	19038.37
611.057	19058.71
611.414	19035.88
611.771	19097.58
612.127	19175.77
612.484	19215.77
612.841	19125.82
613.198	19172.15
613.554	19102.1
613.911	19250.79
614.267	19315.65
614.624	19253.96
614.98	19219.83
615.337	19338.47
615.693	19338.47
616.05	19204.47
616.406	19442.2
616.762	19387.06
617.118	19388.42
617.475	19340.73
617.831	19395.87
618.187	19441.07
618.543	19507.51
618.899	19557.45
619.255	19553.16
619.611	19509.32
619.967	19576.21
620.323	19613.27
620.678	19551.58
621.034	19551.8
621.39	19576.89
621.746	19549.77
622.101	19722.42
622.457	19420.73
622.812	19541.18
623.168	19680.84
623.523	19651.69
623.879	19658.47
624.234	19482.88
624.589	19568.75
624.945	19582.99
625.3	19561.52
625.655	19605.81
626.01	19656.88
626.365	19673.38
626.72	19542.54
627.075	19533.27
627.43	19517.9
627.785	19475.65
628.14	19479.94
628.495	19575.98
628.85	19555.42
629.205	19429.09
629.559	19555.42
629.914	19525.36
630.269	19442.65
630.623	19440.17
630.978	19450.11
631.332	19535.53
631.687	19557
632.041	19445.59
632.396	19574.63
632.75	19373.28
633.104	19355.2
633.459	19349.77
633.813	19261.41
634.167	19393.39
634.521	19280.62
634.875	19345.03
635.229	19311.81
635.583	19148.2
635.937	19144.13
636.291	19158.82
636.645	19030.91
636.999	19047.63
637.352	18931.93
637.706	18893.06
638.06	19006.73
638.413	18993.62
638.767	18959.95
639.121	18955.43
639.474	18876.79
639.828	18844.48
640.181	18884.02
640.534	18948.65
640.888	18717.02
641.241	18758.38
641.594	18668.44
641.947	18737.13
642.301	18644.71
642.654	18660.53
643.007	18674.31
643.36	18590.02
643.713	18484.94
644.066	18696.46
644.419	18515.22
644.771	18476.35
645.124	18352.74
645.477	18351.38
645.83	18093.99
646.182	18046.08
646.535	17972.63
646.888	17917.27
647.24	17873.88
647.593	17877.5
647.945	17832.98
648.298	17744.84
648.65	17771.96
649.002	17758.86
649.355	17809.93
649.707	17693.55
650.059	17846.76
650.411	18123.37
650.763	18136.25
651.115	18328.33
651.467	18154.55
651.819	18206.75
652.171	18138.73
652.523	18164.72
652.875	18083.14
653.227	18154.55
653.578	18148.45
653.93	18128.34
654.282	18063.48
654.633	17923.37
654.985	17902.13
655.337	17934.44
655.688	17946.19
656.039	17912.75
656.391	17866.65
656.742	17825.75
657.094	17834.79
657.445	17997.27
657.796	17924.5
658.147	17896.48
658.498	17885.63
658.849	17960.66
659.2	17811.74
659.551	17851.51
659.902	17905.52
660.253	17807.44
660.604	17745.97
660.955	17851.96
661.306	17777.39
661.656	17637.73
662.007	17671.4
662.358	17651.74
662.708	17686.77
663.059	17617.16
663.409	17484.29
663.76	17606.77
664.11	17694.22
664.461	17759.08
664.811	17729.25
665.161	17701
665.511	17676.37
665.862	17610.38
666.212	17571.74
666.562	17724.96
666.912	17568.35
667.262	17561.57
667.612	17509.37
667.962	17458.07
668.312	17477.96
668.662	17403.38
669.011	17384.4
669.361	17419.65
669.711	17401.12
670.06	17351.63
670.41	17325.65
670.76	17324.52
671.109	17379.43
671.459	17324.52
671.808	17307.57
672.157	17402.25
672.507	17130.17
672.856	17239.55
673.205	17301.01
673.554	17242.26
673.904	17248.13
674.253	17327.45
674.602	17185.31
674.951	16903.51
675.3	16860.35
675.649	17146.44
675.998	17160.9
676.346	17185.54
676.695	17154.58
677.044	17056.95
677.393	17166.33
677.741	17209.94
678.09	17062.83
678.438	17041.36
678.787	17057.18
679.135	17135.37
679.484	16977.18
679.832	17064.41
680.181	16934.92
680.529	16923.85
680.877	16951.19
681.225	16902.83
681.573	16962.49
681.922	16848.82
682.27	16750.07
682.618	16774.7
682.966	16733.12
683.314	16805.66
683.661	16766.56
684.009	16569.06
684.357	16644.76
684.705	16574.71
685.053	16562.73
685.4	16576.29
685.748	16466.23
686.095	16465.1
686.443	16403.41
686.79	16267.14
687.138	16235.73
687.485	16385.33
687.832	16208.39
688.18	16270.08
688.527	16178.56
688.874	16132.68
689.221	16144.21
689.568	16187.6
689.915	16103.76
690.262	16086.81
690.609	16047.71
690.956	16047.26
691.303	15907.15
691.65	15820.37
691.997	15758
692.344	15677.33
692.69	15716.42
693.037	15814.27
693.383	15624.22
693.73	15707.38
694.077	15679.59
694.423	15639.36
694.769	15617.22
695.116	15508.97
695.462	15410.44
695.808	15309.2
696.155	15445.47
696.501	15307.62
696.847	15310.33
697.193	15236.89
697.539	15253.16
697.885	15146.04
698.231	15059.94
698.577	15084.58
698.923	15122.31
699.269	15017.23
699.614	15000.96
699.96	14914.41
700.306	14934.07
700.651	14789.22
700.997	14827.18
701.342	14698.14
701.688	14700.4
702.033	14720.06
702.379	14628.77
702.724	14642.33
703.069	14688.88
703.415	14450.69
703.76	14610.69
704.105	14476.46
704.45	14557.81
704.795	14388.32
705.14	14345.84
705.485	14383.35
705.83	14336.8
706.175	14261.09
706.52	14172.73
706.865	14145.16
707.209	14140.42
707.554	14114.21
707.899	14145.39
708.243	14113.98
708.588	14105.17
708.932	13970.48
709.277	13920.09
709.621	14059.07
709.966	13879.86
710.31	13925.96
710.654	13782.46
710.998	13755.8
711.342	13871.05
711.687	13797.38
712.031	13739.98
712.375	13660.43
712.719	13673.09
713.063	13549.7
713.407	13595.8
713.75	13630.38
714.094	13556.93
714.438	13477.39
714.782	13484.62
715.125	13359.2
715.469	13390.38
715.812	13290.5
716.156	13312.87
716.499	13228.8
716.843	13202.59
717.186	13221.12
717.53	13251.18
717.873	13258.18
718.216	13208.47
718.559	13262.02
718.902	13022.03
719.246	13233.78
719.589	13114.01
719.932	13128.02
720.275	13088.7
720.617	12990.62
720.96	12935.03
721.303	12972.31
721.646	12922.37
721.989	12873.11
722.331	13014.8
722.674	12874.24
723.016	12882.37
723.359	12830.85
723.701	12947.46
724.044	12820.45
724.386	12791.08
724.729	12778.65
725.071	12670.85
725.413	12648.48
725.755	12723.96
726.097	12596.96
726.439	12556.05
726.782	12518.31
727.124	12692.1
727.465	12592.21
727.807	12533.23
728.149	12558.99
728.491	12521.93
728.833	12503.17
729.175	12404.87
729.516	12376.85
729.858	12454.59
730.199	12424.08
730.541	12394.25
730.882	12366.45
731.224	12370.07
731.565	12267.47
731.906	12318.09
732.248	12363.52
732.589	12171.21
732.93	12213.92
733.271	12154.03
733.612	12249.17
733.953	12188.15
734.294	12131.43
734.635	12147.93
734.976	12113.81
735.317	12133.69
735.658	12192.67
735.999	12097.31
736.339	12051.66
736.68	12105.22
737.021	11987.71
737.361	11874.04
737.702	12006.01
738.042	12052.56
738.383	11963.3
738.723	11986.13
739.063	11900.7
739.404	11879.24
739.744	11863.64
740.084	11793.36
740.424	11842.85
740.764	11820.25
741.104	11785.45
741.444	11752.69
741.784	11736.41
742.124	11767.15
742.464	11700.03
742.804	11741.39
743.143	11634.27
743.483	11670.2
743.823	11626.36
744.162	11629.52
744.502	11627.72
744.841	11705.23
745.181	11582.52
745.52	11555.85
745.86	11613.25
746.199	11561.96
746.538	11456.65
746.877	11529.41
747.216	11380.72
747.556	11410.77
747.895	11406.25
748.234	11355.86
748.573	11366.03
748.911	11329.87
749.25	11289.65
749.589	11234.96
749.928	11319.48
750.267	11340.49
750.605	11261.85
750.944	11250.55
751.283	11178.46
751.621	11175.3
751.96	11091.46
752.298	11152.7
752.636	11116.32
752.975	11054.85
753.313	10986.38
753.651	11063.21
753.989	10991.35
754.327	10990.9
754.666	10918.36
755.004	10900.96
755.342	10912.26
755.679	10827.51
756.017	10805.37
