Data from black_metal_pc_casing_FLMS001491_00079.txt Node
Date: Wed Feb 08 14:33:29 GMT 2017
User: dcchb
Spectrometer: FLMS00149
Trigger mode: 0
Integration Time (sec): 2.000000E-2
Scans to average: 10
Electric dark correction enabled: true
Nonlinearity correction enabled: false
Boxcar width: 0
XAxis mode: Wavelengths
Number of Pixels in Spectrum: 2048
>>>>>Begin Spectral Data<<<<<
341.393	-3.01
341.776	-3.01
342.16	-3.01
342.543	-80.07
342.927	-69.67
343.31	-43.23
343.693	-62.67
344.077	-67.87
344.46	-54.53
344.843	-52.27
345.226	-46.62
345.61	-29.45
345.993	-22.22
346.376	-20.64
346.759	10.1
347.142	28.18
347.525	39.02
347.908	64.56
348.291	62.75
348.674	82.87
349.057	112.02
349.44	114.73
349.823	141.85
350.206	175.97
350.588	172.58
350.971	212.58
351.354	230.43
351.737	229.53
352.119	232.01
352.502	244.89
352.884	256.19
353.267	256.19
353.65	283.31
354.032	286.25
354.414	284.44
354.797	308.85
355.179	316.53
355.562	314.27
355.944	328.51
356.326	335.51
356.709	314.27
357.091	314.05
357.473	311.79
357.855	313.59
358.238	333.25
358.62	340.94
359.002	336.19
359.384	312.01
359.766	335.51
360.148	338.9
360.53	325.34
360.912	335.29
361.294	333.93
361.676	326.93
362.057	335.29
362.439	329.19
362.821	320.6
363.203	306.59
363.584	344.78
363.966	323.54
364.348	311.56
364.729	314.05
365.111	304.1
365.493	311.79
365.874	312.92
366.256	305.68
366.637	317.44
367.019	326.02
367.4	321.73
367.781	322.63
368.163	306.36
368.544	304.55
368.925	318.79
369.306	324.67
369.688	303.65
370.069	297.1
370.45	276.98
370.831	286.25
371.212	299.13
371.593	317.89
371.974	295.29
372.355	318.79
372.736	302.75
373.117	314.05
373.498	318.57
373.879	313.82
374.26	321.95
374.641	304.33
375.021	314.27
375.402	319.47
375.783	338.68
376.163	330.54
376.544	349.52
376.925	341.62
377.305	352.24
377.686	349.07
378.066	322.18
378.447	339.36
378.827	333.25
379.208	336.87
379.588	344.1
379.968	340.03
380.349	361.05
380.729	334.16
381.109	349.52
381.489	334.61
381.87	336.42
382.25	341.84
382.63	352.24
383.01	357.21
383.39	357.43
383.77	341.84
384.15	353.37
384.53	367.83
384.91	357.21
385.29	354.95
385.67	371.9
386.049	381.84
386.429	354.27
386.809	364.44
387.189	380.03
387.568	383.87
387.948	384.33
388.328	394.95
388.707	390.2
389.087	375.06
389.466	375.51
389.846	382.52
390.225	414.38
390.605	383.65
390.984	402.18
391.363	388.62
391.743	382.52
392.122	396.3
392.501	390.2
392.881	405.34
393.26	413.93
393.639	416.87
394.018	387.26
394.397	382.07
394.776	401.5
395.155	407.83
395.534	418.45
395.913	441.73
396.292	407.6
396.671	406.7
397.05	411.67
397.429	431.33
397.808	444.21
398.186	427.94
398.565	422.07
398.944	427.04
399.323	441.27
399.701	426.13
400.08	437.66
400.458	439.69
400.837	464.78
401.215	453.93
401.594	472.23
401.972	446.47
402.351	456.41
402.729	454.38
403.107	455.06
403.486	463.87
403.864	475.17
404.242	469.97
404.62	460.26
404.999	466.36
405.377	465.23
405.755	469.3
406.133	473.59
406.511	488.05
406.889	496.87
407.267	503.87
407.645	507.26
408.023	507.94
408.401	474.27
408.779	502.74
409.156	513.59
409.534	502.06
409.912	530.54
410.29	514.49
410.667	532.57
411.045	529.86
411.422	559.01
411.8	539.35
412.178	540.03
412.555	568.05
412.933	566.24
413.31	573.7
413.687	551.1
414.065	572.57
414.442	585.68
414.819	583.64
415.197	595.17
415.574	569.86
415.951	584.09
416.328	596.3
416.705	571.44
417.082	599.24
417.46	617.09
417.837	593.13
418.214	635.17
418.591	604.21
418.967	648.73
419.344	621.61
419.721	621.16
420.098	636.75
420.475	649.63
420.852	639.01
421.228	645.11
421.605	653.7
421.982	642.85
422.358	658.9
422.735	645.56
423.111	657.09
423.488	648.5
423.864	686.47
424.241	684.66
424.617	702.06
424.994	697.54
425.37	707.03
425.746	695.5
426.123	726.24
426.499	717.88
426.875	732.79
427.251	725.33
427.627	730.31
428.003	760.81
428.379	754.49
428.756	775.95
429.132	760.81
429.507	759.91
429.883	782.73
430.259	784.32
430.635	783.41
431.011	784.54
431.387	803.75
431.763	790.42
432.138	802.85
432.514	832.9
432.89	841.26
433.265	847.59
433.641	837.65
434.016	867.48
434.392	862.51
434.767	864.99
435.143	886.91
435.518	896.63
435.894	909.06
436.269	916.97
436.644	918.1
437.02	911.54
437.395	926.91
437.77	907.48
438.145	972.11
438.52	950.41
438.895	938.66
439.271	952.67
439.646	997.87
440.021	979.56
440.395	995.38
440.77	999.45
441.145	992.22
441.52	1005.1
441.895	1039.68
442.27	1028.15
442.645	1018.66
443.019	1019.79
443.394	1025.89
443.769	1065.44
444.143	1050.98
444.518	1080.35
444.892	1054.14
445.267	1074.48
445.641	1061.14
446.016	1083.06
446.39	1072.9
446.764	1087.36
447.139	1091.43
447.513	1105.89
447.887	1098.21
448.262	1086.23
448.636	1114.25
449.01	1116.96
449.384	1137.98
449.758	1140.92
450.132	1174.59
450.506	1139.11
450.88	1148.37
451.254	1170.52
451.628	1174.14
452.002	1181.14
452.376	1198.99
452.75	1197.41
453.123	1210.75
453.497	1234.25
453.871	1246.68
454.244	1274.47
454.618	1250.74
454.992	1281.25
455.365	1260.24
455.739	1330.97
456.112	1326.9
456.486	1338.88
456.859	1327.58
457.232	1382.72
457.606	1399.44
457.979	1400.57
458.352	1398.08
458.725	1403.96
459.099	1407.58
459.472	1460.23
459.845	1500.23
460.218	1464.98
460.591	1482.38
460.964	1496.16
461.337	1537.29
461.71	1547.91
462.083	1570.96
462.456	1581.36
462.829	1565.31
463.201	1614.58
463.574	1604.18
463.947	1614.12
464.32	1640.56
464.692	1671.3
465.065	1662.94
465.438	1678.3
465.81	1706.1
466.183	1778.64
466.555	1749.04
466.928	1756.72
467.3	1792.2
467.672	1784.52
468.045	1853.89
468.417	1859.32
468.789	1840.33
469.161	1893.21
469.534	1913.55
469.906	1941.57
470.278	2008.24
470.65	1947.22
471.022	2015.02
471.394	2039.88
471.766	2065.19
472.138	2088.46
472.51	2103.15
472.882	2144.28
473.253	2172.08
473.625	2205.3
473.997	2237.16
474.369	2243.03
474.74	2291.17
475.112	2284.62
475.484	2359.64
475.855	2394.67
476.227	2389.47
476.598	2430.83
476.97	2499.07
477.341	2533.65
477.713	2570.71
478.084	2575.68
478.455	2630.14
478.827	2648.22
479.198	2710.59
479.569	2723.02
479.94	2812.51
480.311	2808.67
480.682	2873.53
481.053	2941.77
481.424	2995.1
481.795	3021.77
482.166	3063.13
482.537	3064.71
482.908	3136.57
483.279	3198.04
483.65	3240.07
484.021	3262.22
484.391	3348.54
484.762	3349.67
485.133	3342.67
485.503	3448.88
485.874	3488.88
486.244	3549.44
486.615	3583.79
486.985	3656.56
487.356	3689.55
487.726	3725.26
488.097	3736.1
488.467	3793.73
488.837	3841.18
489.207	3916.21
489.578	3958.92
489.948	3999.37
490.318	4052.93
490.688	4035.08
491.058	4094.74
491.428	4127.96
491.798	4223.55
492.168	4318.91
492.538	4308.52
492.908	4326.82
493.278	4407.05
493.648	4401.62
494.017	4449.08
494.387	4538.79
494.757	4577.66
495.126	4607.72
495.496	4595.97
495.866	4630.77
496.235	4644.78
496.605	4760.71
496.974	4731.33
497.344	4811.78
497.713	4850.65
498.082	4883.87
498.452	4918.9
498.821	4965.45
499.19	4977.88
499.559	5012.68
499.928	5035.73
500.298	5070.98
500.667	5154.37
501.036	5123.18
501.405	5163.18
501.774	5183.52
502.143	5255.61
502.512	5264.2
502.88	5279.11
503.249	5371.54
503.618	5341.48
503.987	5371.77
504.356	5400.47
504.724	5411.99
505.093	5473.46
505.462	5461.71
505.83	5571.76
506.199	5619.44
506.567	5636.84
506.936	5631.87
507.304	5728.59
507.672	5771.76
508.041	5802.04
508.409	5812.66
508.777	5846.33
509.145	5937.17
509.514	5922.03
509.882	5995.03
510.25	5995.25
510.618	6011.3
510.986	6094.91
511.354	6141.46
511.722	6146.21
512.09	6231.63
512.458	6227.56
512.826	6253.32
513.193	6341.46
513.561	6342.14
513.929	6362.47
514.297	6568.8
514.664	6475.92
515.032	6517.72
515.4	6582.58
515.767	6578.97
516.135	6606.99
516.502	6650.6
516.869	6741.9
517.237	6823.7
517.604	6722.46
517.972	6830.03
518.339	6893.53
518.706	6949.13
519.073	7037.94
519.44	7027.32
519.808	7097.37
520.175	7124.04
520.542	7185.05
520.909	7253.52
521.276	7281.09
521.643	7278.16
522.009	7454.42
522.376	7411.26
522.743	7456.91
523.11	7489.68
523.477	7600.41
523.843	7707.3
524.21	7749.1
524.577	7807.86
524.943	7877.91
525.31	7872.04
525.676	7976.22
526.043	8027.74
526.409	8135.08
526.776	8112.94
527.142	8122.65
527.508	8285.36
527.874	8311.12
528.241	8327.17
528.607	8356.77
528.973	8413.04
529.339	8482.19
529.705	8581.4
530.071	8584.34
530.437	8632.47
530.803	8657.1
531.169	8698.46
531.535	8673.37
531.901	8804.22
532.267	8778
532.632	8859.81
532.998	8911.56
533.364	8968.73
533.73	8977.55
534.095	9059.35
534.461	9083.53
534.826	9152.01
535.192	9178.9
535.557	9293.02
535.923	9280.82
536.288	9308.84
536.653	9362.4
537.019	9349.97
537.384	9389.96
537.749	9463.64
538.114	9447.82
538.479	9486.91
538.845	9545.22
539.21	9502.73
539.575	9580.92
539.94	9574.59
540.305	9696.4
540.67	9735.49
541.034	9735.49
541.399	9785.89
541.764	9739.56
542.129	9830.18
542.494	9779.11
542.858	9868.14
543.223	9955.15
543.587	9975.49
543.952	10012.32
544.316	10048.7
544.681	9994.02
545.045	10124.86
545.41	10121.02
545.774	10188.14
546.138	10203.28
546.503	10214.58
546.867	10278.3
547.231	10349.71
547.595	10372.09
547.959	10302.94
548.324	10368.7
548.688	10355.82
549.052	10496.83
549.416	10417.73
549.779	10481.91
550.143	10549.93
550.507	10581.35
550.871	10669.71
551.235	10609.14
551.599	10745.18
551.962	10792.87
552.326	10801.91
552.689	10831.28
553.053	10913.09
553.417	10875.58
553.78	11020.88
554.143	11013.65
554.507	11022.46
554.87	11074.21
555.234	11173.42
555.597	11140.65
555.96	11133.42
556.323	11224.49
556.686	11185.17
557.05	11375
557.413	11379.74
557.776	11415.67
558.139	11469.68
558.502	11548.1
558.865	11539.29
559.228	11657.93
559.59	11638.72
559.953	11669
560.316	11817.7
560.679	11730.02
561.041	11963
561.404	11938.6
561.767	12055.88
562.129	12027.41
562.492	12107.63
562.854	12071.93
563.217	12097.46
563.579	12124.58
563.941	12269.89
564.304	12315.54
564.666	12313.96
565.028	12412.48
565.39	12470.79
565.753	12539.71
566.115	12646.15
566.477	12648.41
566.839	12716.66
567.201	12760.95
567.563	12755.53
567.925	12840.72
568.287	12825.58
568.648	12904.9
569.01	12990.55
569.372	13088.17
569.734	12973.15
570.095	13102.18
570.457	13218.11
570.819	13186.25
571.18	13163.88
571.542	13303.31
571.903	13259.69
572.265	13317.32
572.626	13396.19
572.987	13396.87
573.349	13547.37
573.71	13560.02
574.071	13510.99
574.432	13531.78
574.794	13661.72
575.155	13652.9
575.516	13664.65
575.877	13711.43
576.238	13696.74
576.599	13863.75
576.96	13752.56
577.32	13791.66
577.681	13871.66
578.042	13904.2
578.403	13885.89
578.763	13902.16
579.124	13968.15
579.485	13985.32
579.845	13987.58
580.206	14035.04
580.566	13969.51
580.927	14011.99
581.287	14036.62
581.648	14044.98
582.008	14121.82
582.368	14100.58
582.728	14186.68
583.089	14147.35
583.449	14121.14
583.809	14110.29
584.169	14236.39
584.529	14110.97
584.889	14162.72
585.249	14141.48
585.609	14035.49
585.969	14179.22
586.329	14207.69
586.688	14129.5
587.048	14279.55
587.408	14164.53
587.768	14218.31
588.127	14179.44
588.487	14195.26
588.846	14293.34
589.206	14124.08
589.565	14156.39
589.925	14287.01
590.284	14136.73
590.643	14105.1
591.003	14248.37
591.362	14326.11
591.721	14297.41
592.08	14328.14
592.44	14258.76
592.799	14303.28
593.158	14267.58
593.517	14174.47
593.876	14253.34
594.235	14255.6
594.593	14271.19
594.952	14289.72
595.311	14262.38
595.67	14280.01
596.029	14373.11
596.387	14440.23
596.746	14397.74
597.104	14356.84
597.463	14287.92
597.822	14378.76
598.18	14364.75
598.538	14367.69
598.897	14457.18
599.255	14310.06
599.613	14538.98
599.972	14541.24
600.33	14410.4
600.688	14529.72
601.046	14439.78
601.404	14538.53
601.762	14488.81
602.12	14513.22
602.478	14610.62
602.836	14592.31
603.194	14477.74
603.552	14576.95
603.91	14471.19
604.268	14655.14
604.625	14549.83
604.983	14557.74
605.341	14537.85
605.698	14668.02
606.056	14600
606.413	14691.29
606.771	14672.76
607.128	14698.75
607.485	14720.9
607.843	14649.49
608.2	14762.93
608.557	14835.92
608.914	14708.47
609.272	14748.24
609.629	14802.48
609.986	14853.55
610.343	14770.84
610.7	14939.2
611.057	14932.64
611.414	14873.89
611.771	14881.8
612.127	14879.31
612.484	14875.92
612.841	14947.11
613.198	14895.58
613.554	15032.08
613.911	15000.44
614.267	14945.3
614.624	15049.7
614.98	15051.51
615.337	15188
615.693	15115.24
616.05	15081.57
616.406	15147.33
616.762	15173.54
617.118	15029.36
617.475	15144.39
617.831	15115.46
618.187	15252.41
618.543	15160.89
618.899	15359.53
619.255	15263.71
619.611	15219.42
619.967	15182.36
620.323	15293.31
620.678	15221.9
621.034	15294.44
621.39	15213.77
621.746	15164.28
622.101	15350.49
622.457	15175.12
622.812	15195.91
623.168	15275.01
623.523	15329.24
623.879	15349.81
624.234	15342.8
624.589	15379.41
624.945	15353.88
625.3	15274.33
625.655	15254.44
626.01	15360.66
626.365	15218.74
626.72	15259.19
627.075	15269.13
627.43	15298.28
627.785	15233.43
628.14	15323.59
628.495	15244.5
628.85	15260.09
629.205	15185.97
629.559	15309.58
629.914	15160.66
630.269	15137.84
630.623	15109.14
630.978	15132.64
631.332	15253.77
631.687	15205.63
632.041	15126.31
632.396	15127.67
632.75	15169.25
633.104	15161.34
633.459	14994.56
633.813	15030.49
634.167	15063.04
634.521	15020.33
634.875	15063.71
635.229	15058.52
635.583	14927.45
635.937	14982.36
636.291	14911.18
636.645	14953.66
636.999	14877.5
637.352	14937.84
637.706	14908.46
638.06	14896.03
638.413	14904.62
638.767	14828.47
639.121	14832.31
639.474	14800.67
639.828	14821.23
640.181	14792.76
640.534	14751.86
640.888	14783.95
641.241	14795.25
641.594	14718.19
641.947	14767.68
642.301	14752.08
642.654	14686.77
643.007	14695.14
643.36	14687.23
643.713	14583.5
644.066	14652.65
644.419	14537.85
644.771	14433.45
645.124	14227.8
645.477	14269.38
645.83	14207.92
646.182	14135.38
646.535	14076.4
646.888	14054.7
647.24	14051.54
647.593	14107.58
647.945	14116.39
648.298	14046.11
648.65	14022.39
649.002	13912.11
649.355	13961.37
649.707	13940.81
650.059	14025.55
650.411	14207.69
650.763	14184.64
651.115	14331.08
651.467	14288.14
651.819	14265.32
652.171	14247.92
652.523	14243.17
652.875	14119.78
653.227	14203.4
653.578	14259.44
653.93	14163.4
654.282	14130.63
654.633	14095.83
654.985	14121.82
655.337	14136.51
655.688	14069.39
656.039	14160.46
656.391	14164.75
656.742	14048.37
657.094	14061.71
657.445	14115.04
657.796	14023.06
658.147	14016.28
658.498	13971.31
658.849	14052.44
659.2	14023.97
659.551	13999.34
659.902	14075.49
660.253	13916.63
660.604	14045.66
660.955	13889.96
661.306	13948.04
661.656	13903.97
662.007	14009.96
662.358	13938.55
662.708	13951.2
663.059	13937.64
663.409	13855.16
663.76	13946.91
664.11	13940.58
664.461	13915.27
664.811	13930.64
665.161	13957.98
665.511	13835.05
665.862	13929.28
666.212	13998.21
666.562	13906.46
666.912	13954.82
667.262	13917.3
667.612	13870.3
667.962	13958.66
668.312	13863.75
668.662	13974.93
669.011	13876.4
669.361	13890.41
669.711	13903.52
670.06	13850.41
670.41	13813.13
670.76	13897.42
671.109	13799.57
671.459	13866.01
671.808	13775.16
672.157	13792.56
672.507	13711.21
672.856	13757.53
673.205	13717.76
673.554	13849.51
673.904	13753.24
674.253	13880.69
674.602	13742.17
674.951	13497.43
675.3	13440.03
675.649	13714.6
675.998	13640.02
676.346	13697.87
676.695	13728.83
677.044	13567.48
677.393	13572.45
677.741	13656.75
678.09	13541.72
678.438	13604.32
678.787	13558.67
679.135	13544.43
679.484	13461.5
679.832	13433.93
680.181	13416.75
680.529	13517.77
680.877	13421.27
681.225	13459.91
681.573	13537.88
681.922	13400.48
682.27	13324.1
682.618	13373.59
682.966	13459.91
683.314	13244.33
683.661	13298.79
684.009	13235.97
684.357	13215.63
684.705	13296.98
685.053	13223.76
685.4	13183.99
685.748	13138.12
686.095	13072.35
686.443	13108.29
686.79	13082.07
687.138	13152.58
687.485	13075.74
687.832	13041.17
688.18	13140.15
688.527	12981.28
688.874	12902.41
689.221	12940.83
689.568	12885.92
689.915	12896.54
690.262	12869.87
690.609	12776.77
690.956	12807.5
691.303	12736.09
691.65	12712.59
691.997	12703.55
692.344	12560.96
692.69	12650.44
693.037	12538.36
693.383	12511.46
693.73	12514.85
694.077	12408.87
694.423	12507.62
694.769	12430.11
695.116	12414.97
695.462	12424.69
695.808	12259.27
696.155	12363.9
696.501	12260.4
696.847	12281.64
697.193	12149.21
697.539	12097.24
697.885	12078.71
698.231	12034.19
698.577	12103.11
698.923	12052.49
699.269	11938.6
699.614	11963.46
699.96	11948.77
700.306	11903.57
700.651	11850.69
700.997	11813.18
701.342	11817.92
701.688	11793.29
702.033	11784.25
702.379	11743.12
702.724	11676.68
703.069	11679.4
703.415	11548.1
703.76	11566.63
704.105	11610.25
704.45	11620.64
704.795	11507.42
705.14	11486.18
705.485	11456.8
705.83	11328.22
706.175	11445.5
706.52	11393.53
706.865	11328.67
707.209	11361.89
707.554	11277.6
707.899	11291.61
708.243	11301.1
708.588	11254.77
708.932	11178.17
709.277	11174.32
709.621	11157.6
709.966	11068.34
710.31	11116.93
710.654	11019.3
710.998	11067.43
711.342	11082.8
711.687	10968.23
712.031	10950.83
712.375	10919.42
712.719	10944.05
713.063	10860.89
713.407	10933.65
713.75	10831.73
714.094	10895.46
714.438	10882.81
714.782	10853.88
715.125	10762.36
715.469	10785.63
715.812	10762.81
716.156	10695.47
716.499	10725.07
716.843	10800.32
717.186	10666.77
717.53	10689.37
717.873	10633.32
718.216	10600.33
718.559	10604.4
718.902	10553.55
719.246	10556.94
719.589	10586.77
719.932	10460.45
720.275	10480.33
720.617	10473.33
720.96	10467.22
721.303	10463.61
721.646	10426.1
721.989	10469.48
722.331	10428.58
722.674	10369.15
723.016	10443.04
723.359	10331.64
723.701	10335.48
724.044	10300.22
724.386	10233.33
724.729	10333.44
725.071	10278.53
725.413	10282.82
725.755	10273.11
726.097	10177.29
726.439	10161.7
726.782	10146.1
727.124	10152.43
727.465	10122.6
727.807	10171.19
728.149	10101.36
728.491	10133.9
728.833	10081.47
729.175	10037.86
729.516	10095.03
729.858	10016.62
730.199	10030.85
730.541	9992.21
730.882	9973.23
731.224	10021.59
731.565	9984.3
731.906	9899.56
732.248	9917.18
732.589	9913.79
732.93	9882.38
733.271	9897.75
733.612	9930.97
733.953	9911.53
734.294	9841.48
734.635	9800.8
734.976	9806.9
735.317	9772.1
735.658	9760.58
735.999	9742.95
736.339	9740.46
736.68	9757.19
737.021	9733.91
737.361	9669.51
737.702	9790.63
738.042	9665.44
738.383	9658.43
738.723	9723.29
739.063	9651.88
739.404	9722.61
739.744	9632.67
740.084	9627.25
740.424	9615.5
740.764	9581.15
741.104	9570.75
741.444	9510.87
741.784	9510.87
742.124	9512.9
742.464	9485.56
742.804	9482.39
743.143	9528.72
743.483	9481.94
743.823	9413.47
744.162	9433.58
744.502	9356.52
744.841	9336.18
745.181	9399
745.52	9375.73
745.86	9408.72
746.199	9408.04
746.538	9389.96
746.877	9297.31
747.216	9369.85
747.556	9317.88
747.895	9314.49
748.234	9296.41
748.573	9300.48
748.911	9320.59
749.25	9210.76
749.589	9202.4
749.928	9187.48
750.267	9184.77
750.605	9124.66
750.944	9135.06
751.283	9141.16
751.621	9139.35
751.96	9056.19
752.298	9090.31
752.636	9029.52
752.975	9012.8
753.313	8968.96
753.651	8999.47
753.989	8949.07
754.327	8935.51
754.666	8920.6
755.004	8972.12
755.342	8958.34
755.679	8860.04
756.017	8847.38
756.355	8887.15
756.693	8887.15
757.031	8854.84
757.368	8751.11
757.706	8738.46
758.044	8785.69
758.381	8675.86
758.719	8655.3
759.056	8675.18
759.394	8630.44
