Data from black_plastic_tray_FLMS001491_054.txt Node
Date: Tue Feb 07 10:40:09 GMT 2017
User: dcchb
Spectrometer: FLMS00149
Trigger mode: 0
Integration Time (sec): 2.000000E-2
Scans to average: 10
Electric dark correction enabled: true
Nonlinearity correction enabled: false
Boxcar width: 0
XAxis mode: Wavelengths
Number of Pixels in Spectrum: 2048
>>>>>Begin Spectral Data<<<<<
341.393	-6.29
341.776	-6.29
342.16	-6.29
342.543	-41.99
342.927	-71.59
343.31	-66.17
343.693	-56
344.077	-72.05
344.46	-53.52
344.843	-65.72
345.226	-29.56
345.61	-46.74
345.993	-33.18
346.376	1.17
346.759	11.34
347.142	28.06
347.525	52.02
347.908	69.42
348.291	56.54
348.674	97.44
349.057	106.93
349.44	136.31
349.823	140.38
350.206	157.55
350.588	183.31
350.971	214.05
351.354	229.64
351.737	218.12
352.119	227.61
352.502	271.9
352.884	268.74
353.267	255.85
353.65	305.8
354.032	255.63
354.414	299.02
354.797	298.57
355.179	326.81
355.562	315.06
355.944	308.28
356.326	327.27
356.709	317.55
357.091	325.46
357.473	333.37
357.855	341.28
358.238	329.3
358.62	333.82
359.002	329.75
359.384	344.21
359.766	325.01
360.148	323.42
360.53	332.01
360.912	355.29
361.294	332.46
361.676	334.95
362.057	346.93
362.439	332.01
362.821	329.98
363.203	318.9
363.584	310.09
363.966	320.03
364.348	327.27
364.729	327.04
365.111	329.53
365.493	341.5
365.874	330.88
366.256	313.25
366.637	303.76
367.019	314.38
367.4	315.51
367.781	299.92
368.163	315.06
368.544	315.74
368.925	327.94
369.306	317.55
369.688	316.19
370.069	315.51
370.45	320.03
370.831	326.59
371.212	316.19
371.593	327.49
371.974	315.51
372.355	313.48
372.736	329.07
373.117	320.94
373.498	345.12
373.879	325.46
374.26	316.87
374.641	309.41
375.021	336.76
375.402	320.49
375.783	338.34
376.163	335.85
376.544	333.14
376.925	325.01
377.305	334.72
377.686	333.14
378.066	330.66
378.447	334.95
378.827	355.29
379.208	335.17
379.588	347.15
379.968	358
380.349	348.96
380.729	346.93
381.109	332.24
381.489	357.32
381.87	366.81
382.25	355.51
382.63	356.42
383.01	367.26
383.39	376.3
383.77	345.12
384.15	384.44
384.53	361.84
384.91	376.76
385.29	364.78
385.67	394.16
386.049	373.14
386.429	398.22
386.809	369.75
387.189	374.5
387.568	391.22
387.948	381.28
388.328	376.76
388.707	377.89
389.087	393.25
389.466	379.02
389.846	403.65
390.225	374.5
390.605	393.25
390.984	378.11
391.363	399.35
391.743	402.52
392.122	410.65
392.501	416.08
392.881	417.43
393.26	426.47
393.639	414.95
394.018	415.85
394.397	425.57
394.776	433.25
395.155	418.79
395.534	416.98
395.913	426.7
396.292	407.72
396.671	439.58
397.05	442.97
397.429	453.36
397.808	451.33
398.186	434.61
398.565	435.74
398.944	432.57
399.323	433.03
399.701	449.52
400.08	455.62
400.458	444.55
400.837	463.98
401.215	475.74
401.594	457.21
401.972	475.51
402.351	475.51
402.729	470.31
403.107	478.22
403.486	480.03
403.864	475.74
404.242	492.68
404.62	492.68
404.999	489.3
405.377	489.3
405.755	501.05
406.133	504.21
406.511	481.39
406.889	516.86
407.267	514.83
407.645	518.45
408.023	505.34
408.401	533.14
408.779	522.06
409.156	535.85
409.534	548.73
409.912	525.45
410.29	564.1
410.667	543.3
411.045	573.81
411.422	564.32
411.8	543.98
412.178	546.24
412.555	572
412.933	562.51
413.31	551.67
413.687	597.99
414.065	583.08
414.442	602.74
414.819	588.95
415.197	571.1
415.574	610.2
415.951	614.94
416.328	602.96
416.705	609.29
417.082	634.83
417.46	604.77
417.837	634.6
418.214	636.86
418.591	638.67
418.967	617.2
419.344	661.04
419.721	669.86
420.098	663.98
420.475	670.53
420.852	665.11
421.228	672.34
421.605	688.16
421.982	676.63
422.358	689.29
422.735	689.97
423.111	702.62
423.488	706.46
423.864	717.31
424.241	708.72
424.617	721.83
424.994	721.61
425.37	728.84
425.746	713.47
426.123	759.12
426.499	741.72
426.875	754.6
427.251	763.41
427.627	770.64
428.003	802.51
428.379	803.64
428.756	816.97
429.132	808.61
429.507	789.17
429.883	812
430.259	843.41
430.635	825.33
431.011	855.39
431.387	837.53
431.763	842.73
432.138	866.91
432.514	886.8
432.89	883.86
433.265	886.35
433.641	899.91
434.016	913.01
434.392	930.41
434.767	922.05
435.143	914.59
435.518	950.07
435.894	958.89
436.269	953.92
436.644	957.98
437.02	979.9
437.395	981.26
437.77	1019
438.145	1009.06
438.52	1014.03
438.895	1043.4
439.271	1038.89
439.646	1059.68
440.021	1031.88
440.395	1079.79
440.77	1079.56
441.145	1069.62
441.52	1073.23
441.895	1073.23
442.27	1114.59
442.645	1069.39
443.019	1108.04
443.394	1108.71
443.769	1129.96
444.143	1094.7
444.518	1134.25
444.892	1092.89
445.267	1127.24
445.641	1135.38
446.016	1166.79
446.39	1166.57
446.764	1179.22
447.139	1146
447.513	1188.94
447.887	1142.39
448.262	1181.03
448.636	1214.93
449.01	1236.85
449.384	1217.64
449.758	1235.26
450.132	1224.64
450.506	1233
450.88	1250.63
451.254	1271.2
451.628	1241.82
452.002	1269.84
452.376	1286.79
452.75	1309.84
453.123	1276.17
453.497	1338.09
453.871	1330.18
454.244	1343.74
454.618	1358.88
454.992	1381.93
455.365	1390.97
455.739	1429.16
456.112	1448.59
456.486	1451.3
456.859	1459.89
457.232	1461.92
457.606	1472.32
457.979	1480.46
458.352	1547.35
458.725	1537.4
459.099	1531.08
459.472	1554.58
459.845	1579.66
460.218	1616.27
460.591	1606.33
460.964	1631.19
461.337	1644.52
461.71	1653.33
462.083	1688.81
462.456	1691.3
462.829	1692.43
463.201	1717.96
463.574	1764.97
463.947	1761.8
464.32	1805.64
464.692	1804.29
465.065	1828.02
465.438	1861.24
465.81	1868.47
466.183	1857.62
466.555	1930.61
466.928	1927.9
467.3	1928.81
467.672	2011.97
468.045	2018.52
468.417	2032.08
468.789	2054.23
469.161	2056.26
469.534	2068.24
469.906	2120.89
470.278	2120.21
470.65	2160.44
471.022	2210.61
471.394	2218.74
471.766	2265.52
472.138	2295.12
472.51	2292.64
472.882	2356.82
473.253	2378.74
473.625	2398.4
473.997	2450.83
474.369	2484.04
474.74	2471.39
475.112	2531.05
475.484	2591.61
475.855	2587.77
476.227	2615.11
476.598	2678.39
476.97	2697.82
477.341	2775.11
477.713	2784.83
478.084	2852.85
478.455	2898.5
478.827	2911.38
479.198	2959.96
479.569	2966.52
479.94	3081.54
480.311	3107.53
480.682	3162.9
481.053	3214.65
481.424	3267.08
481.795	3323.57
482.166	3353.85
482.537	3381.42
482.908	3496.45
483.279	3531.25
483.65	3549.55
484.021	3613.51
484.391	3642.66
484.762	3675.2
485.133	3729.21
485.503	3748.87
485.874	3889.21
486.244	3894.4
486.615	3939.15
486.985	3999.26
487.356	4019.6
487.726	4117.45
488.097	4205.13
488.467	4187.5
488.837	4239.48
489.207	4342.53
489.578	4353.15
489.948	4402.64
490.318	4458.91
490.688	4472.92
491.058	4531.45
491.428	4609.19
491.798	4650.09
492.168	4746.81
492.538	4767.37
492.908	4828.16
493.278	4851.21
493.648	4914.94
494.017	4917.88
494.387	4961.27
494.757	5018.89
495.126	5074.71
495.496	5120.59
495.866	5077.42
496.235	5177.31
496.605	5259.11
496.974	5303.18
497.344	5257.53
497.713	5341.82
498.082	5424.31
498.452	5450.29
498.821	5454.59
499.19	5461.82
499.559	5523.51
499.928	5577.07
500.298	5608.03
500.667	5656.62
501.036	5703.62
501.405	5695.03
501.774	5697.07
502.143	5772.55
502.512	5853.45
502.88	5913.79
503.249	5917.85
503.618	5956.5
503.987	6020.68
504.356	6034.46
504.724	6030.17
505.093	6090.73
505.462	6097.06
505.83	6139.32
506.199	6196.26
506.567	6282.36
506.936	6283.27
507.304	6368.91
507.672	6401.91
508.041	6449.36
508.409	6472.19
508.777	6481.68
509.145	6594.9
509.514	6553.99
509.882	6681
510.25	6658.85
510.618	6693.2
510.986	6727.1
511.354	6779.98
511.722	6870.14
512.09	6932.74
512.458	6909.01
512.826	6997.15
513.193	7080.76
513.561	7033.53
513.929	7135.22
514.297	7193.53
514.664	7207.76
515.032	7277.14
515.4	7338.83
515.767	7343.13
516.135	7463.35
516.502	7380.19
516.869	7521.2
517.237	7527.3
517.604	7541.76
517.972	7682.78
518.339	7729.1
518.706	7716.68
519.073	7786.28
519.44	7758.71
519.808	7911.7
520.175	7927.29
520.542	7999.83
520.909	8094.97
521.276	8055.88
521.643	8145.82
522.009	8275.98
522.376	8288.64
522.743	8287.28
523.11	8429.43
523.477	8489.31
523.843	8574.73
524.21	8661.28
524.577	8729.3
524.943	8708.29
525.31	8756.87
525.676	8849.98
526.043	8920.03
526.409	8981.95
526.776	9054.04
527.142	9112.8
527.508	9125.23
527.874	9187.6
528.241	9300.36
528.607	9275.73
528.973	9363.86
529.339	9414.48
529.705	9465.78
530.071	9511.66
530.437	9604.99
530.803	9685.89
531.169	9730.41
531.535	9654.25
531.901	9755.04
532.267	9885.66
532.632	9941.7
532.998	9887.24
533.364	9996.16
533.73	10034.35
534.095	10090.62
534.461	10141.47
534.826	10239.77
535.192	10206.33
535.557	10270.28
535.923	10258.3
536.288	10326.78
536.653	10382.82
537.019	10339.43
537.384	10408.81
537.749	10569.26
538.114	10506.21
538.479	10622.14
538.845	10647.22
539.21	10665.3
539.575	10726.77
539.94	10738.07
540.305	10679.08
540.67	10743.94
541.034	10824.62
541.399	10901.45
541.764	10868.68
542.129	10933.31
542.494	10966.53
542.858	10991.39
543.223	11009.24
543.587	11082.91
543.952	11097.38
544.316	11115.68
544.681	11135.79
545.045	11178.51
545.41	11229.13
545.774	11241.33
546.138	11354.55
546.503	11361.78
546.867	11240.88
547.231	11461.21
547.595	11476.35
547.959	11567.42
548.324	11553.18
548.688	11501.43
549.052	11630.92
549.416	11630.25
549.779	11698.49
550.143	11765.16
550.507	11770.81
550.871	11860.52
551.235	11747.76
551.599	11894.87
551.962	11946.39
552.326	11979.84
552.689	12053.74
553.053	12005.6
553.417	12081.31
553.78	12206.28
554.143	12235.2
554.507	12334.18
554.87	12302.77
555.234	12454.18
555.597	12314.75
555.96	12398.36
556.323	12469.32
556.686	12490.11
557.05	12581.86
557.413	12705.7
557.776	12661.18
558.139	12812.59
558.502	12812.13
558.865	12904.11
559.228	12911.34
559.59	13052.81
559.953	12916.54
560.316	13170.32
560.679	13046.93
561.041	13155.63
561.404	13311.78
561.767	13323.53
562.129	13240.15
562.492	13480.82
562.854	13468.61
563.217	13549.06
563.579	13591.78
563.941	13646.24
564.304	13691.89
564.666	13771.66
565.028	13776.18
565.39	13794.26
565.753	13922.84
566.115	13994.7
566.477	13968.49
566.839	13947.25
567.201	14073.8
567.563	14097.3
567.925	14263.62
568.287	14209.61
568.648	14242.61
569.01	14365.09
569.372	14418.87
569.734	14483.96
570.095	14543.16
570.457	14620
570.819	14730.73
571.18	14658.64
571.542	14829.48
571.903	14725.76
572.265	14767.79
572.626	14816.15
572.987	14805.98
573.349	14862.02
573.71	14918.52
574.071	14833.1
574.432	15056.37
574.794	15139.31
575.155	15106.76
575.516	15050.27
575.877	15104.05
576.238	15105.63
576.599	15193.32
576.96	15308.11
577.32	15141.11
577.681	15328.68
578.042	15429.92
578.403	15435.79
578.763	15417.72
579.124	15470.82
579.485	15503.36
579.845	15443.48
580.206	15506.98
580.566	15464.04
580.927	15555.79
581.287	15510.14
581.648	15552.18
582.008	15568.22
582.368	15498.62
582.728	15570.71
583.089	15545.85
583.449	15603.25
583.809	15534.78
584.169	15549.92
584.529	15589.24
584.889	15651.16
585.249	15616.35
585.609	15468.11
585.969	15619.52
586.329	15644.6
586.688	15635.56
587.048	15652.06
587.408	15611.84
587.768	15636.47
588.127	15560.54
588.487	15544.27
588.846	15613.19
589.206	15433.08
589.565	15567.32
589.925	15659.74
590.284	15688.67
590.643	15697.03
591.003	15711.72
591.362	15714.43
591.721	15658.84
592.08	15691.61
592.44	15686.64
592.799	15698.61
593.158	15716.01
593.517	15755.79
593.876	15749.46
594.235	15749.68
594.593	15786.29
594.952	15787.42
595.311	15626.3
595.67	15705.17
596.029	15832.85
596.387	15706.3
596.746	15784.49
597.104	15715.11
597.463	15753.98
597.822	15744.04
598.18	15717.14
598.538	15755.33
598.897	15789.23
599.255	15686.18
599.613	15924.6
599.972	15833.3
600.33	15942.22
600.688	15810.02
601.046	15863.81
601.404	15980.87
601.762	15962.11
602.12	15992.84
602.478	16006.4
602.836	15900.87
603.194	15955.56
603.552	15974.76
603.91	15958.04
604.268	16031.03
604.625	15899.29
604.983	16014.08
605.341	15867.65
605.698	15993.75
606.056	15994.65
606.413	16033.75
606.771	16072.61
607.128	16029
607.485	16027.19
607.843	16020.41
608.2	16171.37
608.557	16155.1
608.914	16128.88
609.272	16187.19
609.629	16217.02
609.986	16172.72
610.343	16108.09
610.7	16288.43
611.057	16316
611.414	16177.02
611.771	16236
612.127	16308.54
612.484	16280.07
612.841	16415.2
613.198	16357.13
613.554	16395.77
613.911	16473.96
614.267	16428.99
614.624	16410.91
614.98	16510.12
615.337	16488.65
615.693	16419.5
616.05	16384.47
616.406	16524.13
616.762	16445.49
617.118	16539.49
617.475	16556.22
617.831	16570.23
618.187	16591.02
618.543	16654.29
618.899	16748.75
619.255	16723.67
619.611	16676.44
619.967	16673.5
620.323	16708.98
620.678	16685.25
621.034	16616.55
621.39	16581.53
621.746	16621.75
622.101	16826.94
622.457	16672.6
622.812	16705.37
623.168	16776.32
623.523	16703.56
623.879	16742.43
624.234	16624.24
624.589	16761.18
624.945	16704.46
625.3	16701.3
625.655	16697.23
626.01	16698.59
626.365	16808.87
626.72	16707.63
627.075	16756.66
627.43	16741.98
627.785	16697
628.14	16780.17
628.495	16710.11
628.85	16756.44
629.205	16679.15
629.559	16751.69
629.914	16712.82
630.269	16624.24
630.623	16666.95
630.978	16536.78
631.332	16663.56
631.687	16697.68
632.041	16694.29
632.396	16684.35
632.75	16576.1
633.104	16563.22
633.459	16574.52
633.813	16464.47
634.167	16489.78
634.521	16436.9
634.875	16507.18
635.229	16451.36
635.583	16309.22
635.937	16323
636.291	16328.2
636.645	16275.32
636.999	16270.8
637.352	16220.86
637.706	16108.09
638.06	16183.12
638.413	16226.06
638.767	16199.39
639.121	16203.23
639.474	16119.62
639.828	16144.7
640.181	16128.21
640.534	16079.39
640.888	15942.45
641.241	15933.41
641.594	15991.71
641.947	16078.26
642.301	15967.98
642.654	16018.6
643.007	15953.75
643.36	15934.99
643.713	15800.76
644.066	16012.73
644.419	15809.12
644.771	15763.24
645.124	15742.45
645.477	15483.7
645.83	15403.25
646.182	15401.22
646.535	15280.77
646.888	15359.19
647.24	15228.12
647.593	15372.07
647.945	15325.52
648.298	15170.94
648.65	15210.04
649.002	15198.06
649.355	15192.64
649.707	15224.05
650.059	15169.36
650.411	15457.26
650.763	15476.7
651.115	15544.27
651.467	15519.86
651.819	15534.55
652.171	15486.19
652.523	15427.66
652.875	15439.41
653.227	15399.64
653.578	15536.36
653.93	15397.83
654.282	15349.47
654.633	15380.43
654.985	15302.92
655.337	15362.58
655.688	15396.25
656.039	15293.2
656.391	15216.82
656.742	15298.4
657.094	15243.71
657.445	15390.15
657.796	15225.86
658.147	15295.46
658.498	15344.95
658.849	15312.18
659.2	15280.09
659.551	15298.4
659.902	15282.8
660.253	15294.78
660.604	15242.58
660.955	15194.67
661.306	15156.71
661.656	15128.01
662.007	15193.54
662.358	15203.48
662.708	15093.2
663.059	15204.84
663.409	15053.88
663.76	15163.03
664.11	15095.69
664.461	15084.84
664.811	15138.18
665.161	15062.25
665.511	15001.23
665.862	15049.59
666.212	15002.36
666.562	15052.08
666.912	15007.78
667.262	15036.26
667.612	14965.75
667.962	14986.77
668.312	15002.13
668.662	15086.43
669.011	15026.54
669.361	15002.59
669.711	14943.83
670.06	14875.13
670.41	14870.39
670.76	14798.52
671.109	14939.54
671.459	14926.2
671.808	14856.6
672.157	14898.63
672.507	14792.2
672.856	14818.41
673.205	14889.37
673.554	14869.48
673.904	14897.73
674.253	14869.26
674.602	14738.64
674.951	14571.64
675.3	14463.16
675.649	14667.23
675.998	14725.98
676.346	14757.85
676.695	14888.92
677.044	14694.57
677.393	14695.25
677.741	14714.91
678.09	14651.86
678.438	14543.39
678.787	14659.54
679.135	14603.95
679.484	14555.14
679.832	14621.13
680.181	14504.97
680.529	14602.14
680.877	14555.59
681.225	14473.56
681.573	14482.37
681.922	14409.16
682.27	14305.65
682.618	14337.29
682.966	14361.7
683.314	14484.41
683.661	14332.77
684.009	14242.61
684.357	14265.88
684.705	14161.93
685.053	14349.95
685.4	14271.98
685.748	14279.44
686.095	14202.83
686.443	14036.74
686.79	14055.94
687.138	13972.33
687.485	13940.24
687.832	14009.39
688.18	14038.32
688.527	13973.69
688.874	13935.5
689.221	13870.19
689.568	13854.82
689.915	13857.31
690.262	13828.61
690.609	13738.66
690.956	13698.67
691.303	13651.89
691.65	13619.57
691.997	13513.81
692.344	13448.5
692.69	13542.74
693.037	13475.85
693.383	13387.94
693.73	13483.98
694.077	13427.49
694.423	13452.34
694.769	13395.17
695.116	13403.98
695.462	13292.12
695.808	13196.31
696.155	13326.02
696.501	13182.07
696.847	13243.76
697.193	13173.26
697.539	13175.52
697.885	13024.11
698.231	13058.91
698.577	13066.14
698.923	13044.9
699.269	12972.36
699.614	12855.98
699.96	12874.51
700.306	12816.2
700.651	12719.03
700.997	12719.03
701.342	12741.18
701.688	12621.41
702.033	12660.5
702.379	12674.96
702.724	12655.3
703.069	12632.93
703.415	12456.89
703.76	12493.27
704.105	12576.89
704.45	12470.45
704.795	12429.77
705.14	12455.31
705.485	12419.83
705.83	12266.61
706.175	12338.93
706.52	12275.65
706.865	12228.87
707.209	12177.58
707.554	12176.67
707.899	12207.18
708.243	12116.11
708.588	12208.31
708.932	12101.65
709.277	12146.84
709.621	12046.73
709.966	11994.3
710.31	12090.8
710.654	11910.46
710.998	11966.73
711.342	11913.4
711.687	11855.32
712.031	11823.69
712.375	11704.59
712.719	11718.38
713.063	11749.56
713.407	11765.38
713.75	11648.1
714.094	11641.54
714.438	11519.29
714.782	11583.69
715.125	11518.16
715.469	11623.92
715.812	11632.05
716.156	11494.66
716.499	11451.94
716.843	11494.66
717.186	11421.21
717.53	11518.84
717.873	11359.07
718.216	11407.2
718.559	11425.05
718.902	11312.74
719.246	11411.04
719.589	11278.39
719.932	11291.72
720.275	11270.48
720.617	11238.39
720.96	11242.23
721.303	11164.49
721.646	11158.39
721.989	11196.13
722.331	11191.16
722.674	11122.24
723.016	11129.69
723.359	11047.66
723.701	11091.05
724.044	11070.03
724.386	10979.41
724.729	11059.64
725.071	10931.96
725.413	10944.16
725.755	10990.26
726.097	10909.59
726.439	10853.54
726.782	10872.98
727.124	10904.16
727.465	10855.8
727.807	10880.89
728.149	10794.33
728.491	10839.53
728.833	10846.31
729.175	10715.47
729.516	10735.81
729.858	10674.34
730.199	10755.24
730.541	10738.52
730.882	10704.85
731.224	10770.61
731.565	10649.48
731.906	10601.12
732.248	10589.59
732.589	10636.15
732.93	10599.76
733.271	10563.83
733.612	10560.22
733.953	10590.5
734.294	10518.18
734.635	10494.91
734.976	10466.89
735.317	10539.43
735.658	10535.58
735.999	10435.25
736.339	10464.4
736.68	10378.07
737.021	10302.6
737.361	10377.62
737.702	10325.87
738.042	10344.86
738.383	10344.18
738.723	10342.6
739.063	10301.01
739.404	10238.42
739.744	10235.25
740.084	10209.04
740.424	10249.94
740.764	10251.75
741.104	10268.92
741.444	10152.54
741.784	10118.42
742.124	10151.64
742.464	10143.05
742.804	10147.8
743.143	10118.87
743.483	10113.45
743.823	10042.04
744.162	10009.27
744.502	10080.23
744.841	10028.93
745.181	10077.07
745.52	10035.94
745.86	10049.72
746.199	10019.44
746.538	10005.88
746.877	9907.35
747.216	9911.19
747.556	9883.62
747.895	9934.7
748.234	9881.36
748.573	9822.61
748.911	9873.23
749.25	9887.01
749.589	9778.32
749.928	9851.76
750.267	9772.21
750.605	9789.62
750.944	9736.74
751.283	9695.38
751.621	9698.77
751.96	9720.46
752.298	9699
752.636	9694.48
752.975	9648.83
753.313	9572.45
753.651	9636.4
753.989	9539.23
754.327	9567.47
754.666	9475.5
755.004	9454.26
755.342	9502.62
755.679	9445.44
756.017	9441.83
756.355	9404.77
756.693	9364.32
757.031	9380.36
757.368	9284.32
757.706	9405.67
758.044	9310.76
