Data from black_metal_pc_casing_FLMS001491_00084.txt Node
Date: Wed Feb 08 14:33:37 GMT 2017
User: dcchb
Spectrometer: FLMS00149
Trigger mode: 0
Integration Time (sec): 2.000000E-2
Scans to average: 10
Electric dark correction enabled: true
Nonlinearity correction enabled: false
Boxcar width: 0
XAxis mode: Wavelengths
Number of Pixels in Spectrum: 2048
>>>>>Begin Spectral Data<<<<<
341.393	-12.64
341.776	-12.64
342.16	-12.64
342.543	-70.94
342.927	-85.86
343.31	-56.03
343.693	-62.58
344.077	-68.01
344.46	-61.23
344.843	-86.54
345.226	-29.36
345.61	-47.89
345.993	-15.13
346.376	0.01
346.759	37.3
347.142	34.82
347.525	43.85
347.908	45.66
348.291	71.2
348.674	91.31
349.057	102.61
349.44	121.82
349.823	133.12
350.206	157.3
350.588	186.22
350.971	186.22
351.354	200.46
351.737	201.59
352.119	237.52
352.502	235.26
352.884	256.96
353.267	283.4
353.65	277.29
354.032	289.95
354.414	280.68
354.797	290.63
355.179	298.09
355.562	285.88
355.944	309.61
356.326	328.37
356.709	333.34
357.091	317.29
357.473	353
357.855	329.05
358.238	320.23
358.62	334.02
359.002	339.67
359.384	338.76
359.766	340.12
360.148	315.94
360.53	328.82
360.912	304.64
361.294	315.26
361.676	322.49
362.057	316.39
362.439	327.69
362.821	314.13
363.203	318.88
363.584	318.2
363.966	332.43
364.348	315.94
364.729	310.06
365.111	305.54
365.493	301.93
365.874	321.59
366.256	322.49
366.637	317.97
367.019	322.72
367.4	294.02
367.781	310.06
368.163	330.17
368.544	302.61
368.925	299.67
369.306	311.64
369.688	322.49
370.069	324.07
370.45	335.82
370.831	327.01
371.212	318.88
371.593	310.29
371.974	316.39
372.355	309.84
372.736	323.4
373.117	310.06
373.498	326.11
373.879	293.34
374.26	315.26
374.641	323.85
375.021	318.88
375.402	314.36
375.783	333.56
376.163	310.29
376.544	317.97
376.925	320.01
377.305	318.65
377.686	343.06
378.066	319.55
378.447	338.08
378.827	331.53
379.208	344.41
379.588	345.54
379.968	348.25
380.349	336.05
380.729	329.5
381.109	343.06
381.489	340.8
381.87	349.38
382.25	363.62
382.63	345.99
383.01	349.38
383.39	344.64
383.77	356.61
384.15	350.97
384.53	371.08
384.91	362.94
385.29	368.37
385.67	362.72
386.049	369.95
386.429	378.76
386.809	347.58
387.189	363.62
387.568	371.08
387.948	378.54
388.328	383.28
388.707	363.62
389.087	374.92
389.466	387.12
389.846	398.87
390.225	410.85
390.605	380.8
390.984	398.42
391.363	401.81
391.743	394.58
392.122	411.08
392.501	389.83
392.881	405.2
393.26	430.29
393.639	393.9
394.018	411.98
394.397	422.83
394.776	403.17
395.155	414.24
395.534	421.25
395.913	417.18
396.292	419.66
396.671	433.68
397.05	430.06
397.429	397.74
397.808	407.46
398.186	431.19
398.565	428.25
398.944	439.78
399.323	427.12
399.701	439.78
400.08	434.13
400.458	435.26
400.837	434.13
401.215	444.07
401.594	452.21
401.972	466.44
402.351	459.66
402.729	457.18
403.107	472.54
403.486	474.13
403.864	455.37
404.242	484.97
404.62	487.23
404.999	501.02
405.377	483.84
405.755	469.38
406.133	494.01
406.511	503.28
406.889	510.06
407.267	512.77
407.645	495.82
408.023	520.45
408.401	533.56
408.779	531.98
409.156	529.04
409.534	522.03
409.912	537.18
410.29	538.98
410.667	529.94
411.045	543.28
411.422	551.64
411.8	552.77
412.178	568.13
412.555	577.4
412.933	587.57
413.31	567.68
413.687	591.86
414.065	579.66
414.442	589.15
414.819	602.03
415.197	610.62
415.574	618.53
415.951	609.04
416.328	616.5
416.705	612.43
417.082	611.07
417.46	626.44
417.837	628.47
418.214	628.47
418.591	635.93
418.967	643.39
419.344	638.87
419.721	658.98
420.098	655.59
420.475	661.24
420.852	657.62
421.228	650.39
421.605	677.06
421.982	664.4
422.358	659.21
422.735	704.4
423.111	692.2
423.488	695.36
423.864	703.27
424.241	701.69
424.617	701.92
424.994	706.21
425.37	723.38
425.746	727.23
426.123	726.1
426.499	730.16
426.875	765.19
427.251	746.66
427.627	740.33
428.003	748.02
428.379	773.33
428.756	788.02
429.132	785.53
429.507	799.77
429.883	790.05
430.259	805.42
430.635	813.33
431.011	840.9
431.387	824.17
431.763	834.34
432.138	867.11
432.514	851.52
432.89	872.53
433.265	895.58
433.641	907.11
434.016	898.07
434.392	889.03
434.767	903.49
435.143	891.74
435.518	953.89
435.894	916.83
436.269	923.83
436.644	948.24
437.02	962.93
437.395	962.7
437.77	979.65
438.145	987.33
438.52	997.95
438.895	1022.36
439.271	993.21
439.646	1036.6
440.021	1032.98
440.395	1022.81
440.77	1026.2
441.145	1021.23
441.52	1035.92
441.895	1035.47
442.27	1083.6
442.645	1056.94
443.019	1069.82
443.394	1071.17
443.769	1086.77
444.143	1082.7
444.518	1115.01
444.892	1104.39
445.267	1105.07
445.641	1121.34
446.016	1121.11
446.39	1119.98
446.764	1127.67
447.139	1121.57
447.513	1165.63
447.887	1133.77
448.262	1129.25
448.636	1163.15
449.01	1148.46
449.384	1167.89
449.758	1175.12
450.132	1178.06
450.506	1187.33
450.88	1205.63
451.254	1214.45
451.628	1235.91
452.002	1255.12
452.376	1254.44
452.75	1249.7
453.123	1266.42
453.497	1258.96
453.871	1267.33
454.244	1313.88
454.618	1328.79
454.992	1330.6
455.365	1329.7
455.739	1355.01
456.112	1382.8
456.486	1377.15
456.859	1404.05
457.232	1426.19
457.606	1395.01
457.979	1436.13
458.352	1469.13
458.725	1484.27
459.099	1487.21
459.472	1508.9
459.845	1552.74
460.218	1520.65
460.591	1556.81
460.964	1550.03
461.337	1604.94
461.71	1605.85
462.083	1658.73
462.456	1617.15
462.829	1636.81
463.201	1658.28
463.574	1665.96
463.947	1690.82
464.32	1719.97
464.692	1743.7
465.065	1731.27
465.438	1749.57
465.81	1791.38
466.183	1804.71
466.555	1837.71
466.928	1837.93
467.3	1905.5
467.672	1875.67
468.045	1902.11
468.417	1950.25
468.789	1968.78
469.161	1971.04
469.534	1998.38
469.906	2050.36
470.278	2025.05
470.65	2059.17
471.022	2097.36
471.394	2122.44
471.766	2147.3
472.138	2184.59
472.51	2219.84
472.882	2254.42
473.253	2244.25
473.625	2289.9
473.997	2357.69
474.369	2368.54
474.74	2368.31
475.112	2432.49
475.484	2451.02
475.855	2494.86
476.227	2539.61
476.598	2576.22
476.97	2568.99
477.341	2624.8
477.713	2673.16
478.084	2672.26
478.455	2758.59
478.827	2772.14
479.198	2828.41
479.569	2868.87
479.94	2907.06
480.311	2921.52
480.682	3002.65
481.053	3067.5
481.424	3086.03
481.795	3140.72
482.166	3158.12
482.537	3204.9
482.908	3323.99
483.279	3307.27
483.65	3363.77
484.021	3387.95
484.391	3510.88
484.762	3513.59
485.133	3533.03
485.503	3553.59
485.874	3596.53
486.244	3703.19
486.615	3796.52
486.985	3782.06
487.356	3821.61
487.726	3871.55
488.097	3989.74
488.467	3945.67
488.837	4032.9
489.207	4062.73
489.578	4119.68
489.948	4147.93
490.318	4207.59
490.688	4267.02
491.058	4291.2
491.428	4353.8
491.798	4375.27
492.168	4494.59
492.538	4480.57
492.908	4547.47
493.278	4657.97
493.648	4644.19
494.017	4656.84
494.387	4710.62
494.757	4693.45
495.126	4799.66
495.496	4846.89
495.866	4828.81
496.235	4932.99
496.605	4952.88
496.974	4951.75
497.344	4995.81
497.713	5038.98
498.082	5083.95
498.452	5123.72
498.821	5180.89
499.19	5178.18
499.559	5245.75
499.928	5272.87
500.298	5282.59
500.667	5343.38
501.036	5313.32
501.405	5388.57
501.774	5429.02
502.143	5466.99
502.512	5526.42
502.88	5513.99
503.249	5539.76
503.618	5566.2
503.987	5646.19
504.356	5681.67
504.724	5669.24
505.093	5716.93
505.462	5742.69
505.83	5795.34
506.199	5877.6
506.567	5903.14
506.936	5925.73
507.304	5980.2
507.672	5973.19
508.041	6081.89
508.409	6058.16
508.777	6156.24
509.145	6167.76
509.514	6177.7
509.882	6189.46
510.25	6283.24
510.618	6312.62
510.986	6318.94
511.354	6383.12
511.722	6455.44
512.09	6523.46
512.458	6503.8
512.826	6549.9
513.193	6623.34
513.561	6642.1
513.929	6706.73
514.297	6771.59
514.664	6763.68
515.032	6843.45
515.4	6880.74
515.767	6936.33
516.135	6956.89
516.502	6941.07
516.869	7022.2
517.237	7045.7
517.604	7067.17
517.972	7149.88
518.339	7235.3
518.706	7273.72
519.073	7248.41
519.44	7288.41
519.808	7478.24
520.175	7445.92
520.542	7572.24
520.909	7527.05
521.276	7641.4
521.643	7648.17
522.009	7702.86
522.376	7827.6
522.743	7853.82
523.11	7934.49
523.477	7930.43
523.843	8056.75
524.21	8153.47
524.577	8163.64
524.943	8216.75
525.31	8279.8
525.676	8283.19
526.043	8391.43
526.409	8406.8
526.776	8558.89
527.142	8557.08
527.508	8585.78
527.874	8725.43
528.241	8737.86
528.607	8755.94
528.973	8876.16
529.339	8863.74
529.705	8875.71
530.071	9061.47
530.437	8970.63
530.803	9129.72
531.169	9101.02
531.535	9121.36
531.901	9192.54
532.267	9203.16
532.632	9317.74
532.998	9325.87
533.364	9407.45
533.73	9482.02
534.095	9501.46
534.461	9545.53
534.826	9559.99
535.192	9598.18
535.557	9697.84
535.923	9665.07
536.288	9749.36
536.653	9821.9
537.019	9839.98
537.384	9882.47
537.749	9911.62
538.114	9804.05
538.479	9887.44
538.845	10074.33
539.21	9963.82
539.575	10008.56
539.94	10088.79
540.305	10132.63
540.67	10113.87
541.034	10153.42
541.399	10230.71
541.764	10280.2
542.129	10323.13
542.494	10280.65
542.858	10409.46
543.223	10439.97
543.587	10402
543.952	10440.19
544.316	10503.92
544.681	10526.97
545.045	10641.99
545.41	10635.44
545.774	10603.35
546.138	10687.87
546.503	10758.6
546.867	10690.35
547.231	10818.94
547.595	10865.27
547.959	10823.68
548.324	10854.19
548.688	10926.28
549.052	10895.55
549.416	10968.31
549.779	11070.46
550.143	11049.44
550.507	11171.92
550.871	11211.92
551.235	11218.93
551.599	11260.06
551.962	11234.07
552.326	11315.2
552.689	11333.73
553.053	11437.23
553.417	11400.84
553.78	11462.76
554.143	11518.58
554.507	11535.76
554.87	11538.02
555.234	11714.51
555.597	11616.88
555.96	11775.98
556.323	11771.91
556.686	11771
557.05	11840.61
557.413	11919.93
557.776	11939.14
558.139	12035.63
558.502	12033.82
558.865	12126.7
559.228	12180.03
559.59	12213.48
559.953	12200.37
560.316	12405.56
560.679	12339.58
561.041	12479.01
561.404	12483.53
561.767	12612.79
562.129	12637.87
562.492	12646.24
562.854	12705.89
563.217	12706.35
563.579	12780.92
563.941	12901.6
564.304	12963.74
564.666	12980.01
565.028	12928.49
565.39	13104.53
565.753	13139.56
566.115	13133.91
566.477	13217.75
566.839	13254.35
567.201	13354.47
567.563	13321.47
567.925	13504.74
568.287	13461.36
568.648	13509.26
569.01	13637.4
569.372	13691.18
569.734	13625.64
570.095	13761.23
570.457	13897.95
570.819	13831.97
571.18	13853.89
571.542	13869.48
571.903	13941.34
572.265	14077.16
572.626	14064.05
572.987	14096.59
573.349	14137.72
573.71	14134.33
574.071	14205.97
574.432	14265.63
574.794	14284.38
575.155	14274.89
575.516	14237.15
575.877	14359.41
576.238	14410.71
576.599	14445.06
576.96	14542.23
577.32	14455.45
577.681	14533.64
578.042	14551.5
578.403	14545.39
578.763	14587.43
579.124	14680.76
579.485	14648.22
579.845	14704.71
580.206	14664.94
580.566	14741.55
580.927	14782.68
581.287	14779.29
581.648	14702.23
582.008	14823.13
582.368	14754.88
582.728	14835.33
583.089	14771.38
583.449	14752.62
583.809	14852.05
584.169	14867.19
584.529	14801.88
584.889	14986.96
585.249	14801.43
585.609	14832.62
585.969	15001.43
586.329	14852.05
586.688	14897.7
587.048	14880.98
587.408	14825.61
587.768	14823.81
588.127	14897.7
588.487	14844.14
588.846	15016.34
589.206	14793.3
589.565	14876.46
589.925	14966.17
590.284	14960.52
590.643	14926.85
591.003	14962.56
591.362	14984.93
591.721	14923.01
592.08	14928.44
592.44	15000.75
592.799	14947.64
593.158	14964.82
593.517	15009.34
593.876	14981.32
594.235	14946.51
594.593	14916.68
594.952	14966.17
595.311	14933.18
595.67	15060.18
596.029	15112.84
596.387	15130.92
596.746	15040.97
597.104	15016.57
597.463	15019.05
597.822	15158.94
598.18	15016.12
598.538	15007.76
598.897	15150.8
599.255	15014.76
599.613	15237.81
599.972	15201.2
600.33	15127.3
600.688	15108.09
601.046	15184.02
601.404	15199.16
601.762	15170.01
602.12	15240.07
602.478	15251.14
602.836	15227.41
603.194	15238.26
603.552	15299.27
603.91	15283.45
604.268	15232.83
604.625	15257.24
604.983	15280.52
605.341	15218.37
605.698	15346.05
606.056	15338.82
606.413	15372.27
606.771	15355.54
607.128	15370.01
607.485	15396.67
607.843	15323.23
608.2	15475.77
608.557	15540.4
608.914	15428.31
609.272	15550.34
609.629	15481.19
609.986	15671.01
610.343	15555.31
610.7	15649.77
611.057	15671.47
611.414	15611.58
611.771	15625.82
612.127	15615.87
612.484	15605.93
612.841	15665.82
613.198	15591.47
613.554	15686.61
613.911	15723.89
614.267	15777.9
614.624	15704.01
614.98	15782.65
615.337	15808.41
615.693	15831.24
616.05	15746.49
616.406	15848.18
616.762	15780.16
617.118	15835.53
617.475	15909.2
617.831	15951.69
618.187	15880.27
618.543	15987.39
618.899	16085.92
619.255	15988.52
619.611	15919.6
619.967	16045.24
620.323	15950.1
620.678	15977.67
621.034	15877.56
621.39	15918.01
621.746	15917.56
622.101	16110.55
622.457	15989.42
622.812	16089.53
623.168	16034.17
623.523	16071.68
623.879	16042.53
624.234	15978.35
624.589	16029.88
624.945	16052.93
625.3	16029.42
625.655	16051.8
626.01	16072.81
626.365	16049.76
626.72	16026.71
627.075	16017.9
627.43	15982.87
627.785	15966.6
628.14	16054.28
628.495	16136.76
628.85	16026.71
629.205	15942.65
629.559	16042.98
629.914	15925.25
630.269	15983.32
630.623	15902.65
630.978	15906.49
631.332	15958.01
631.687	15986.49
632.041	15946.94
632.396	15888.64
632.75	15914.17
633.104	15892.48
633.459	15815.42
633.813	15836.43
634.167	15823.33
634.521	15773.84
634.875	15715.08
635.229	15737.91
635.583	15668.3
635.937	15662.65
636.291	15612.48
636.645	15678.7
636.999	15624.91
637.352	15783.33
637.706	15555.99
638.06	15591.02
638.413	15576.78
638.767	15481.87
639.121	15593.73
639.474	15558.7
639.828	15515.31
640.181	15534.29
640.534	15485.71
640.888	15491.36
641.241	15332.04
641.594	15396.22
641.947	15477.12
642.301	15359.61
642.654	15486.84
643.007	15431.47
643.36	15378.37
643.713	15303.57
644.066	15385.6
644.419	15343.34
644.771	15199.39
645.124	15120.97
645.477	14953.97
645.83	14846.18
646.182	14810.02
646.535	14800.08
646.888	14812.73
647.24	14747.65
647.593	14845.27
647.945	14829.23
648.298	14669.68
648.65	14783.35
649.002	14664.26
649.355	14796.01
649.707	14684.6
650.059	14700.64
650.411	14927.76
650.763	14891.83
651.115	15050.24
651.467	15046.62
651.819	15038.49
652.171	14962.11
652.523	14922.33
652.875	14911.94
653.227	14895.22
653.578	14987.42
653.93	14908.55
654.282	14917.81
654.633	14805.05
654.985	14874.65
655.337	14854.76
655.688	14837.82
656.039	14881.66
656.391	14740.87
656.742	14741.32
657.094	14786.29
657.445	14850.92
657.796	14791.72
658.147	14678.27
658.498	14823.35
658.849	14700.42
659.2	14645.96
659.551	14701.77
659.902	14747.65
660.253	14678.05
660.604	14702.45
660.955	14605.28
661.306	14673.07
661.656	14569.8
662.007	14658.61
662.358	14727.08
662.708	14640.08
663.059	14643.92
663.409	14566.64
663.76	14652.51
664.11	14569.12
664.461	14567.99
664.811	14533.87
665.161	14494.77
665.511	14618.61
665.862	14667.65
666.212	14633.75
666.562	14598.05
666.912	14554.43
667.262	14509.01
667.612	14510.14
667.962	14545.62
668.312	14591.95
668.662	14509.01
669.011	14534.32
669.361	14492.51
669.711	14499.07
670.06	14445.96
670.41	14450.93
670.76	14399.86
671.109	14582.23
671.459	14440.99
671.808	14488.9
672.157	14457.49
672.507	14361.9
672.856	14397.6
673.205	14482.8
673.554	14408.22
673.904	14432.4
674.253	14511.95
674.602	14379.52
674.951	14239.19
675.3	14111.06
675.649	14353.76
675.998	14340.2
676.346	14313.99
676.695	14375.23
677.044	14247.78
677.393	14348.11
677.741	14307.66
678.09	14228.34
678.438	14220.88
678.787	14252.52
679.135	14330.94
679.484	14146.99
679.832	14241.9
680.181	14182.24
680.529	14113.54
680.877	14149.7
681.225	14151.28
681.573	14174.56
681.922	14014.79
682.27	13985.41
682.618	14117.38
682.966	13981.57
683.314	14019.08
683.661	13937.5
684.009	13877.62
684.357	13843.94
684.705	13962.36
685.053	13919.42
685.4	13877.84
685.748	13774.57
686.095	13838.97
686.443	13780.89
686.79	13806.2
687.138	13737.28
687.485	13721.91
687.832	13661.12
688.18	13712.65
688.527	13626.77
688.874	13635.59
689.221	13581.58
689.568	13582.26
689.915	13507
690.262	13560.11
690.609	13476.5
690.956	13460.68
691.303	13448.25
691.65	13397.63
691.997	13384.75
692.344	13234.02
692.69	13290.29
693.037	13257.97
693.383	13111.76
693.73	13153.57
694.077	13062.5
694.423	13091.2
694.769	13116.51
695.116	13036.28
695.462	12983.18
695.808	12963.97
696.155	13021.37
696.501	12864.53
696.847	12908.15
697.193	12832.45
697.539	12842.84
697.885	12692.79
698.231	12700.7
698.577	12710.41
698.923	12633.13
699.269	12655.73
699.614	12445.79
699.96	12556.97
700.306	12432.46
700.651	12567.59
700.997	12437.88
701.342	12418.9
701.688	12352.46
702.033	12357.43
702.379	12383.87
702.724	12338.22
703.069	12364.43
703.415	12178.9
703.76	12238.79
704.105	12182.97
704.45	12196.98
704.795	12085.12
705.14	12157.43
705.485	12073.14
705.83	12011.22
706.175	11992.47
706.52	11969.42
706.865	11948.4
707.209	11879.7
707.554	11847.16
707.899	11890.32
708.243	11836.31
708.588	11825.01
708.932	11737.11
709.277	11658.46
709.621	11702.31
709.966	11651.01
710.31	11608.52
710.654	11619.82
710.998	11630.22
711.342	11603.32
711.687	11544.34
712.031	11544.57
712.375	11497.56
712.719	11426.38
713.063	11559.03
713.407	11501.86
713.75	11520.16
714.094	11466.15
714.438	11470.9
714.782	11362.2
715.125	11330.56
715.469	11373.95
715.812	11282.43
716.156	11220.51
716.499	11273.84
716.843	11264.58
717.186	11180.96
717.53	11212.6
717.873	11227.52
718.216	11189.55
718.559	11115.2
718.902	11109.55
719.246	11150.91
719.589	11081.53
719.932	11068.2
720.275	11027.97
720.617	11036.11
720.96	10973.51
721.303	11017.35
721.646	10980.29
721.989	10972.61
722.331	10935.09
722.674	10931.7
723.016	10883.57
723.359	10910.24
723.701	10838.83
724.044	10786.4
724.386	10738.94
724.729	10890.35
725.071	10795.44
725.413	10768.09
725.755	10811.03
726.097	10727.19
726.439	10609.9
726.782	10683.35
727.124	10711.82
727.465	10592.96
727.807	10585.95
728.149	10565.84
728.491	10618.72
728.833	10644.03
729.175	10563.58
729.516	10499.17
729.858	10554.31
730.199	10578.04
730.541	10483.35
730.882	10510.02
731.224	10506.18
731.565	10469.8
731.906	10550.7
732.248	10417.37
732.589	10434.54
732.93	10357.48
733.271	10359.74
733.612	10397.48
733.953	10437.71
734.294	10398.16
734.635	10291.27
734.976	10300.08
735.317	10287.88
735.658	10260.08
735.999	10244.72
736.339	10176.24
736.68	10293.98
737.021	10239.97
737.361	10151.84
737.702	10225.28
738.042	10194.55
738.383	10177.83
738.723	10125.4
739.063	10127.21
739.404	10150.71
739.744	10167.2
740.084	10090.14
740.424	10181.22
740.764	10058.28
741.104	10141.67
741.444	9969.24
741.784	9968.57
742.124	9986.64
742.464	9974.67
742.804	9957.27
743.143	9957.27
743.483	10005.85
743.823	9922.01
744.162	9933.31
744.502	9906.42
744.841	9912.07
745.181	9874.1
745.52	9838.17
745.86	9817.38
746.199	9781
746.538	9858.74
746.877	9790.94
747.216	9797.95
747.556	9779.64
747.895	9813.77
748.234	9689.7
748.573	9634.11
748.911	9663.49
749.25	9672.3
749.589	9676.6
749.928	9642.25
750.267	9617.84
750.605	9567.67
750.944	9588.01
751.283	9513.44
751.621	9558.63
751.96	9550.95
752.298	9586.65
752.636	9418.07
752.975	9427.11
753.313	9421.46
753.651	9454.68
753.989	9362.25
754.327	9339.66
754.666	9262.82
755.004	9331.29
755.342	9316.61
755.679	9370.84
756.017	9250.39
756.355	9354.57
756.693	9252.43
757.031	9312.31
757.368	9211.52
757.706	9181.02
758.044	9138.76
