Data from black_plastic_tray_FLMS001491_061.txt Node
Date: Tue Feb 07 10:40:21 GMT 2017
User: dcchb
Spectrometer: FLMS00149
Trigger mode: 0
Integration Time (sec): 2.000000E-2
Scans to average: 10
Electric dark correction enabled: true
Nonlinearity correction enabled: false
Boxcar width: 0
XAxis mode: Wavelengths
Number of Pixels in Spectrum: 2048
>>>>>Begin Spectral Data<<<<<
341.393	-6.62
341.776	-6.62
342.16	-6.62
342.543	-43.23
342.927	-54.31
343.31	-59.28
343.693	-65.61
344.077	-68.32
344.46	-51.37
344.843	-41.65
345.226	-39.62
345.61	-26.74
345.993	-11.6
346.376	-1.2
346.759	-18.38
347.142	24.79
347.525	35.86
347.908	65.24
348.291	60.04
348.674	88.74
349.057	109.08
349.44	135.97
349.823	149.08
350.206	152.47
350.588	183.43
350.971	210.32
351.354	204.44
351.737	219.36
352.119	236.31
352.502	240.6
352.884	268.85
353.267	254.61
353.65	276.98
354.032	286.02
354.414	300.94
354.797	281.73
355.179	316.31
355.562	304.1
355.944	294.84
356.326	325.57
356.709	324.67
357.091	327.38
357.473	341.84
357.855	331.9
358.238	318.11
358.62	330.99
359.002	328.28
359.384	344.33
359.766	335.51
360.148	336.19
360.53	339.36
360.912	335.97
361.294	331.22
361.676	323.08
362.057	295.51
362.439	328.28
362.821	325.34
363.203	320.82
363.584	299.81
363.966	316.53
364.348	297.1
364.729	310.88
365.111	285.57
365.493	308.85
365.874	310.66
366.256	302.97
366.637	299.58
367.019	316.53
367.4	290.32
367.781	286.25
368.163	312.46
368.544	318.57
368.925	318.79
369.306	296.64
369.688	310.66
370.069	283.09
370.45	301.84
370.831	296.87
371.212	317.44
371.593	298.9
371.974	288.06
372.355	301.84
372.736	305.46
373.117	311.79
373.498	306.36
373.879	306.59
374.26	301.84
374.641	313.14
375.021	299.58
375.402	280.83
375.783	323.76
376.163	312.24
376.544	312.46
376.925	339.81
377.305	332.8
377.686	312.01
378.066	330.32
378.447	340.94
378.827	336.64
379.208	317.21
379.588	316.98
379.968	320.37
380.349	321.28
380.729	325.8
381.109	319.47
381.489	336.19
381.87	314.72
382.25	342.07
382.63	330.99
383.01	341.84
383.39	359.24
383.77	358.79
384.15	339.81
384.53	358.11
384.91	343.2
385.29	333.93
385.67	342.52
386.049	342.29
386.429	347.26
386.809	341.39
387.189	354.27
387.568	360.82
387.948	365.34
388.328	356.3
388.707	379.81
389.087	363.31
389.466	365.34
389.846	361.73
390.225	365.57
390.605	367.15
390.984	379.58
391.363	353.14
391.743	370.32
392.122	378.68
392.501	381.39
392.881	383.65
393.26	374.16
393.639	381.61
394.018	398.56
394.397	392.01
394.776	381.39
395.155	370.99
395.534	382.29
395.913	387.04
396.292	407.83
396.671	401.73
397.05	398.34
397.429	413.48
397.808	396.08
398.186	397.43
398.565	415.96
398.944	410.99
399.323	391.33
399.701	406.25
400.08	418.22
400.458	427.26
400.837	424.33
401.215	422.07
401.594	409.64
401.972	416.19
402.351	418.22
402.729	420.26
403.107	432.01
403.486	447.6
403.864	428.84
404.242	447.38
404.62	436.08
404.999	436.3
405.377	453.02
405.755	452.35
406.133	429.3
406.511	461.16
406.889	438.79
407.267	450.76
407.645	449.18
408.023	461.39
408.401	486.47
408.779	465.45
409.156	486.47
409.534	466.81
409.912	483.76
410.29	506.81
410.667	481.27
411.045	487.6
411.422	503.64
411.8	506.36
412.178	501.39
412.555	501.84
412.933	529.63
413.31	516.98
413.687	534.15
414.065	508.16
414.442	532.8
414.819	515.4
415.197	541.61
415.574	526.92
415.951	535.51
416.328	551.55
416.705	514.04
417.082	537.54
417.46	559.46
417.837	562.63
418.214	549.07
418.591	547.94
418.967	561.04
419.344	556.75
419.721	559.69
420.098	562.17
420.475	570.31
420.852	589.52
421.228	600.14
421.605	608.27
421.982	607.37
422.358	610.08
422.735	613.47
423.111	593.36
423.488	622.96
423.864	627.03
424.241	642.17
424.617	599.01
424.994	642.62
425.37	641.27
425.746	642.62
426.123	631.33
426.499	660.25
426.875	657.54
427.251	649.4
427.627	643.75
428.003	667.71
428.379	693.24
428.756	698.44
429.132	678.56
429.507	693.92
429.883	683.53
430.259	715.39
430.635	718.33
431.011	727.59
431.387	753.13
431.763	728.95
432.138	755.84
432.514	752.23
432.89	759.01
433.265	752.9
433.641	763.98
434.016	784.99
434.392	791.55
434.767	793.81
435.143	790.64
435.518	809.63
435.894	820.25
436.269	825.67
436.644	807.82
437.02	824.99
437.395	833.13
437.77	838.78
438.145	843.97
438.52	862.73
438.895	843.07
439.271	842.85
439.646	887.59
440.021	897.98
440.395	868.61
440.77	859.79
441.145	906.12
441.52	900.24
441.895	917.65
442.27	908.83
442.645	919.23
443.019	916.29
443.394	924.2
443.769	910.87
444.143	939.57
444.518	942.73
444.892	937.53
445.267	946.35
445.641	949.06
446.016	961.26
446.39	968.27
446.764	993.35
447.139	941.37
447.513	962.16
447.887	991.77
448.262	961.26
448.636	978.21
449.01	986.12
449.384	1018.89
449.758	1016.17
450.132	1031.54
450.506	1009.85
450.88	1034.7
451.254	1027.47
451.628	1064.99
452.002	1055.27
452.376	1077.87
452.75	1077.64
453.123	1105.21
453.497	1106.57
453.871	1097.53
454.244	1124.87
454.618	1128.04
454.992	1136.4
455.365	1143.18
455.739	1173.68
456.112	1197.19
456.486	1205.1
456.859	1194.93
457.232	1207.58
457.606	1231.08
457.979	1223.17
458.352	1247.35
458.725	1248.03
459.099	1284.19
459.472	1294.13
459.845	1303.17
460.218	1301.14
460.591	1350.4
460.964	1336.62
461.337	1361.7
461.71	1344.98
462.083	1394.47
462.456	1400.12
462.829	1364.87
463.201	1407.12
463.574	1431.76
463.947	1417.52
464.32	1480.57
464.692	1460
465.065	1488.03
465.438	1497.52
465.81	1532.09
466.183	1524.86
466.555	1536.39
466.928	1588.14
467.3	1554.46
467.672	1594.01
468.045	1630.85
468.417	1607.57
468.789	1641.47
469.161	1677.85
469.534	1690.51
469.906	1707.68
470.278	1719.88
470.65	1756.49
471.022	1747
471.394	1787.68
471.766	1823.84
472.138	1813.67
472.51	1805.53
472.882	1870.61
473.253	1939.99
473.625	1936.6
473.997	1955.13
474.369	2015.24
474.74	2002.36
475.112	2018.18
475.484	2071.74
475.855	2073.55
476.227	2113.32
476.598	2140.44
476.97	2174.56
477.341	2216.59
477.713	2238.51
478.084	2239.87
478.455	2306.08
478.827	2329.59
479.198	2408.68
479.569	2400.54
479.94	2423.14
480.311	2481.22
480.682	2524.16
481.053	2536.36
481.424	2578.39
481.795	2617.49
482.166	2656.36
482.537	2695.45
482.908	2793.08
483.279	2789.01
483.65	2793.75
484.021	2862.23
484.391	2903.36
484.762	2879.63
485.133	2914.66
485.503	2964.82
485.874	3035.56
486.244	3039.4
486.615	3118.72
486.985	3176.34
487.356	3217.02
487.726	3228.55
488.097	3282.78
488.467	3311.03
488.837	3339.05
489.207	3452.95
489.578	3467.63
489.948	3459.73
490.318	3541.98
490.688	3567.52
491.058	3615.65
491.428	3601.19
491.798	3698.82
492.168	3743.79
492.538	3729.32
492.908	3798.02
493.278	3841.86
493.648	3834.18
494.017	3955.76
494.387	3942.2
494.757	3926.61
495.126	4041.86
495.496	3996.89
495.866	4058.81
496.235	4037.34
496.605	4109.43
496.974	4116.43
497.344	4216.32
497.713	4205.47
498.082	4200.27
498.452	4291.12
498.821	4301.51
499.19	4311
499.559	4362.53
499.928	4398.01
500.298	4412.47
500.667	4451.34
501.036	4427.38
501.405	4442.52
501.774	4522.52
502.143	4520.71
502.512	4536.08
502.88	4576.98
503.249	4659.24
503.618	4634.61
503.987	4666.47
504.356	4698.79
504.724	4714.16
505.093	4733.82
505.462	4836.64
505.83	4804.77
506.199	4820.59
506.567	4868.95
506.936	4877.09
507.304	4974.94
507.672	4979.46
508.041	4950.76
508.409	5012.23
508.777	5078.67
509.145	5086.58
509.514	5075.05
509.882	5147.82
510.25	5216.06
510.618	5167.03
510.986	5280.24
511.354	5270.3
511.722	5344.65
512.09	5405.66
512.458	5383.29
512.826	5465.32
513.193	5468.49
513.561	5524.53
513.929	5522.95
514.297	5528.6
514.664	5606.56
515.032	5609.95
515.4	5671.19
515.767	5722.72
516.135	5789.83
516.502	5747.12
516.869	5808.59
517.237	5867.35
517.604	5831.41
517.972	5942.6
518.339	5964.52
518.706	6013.33
519.073	6021.69
519.44	6077.28
519.808	6133.33
520.175	6177.39
520.542	6241.35
520.909	6269.82
521.276	6264.85
521.643	6374.45
522.009	6361.8
522.376	6404.05
522.743	6510.49
523.11	6510.49
523.477	6590.94
523.843	6584.39
524.21	6656.7
524.577	6684.73
524.943	6755.23
525.31	6847.66
525.676	6859.41
526.043	6925.4
526.409	7004.26
526.776	7024.83
527.142	7008.33
527.508	7076.81
527.874	7149.12
528.241	7159.06
528.607	7210.81
528.973	7194.54
529.339	7221.89
529.705	7355.67
530.071	7364.71
530.437	7421.43
530.803	7487.42
531.169	7522.22
531.535	7510.69
531.901	7557.7
532.267	7593.85
532.632	7687.86
532.998	7640.63
533.364	7680.18
533.73	7709.11
534.095	7753.4
534.461	7766.96
534.826	7884.24
535.192	7873.17
535.557	7879.04
535.923	7913.62
536.288	8016.44
536.653	8010.11
537.019	8057.12
537.384	8010.34
537.749	8047.18
538.114	8151.58
538.479	8142.54
538.845	8213.5
539.21	8198.58
539.575	8186.83
539.94	8251.01
540.305	8264.57
540.67	8349.31
541.034	8312.93
541.399	8396.32
541.764	8393.61
542.129	8363.55
542.494	8394.51
542.858	8418.69
543.223	8419.37
543.587	8573.94
543.952	8581.62
544.316	8560.83
544.681	8592.02
545.045	8622.53
545.41	8716.99
545.774	8700.04
546.138	8745.69
546.503	8698.91
546.867	8739.81
547.231	8848.74
547.595	8859.58
547.959	8888.51
548.324	8932.35
548.688	8944.78
549.052	8970.31
549.416	8964.67
549.779	8981.16
550.143	9036.75
550.507	9020.03
550.871	9117.88
551.235	9122.4
551.599	9190.87
551.962	9154.94
552.326	9270.87
552.689	9322.4
553.053	9292.34
553.417	9382.28
553.78	9446.69
554.143	9461.38
554.507	9467.48
554.87	9520.81
555.234	9594.03
555.597	9567.14
555.96	9566.46
556.323	9577.76
556.686	9691.88
557.05	9646.91
557.413	9761.93
557.776	9794.02
558.139	9788.37
558.502	9907.01
558.865	9859.56
559.228	9958.54
559.59	9981.36
559.953	10121.92
560.316	10145.2
560.679	10097.97
561.041	10237.63
561.404	10208.93
561.767	10290.05
562.129	10260.22
562.492	10411.41
562.854	10391.75
563.217	10402.82
563.579	10413.21
563.941	10505.19
564.304	10525.53
564.666	10572.98
565.028	10613.66
565.39	10688.91
565.753	10622.25
566.115	10747.44
566.477	10711.29
566.839	10682.36
567.201	10802.36
567.563	10843.03
567.925	10879.64
568.287	10923.26
568.648	11005.52
569.01	10966.19
569.372	11099.98
569.734	11027.21
570.095	11170.48
570.457	11119.86
570.819	11207.54
571.18	11243.93
571.542	11311.04
571.903	11272.63
572.265	11318.95
572.626	11384.94
572.987	11383.81
573.349	11410.25
573.71	11433.53
574.071	11508.1
574.432	11513.3
574.794	11538.38
575.155	11529.12
575.516	11564.82
575.877	11591.49
576.238	11576.57
576.599	11623.13
576.96	11717.14
577.32	11633.3
577.681	11696.57
578.042	11760.75
578.403	11725.5
578.763	11724.14
579.124	11709
579.485	11821.31
579.845	11843.91
580.206	11737.25
580.566	11762.33
580.927	11831.71
581.287	11731.82
581.648	11817.92
582.008	11865.61
582.368	11834.87
582.728	11892.27
583.089	11860.86
583.449	11846.17
583.809	11840.52
584.169	11948.32
584.529	11941.54
584.889	11923.01
585.249	11919.16
585.609	11946.73
585.969	11963
586.329	11964.13
586.688	11936.11
587.048	12029.9
587.408	11973.17
587.768	11930.69
588.127	11943.57
588.487	11914.19
588.846	12005.26
589.206	11917.58
589.565	11928.43
589.925	12024.7
590.284	11944.7
590.643	12017.69
591.003	12023.12
591.362	12026.51
591.721	12002.33
592.08	12094.53
592.44	12101.08
592.799	12114.87
593.158	12018.6
593.517	12097.24
593.876	12144.24
594.235	12110.35
594.593	12160.06
594.952	12121.87
595.311	12077.58
595.67	12108.31
596.029	12151.7
596.387	12085.94
596.746	12144.47
597.104	12134.75
597.463	12138.37
597.822	12155.32
598.18	12112.38
598.538	12149.21
598.897	12141.08
599.255	12073.51
599.613	12223.56
599.972	12163.9
600.33	12169.78
600.688	12198.25
601.046	12235.77
601.404	12314.63
601.762	12259.27
602.12	12246.61
602.478	12360.51
602.836	12236.9
603.194	12309.21
603.552	12269.44
603.91	12214.07
604.268	12365.25
604.625	12293.17
604.983	12342.66
605.341	12207.74
605.698	12396.67
606.056	12450.68
606.413	12408.42
606.771	12346.72
607.128	12422.43
607.485	12345.82
607.843	12274.86
608.2	12336.55
608.557	12430.11
608.914	12426.5
609.272	12513.5
609.629	12405.7
609.986	12478.02
610.343	12412.26
610.7	12476.44
611.057	12477.79
611.414	12541.07
611.771	12508.98
612.127	12445.48
612.484	12409.55
612.841	12406.38
613.198	12485.02
613.554	12619.03
613.911	12579.71
614.267	12594.63
614.624	12551.92
614.98	12601.63
615.337	12591.24
615.693	12616.77
616.05	12619.48
616.406	12610.22
616.762	12610.22
617.118	12648.18
617.475	12603.21
617.831	12658.81
618.187	12701.74
618.543	12658.13
618.899	12718.69
619.255	12661.97
619.611	12750.1
619.967	12763.44
620.323	12715.75
620.678	12678.24
621.034	12692.93
621.39	12736.77
621.746	12762.08
622.101	12869.2
622.457	12727.28
622.812	12731.8
623.168	12808.63
623.523	12812.7
623.879	12731.8
624.234	12701.29
624.589	12735.41
624.945	12722.31
625.3	12803.66
625.655	12737.22
626.01	12753.94
626.365	12790.55
626.72	12815.86
627.075	12787.16
627.43	12761.18
627.785	12736.54
628.14	12703.1
628.495	12728.41
628.85	12685.92
629.205	12643.66
629.559	12735.41
629.914	12627.17
630.269	12756.43
630.623	12620.39
630.978	12652.93
631.332	12708.07
631.687	12674.17
632.041	12660.39
632.396	12681.86
632.75	12605.47
633.104	12639.15
633.459	12513.27
633.813	12588.75
634.167	12516.89
634.521	12543.1
634.875	12471.92
635.229	12500.17
635.583	12420.85
635.937	12501.97
636.291	12376.55
636.645	12430.56
636.999	12431.69
637.352	12379.72
637.706	12315.76
638.06	12395.99
638.413	12315.54
638.767	12291.81
639.121	12359.6
639.474	12274.18
639.828	12298.82
640.181	12290.45
640.534	12327.97
640.888	12260.17
641.241	12167.07
641.594	12153.51
641.947	12236.9
642.301	12225.37
642.654	12193.06
643.007	12162.55
643.36	12167.75
643.713	12124.81
644.066	12130.68
644.419	12131.59
644.771	12052.95
645.124	11900.41
645.477	11863.8
645.83	11733.63
646.182	11788.32
646.535	11699.28
646.888	11676.46
647.24	11653.41
647.593	11673.29
647.945	11645.95
648.298	11574.09
648.65	11601.43
649.002	11547.42
649.355	11661.32
649.707	11606.4
650.059	11659.06
650.411	11837.36
650.763	11740.19
651.115	11947.19
651.467	11936.11
651.819	11888.43
652.171	11861.99
652.523	11791.03
652.875	11806.17
653.227	11775.89
653.578	11819.28
653.93	11760.75
654.282	11739.06
654.633	11732.5
654.985	11693.18
655.337	11716.23
655.688	11662.45
656.039	11767.76
656.391	11629.68
656.742	11610.7
657.094	11672.62
657.445	11704.71
657.796	11638.72
658.147	11669.68
658.498	11619.74
658.849	11737.47
659.2	11638.95
659.551	11599.4
659.902	11711.26
660.253	11623.8
660.604	11700.64
660.955	11554.43
661.306	11573.86
661.656	11554.43
662.007	11578.83
662.358	11576.8
662.708	11532.73
663.059	11516.01
663.409	11537.48
663.76	11593.52
664.11	11533.64
664.461	11455.9
664.811	11599.62
665.161	11563.69
665.511	11540.19
665.862	11553.07
666.212	11595.33
666.562	11485.28
666.912	11485.5
667.262	11499.97
667.612	11426.3
667.962	11426.52
668.312	11363.02
668.662	11406.86
669.011	11370.03
669.361	11360.99
669.711	11324.15
670.06	11306.3
670.41	11286.64
670.76	11245.96
671.109	11311.04
671.459	11267.43
671.808	11336.35
672.157	11360.53
672.507	11209.58
672.856	11265.62
673.205	11228.56
673.554	11249.58
673.904	11170.48
674.253	11250.71
674.602	11232.63
674.951	11040.77
675.3	10969.58
675.649	11168.45
675.998	11206.19
676.346	11169.58
676.695	11249.58
677.044	11210.93
677.393	11129.81
677.741	11230.14
678.09	11071.28
678.438	11042.58
678.787	11092.07
679.135	11152.63
679.484	11033.09
679.832	11097.94
680.181	11020.88
680.529	11115.12
680.877	11002.35
681.225	10974.1
681.573	11093.87
681.922	10972.07
682.27	10992.18
682.618	10928.23
682.966	10856.37
683.314	10990.6
683.661	10922.81
684.009	10902.24
684.357	10905.41
684.705	10846.65
685.053	10849.59
685.4	10844.62
685.748	10806.2
686.095	10785.86
686.443	10653.66
686.79	10614.57
687.138	10704.51
687.485	10723.49
687.832	10612.53
688.18	10621.57
688.527	10583.61
688.874	10638.29
689.221	10613.21
689.568	10535.92
689.915	10546.77
690.262	10528.47
690.609	10487.56
690.956	10424.06
691.303	10466.32
691.65	10471.07
691.997	10440.33
692.344	10295.7
692.69	10354.01
693.037	10302.03
693.383	10292.99
693.73	10328.47
694.077	10292.09
694.423	10271.07
694.769	10144.97
695.116	10204.41
695.462	10147.01
695.808	10129.38
696.155	10186.33
696.501	10090.74
696.847	10010.97
697.193	10031.3
697.539	10075.14
697.885	10006.45
698.231	9933.91
698.577	9987.92
698.923	9959.89
699.269	9868.6
699.614	9862.49
699.96	9830.18
700.306	9777.07
700.651	9831.76
700.997	9656.85
701.342	9712.22
701.688	9722.84
702.033	9640.81
702.379	9643.74
702.724	9692.1
703.069	9641.26
703.415	9509.28
703.76	9564.65
704.105	9527.36
704.45	9574.14
704.795	9529.85
705.14	9420.25
705.485	9358.55
705.83	9450.08
706.175	9425.9
706.52	9398.33
706.865	9371.43
707.209	9313.13
707.554	9219.35
707.899	9272
708.243	9236.52
708.588	9211.89
708.932	9169.86
709.277	9111.33
709.621	9196.98
709.966	9222.74
710.31	9158.78
710.654	9116.3
710.998	9073.59
711.342	9125.79
711.687	9062.52
712.031	8994.95
712.375	8891.67
712.719	8992.91
713.063	8940.49
713.407	8948.85
713.75	8860.71
714.094	8874.5
714.438	8798.57
714.782	8776.65
715.125	8828.4
715.469	8872.24
715.812	8792.92
716.156	8772.13
716.499	8716.76
716.843	8725.35
717.186	8662.53
717.53	8706.37
717.873	8716.76
718.216	8653.71
718.559	8577.1
718.902	8576.2
719.246	8593.38
719.589	8585.69
719.932	8560.38
720.275	8550.89
720.617	8550.67
720.96	8554.28
721.303	8513.15
721.646	8567.16
721.989	8451.68
722.331	8439.26
722.674	8465.92
723.016	8487.16
723.359	8401.29
723.701	8446.26
724.044	8363.78
724.386	8316.09
724.729	8321.07
725.071	8358.81
725.413	8271.12
725.755	8283.55
726.097	8200.62
726.439	8255.31
726.782	8249.66
727.124	8262.54
727.465	8154.97
727.807	8217.79
728.149	8230.67
728.491	8193.61
728.833	8163.33
729.175	8124.91
729.516	8141.86
729.858	8154.74
730.199	8149.09
730.541	8200.39
730.882	8138.25
731.224	8189.09
731.565	8051.92
731.906	8092.37
732.248	8070
732.589	8007.63
732.93	8017.35
733.271	7985.93
733.612	8042.88
733.953	8033.84
734.294	7988.65
734.635	7993.62
734.976	8032.03
735.317	7954.52
735.658	7968.99
735.999	7955.88
736.339	7911.13
736.68	7903.68
737.021	7858.71
737.361	7900.51
737.702	7865.03
738.042	7877.69
738.383	7844.24
738.723	7832.94
739.063	7831.59
739.404	7828.42
739.744	7755.21
740.084	7773.51
740.424	7765.37
740.764	7777.13
741.104	7811.93
741.444	7706.39
741.784	7717.92
742.124	7717.01
742.464	7711.59
742.804	7697.35
743.143	7705.49
743.483	7668.88
743.823	7665.49
744.162	7660.74
744.502	7680.41
744.841	7609.22
745.181	7658.94
745.52	7615.77
745.86	7667.52
746.199	7577.81
746.538	7570.58
746.877	7545.72
747.216	7532.61
747.556	7578.04
747.895	7579.39
748.234	7524.25
748.573	7533.06
748.911	7498.94
749.25	7527.19
749.589	7443.58
749.928	7423.46
750.267	7459.17
750.605	7394.54
750.944	7429.34
751.283	7414.88
751.621	7425.04
751.96	7327.65
752.298	7347.08
752.636	7310.25
752.975	7339.17
753.313	7280.42
753.651	7286.97
753.989	7258.72
754.327	7289.23
754.666	7265.5
755.004	7258.5
755.342	7277.48
755.679	7274.31
756.017	7187.09
756.355	7203.58
756.693	7163.58
757.031	7133.98
757.368	7072.06
757.706	7073.64
758.044	7118.84
758.381	7042.68
758.719	7078.84
759.056	7013.53
759.394	6992.97
759.731	6987.09
760.068	6989.35
760.405	6887.43
760.743	6884.72
761.08	6853.99
761.417	6860.99
761.754	6905.06
762.091	6828.22
