Data from black_metal_pc_casing_FLMS001491_00082.txt Node
Date: Wed Feb 08 14:33:37 GMT 2017
User: dcchb
Spectrometer: FLMS00149
Trigger mode: 0
Integration Time (sec): 2.000000E-2
Scans to average: 10
Electric dark correction enabled: true
Nonlinearity correction enabled: false
Boxcar width: 0
XAxis mode: Wavelengths
Number of Pixels in Spectrum: 2048
>>>>>Begin Spectral Data<<<<<
341.393	3.88
341.776	3.88
342.16	3.88
342.543	-70.92
342.927	-64.14
343.31	-55.78
343.693	-63.01
344.077	-65.49
344.46	-61.42
344.843	-63.01
345.226	-42.22
345.61	-14.87
345.993	-32.95
346.376	-22.56
346.759	11.79
347.142	26.48
347.525	42.53
347.908	66.03
348.291	80.72
348.674	84.11
349.057	109.64
349.44	122.3
349.823	146.03
350.206	138.57
350.588	175.4
350.971	216.76
351.354	207.27
351.737	248.17
352.119	238.91
352.502	245.46
352.884	270.54
353.267	283.88
353.65	274.16
354.032	295.63
354.414	317.1
354.797	292.24
355.179	306.93
355.562	298.57
355.944	300.6
356.326	338.11
356.709	340.37
357.091	315.97
357.473	328.4
357.855	325.01
358.238	324.1
358.62	315.51
359.002	318.9
359.384	330.2
359.766	338.56
360.148	329.53
360.53	343.54
360.912	330.2
361.294	298.11
361.676	314.38
362.057	331.11
362.439	320.26
362.821	311.67
363.203	310.99
363.584	312.8
363.966	285.68
364.348	306.25
364.729	310.09
365.111	313.93
365.493	327.72
365.874	312.58
366.256	323.65
366.637	301.96
367.019	315.74
367.4	297.21
367.781	316.64
368.163	288.85
368.544	314.38
368.925	308.96
369.306	333.82
369.688	310.32
370.069	321.16
370.45	320.49
370.831	329.98
371.212	312.35
371.593	319.81
371.974	333.37
372.355	300.83
372.736	318.9
373.117	310.99
373.498	314.38
373.879	295.4
374.26	315.74
374.641	308.96
375.021	326.81
375.402	329.07
375.783	328.4
376.163	336.53
376.544	332.01
376.925	332.69
377.305	301.5
377.686	323.88
378.066	332.69
378.447	320.94
378.827	318.9
379.208	318
379.588	318.45
379.968	338.79
380.349	361.84
380.729	355.97
381.109	345.34
381.489	357.77
381.87	363.42
382.25	338.56
382.63	371.33
383.01	356.64
383.39	363.65
383.77	349.19
384.15	354.84
384.53	353.25
384.91	363.2
385.29	367.72
385.67	361.84
386.049	381.95
386.429	371.11
386.809	371.11
387.189	382.41
387.568	367.26
387.948	370.43
388.328	376.08
388.707	378.79
389.087	376.53
389.466	388.51
389.846	371.11
390.225	390.31
390.605	401.84
390.984	395.51
391.363	405.91
391.743	392.57
392.122	411.78
392.501	404.1
392.881	403.2
393.26	390.99
393.639	426.47
394.018	423.99
394.397	437.32
394.776	410.65
395.155	418.34
395.534	405.46
395.913	423.76
396.292	432.35
396.671	428.51
397.05	438.22
397.429	413.82
397.808	444.1
398.186	454.27
398.565	446.36
398.944	433.7
399.323	432.12
399.701	446.81
400.08	459.92
400.458	447.94
400.837	448.39
401.215	440.03
401.594	451.1
401.972	457.66
402.351	477.32
402.729	449.97
403.107	479.13
403.486	454.49
403.864	466.7
404.242	462.86
404.62	478.22
404.999	460.14
405.377	475.51
405.755	494.04
406.133	500.14
406.511	487.04
406.889	516.64
407.267	507.15
407.645	497.66
408.023	489.07
408.401	500.82
408.779	504.44
409.156	509.63
409.534	524.32
409.912	546.47
410.29	545.34
410.667	550.76
411.045	535.85
411.422	530.88
411.8	552.12
412.178	561.84
412.555	572.23
412.933	572.91
413.31	573.81
413.687	573.59
414.065	603.42
414.442	578.33
414.819	586.02
415.197	605.22
415.574	613.59
415.951	606.35
416.328	609.29
416.705	622.4
417.082	619.24
417.46	596.86
417.837	621.95
418.214	635.05
418.591	638.67
418.967	614.49
419.344	672.34
419.721	646.35
420.098	640.03
420.475	648.39
420.852	667.82
421.228	659.46
421.605	670.53
421.982	684.77
422.358	676.41
422.735	715.05
423.111	674.15
423.488	715.5
423.864	693.36
424.241	712.34
424.617	718.67
424.994	745.56
425.37	731.55
425.746	730.64
426.123	731.32
426.499	725.45
426.875	750.53
427.251	760.93
427.627	738.78
428.003	771.1
428.379	746.01
428.756	785.11
429.132	783.98
429.507	829.4
429.883	791.89
430.259	810.64
430.635	814.26
431.011	821.94
431.387	819.23
431.763	836.86
432.138	852
432.514	839.57
432.89	884.09
433.265	861.26
433.641	886.12
434.016	879.79
434.392	892
434.767	913.24
435.143	904.43
435.518	934.03
435.894	920.47
436.269	928.15
436.644	953.24
437.02	963.86
437.395	957.53
437.77	954.37
438.145	991.65
438.52	983.07
438.895	1004.99
439.271	1028.04
439.646	1014.7
440.021	1037.3
440.395	1019.45
440.77	1022.84
441.145	1041.14
441.52	1056.96
441.895	1051.77
442.27	1083.18
442.645	1067.58
443.019	1052.22
443.394	1086.34
443.769	1071.65
444.143	1058.55
444.518	1092.67
444.892	1120.69
445.267	1106.45
445.641	1102.84
446.016	1134.7
446.39	1126.57
446.764	1150.07
447.139	1135.38
447.513	1147.81
447.887	1139
448.262	1178.09
448.636	1151.65
449.01	1171.54
449.384	1171.76
449.758	1181.48
450.132	1210.41
450.506	1208.6
450.88	1216.51
451.254	1235.26
451.628	1220.35
452.002	1216.73
452.376	1266
452.75	1280.46
453.123	1252.21
453.497	1296.73
453.871	1303.28
454.244	1306.22
454.618	1324.08
454.992	1342.15
455.365	1350.29
455.739	1355.49
456.112	1371.53
456.486	1362.04
456.859	1404.07
457.232	1415.15
457.606	1389.84
457.979	1428.25
458.352	1461.25
458.725	1461.02
459.099	1483.17
459.472	1515.93
459.845	1534.01
460.218	1556.39
460.591	1539.89
460.964	1536.73
461.337	1570.4
461.71	1608.59
462.083	1592.54
462.456	1642.26
462.829	1630.96
463.201	1663.73
463.574	1667.12
463.947	1700.11
464.32	1725.19
464.692	1731.52
465.065	1729.49
465.438	1788.7
465.81	1824.85
466.183	1807.68
466.555	1829.6
466.928	1880.9
467.3	1860.11
467.672	1891.97
468.045	1909.37
468.417	1947.11
468.789	1923.61
469.161	1971.97
469.534	1982.82
469.906	2023.04
470.278	2072.98
470.65	2073.66
471.022	2096.48
471.394	2135.81
471.766	2141.45
472.138	2167.67
472.51	2240.89
472.882	2243.83
473.253	2284.73
473.625	2274.56
473.997	2333.77
474.369	2348
474.74	2372.18
475.112	2428
475.484	2457.83
475.855	2485.4
476.227	2498.06
476.598	2548
476.97	2600.2
477.341	2654.21
477.713	2680.2
478.084	2683.36
478.455	2771.27
478.827	2797.71
479.198	2827.31
479.569	2834.32
479.94	2937.37
480.311	2931.72
480.682	3046.52
481.053	3075.89
481.424	3116.8
481.795	3163.12
482.166	3141.2
482.537	3199.96
482.908	3275.44
483.279	3327.64
483.65	3402.89
484.021	3407.18
484.391	3461.65
484.762	3483.57
485.133	3536.67
485.503	3597.91
485.874	3650.79
486.244	3710.23
486.615	3741.86
486.985	3783.45
487.356	3780.06
487.726	3863.22
488.097	3945.25
488.467	3955.19
488.837	4000.62
489.207	4065.25
489.578	4141.18
489.948	4167.16
490.318	4231.57
490.688	4276.99
491.058	4306.6
491.428	4413.71
491.798	4384.56
492.168	4514.05
492.538	4505.46
492.908	4564.67
493.278	4599.47
493.648	4618.45
494.017	4664.33
494.387	4700.03
494.757	4761.27
495.126	4754.95
495.496	4831.33
495.866	4867.94
496.235	4924.66
496.605	4994.49
496.974	4978.89
497.344	4988.16
497.713	5065.9
498.082	5121.49
498.452	5169.17
498.821	5196.06
499.19	5188.38
499.559	5238.77
499.928	5261.37
500.298	5310.19
500.667	5328.26
501.036	5327.13
501.405	5398.32
501.774	5382.05
502.143	5455.49
502.512	5498.43
502.88	5520.35
503.249	5537.75
503.618	5582.95
503.987	5655.03
504.356	5681.93
504.724	5688.03
505.093	5751.98
505.462	5733
505.83	5769.83
506.199	5796.73
506.567	5935.03
506.936	5916.72
507.304	5984.52
507.672	6006.21
508.041	6081.92
508.409	6081.92
508.777	6111.52
509.145	6165.53
509.514	6217.73
509.882	6219.99
510.25	6290.05
510.618	6289.82
510.986	6321.68
511.354	6370.5
511.722	6449.59
512.09	6488.46
512.458	6519.64
512.826	6591.28
513.193	6627.89
513.561	6616.37
513.929	6710.83
514.297	6782.69
514.664	6795.8
515.032	6790.82
515.4	6843.48
515.767	6916.24
516.135	6935.23
516.502	6918.05
516.869	7064.26
517.237	7142.45
517.604	7092.51
517.972	7160.53
518.339	7219.06
518.706	7222.68
519.073	7295.22
519.44	7413.18
519.808	7431.49
520.175	7416.8
520.542	7558.71
520.909	7503.8
521.276	7574.31
521.643	7612.05
522.009	7726.17
522.376	7741.08
522.743	7822.66
523.11	7904.47
523.477	7952.6
523.843	8034.86
524.21	8124.8
524.577	8158.02
524.943	8190.34
525.31	8220.17
525.676	8296.77
526.043	8426.04
526.409	8419.93
526.776	8479.37
527.142	8523.21
527.508	8573.15
527.874	8664.67
528.241	8692.24
528.607	8757.33
528.973	8811.11
529.339	8866.02
529.705	8905.12
530.071	9000.03
530.437	8996.42
530.803	9019.92
531.169	9157.54
531.535	9141.95
531.901	9241.61
532.267	9198.22
532.632	9277.31
532.998	9297.88
533.364	9394.6
533.73	9402.73
534.095	9487.48
534.461	9597.98
534.826	9554.59
535.192	9610.64
535.557	9653.57
535.923	9686.57
536.288	9718.66
536.653	9777.19
537.019	9784.19
537.384	9793.01
537.749	9855.15
538.114	9877.75
538.479	9973.79
538.845	9989.38
539.21	10024.86
539.575	10020.12
539.94	10106.67
540.305	10139.44
540.67	10161.81
541.034	10106.67
541.399	10243.61
541.764	10195.71
542.129	10291.07
542.494	10263.28
542.858	10303.95
543.223	10395.48
543.587	10419.66
543.952	10446.32
544.316	10541.23
544.681	10492.2
545.045	10624.85
545.41	10563.61
545.774	10656.26
546.138	10679.99
546.503	10687.22
546.867	10732.42
547.231	10729.93
547.595	10831.17
547.959	10845.63
548.324	10906.65
548.688	10893.54
549.052	10876.14
549.416	11018.74
549.779	10982.8
550.143	11031.16
550.507	11106.87
550.871	11114.55
551.235	11198.39
551.599	11242.68
551.962	11188
552.326	11279.07
552.689	11316.58
553.053	11359.74
553.417	11353.64
553.78	11451.94
554.143	11446.97
554.507	11542.11
554.87	11602.22
555.234	11717.02
555.597	11707.53
555.96	11706.63
556.323	11798.15
556.686	11796.34
557.05	11866.62
557.413	11865.49
557.776	11957.47
558.139	12020.97
558.502	12051.25
558.865	12071.82
559.228	12147.97
559.59	12186.61
559.953	12252.6
560.316	12387.29
560.679	12428.87
561.041	12467.06
561.404	12533.5
561.767	12580.73
562.129	12517.68
562.492	12703.89
562.854	12721.29
563.217	12683.78
563.579	12763.55
563.941	12821.85
564.304	12895.75
564.666	12974.84
565.028	13012.58
565.39	13074.05
565.753	13137.55
566.115	13186.81
566.477	13218.23
566.839	13297.32
567.201	13430.65
567.563	13358.11
567.925	13417.09
568.287	13493.25
568.648	13502.51
569.01	13620.7
569.372	13646.01
569.734	13632.23
570.095	13701.83
570.457	13828.38
570.819	13837.87
571.18	13931.65
571.542	13896.63
571.903	13978.21
572.265	14102.72
572.626	14065.89
572.987	14133.46
573.349	14134.59
573.71	14149.73
574.071	14239.44
574.432	14220.23
574.794	14336.61
575.155	14303.62
575.516	14256.16
575.877	14353.56
576.238	14450.51
576.599	14398.99
576.96	14490.73
577.32	14518.08
577.681	14574.12
578.042	14585.65
578.403	14592.88
578.763	14473.79
579.124	14638.08
579.485	14678.98
579.845	14646.21
580.206	14677.85
580.566	14634.91
580.927	14695.02
581.287	14809.82
581.648	14671.07
582.008	14832.87
582.368	14785.87
582.728	14802.14
583.089	14760.33
583.449	14820.67
583.809	14853.66
584.169	14890.95
584.529	14870.16
584.889	14954
585.249	14881.23
585.609	14850.05
585.969	14816.83
586.329	14873.1
586.688	14863.38
587.048	14813.66
587.408	14812.53
587.768	14776.38
588.127	14805.98
588.487	14781.8
588.846	15031.51
589.206	14874.23
589.565	14885.07
589.925	14941.12
590.284	14882.81
590.643	14871.97
591.003	15056.6
591.362	14983.6
591.721	14929.37
592.08	14955.13
592.44	15021.79
592.799	14972.76
593.158	14945.86
593.517	14968.46
593.876	14895.7
594.235	14959.2
594.593	14986.54
594.952	14921.68
595.311	14879.2
595.67	14979.31
596.029	15071.28
596.387	15087.1
596.746	15133.43
597.104	15095.24
597.463	15036.71
597.822	15148.12
598.18	15075.8
598.538	15052.75
598.897	15123.94
599.255	15066.31
599.613	15207.78
599.972	15152.41
600.33	15188.12
600.688	15109.25
601.046	15178.63
601.404	15194.67
601.762	15250.49
602.12	15223.82
602.478	15222.69
602.836	15288.91
603.194	15206.87
603.552	15310.37
603.91	15276.93
604.268	15235.35
604.625	15248.91
604.983	15349.24
605.341	15217.5
605.698	15322.35
606.056	15389.02
606.413	15364.38
606.771	15325.52
607.128	15405.29
607.485	15274.67
607.843	15349.24
608.2	15460.65
608.557	15542.68
608.914	15433.31
609.272	15521.22
609.629	15508.11
609.986	15565.73
610.343	15493.87
610.7	15526.41
611.057	15570.03
611.414	15566.19
611.771	15585.85
612.127	15789.91
612.484	15722.11
612.841	15673.75
613.198	15633.76
613.554	15693.87
613.911	15689.12
614.267	15763.7
614.624	15735.67
614.98	15737.48
615.337	15775.67
615.693	15905.39
616.05	15767.54
616.406	15905.16
616.762	15794.88
617.118	15793.98
617.475	15760.31
617.831	15947.65
618.187	15952.39
618.543	15908.1
618.899	16000.75
619.255	15932.73
619.611	15977.7
619.967	15923.47
620.323	15966.18
620.678	15946.52
621.034	16018.83
621.39	15991.26
621.746	15912.84
622.101	16052.73
622.457	15987.64
622.812	16041.2
623.168	16119.62
623.523	16026.97
623.879	16097.02
624.234	15943.35
624.589	16002.56
624.945	16028.77
625.3	16048.21
625.655	16097.7
626.01	16069.9
626.365	16034.42
626.72	16013.86
627.075	16032.39
627.43	15865.39
627.785	15938.15
628.14	15997.36
628.495	16038.49
628.85	15979.28
629.205	15928.44
629.559	16076.68
629.914	15974.76
630.269	15978.38
630.623	15914.65
630.978	15906.97
631.332	15956.23
631.687	15913.07
632.041	15947.65
632.396	15884.82
632.75	15916.91
633.104	15902
633.459	15818.16
633.813	15795.79
634.167	15816.35
634.521	15744.49
634.875	15832.85
635.229	15823.36
635.583	15652.29
635.937	15710.59
636.291	15741.55
636.645	15668.33
636.999	15650.93
637.352	15713.3
637.706	15520.99
638.06	15731.83
638.413	15626.52
638.767	15601.44
639.121	15635.34
639.474	15509.47
639.828	15458.17
640.181	15493.87
640.534	15545.17
640.888	15452.74
641.241	15426.76
641.594	15455
641.947	15396.02
642.301	15383.14
642.654	15237.61
643.007	15390.6
643.36	15424.72
643.713	15263.6
644.066	15402.12
644.419	15296.59
644.771	15132.3
645.124	15083.71
645.477	15041.91
645.83	14918.52
646.182	14871.97
646.535	14739.99
646.888	14850.95
647.24	14840.33
647.593	14791.07
647.945	14806.43
648.298	14712.88
648.65	14719.66
649.002	14614.12
649.355	14728.92
649.707	14673.78
650.059	14742.03
650.411	14875.13
650.763	14845.3
651.115	14993.55
651.467	15040.78
651.819	14958.07
652.171	15010.95
652.523	14904.74
652.875	14918.29
653.227	14906.09
653.578	15044.62
653.93	14911.51
654.282	14834.45
654.633	14847.79
654.985	14856.6
655.337	14859.31
655.688	14894.79
656.039	14836.26
656.391	14784.74
656.742	14730.73
657.094	14760.11
657.445	14833.78
657.796	14761.24
658.147	14648.47
658.498	14729.37
658.849	14798.52
659.2	14717.62
659.551	14709.94
659.902	14811.63
660.253	14721.46
660.604	14719.2
660.955	14610.73
661.306	14671.52
661.656	14677.62
662.007	14684.18
662.358	14704.06
662.708	14628.13
663.059	14598.98
663.409	14515.37
663.76	14611.18
664.11	14673.1
664.461	14637.85
664.811	14578.42
665.161	14625.42
665.511	14527.34
665.862	14577.74
666.212	14545.2
666.562	14581.58
666.912	14641.92
667.262	14466.55
667.612	14607.57
667.962	14492.54
668.312	14582.48
668.662	14615.93
669.011	14570.73
669.361	14524.86
669.711	14583.39
670.06	14485.54
670.41	14453.22
670.76	14477.18
671.109	14487.57
671.459	14478.53
671.808	14458.42
672.157	14394.69
672.507	14432.43
672.856	14384.97
673.205	14384.07
673.554	14474.46
673.904	14395.37
674.253	14444.86
674.602	14384.75
674.951	14159.67
675.3	14177.07
675.649	14422.94
675.998	14446.44
676.346	14367.35
676.695	14344.52
677.044	14229.05
677.393	14350.4
677.741	14314.02
678.09	14283.28
678.438	14329.61
678.787	14195.6
679.135	14271.76
679.484	14149.5
679.832	14147.69
680.181	14101.82
680.529	14172.55
680.877	14096.17
681.225	14063.85
681.573	14145.21
681.922	14082.61
682.27	14056.4
682.618	14083.51
682.966	14043.29
683.314	14094.36
683.661	13951.09
684.009	13853.69
684.357	13956.96
684.705	13881.26
685.053	13950.18
685.4	13930.3
685.748	13820.7
686.095	13818.44
686.443	13807.14
686.79	13764.88
687.138	13828.61
687.485	13746.12
687.832	13624.99
688.18	13664.77
688.527	13633.13
688.874	13650.3
689.221	13627.48
689.568	13489.41
689.915	13524.43
690.262	13583.64
690.609	13392.23
690.956	13461.38
691.303	13402.63
691.65	13343.19
691.997	13338
692.344	13241.95
692.69	13266.36
693.037	13220.03
693.383	13196.08
693.73	13244.67
694.077	13071.56
694.423	13099.58
694.769	13051.22
695.116	13018.46
695.462	13039.02
695.808	12977.1
696.155	13022.52
696.501	12913.6
696.847	12934.17
697.193	12790.21
697.539	12822.08
697.885	12786.6
698.231	12660.95
698.577	12636.32
698.923	12662.08
699.269	12593.38
699.614	12562.88
699.96	12527.85
700.306	12510
700.651	12557.9
700.997	12525.59
701.342	12413.28
701.688	12476.78
702.033	12361.07
702.379	12331.02
702.724	12303.67
703.069	12338.7
703.415	12116.33
703.76	12187.74
704.105	12172.15
704.45	12106.39
704.795	12086.05
705.14	12077.69
705.485	12058.26
705.83	11942.33
706.175	12036.34
706.52	11948.43
706.865	11891.93
707.209	11797.47
707.554	11876.34
707.899	11912.72
708.243	11887.64
708.588	11808.55
708.932	11754.76
709.277	11767.64
709.621	11771.94
709.966	11711.82
710.31	11691.49
710.654	11577.37
710.998	11657.59
711.342	11644.71
711.687	11607.65
712.031	11455.56
712.375	11517.03
712.719	11559.06
713.063	11533.52
713.407	11546.41
713.75	11459.4
714.094	11385.51
714.438	11412.85
714.782	11391.61
715.125	11374.88
715.469	11399.06
715.812	11376.24
716.156	11271.16
716.499	11327.43
716.843	11286.75
717.186	11246.75
717.53	11224.15
717.873	11195.91
718.216	11212.63
718.559	11149.13
718.902	11098.28
719.246	11135.12
719.589	11025.74
719.932	11065.29
720.275	11025.97
720.617	10990.26
720.96	10930.83
721.303	10939.64
721.646	10997.04
721.989	10923.82
722.331	10939.42
722.674	10950.04
723.016	10892.64
723.359	10949.36
723.701	10947.78
724.044	10859.64
724.386	10799.31
724.729	10796.59
725.071	10824.84
725.413	10792.98
725.755	10742.13
726.097	10701.68
726.439	10727.9
726.782	10677.5
727.124	10756.82
727.465	10645.19
727.807	10603.38
728.149	10650.84
728.491	10605.19
728.833	10562.93
729.175	10574.23
729.516	10576.26
729.858	10549.6
730.199	10504.17
730.541	10517.73
730.882	10485.64
731.224	10539.43
731.565	10490.16
731.906	10462.14
732.248	10493.55
732.589	10421.46
732.93	10449.03
733.271	10391.41
733.612	10440.22
733.953	10337.4
734.294	10379.88
734.635	10230.73
734.976	10307.57
735.317	10216.27
735.658	10226.89
735.999	10316.38
736.339	10230.51
736.68	10254.46
737.021	10204.97
737.361	10131.53
737.702	10208.14
738.042	10178.53
738.383	10194.8
738.723	10212.66
739.063	10118.19
739.404	10198.19
739.744	10150.06
740.084	10091.08
740.424	10110.51
740.764	10046.33
741.104	10074.58
741.444	10056.28
741.784	10032.09
742.124	9982.38
742.464	9991.19
742.804	9971.31
743.143	9951.19
743.483	9938.54
743.823	9926.34
744.162	9888.14
744.502	9882.95
744.841	9853.34
745.181	9887.47
745.52	9838.65
745.86	9851.53
746.199	9782.84
746.538	9827.81
746.877	9768.15
747.216	9787.13
747.556	9794.14
747.895	9746.23
748.234	9732.44
748.573	9737.87
748.911	9704.65
749.25	9681.37
749.589	9668.04
749.928	9642.73
750.267	9646.12
750.605	9590.75
750.944	9582.39
751.283	9561.6
751.621	9539.9
751.96	9471.88
752.298	9537.64
752.636	9481.15
752.975	9506.23
753.313	9467.82
753.651	9451.77
753.989	9337.65
754.327	9346.01
754.666	9370.87
755.004	9353.69
755.342	9359.12
755.679	9319.57
756.017	9247.03
756.355	9282.51
756.693	9267.6
757.031	9272.79
757.368	9200.7
757.706	9150.99
758.044	9109.86
758.381	9121.84
