Data from black_metal_pc_casing_FLMS001491_00014.txt Node
Date: Wed Feb 08 14:32:02 GMT 2017
User: dcchb
Spectrometer: FLMS00149
Trigger mode: 0
Integration Time (sec): 2.000000E-2
Scans to average: 10
Electric dark correction enabled: true
Nonlinearity correction enabled: false
Boxcar width: 0
XAxis mode: Wavelengths
Number of Pixels in Spectrum: 2048
>>>>>Begin Spectral Data<<<<<
341.393	9.12
341.776	9.12
342.16	9.12
342.543	-40.59
342.927	-80.37
343.31	-75.62
343.693	-74.49
344.077	-69.97
344.46	-57.09
344.843	-50.99
345.226	-42.85
345.61	-29.74
345.993	-24.77
346.376	-2.4
346.759	7.32
347.142	5.51
347.525	45.51
347.908	70.37
348.291	67.65
348.674	107.88
349.057	123.7
349.44	117.82
349.823	146.3
350.206	165.96
350.588	197.14
350.971	196.24
351.354	213.64
351.737	226.97
352.119	233.75
352.502	249.57
352.884	255.9
353.267	254.09
353.65	255.45
354.032	285.05
354.414	298.38
354.797	315.78
355.179	299.29
355.562	311.94
355.944	319.62
356.326	303.58
356.709	302.68
357.091	343.58
357.473	343.13
357.855	325.5
358.238	309.23
358.62	327.99
359.002	328.89
359.384	330.7
359.766	336.12
360.148	324.14
360.53	310.13
360.912	344.26
361.294	336.35
361.676	322.79
362.057	320.08
362.439	313.07
362.821	316.01
363.203	313.97
363.584	318.95
363.966	306.07
364.348	294.09
364.729	316.23
365.111	320.3
365.493	293.86
365.874	305.84
366.256	301.77
366.637	330.92
367.019	313.97
367.4	303.13
367.781	301.77
368.163	305.16
368.544	277.82
368.925	326.18
369.306	291.6
369.688	286.63
370.069	294.77
370.45	304.48
370.831	317.59
371.212	309.23
371.593	284.15
371.974	313.75
372.355	310.59
372.736	281.66
373.117	308.78
373.498	294.09
373.879	301.77
374.26	315.56
374.641	309.23
375.021	312.84
375.402	311.49
375.783	309.23
376.163	335.67
376.544	321.21
376.925	323.24
377.305	327.31
377.686	312.39
378.066	312.62
378.447	334.77
378.827	310.81
379.208	338.38
379.588	337.25
379.968	325.05
380.349	328.44
380.729	334.99
381.109	320.75
381.489	326.86
381.87	316.69
382.25	318.49
382.63	326.86
383.01	337.03
383.39	361.43
383.77	337.25
384.15	347.65
384.53	348.78
384.91	340.19
385.29	342.22
385.67	338.83
386.049	350.13
386.429	326.63
386.809	368.66
387.189	351.94
387.568	343.13
387.948	360.53
388.328	356.46
388.707	357.14
389.087	364.82
389.466	357.36
389.846	366.4
390.225	369.11
390.605	374.76
390.984	344.03
391.363	345.39
391.743	358.95
392.122	368.44
392.501	353.3
392.881	388.78
393.26	369.11
393.639	352.17
394.018	383.35
394.397	376.12
394.776	379.96
395.155	366.18
395.534	391.94
395.913	387.65
396.292	383.8
396.671	373.86
397.05	382.9
397.429	373.63
397.808	382
398.186	388.1
398.565	371.37
398.944	395.78
399.323	402.11
399.701	401.2
400.08	395.55
400.458	408.21
400.837	407.53
401.215	401.88
401.594	400.75
401.972	388.1
402.351	418.6
402.729	393.07
403.107	423.8
403.486	411.83
403.864	404.14
404.242	402.79
404.62	399.62
404.999	407.76
405.377	415.22
405.755	407.08
406.133	419.06
406.511	415.67
406.889	433.52
407.267	437.81
407.645	429.9
408.023	447.08
408.401	446.85
408.779	434.65
409.156	435.78
409.534	451.15
409.912	453.18
410.29	460.64
410.667	441.66
411.045	489.56
411.422	466.51
411.8	460.19
412.178	454.54
412.555	477.59
412.933	461.99
413.31	476.46
413.687	465.84
414.065	470.35
414.442	468.32
414.819	477.36
415.197	496.12
415.574	481.65
415.951	496.57
416.328	492.28
416.705	496.34
417.082	492.5
417.46	512.16
417.837	491.15
418.214	514.87
418.591	517.13
418.967	500.86
419.344	521.43
419.721	524.82
420.098	517.13
420.475	540.41
420.852	542.22
421.228	550.58
421.605	554.42
421.982	547.41
422.358	539.05
422.735	543.35
423.111	542.22
423.488	556.45
423.864	564.82
424.241	557.13
424.617	568.88
424.994	574.76
425.37	569.56
425.746	576.79
426.123	572.5
426.499	603.23
426.875	598.94
427.251	596
427.627	603.68
428.003	606.62
428.379	613.85
428.756	603.46
429.132	621.31
429.507	613.4
429.883	624.25
430.259	627.19
430.635	633.51
431.011	648.43
431.387	642.1
431.763	664.25
432.138	666.06
432.514	654.53
432.89	671.03
433.265	668.99
433.641	673.29
434.016	680.97
434.392	699.28
434.767	673.74
435.143	690.69
435.518	712.38
435.894	704.25
436.269	708.77
436.644	720.29
437.02	718.48
437.395	734.75
437.77	733.62
438.145	743.57
438.52	747.64
438.895	724.36
439.271	764.13
439.646	766.17
440.021	784.24
440.395	772.04
440.77	767.75
441.145	762.55
441.52	778.14
441.895	783.12
442.27	800.97
442.645	789.67
443.019	796
443.394	832.83
443.769	814.53
444.143	817.92
444.518	844.81
444.892	819.27
445.267	803
445.641	810.23
446.016	824.7
446.39	853.62
446.764	827.86
447.139	830.57
447.513	830.57
447.887	844.36
448.262	865.82
448.636	854.53
449.01	853.62
449.384	882.32
449.758	874.86
450.132	861.53
450.506	878.71
450.88	871.7
451.254	886.62
451.628	924.58
452.002	936.11
452.376	922.77
452.75	906.95
453.123	911.02
453.497	945.14
453.871	951.25
454.244	955.54
454.618	974.97
454.992	992.6
455.365	987.63
455.739	996.67
456.112	984.24
456.486	998.48
456.859	1016.1
457.232	1027.63
457.606	1032.6
457.979	1023.79
458.352	1060.62
458.725	1086.16
459.099	1048.19
459.472	1090.9
459.845	1105.37
460.218	1123.9
460.591	1093.84
460.964	1085.71
461.337	1132.48
461.71	1154.18
462.083	1177.91
462.456	1165.48
462.829	1156.66
463.201	1180.39
463.574	1191.01
463.947	1201.86
464.32	1232.82
464.692	1221.3
465.065	1240.28
465.438	1234.85
465.81	1243.67
466.183	1307.62
466.555	1283.67
466.928	1294.74
467.3	1304.91
467.672	1346.94
468.045	1351.69
468.417	1354.85
468.789	1375.19
469.161	1344.46
469.534	1390.33
469.906	1421.74
470.278	1414.74
470.65	1439.14
471.022	1468.75
471.394	1490.89
471.766	1491.34
472.138	1526.82
472.51	1547.16
472.882	1549.87
473.253	1569.76
473.625	1610.21
473.997	1607.5
474.369	1642.53
474.74	1641.17
475.112	1650.66
475.484	1668.29
475.855	1709.42
476.227	1752.81
476.598	1767.04
476.97	1738.12
477.341	1795.29
477.713	1795.52
478.084	1853.14
478.455	1904.89
478.827	1900.15
479.198	1946.7
479.569	1988.96
479.94	1988.51
480.311	1995.74
480.682	2040.94
481.053	2079.35
481.424	2093.59
481.795	2140.82
482.166	2140.82
482.537	2187.15
482.908	2255.17
483.279	2239.35
483.65	2266.24
484.021	2322.28
484.391	2372
484.762	2350.53
485.133	2352.79
485.503	2395.05
485.874	2442.51
486.244	2476.18
486.615	2506.46
486.985	2517.76
487.356	2581.26
487.726	2604.31
488.097	2609.51
488.467	2635.72
488.837	2673.46
489.207	2781.48
489.578	2767.7
489.948	2800.01
490.318	2836.62
490.688	2842.04
491.058	2882.27
491.428	2921.14
491.798	2927.47
492.168	3002.27
492.538	3004.07
492.908	3044.3
493.278	3069.16
493.648	3019.21
494.017	3118.42
494.387	3155.71
494.757	3152.32
495.126	3224.63
495.496	3182.6
495.866	3214.69
496.235	3239.77
496.605	3282.94
496.974	3301.69
497.344	3319.55
497.713	3358.19
498.082	3374.46
498.452	3422.82
498.821	3441.58
499.19	3487
499.559	3484.29
499.928	3509.15
500.298	3516.15
500.667	3537.39
501.036	3534.68
501.405	3575.13
501.774	3590.27
502.143	3627.11
502.512	3642.25
502.88	3682.47
503.249	3707.56
503.618	3720.89
503.987	3687.67
504.356	3760.66
504.724	3737.39
505.093	3757.05
505.462	3802.7
505.83	3829.36
506.199	3868.01
506.567	3924.73
506.936	3928.34
507.304	3947.55
507.672	3976.93
508.041	4014.22
508.409	4016.93
508.777	4035.91
509.145	4074.78
509.514	4117.72
509.882	4135.12
510.25	4112.29
510.618	4140.31
510.986	4152.74
511.354	4211.95
511.722	4237.71
512.09	4297.15
512.458	4307.54
512.826	4324.26
513.193	4345.06
513.561	4395
513.929	4413.3
514.297	4457.14
514.664	4484.03
515.032	4466.86
515.4	4545.95
515.767	4596.35
516.135	4561.32
516.502	4562.9
516.869	4596.35
517.237	4669.79
517.604	4657.59
517.972	4689.9
518.339	4717.25
518.706	4711.83
519.073	4764.25
519.44	4840.41
519.808	4893.74
520.175	4838.6
520.542	4939.39
520.909	4961.99
521.276	4987.52
521.643	4998.15
522.009	5065.26
522.376	5091.48
522.743	5121.31
523.11	5145.03
523.477	5212.38
523.843	5261.64
524.21	5245.6
524.577	5337.57
524.943	5353.62
525.31	5355.42
525.676	5408.98
526.043	5438.59
526.409	5505.02
526.776	5577.34
527.142	5550
527.508	5603.78
527.874	5629.09
528.241	5672.03
528.607	5677.68
528.973	5723.78
529.339	5752.02
529.705	5845.35
530.071	5841.97
530.437	5853.49
530.803	5901.17
531.169	5960.83
531.535	5969.87
531.901	5996.09
532.267	6029.98
532.632	6100.72
532.998	6031.79
533.364	6099.36
533.73	6116.08
534.095	6139.13
534.461	6163.54
534.826	6244.67
535.192	6238.34
535.557	6277.21
535.923	6262.74
536.288	6322.63
536.653	6330.54
537.019	6330.09
537.384	6368.28
537.749	6406.7
538.114	6415.06
538.479	6472
538.845	6464.32
539.21	6507.48
539.575	6493.7
539.94	6521.5
540.305	6599.23
540.67	6569.18
541.034	6559.91
541.399	6631.55
541.764	6634.49
542.129	6609.4
542.494	6672
542.858	6678.55
543.223	6733.24
543.587	6734.6
543.952	6820.24
544.316	6769.4
544.681	6793.13
545.045	6834.71
545.41	6885.78
545.774	6898.66
546.138	6937.3
546.503	6930.3
546.867	6971.43
547.231	7017.98
547.595	7013.69
547.959	7021.14
548.324	7095.04
548.688	7076.51
549.052	7121.71
549.416	7161.7
549.779	7148.15
550.143	7135.49
550.507	7198.77
550.871	7207.8
551.235	7200.35
551.599	7330.74
551.962	7314.02
552.326	7274.92
552.689	7403.05
553.053	7265.43
553.417	7410.74
553.78	7455.93
554.143	7405.54
554.507	7488.93
554.87	7487.8
555.234	7541.81
555.597	7513.79
555.96	7550.62
556.323	7634.01
556.686	7629.71
557.05	7711.75
557.413	7745.19
557.776	7676.49
558.139	7790.84
558.502	7818.64
558.865	7811.4
559.228	7874.91
559.59	7896.83
559.953	7922.59
560.316	7972.76
560.679	7998.07
561.041	7987.45
561.404	8095.01
561.767	8116.03
562.129	8138.63
562.492	8178.4
562.854	8176.82
563.217	8284.84
563.579	8241.22
563.941	8328.91
564.304	8371.84
564.666	8387.43
565.028	8447.55
565.39	8446.42
565.753	8441.67
566.115	8571.61
566.477	8567.77
566.839	8607.99
567.201	8663.36
567.563	8666.07
567.925	8707.2
568.287	8683.47
568.648	8712.62
569.01	8744.49
569.372	8873.3
569.734	8781.77
570.095	8855.22
570.457	8878.72
570.819	8913.07
571.18	8906.29
571.542	9010.92
571.903	8986.29
572.265	9082.11
572.626	9130.47
572.987	9045.5
573.349	9092.28
573.71	9191.26
574.071	9189.22
574.432	9190.58
574.794	9217.02
575.155	9262.67
575.516	9224.02
575.877	9259.73
576.238	9252.5
576.599	9310.57
576.96	9315.77
577.32	9334.98
577.681	9351.25
578.042	9370.69
578.403	9347.64
578.763	9431.93
579.124	9460.63
579.485	9464.02
579.845	9476.9
580.206	9447.52
580.566	9455.43
580.927	9424.92
581.287	9573.84
581.648	9520.06
582.008	9559.61
582.368	9492.49
582.728	9574.07
583.089	9504.69
583.449	9520.74
583.809	9550.79
584.169	9559.83
584.529	9580.17
584.889	9588.53
585.249	9527.29
585.609	9488.2
585.969	9569.32
586.329	9543.34
586.688	9560.29
587.048	9510.8
587.408	9480.74
587.768	9605.48
588.127	9490.91
588.487	9503.56
588.846	9607.97
589.206	9581.98
589.565	9553.28
589.925	9571.36
590.284	9597.57
590.643	9605.03
591.003	9570.23
591.362	9644.35
591.721	9619.49
592.08	9604.8
592.44	9619.04
592.799	9605.93
593.158	9603.9
593.517	9675.99
593.876	9653.84
594.235	9582.43
594.593	9599.15
594.952	9630.34
595.311	9650.68
595.67	9714.63
596.029	9674.41
596.387	9729.32
596.746	9693.16
597.104	9659.27
597.463	9704.69
597.822	9760.73
598.18	9647.06
598.538	9688.19
598.897	9723.9
599.255	9709.43
599.613	9791.47
599.972	9715.31
600.33	9727.74
600.688	9774.29
601.046	9698.81
601.404	9820.39
601.762	9760.28
602.12	9859.94
602.478	9798.7
602.836	9764.35
603.194	9827.17
603.552	9822.88
603.91	9868.07
604.268	9877.34
604.625	9800.73
604.983	9856.32
605.341	9814.29
605.698	9847.28
606.056	9973.61
606.413	9889.32
606.771	9910.11
607.128	9894.51
607.485	9893.38
607.843	9893.16
608.2	9921.86
608.557	9982.65
608.914	9953.04
609.272	9995.75
609.629	9928.41
609.986	10061.06
610.343	10034.17
610.7	10104.23
611.057	10049.31
611.414	10028.07
611.771	10053.38
612.127	10097.45
612.484	10061.74
612.841	10127.28
613.198	10102.19
613.554	10038.24
613.911	10096.32
614.267	10219.03
614.624	10173.83
614.98	10072.14
615.337	10198.69
615.693	10153.72
616.05	10201.62
616.406	10247.72
616.762	10210.21
617.118	10209.31
617.475	10224.9
617.831	10295.86
618.187	10223.54
618.543	10262.87
618.899	10289.53
619.255	10281.62
619.611	10273.03
619.967	10282.98
620.323	10327.27
620.678	10319.59
621.034	10329.08
621.39	10305.8
621.746	10205.24
622.101	10320.04
622.457	10291.34
622.812	10254.05
623.168	10302.64
623.523	10350.32
623.879	10391
624.234	10312.36
624.589	10360.49
624.945	10355.97
625.3	10329.53
625.655	10364.33
626.01	10332.24
626.365	10315.75
626.72	10302.64
627.075	10395.52
627.43	10323.66
627.785	10321.85
628.14	10338.8
628.495	10321.17
628.85	10277.78
629.205	10305.12
629.559	10339.7
629.914	10242.98
630.269	10298.57
630.623	10289.98
630.978	10246.82
631.332	10319.14
631.687	10319.36
632.041	10245.47
632.396	10223.77
632.75	10210.66
633.104	10289.08
633.459	10181.29
633.813	10139.25
634.167	10276.2
634.521	10104
634.875	10134.51
635.229	10104.45
635.583	10175.86
635.937	10146.94
636.291	10102.19
636.645	10137.9
636.999	10093.6
637.352	10103.32
637.706	9980.84
638.06	10104.45
638.413	10026.94
638.767	10001.4
639.121	10040.27
639.474	9937.45
639.828	9965.47
640.181	10038.24
640.534	10038.01
640.888	9937.22
641.241	9958.69
641.594	9919.82
641.947	10009.54
642.301	9948.3
642.654	9957.11
643.007	10012.02
643.36	9910.78
643.713	9816.55
644.066	9906.26
644.419	9889.99
644.771	9784.23
645.124	9740.17
645.477	9702.65
645.83	9607.97
646.182	9551.02
646.535	9598.7
646.888	9504.47
647.24	9506.73
647.593	9464.47
647.945	9469.44
648.298	9460.4
648.65	9456.79
649.002	9452.04
649.355	9493.85
649.707	9476.9
650.059	9495.88
650.411	9558.48
650.763	9636.22
651.115	9729.55
651.467	9654.97
651.819	9665.82
652.171	9640.06
652.523	9628.53
652.875	9634.41
653.227	9579.72
653.578	9649.55
653.93	9534.07
654.282	9553.73
654.633	9561.42
654.985	9490.91
655.337	9586.73
655.688	9537.24
656.039	9605.03
656.391	9486.84
656.742	9497.01
657.094	9514.86
657.445	9553.96
657.796	9547.86
658.147	9453.4
658.498	9558.48
658.849	9533.39
659.2	9471.7
659.551	9480.74
659.902	9546.5
660.253	9486.16
660.604	9484.81
660.955	9474.41
661.306	9459.05
661.656	9460.63
662.007	9468.54
662.358	9433.96
662.708	9454.98
663.059	9513.51
663.409	9406.62
663.76	9454.98
664.11	9420.4
664.461	9460.63
664.811	9386.28
665.161	9465.82
665.511	9440.51
665.862	9412.72
666.212	9438.03
666.562	9433.96
666.912	9456.79
667.262	9361.65
667.612	9419.05
667.962	9406.39
668.312	9392.83
668.662	9470.8
669.011	9425.37
669.361	9337.92
669.711	9492.72
670.06	9418.82
670.41	9379.5
670.76	9341.08
671.109	9324.81
671.459	9353.96
671.808	9349.44
672.157	9364.13
672.507	9268.54
672.856	9268.32
673.205	9296.79
673.554	9341.99
673.904	9255.66
674.253	9269.22
674.602	9313.06
674.951	9167.75
675.3	9163.69
675.649	9312.61
675.998	9254.98
676.346	9245.27
676.695	9239.16
677.044	9194.19
677.393	9242.55
677.741	9268.77
678.09	9216.57
678.438	9197.81
678.787	9179.5
679.135	9141.31
679.484	9062.22
679.832	9141.54
680.181	9165.04
680.529	9146.74
680.877	9083.69
681.225	9082.11
681.573	9119.84
681.922	9109.45
682.27	9025.38
682.618	9086.17
682.966	9097.02
683.314	9070.58
683.661	9065.16
684.009	8979.51
684.357	8989.9
684.705	8962.33
685.053	8967.98
685.4	8935.67
685.748	8934.31
686.095	8919.62
686.443	8867.87
686.79	8825.39
687.138	8864.03
687.485	8790.36
687.832	8728.22
688.18	8825.62
688.527	8804.82
688.874	8797.82
689.221	8681.21
689.568	8793.07
689.915	8737.26
690.262	8683.92
690.609	8709.69
690.956	8622.23
691.303	8613.87
691.65	8596.92
691.997	8618.84
692.344	8530.71
692.69	8579.97
693.037	8574.77
693.383	8507.88
693.73	8548.56
694.077	8450.48
694.423	8413.87
694.769	8454.55
695.116	8436.25
695.462	8449.58
695.808	8334.33
696.155	8322.58
696.501	8254.33
696.847	8291.17
697.193	8242.58
697.539	8276.93
697.885	8224.95
698.231	8149.7
698.577	8223.37
698.923	8208.23
699.269	8160.55
699.614	8142.92
699.96	8150.83
700.306	8081.91
700.651	8110.38
700.997	8030.83
701.342	8060.21
701.688	8060.89
702.033	8018.86
702.379	7965.98
702.724	7959.42
703.069	7968.69
703.415	7930.27
703.76	7940.89
704.105	7916.26
704.45	7862.25
704.795	7833.55
705.14	7831.29
705.485	7755.59
705.83	7731.18
706.175	7819.31
706.52	7798.75
706.865	7723.27
707.209	7808.69
707.554	7748.13
707.899	7658.19
708.243	7597.63
708.588	7565.31
708.932	7554.69
709.277	7638.98
709.621	7543.62
709.966	7547.68
710.31	7596.95
710.654	7516.27
710.998	7560.11
711.342	7495.03
711.687	7508.14
712.031	7454.58
712.375	7480.34
712.719	7485.09
713.063	7507.68
713.407	7446.89
713.75	7380
714.094	7420.23
714.438	7338.87
714.782	7356.05
715.125	7395.6
715.469	7361.7
715.812	7285.32
716.156	7272.89
716.499	7261.81
716.843	7340.68
717.186	7232.89
717.53	7311.76
717.873	7203.96
718.216	7247.58
718.559	7246.22
718.902	7178.43
719.246	7189.5
719.589	7164.87
719.932	7177.52
720.275	7175.94
720.617	7118.77
720.96	7125.77
721.303	7130.07
721.646	7148.15
721.989	7109.95
722.331	7139.33
722.674	7081.71
723.016	7013.91
723.359	7061.82
723.701	7063.63
724.044	6990.18
724.386	6971.43
724.729	7040.58
725.071	6994.03
725.413	7004.42
725.755	6951.99
726.097	6996.06
726.439	6904.99
726.782	6948.38
727.124	6956.74
727.465	6934.59
727.807	6945.44
728.149	6905.67
728.491	6849.4
728.833	6882.39
729.175	6860.47
729.516	6882.62
729.858	6842.62
730.199	6868.6
730.541	6866.12
730.882	6796.97
731.224	6821.15
731.565	6748.61
731.906	6760.58
732.248	6764.65
732.589	6744.54
732.93	6726.24
733.271	6753.35
733.612	6721.94
733.953	6719.46
734.294	6713.58
734.635	6719.91
734.976	6672.68
735.317	6645.56
735.658	6687.37
735.999	6730.53
736.339	6634.26
736.68	6678.33
737.021	6593.13
737.361	6615.05
737.702	6625.9
738.042	6594.04
738.383	6623.19
738.723	6602.4
739.063	6582.06
739.404	6591.78
739.744	6593.36
740.084	6512.91
740.424	6552.23
740.764	6554.94
741.104	6553.58
741.444	6514.72
741.784	6528.27
742.124	6486.02
742.464	6538.44
742.804	6486.02
743.143	6474.94
743.483	6434.72
743.823	6412.12
744.162	6416.64
744.502	6425.23
744.841	6356.3
745.181	6408.5
745.52	6389.07
745.86	6417.54
746.199	6377.77
746.538	6340.03
746.877	6392.46
747.216	6386.36
747.556	6314.95
747.895	6339.13
748.234	6347.04
748.573	6297.32
748.911	6309.52
749.25	6332.57
749.589	6289.86
749.928	6254.61
750.267	6280.37
750.605	6273.14
750.944	6231.56
751.283	6239.69
751.621	6230.43
751.96	6203.76
752.298	6157.89
752.636	6162.18
752.975	6194.72
753.313	6111.34
753.651	6139.58
753.989	6153.37
754.327	6075.18
754.666	6031.56
755.004	6128.06
755.342	6075.86
755.679	6062.3
756.017	6021.62
756.355	6046.25
756.693	6012.13
757.031	6023.66
757.368	5954.5
757.706	5953.15
758.044	6003.09
758.381	5990.89
758.719	5927.16
759.056	5944.11
759.394	5891.23
759.731	5863.43
760.068	5823.21
760.405	5870.21
760.743	5822.76
761.08	5814.17
761.417	5818.91
761.754	5778.92
762.091	5819.14
762.428	5761.29
762.765	5736.21
763.102	5749.09
763.438	5683.78
763.775	5695.08
764.112	5679.48
764.449	5706.38
764.785	5656.43
765.122	5638.13
765.458	5587.06
765.795	5560.84
766.131	5601.97
766.467	5549.09
766.804	5508.87
767.14	5519.49
767.476	5550
767.812	5484.91
768.148	5537.11
768.485	5450.34
768.821	5380.06
769.157	5439.04
