Data from black_plastic_tray_FLMS001491_082.txt Node
Date: Tue Feb 07 10:40:51 GMT 2017
User: dcchb
Spectrometer: FLMS00149
Trigger mode: 0
Integration Time (sec): 2.000000E-2
Scans to average: 10
Electric dark correction enabled: true
Nonlinearity correction enabled: false
Boxcar width: 0
XAxis mode: Wavelengths
Number of Pixels in Spectrum: 2048
>>>>>Begin Spectral Data<<<<<
341.393	-21.65
341.776	-21.65
342.16	-21.65
342.543	-63.91
342.927	-87.86
343.31	-68.66
343.693	-53.06
344.077	-68.66
344.46	-60.07
344.843	-63.91
345.226	-45.15
345.61	-44.02
345.993	-41.09
346.376	9.31
346.759	23.09
347.142	26.93
347.525	35.3
347.908	55.41
348.291	63.54
348.674	117.33
349.057	113.71
349.44	122.3
349.823	137.89
350.206	143.32
350.588	175.63
350.971	166.59
351.354	205.23
351.737	225.8
352.119	220.15
352.502	254.27
352.884	262.18
353.267	276.19
353.65	282.97
354.032	284.55
354.414	287.27
354.797	287.27
355.179	305.8
355.562	312.12
355.944	313.03
356.326	323.88
356.709	318.23
357.091	332.46
357.473	319.13
357.855	322.75
358.238	315.74
358.62	326.59
359.002	343.54
359.384	338.79
359.766	326.36
360.148	314.61
360.53	332.01
360.912	334.27
361.294	320.26
361.676	309.64
362.057	329.3
362.439	310.32
362.821	334.27
363.203	317.55
363.584	311.9
363.966	321.84
364.348	320.49
364.729	312.35
365.111	306.7
365.493	306.93
365.874	305.8
366.256	324.55
366.637	318.68
367.019	305.35
367.4	308.28
367.781	298.34
368.163	312.58
368.544	292.46
368.925	295.63
369.306	321.62
369.688	291.79
370.069	309.86
370.45	327.72
370.831	324.55
371.212	319.81
371.593	299.24
371.974	321.62
372.355	325.68
372.736	303.09
373.117	306.02
373.498	311.67
373.879	312.8
374.26	313.48
374.641	308.96
375.021	317.32
375.402	321.84
375.783	315.51
376.163	323.65
376.544	318.68
376.925	330.88
377.305	315.97
377.686	331.79
378.066	341.95
378.447	318.9
378.827	314.38
379.208	315.29
379.588	333.14
379.968	327.27
380.349	355.51
380.729	324.1
381.109	317.1
381.489	346.02
381.87	326.36
382.25	341.5
382.63	335.63
383.01	356.19
383.39	348.96
383.77	326.59
384.15	355.97
384.53	339.02
384.91	342.63
385.29	353.93
385.67	341.73
386.049	362.52
386.429	358.68
386.809	390.77
387.189	362.74
387.568	347.15
387.948	352.8
388.328	362.74
388.707	376.08
389.087	370.2
389.466	367.26
389.846	375.17
390.225	369.3
390.605	381.05
390.984	397.32
391.363	358.45
391.743	375.85
392.122	377.43
392.501	382.63
392.881	368.85
393.26	396.64
393.639	401.16
394.018	395.51
394.397	395.06
394.776	407.49
395.155	420.14
395.534	392.57
395.913	383.99
396.292	420.82
396.671	419.01
397.05	422.18
397.429	383.99
397.808	411.78
398.186	425.34
398.565	417.66
398.944	421.5
399.323	398.68
399.701	437.54
400.08	415.62
400.458	454.27
400.837	439.58
401.215	434.61
401.594	430.09
401.972	438.45
402.351	437.09
402.729	440.48
403.107	446.58
403.486	431.9
403.864	462.63
404.242	444.78
404.62	443.65
404.999	459.47
405.377	479.35
405.755	484.78
406.133	442.52
406.511	472.8
406.889	464.89
407.267	483.87
407.645	480.03
408.023	490.88
408.401	480.48
408.779	480.48
409.156	493.36
409.534	502.63
409.912	515.96
410.29	491.1
410.667	513.7
411.045	505.79
411.422	508.05
411.8	523.64
412.178	522.51
412.555	524.77
412.933	529.29
413.31	539.69
413.687	548.5
414.065	545.11
414.442	565.23
414.819	578.78
415.197	557.32
415.574	580.59
415.951	578.11
416.328	567.49
416.705	578.33
417.082	568.61
417.46	592.34
417.837	594.38
418.214	587.82
418.591	597.09
418.967	587.82
419.344	606.35
419.721	606.35
420.098	597.99
420.475	605.68
420.852	588.5
421.228	640.25
421.605	616.52
421.982	608.61
422.358	635.05
422.735	635.28
423.111	646.81
423.488	624.66
423.864	645.45
424.241	663.75
424.617	670.08
424.994	679.8
425.37	685.67
425.746	686.58
426.123	696.3
426.499	685.9
426.875	699.01
427.251	713.02
427.627	720.93
428.003	716.18
428.379	722.96
428.756	736.52
429.132	762.28
429.507	730.64
429.883	748.95
430.259	763.64
430.635	756.86
431.011	766.35
431.387	788.04
431.763	782.85
432.138	831.43
432.514	807.03
432.89	802.06
433.265	817.65
433.641	827.82
434.016	844.99
434.392	877.53
434.767	848.61
435.143	851.77
435.518	856.52
435.894	889.74
436.269	843.86
436.644	908.95
437.02	895.16
437.395	895.39
437.77	934.26
438.145	903.3
438.52	943.29
438.895	958.66
439.271	920.47
439.646	964.99
440.021	918.21
440.395	955.05
440.77	981.26
441.145	971.09
441.52	976.97
441.895	988.04
442.27	984.42
442.645	991.43
443.019	993.01
443.394	1011.09
443.769	1022.61
444.143	989.39
444.518	1021.71
444.892	1030.07
445.267	1024.65
445.641	1022.39
446.016	1021.03
446.39	1061.26
446.764	1049.96
447.139	1053.57
447.513	1067.58
447.887	1078.88
448.262	1065.55
448.636	1075.04
449.01	1095.61
449.384	1087.92
449.758	1129.28
450.132	1122.27
450.506	1125.66
450.88	1121.37
451.254	1134.93
451.628	1134.48
452.002	1158.43
452.376	1182.84
452.75	1195.27
453.123	1198.88
453.497	1215.83
453.871	1222.38
454.244	1230.29
454.618	1228.94
454.992	1244.3
455.365	1227.13
455.739	1280.91
456.112	1269.61
456.486	1291.99
456.859	1309.16
457.232	1355.03
457.606	1321.82
457.979	1332.44
458.352	1373.57
458.725	1383.28
459.099	1415.37
459.472	1419.67
459.845	1436.16
460.218	1444.98
460.591	1454.02
460.964	1470.96
461.337	1481.36
461.71	1528.14
462.083	1493.79
462.456	1491.3
462.829	1512.32
463.201	1537.4
463.574	1571.53
463.947	1610.4
464.32	1610.85
464.692	1620.11
465.065	1631.41
465.438	1693.11
465.81	1671.86
466.183	1675.7
466.555	1736.04
466.928	1733.78
467.3	1746.66
467.672	1776.72
468.045	1794.8
468.417	1828.47
468.789	1846.77
469.161	1856.26
469.534	1845.64
469.906	1893.78
470.278	1894
470.65	1929.48
471.022	1960.22
471.394	2004.74
471.766	2024.62
472.138	2046.09
472.51	2075.24
472.882	2077.05
473.253	2085.19
473.625	2137.39
473.997	2184.62
474.369	2191.62
474.74	2228.68
475.112	2278.4
475.484	2311.39
475.855	2345.29
476.227	2348.46
476.598	2390.94
476.97	2450.6
477.341	2490.37
477.713	2517.04
478.084	2544.16
478.455	2586.87
478.827	2613.98
479.198	2681.1
479.569	2696.02
479.94	2725.62
480.311	2782.79
480.682	2831.61
481.053	2895.33
481.424	2921.77
481.795	2928.55
482.166	2990.25
482.537	3037.93
482.908	3080.19
483.279	3139.62
483.65	3154.31
484.021	3218.49
484.391	3253.29
484.762	3310.24
485.133	3316.11
485.503	3376.68
485.874	3439.5
486.244	3433.17
486.615	3491.7
486.985	3575.32
487.356	3635.65
487.726	3663.9
488.097	3698.48
488.467	3705.26
488.837	3824.57
489.207	3806.27
489.578	3892.14
489.948	3922.88
490.318	3981.41
490.688	3989.09
491.058	4034.96
491.428	4141.18
491.798	4147.05
492.168	4237.67
492.538	4227.05
492.908	4306.82
493.278	4337.56
493.648	4364.22
494.017	4394.5
494.387	4413.49
494.757	4456.65
495.126	4532.13
495.496	4557.66
495.866	4521.96
496.235	4646.93
496.605	4681.05
496.974	4736.42
497.344	4696.19
497.713	4792.46
498.082	4797.43
498.452	4876.98
498.821	4874.72
499.19	4874.49
499.559	4972.79
499.928	4994.04
500.298	5027.93
500.667	5060.7
501.036	5048.27
501.405	5091.43
501.774	5107.03
502.143	5170.08
502.512	5201.71
502.88	5267.02
503.249	5240.36
503.618	5285.33
503.987	5307.7
504.356	5306.57
504.724	5360.35
505.093	5328.94
505.462	5425.44
505.83	5450.97
506.199	5556.96
506.567	5533.46
506.936	5566.45
507.304	5695.49
507.672	5612.55
508.041	5699.78
508.409	5728.93
508.777	5797.18
509.145	5830.85
509.514	5816.61
509.882	5896.61
510.25	5970.73
510.618	5991.3
510.986	5974.12
511.354	6088.7
511.722	6141.35
512.09	6142.71
512.458	6169.15
512.826	6257.5
513.193	6226.77
513.561	6297.73
513.929	6318.75
514.297	6344.96
514.664	6386.77
515.032	6447.56
515.4	6558.29
515.767	6549.02
516.135	6558.51
516.502	6508.8
516.869	6673.54
517.237	6704.95
517.604	6688.68
517.972	6778.62
518.339	6818.62
518.706	6827.66
519.073	6879.18
519.44	6967.99
519.808	7002.34
520.175	7012.74
520.542	7146.97
520.909	7227.87
521.276	7198.95
521.643	7244.82
522.009	7296.35
522.376	7355.56
522.743	7363.01
523.11	7505.38
523.477	7546.96
523.843	7579.96
524.21	7708.09
524.577	7809.33
524.943	7734.3
525.31	7836.22
525.676	7927.07
526.043	7928.2
526.409	8024.01
526.776	8077.34
527.142	8104.01
527.508	8201.18
527.874	8223.78
528.241	8231.01
528.607	8338.35
528.973	8411.57
529.339	8384
529.705	8475.07
530.071	8602.53
530.437	8551.91
530.803	8608.86
531.169	8701.51
531.535	8653.15
531.901	8689.08
532.267	8729.08
532.632	8833.93
532.998	8881.84
533.364	8914.84
533.73	8938.79
534.095	9018.11
534.461	9001.61
534.826	9088.39
535.192	9163.19
535.557	9193.02
535.923	9205.68
536.288	9272.11
536.653	9290.87
537.019	9311.66
537.384	9386.24
537.749	9381.26
538.114	9378.55
538.479	9421.04
538.845	9447.03
539.21	9534.25
539.575	9566.8
539.94	9588.26
540.305	9627.36
540.67	9571.32
541.034	9702.61
541.399	9748.03
541.764	9707.81
542.129	9740.58
542.494	9800.01
542.858	9855.15
543.223	9833.91
543.587	9867.13
543.952	9950.74
544.316	9911.19
544.681	9924.53
545.045	9909.16
545.41	10009.5
545.774	9990.29
546.138	10007.46
546.503	10176.05
546.867	10147.8
547.231	10250.85
547.595	10230.96
547.959	10306.44
548.324	10239.77
548.688	10325.19
549.052	10401.12
549.416	10426.89
549.779	10404.29
550.143	10435.93
550.507	10488.35
550.871	10506.43
551.235	10542.82
551.599	10658.07
551.962	10690.61
552.326	10705.75
552.689	10749.14
553.053	10756.82
553.417	10740.32
553.78	10898.96
554.143	10861.9
554.507	10902.58
554.87	10964.95
555.234	11076.59
555.597	11063.03
555.96	11150.94
556.323	11237.49
556.686	11278.62
557.05	11263.25
557.413	11324.04
557.776	11360.2
558.139	11376.01
558.502	11437.03
558.865	11467.31
559.228	11531.26
559.59	11675.44
559.953	11620.75
560.316	11710.69
560.679	11726.51
561.041	11757.7
561.404	11778.04
561.767	11896.9
562.129	11914.08
562.492	12115.43
562.854	12131.25
563.217	12074.75
563.579	12219.83
563.941	12239.95
564.304	12235.2
564.666	12387.51
565.028	12385.03
565.39	12383.67
565.753	12402.65
566.115	12470.45
566.477	12568.75
566.839	12541.18
567.201	12708.18
567.563	12698.69
567.925	12751.57
568.287	12681.74
568.648	12784.34
569.01	12898.69
569.372	12983.2
569.734	13007.16
570.095	13027.5
570.457	13004.22
570.819	13070.66
571.18	13050.77
571.542	13254.38
571.903	13227.49
572.265	13358.79
572.626	13185.23
572.987	13353.36
573.349	13400.14
573.71	13463.42
574.071	13476.75
574.432	13520.82
574.794	13567.82
575.155	13493.92
575.516	13610.31
575.877	13593.58
576.238	13643.3
576.599	13639.68
576.96	13694.82
577.32	13675.61
577.681	13692.79
578.042	13730.3
578.403	13834.03
578.763	13885.1
579.124	13804.2
579.485	13937.53
579.845	13880.81
580.206	13893.24
580.566	13807.59
580.927	13967.81
581.287	13945.21
581.648	13898.21
582.008	13891.2
582.368	13917.42
582.728	14010.07
583.089	13968.04
583.449	13975.27
583.809	13979.34
584.169	13986.34
584.529	13968.94
584.889	14015.49
585.249	14057.75
585.609	13942.05
585.969	14016.17
586.329	13998.54
586.688	14088.94
587.048	13989.96
587.408	13993.35
587.768	13976.4
588.127	13969.84
588.487	13969.62
588.846	14131.42
589.206	13984.76
589.565	13928.94
589.925	13984.53
590.284	14013.91
590.643	14002.61
591.003	14085.55
591.362	14007.36
591.721	14073.8
592.08	14102.5
592.44	14108.6
592.799	14067.02
593.158	14101.37
593.517	14088.94
593.876	14113.34
594.235	14161.48
594.593	14057.98
594.952	14225.66
595.311	14180.69
595.67	14141.59
596.029	14246.22
596.387	14158.54
596.746	14255.94
597.104	14144.76
597.463	14192.66
597.822	14219.33
598.18	14155.83
598.538	14147.02
598.897	14238.09
599.255	14116.96
599.613	14391.75
599.972	14260.23
600.33	14290.74
600.688	14253.68
601.046	14304.07
601.404	14286.9
601.762	14343.85
602.12	14361.25
602.478	14433.34
602.836	14465.88
603.194	14373.68
603.552	14385.2
603.91	14335.71
604.268	14433.56
604.625	14306.11
604.983	14499.32
605.341	14368.25
605.698	14431.75
606.056	14469.94
606.413	14429.49
606.771	14451.87
607.128	14542.94
607.485	14437.85
607.843	14493.22
608.2	14481.24
608.557	14643.5
608.914	14616.16
609.272	14601.47
609.629	14613.67
609.986	14627.68
610.343	14566.89
610.7	14700.67
611.057	14775.02
611.414	14784.51
611.771	14749.49
612.127	14810.73
612.484	14810.5
612.841	14862.93
613.198	14818.86
613.554	14805.08
613.911	14827.68
614.267	14758.3
614.624	14736.6
614.98	14772.31
615.337	14917.39
615.693	14892.08
616.05	14848.69
616.406	14917.62
616.762	14917.62
617.118	14906.77
617.475	14929.37
617.831	14929.59
618.187	14893.89
618.543	15079.19
618.899	15113.77
619.255	15014.11
619.611	15074.9
619.967	15048.69
620.323	15148.8
620.678	14959.2
621.034	14983.15
621.39	15052.3
621.746	15019.31
622.101	15093.88
622.457	15029.03
622.812	15082.81
623.168	15135.46
623.523	15015.24
623.879	15079.87
624.234	14994.22
624.589	15087.33
624.945	15154.67
625.3	15137.27
625.655	15111.74
626.01	14984.73
626.365	15040.32
626.72	15014.56
627.075	15064.51
627.43	15043.04
627.785	14965.07
628.14	14961.46
628.495	15125.07
628.85	14946.09
629.205	14933.21
629.559	14995.81
629.914	14829.93
630.269	14998.74
630.623	14961.23
630.978	14897.73
631.332	14958.97
631.687	15024.96
632.041	14921.01
632.396	14947.67
632.75	14911.51
633.104	14940.89
633.459	14833.1
633.813	14791.07
634.167	14789.94
634.521	14746.77
634.875	14748.36
635.229	14745.87
635.583	14676.04
635.937	14614.35
636.291	14728.92
636.645	14671.3
636.999	14558.98
637.352	14569.15
637.706	14545.65
638.06	14627.45
638.413	14537.29
638.767	14513.56
639.121	14625.65
639.474	14499.55
639.828	14455.48
640.181	14540.68
640.534	14505.88
640.888	14402.83
641.241	14354.24
641.594	14427.46
641.947	14373.45
642.301	14413.67
642.654	14406.22
643.007	14448.25
643.36	14325.77
643.713	14311.3
644.066	14369.16
644.419	14297.75
644.771	14234.47
645.124	14139.11
645.477	13945.44
645.83	13966.91
646.182	13852.56
646.535	13767.36
646.888	13810.3
647.24	13734.14
647.593	13838.1
647.945	13799.91
648.298	13733.92
648.65	13722.85
649.002	13665.45
649.355	13697.54
649.707	13709.96
650.059	13783.86
650.411	13964.42
650.763	14015.27
651.115	14149.05
651.467	14051.65
651.819	14027.7
652.171	14042.16
652.523	13977.98
652.875	13944.08
653.227	13983.63
653.578	14047.58
653.93	13981.6
654.282	13943.18
654.633	13891.88
654.985	13836.51
655.337	13914.48
655.688	13888.94
656.039	14001.26
656.391	13783.18
656.742	13782.05
657.094	13889.17
657.445	13768.49
657.796	13817.08
658.147	13838.1
658.498	13773.92
658.849	13881.71
659.2	13885.33
659.551	13871.09
659.902	13883.29
660.253	13821.15
660.604	13825.22
660.955	13765.33
661.306	13686.46
661.656	13704.09
662.007	13669.51
662.358	13782.5
662.708	13609.63
663.059	13671.32
663.409	13659.57
663.76	13693.47
664.11	13733.69
664.461	13762.17
664.811	13688.27
665.161	13736.86
665.511	13648.27
665.862	13577.54
666.212	13712.68
666.562	13667.03
666.912	13541.16
667.262	13658.89
667.612	13643.75
667.962	13641.27
668.312	13650.08
668.662	13704.99
669.011	13572.11
669.361	13568.95
669.711	13527.82
670.06	13634.26
670.41	13525.56
670.76	13502.06
671.109	13622.28
671.459	13548.84
671.808	13498.44
672.157	13546.8
672.507	13406.02
672.856	13438.79
673.205	13402.63
673.554	13479.46
673.904	13382.52
674.253	13504.55
674.602	13437.66
674.951	13220.03
675.3	13171.45
675.649	13466.13
675.998	13429.97
676.346	13510.87
676.695	13404.44
677.044	13342.29
677.393	13399.01
677.741	13361.27
678.09	13338.9
678.438	13214.16
678.787	13315.62
679.135	13349.52
679.484	13261.61
679.832	13300.48
680.181	13165.35
680.529	13319.01
680.877	13186.59
681.225	13155.18
681.573	13297.09
681.922	13152.01
682.27	13154.27
682.618	13133.48
682.966	13158.11
683.314	13088.06
683.661	13106.82
684.009	13022.52
684.357	12923.77
684.705	13015.75
685.053	12968.51
685.4	12954.05
685.748	12926.48
686.095	12874.28
686.443	12743.21
686.79	12729.88
687.138	12746.83
687.485	12786.82
687.832	12635.42
688.18	12754.96
688.527	12595.42
688.874	12633.16
689.221	12575.3
689.568	12546.83
689.915	12523.1
690.262	12533.5
690.609	12473.61
690.956	12362.43
691.303	12367.17
691.65	12392.48
691.997	12319.49
692.344	12158.14
692.69	12213.28
693.037	12271.81
693.383	12086.73
693.73	12263.9
694.077	12188.87
694.423	12128.09
694.769	12110.91
695.116	12082.21
695.462	12112.27
695.808	12016.45
696.155	11977.35
696.501	11961.31
696.847	11955.21
697.193	11850.8
697.539	11887.87
697.885	11793.86
698.231	11755.67
698.577	11717.47
698.923	11782.33
699.269	11661.43
699.614	11625.05
699.96	11586.86
700.306	11630.7
700.651	11547.99
700.997	11522.9
701.342	11502.11
701.688	11519.97
702.033	11444.94
702.379	11544.37
702.724	11432.06
703.069	11536.01
703.415	11388.67
703.76	11300.99
704.105	11360.2
704.45	11329.69
704.795	11250.37
705.14	11143.48
705.485	11166.75
705.83	11099.19
706.175	11135.57
706.52	11100.54
706.865	11103.71
707.209	11067.55
707.554	10968.12
707.899	11002.24
708.243	10948.23
708.588	10892.64
708.932	10894.45
709.277	10877.04
709.621	10948.23
709.966	10840.21
710.31	10877.27
710.654	10788.23
710.998	10794.56
711.342	10810.15
711.687	10799.31
712.031	10691.06
712.375	10651.97
712.719	10673.89
713.063	10687.9
713.407	10718.18
713.75	10676.15
714.094	10644.06
714.438	10603.15
714.782	10636.37
715.125	10543.49
715.469	10614.23
715.812	10481.12
716.156	10473.44
716.499	10450.16
716.843	10505.75
717.186	10384.4
717.53	10474.34
717.873	10542.82
718.216	10492.87
718.559	10376.72
718.902	10371.52
719.246	10409.49
719.589	10309.38
719.932	10327.45
720.275	10314.12
720.617	10312.99
720.96	10198.87
721.303	10277.29
721.646	10217.63
721.989	10197.97
722.331	10254.24
722.674	10235.93
723.016	10162.71
723.359	10174.01
723.701	10198.64
724.044	10073
724.386	10111.64
724.729	10043.17
725.071	10032.55
725.413	10000.68
725.755	10005.2
726.097	9922.49
726.439	9883.62
726.782	9979.22
727.124	9935.6
727.465	9920.01
727.807	9920.23
728.149	9989.84
728.491	9888.82
728.833	9887.92
729.175	9786.45
729.516	9824.87
729.858	9837.98
730.199	9795.27
730.541	9790.52
730.882	9816.06
731.224	9759.56
731.565	9695.38
731.906	9693.8
732.248	9699.67
732.589	9724.31
732.93	9647.47
733.271	9640.01
733.612	9720.24
733.953	9608.38
734.294	9580.13
734.635	9559.57
734.976	9686.34
735.317	9574.71
735.658	9570.41
735.999	9593.91
736.339	9484.31
736.68	9550.07
737.021	9478.44
737.361	9394.82
737.702	9498.32
738.042	9353.02
738.383	9395.73
738.723	9471.88
739.063	9427.37
739.404	9417.42
739.744	9360.47
740.084	9357.54
740.424	9345.56
740.764	9314.6
741.104	9318.22
741.444	9294.04
741.784	9237.09
742.124	9297.65
742.464	9248.84
742.804	9201.61
743.143	9240.03
743.483	9210.87
743.823	9178.11
744.162	9231.44
744.502	9219.01
744.841	9131.1
745.181	9146.24
745.52	9170.2
745.86	9068.28
746.199	9153.47
746.538	9085.23
746.877	9143.76
747.216	9051.78
747.556	9002.07
747.895	9036.64
748.234	9059.01
748.573	9030.77
748.911	9007.26
749.25	9030.54
749.589	8985.79
749.928	8943.08
750.267	8957.32
750.605	8891.33
750.944	8946.25
751.283	8876.19
751.621	8867.61
751.96	8820.15
752.298	8841.39
752.636	8834.39
752.975	8820.6
753.313	8755.07
753.651	8786.7
753.989	8725.69
754.327	8723.43
754.666	8670.55
755.004	8709.87
755.342	8678.68
755.679	8586.94
756.017	8538.8
756.355	8522.76
756.693	8567.05
757.031	8534.28
757.368	8499.71
757.706	8436.88
758.044	8447.28
758.381	8519.14
758.719	8407.73
759.056	8418.13
759.394	8421.52
