Data from black_metal_pc_casing_FLMS001491_00042.txt Node
Date: Wed Feb 08 14:32:45 GMT 2017
User: dcchb
Spectrometer: FLMS00149
Trigger mode: 0
Integration Time (sec): 2.000000E-2
Scans to average: 10
Electric dark correction enabled: true
Nonlinearity correction enabled: false
Boxcar width: 0
XAxis mode: Wavelengths
Number of Pixels in Spectrum: 2048
>>>>>Begin Spectral Data<<<<<
341.393	-34.98
341.776	-34.98
342.16	-34.98
342.543	-46.51
342.927	-60.3
343.31	-72.5
343.693	-68.43
344.077	-78.15
344.46	-65.72
344.843	-65.49
345.226	-41.99
345.61	-20.97
345.993	-5.38
346.376	1.4
346.759	5.47
347.142	41.62
347.525	27.61
347.908	56.54
348.291	82.98
348.674	103.32
349.057	99.7
349.44	115.07
349.823	148.06
350.206	172.69
350.588	174.73
350.971	183.09
351.354	212.69
351.737	227.83
352.119	231.45
352.502	241.39
352.884	253.37
353.267	265.35
353.65	285.46
354.032	279.13
354.414	311.67
354.797	300.37
355.179	308.73
355.562	293.59
355.944	308.51
356.326	318.45
356.709	320.49
357.091	334.95
357.473	301.96
357.855	330.66
358.238	315.74
358.62	336.76
359.002	322.97
359.384	292.46
359.766	339.47
360.148	324.55
360.53	329.75
360.912	332.69
361.294	321.39
361.676	304.89
362.057	314.61
362.439	320.26
362.821	313.25
363.203	318.9
363.584	291.11
363.966	317.1
364.348	297.21
364.729	315.51
365.111	301.5
365.493	301.96
365.874	296.08
366.256	290.66
366.637	286.59
367.019	282.75
367.4	289.53
367.781	298.79
368.163	313.48
368.544	305.12
368.925	289.75
369.306	307.15
369.688	304.44
370.069	291.79
370.45	307.6
370.831	295.18
371.212	287.94
371.593	298.79
371.974	293.37
372.355	286.14
372.736	292.69
373.117	291.79
373.498	313.71
373.879	304.22
374.26	302.18
374.641	285.46
375.021	339.24
375.402	306.93
375.783	315.97
376.163	314.84
376.544	313.48
376.925	319.58
377.305	313.93
377.686	303.99
378.066	312.35
378.447	322.29
378.827	313.03
379.208	316.42
379.588	319.13
379.968	322.75
380.349	309.41
380.729	307.15
381.109	319.13
381.489	307.83
381.87	324.78
382.25	334.95
382.63	318
383.01	314.16
383.39	322.75
383.77	326.81
384.15	348.51
384.53	325.68
384.91	325.46
385.29	326.59
385.67	337.89
386.049	327.94
386.429	328.85
386.809	351.22
387.189	327.04
387.568	367.72
387.948	331.11
388.328	365.23
388.707	339.92
389.087	346.25
389.466	350.09
389.846	358.45
390.225	347.83
390.605	361.84
390.984	355.29
391.363	357.55
391.743	351.9
392.122	351.67
392.501	336.98
392.881	362.52
393.26	350.54
393.639	384.21
394.018	379.47
394.397	366.13
394.776	364.1
395.155	357.1
395.534	384.89
395.913	370.43
396.292	381.95
396.671	398.68
397.05	372.91
397.429	360.26
397.808	388.28
398.186	374.5
398.565	400.48
398.944	374.5
399.323	375.4
399.701	400.48
400.08	383.08
400.458	371.78
400.837	405
401.215	423.99
401.594	406.36
401.972	403.65
402.351	390.09
402.729	398.68
403.107	410.88
403.486	407.26
403.864	386.02
404.242	382.18
404.62	408.85
404.999	402.29
405.377	412.23
405.755	421.5
406.133	425.57
406.511	404.1
406.889	409.3
407.267	430.77
407.645	402.07
408.023	416.08
408.401	431.9
408.779	412.91
409.156	424.21
409.534	423.08
409.912	419.01
410.29	442.74
410.667	436.42
411.045	441.84
411.422	460.37
411.8	429.64
412.178	454.04
412.555	463.76
412.933	455.17
413.31	459.92
413.687	470.54
414.065	485.23
414.442	475.06
414.819	465.34
415.197	481.16
415.574	474.15
415.951	490.88
416.328	487.04
416.705	487.26
417.082	502.4
417.46	503.31
417.837	486.81
418.214	510.31
418.591	475.28
418.967	504.44
419.344	521.61
419.721	506.02
420.098	511.89
420.475	511.89
420.852	511.67
421.228	522.97
421.605	506.47
421.982	541.27
422.358	529.75
422.735	548.73
423.111	531.1
423.488	534.49
423.864	544.43
424.241	554.6
424.617	534.49
424.994	543.98
425.37	561.38
425.746	559.8
426.123	559.8
426.499	569.52
426.875	570.2
427.251	566.13
427.627	588.73
428.003	585.11
428.379	591.21
428.756	578.11
429.132	585.34
429.507	600.7
429.883	623.98
430.259	614.26
430.635	597.77
431.011	570.42
431.387	626.47
431.763	621.95
432.138	644.09
432.514	619.01
432.89	617.65
433.265	670.08
433.641	691.78
434.016	647.93
434.392	656.52
434.767	660.14
435.143	685.45
435.518	680.02
435.894	695.17
436.269	695.39
436.644	712.79
437.02	720.93
437.395	705.11
437.77	723.87
438.145	693.36
438.52	715.73
438.895	710.98
439.271	721.38
439.646	743.75
440.021	745.79
440.395	735.16
440.77	738.1
441.145	780.59
441.52	744.88
441.895	772.23
442.27	741.49
442.645	749.18
443.019	781.72
443.394	777.2
443.769	769.97
444.143	763.86
444.518	783.07
444.892	805.44
445.267	799.8
445.641	807.7
446.016	821.26
446.39	815.61
446.764	818.1
447.139	812.68
447.513	831.88
447.887	810.19
448.262	802.96
448.636	848.83
449.01	841.6
449.384	848.61
449.758	844.77
450.132	837.99
450.506	853.81
450.88	854.26
451.254	881.6
451.628	848.61
452.002	876.63
452.376	883.63
452.75	902.39
453.123	906.23
453.497	934.26
453.871	922.96
454.244	939.9
454.618	945.78
454.992	936.74
455.365	952.56
455.739	963.86
456.112	963.18
456.486	967.25
456.859	981.71
457.232	988.04
457.606	974.71
457.979	1033.01
458.352	1000.02
458.725	1057.64
459.099	1009.96
459.472	1045.44
459.845	1066.68
460.218	1050.41
460.591	1087.92
460.964	1078.21
461.337	1095.61
461.71	1122.95
462.083	1120.92
462.456	1130.86
462.829	1132.22
463.201	1146.68
463.574	1153.23
463.947	1167.7
464.32	1181.48
464.692	1185.1
465.065	1191.42
465.438	1223.74
465.81	1215.83
466.183	1232.55
466.555	1248.82
466.928	1259.67
467.3	1239.56
467.672	1238.43
468.045	1325.43
468.417	1286.34
468.789	1300.57
469.161	1307.58
469.534	1333.11
469.906	1367.24
470.278	1385.32
470.65	1379.22
471.022	1393
471.394	1428.93
471.766	1438.65
472.138	1463.05
472.51	1488.14
472.882	1498.31
473.253	1492.43
473.625	1537.18
473.997	1564.97
474.369	1583.5
474.74	1576.95
475.112	1607.46
475.484	1654.24
475.855	1669.83
476.227	1680.9
476.598	1679.55
476.97	1715.7
477.341	1748.24
477.713	1760.9
478.084	1776.72
478.455	1795.48
478.827	1813.55
479.198	1858.75
479.569	1879.77
479.94	1925.87
480.311	1958.63
480.682	1932.87
481.053	2027.33
481.424	2036.82
481.795	2046.99
482.166	2070.95
482.537	2108.46
482.908	2136.71
483.279	2134.9
483.65	2196.14
484.021	2249.02
484.391	2265.29
484.762	2252.86
485.133	2283.82
485.503	2319.76
485.874	2345.07
486.244	2391.17
486.615	2439.75
486.985	2447.89
487.356	2513.42
487.726	2519.75
488.097	2541.9
488.467	2583.7
488.837	2611.95
489.207	2652.63
489.578	2681.78
489.948	2676.13
490.318	2731.72
490.688	2771.95
491.058	2741.21
491.428	2761.55
491.798	2812.4
492.168	2889.46
492.538	2915.22
492.908	2948.21
493.278	2978.27
493.648	2963.58
494.017	3003.58
494.387	3011.49
494.757	3042.67
495.126	3058.04
495.496	3064.37
495.866	3116.57
496.235	3121.99
496.605	3170.13
496.974	3208.77
497.344	3214.2
497.713	3222.78
498.082	3272.95
498.452	3318.6
498.821	3274.08
499.19	3334.87
499.559	3331.71
499.928	3383.46
500.298	3416.68
500.667	3432.04
501.036	3441.76
501.405	3438.6
501.774	3447.86
502.143	3500.06
502.512	3533.06
502.88	3523.79
503.249	3528.54
503.618	3530.12
503.987	3611.25
504.356	3618.93
504.724	3648.99
505.093	3640.4
505.462	3663.9
505.83	3657.8
506.199	3716.33
506.567	3780.51
506.936	3787.51
507.304	3815.31
507.672	3829.32
508.041	3876.78
508.409	3822.99
508.777	3880.84
509.145	3925.59
509.514	3917.23
509.882	3952.25
510.25	3966.72
510.618	4020.05
510.986	3988.41
511.354	4028.19
511.722	4106.6
512.09	4138.24
512.458	4126.71
512.826	4178.69
513.193	4148.18
513.561	4206.49
513.929	4249.42
514.297	4266.37
514.664	4327.84
515.032	4331
515.4	4359.48
515.767	4360.83
516.135	4396.76
516.502	4399.7
516.869	4467.5
517.237	4490.55
517.604	4449.19
517.972	4540.71
518.339	4563.31
518.706	4592.46
519.073	4607.6
519.44	4646.47
519.808	4667.04
520.175	4681.95
520.542	4704.78
520.909	4775.96
521.276	4792.46
521.643	4836.98
522.009	4827.49
522.376	4935.05
522.743	4923.3
523.11	4996.52
523.477	4998.56
523.843	5052.79
524.21	5044.43
524.577	5154.94
524.943	5206.01
525.31	5196.29
525.676	5263.18
526.043	5208.27
526.409	5333.91
526.776	5370.52
527.142	5306.8
527.508	5377.75
527.874	5440.13
528.241	5441.71
528.607	5509.73
528.973	5571.2
529.339	5520.35
529.705	5580.91
530.071	5610.06
530.437	5694.36
530.803	5689.61
531.169	5711.76
531.535	5732.32
531.901	5721.93
532.267	5833.34
532.632	5820.23
532.998	5836.05
533.364	5843.73
533.73	5886.89
534.095	5955.37
534.461	5935.71
534.826	5977.29
535.192	5981.58
535.557	6003.73
535.923	6005.53
536.288	6069.94
536.653	6108.58
537.019	6085.08
537.384	6099.99
537.749	6208.24
538.114	6165.98
538.479	6159.65
538.845	6214.12
539.21	6199.43
539.575	6241.91
539.94	6263.38
540.305	6326.43
540.67	6328.46
541.034	6423.38
541.399	6358.52
541.764	6402.13
542.129	6422.7
542.494	6418.86
542.858	6446.2
543.223	6434.9
543.587	6503.83
543.952	6497.05
544.316	6486.2
544.681	6498.18
545.045	6601.22
545.41	6573.43
545.774	6569.81
546.138	6590.38
546.503	6645.07
546.867	6677.61
547.231	6702.92
547.595	6730.03
547.959	6708.34
548.324	6782.46
548.688	6799.86
549.052	6777.94
549.416	6778.4
549.779	6842.57
550.143	6818.39
550.507	6870.37
550.871	6953.98
551.235	6952.4
551.599	6948.33
551.962	6957.6
552.326	6988.33
552.689	7016.81
553.053	7006.86
553.417	7055.45
553.78	7112.17
554.143	7099.74
554.507	7143.81
554.87	7169.12
555.234	7243.47
555.597	7193.75
555.96	7242.56
556.323	7269.23
556.686	7259.51
557.05	7350.58
557.413	7393.52
557.776	7369.79
558.139	7451.6
558.502	7483.69
558.865	7495.89
559.228	7539.73
559.59	7594.42
559.953	7625.83
560.316	7667.19
560.679	7646.85
561.041	7690.91
561.404	7764.81
561.767	7762.78
562.129	7723.23
562.492	7898.59
562.854	7847.75
563.217	7821.53
563.579	7932.49
563.941	7983.56
564.304	8011.36
564.666	7982.21
565.028	8066.5
565.39	8086.84
565.753	8168.64
566.115	8166.61
566.477	8230.79
566.839	8184.91
567.201	8251.8
567.563	8272.59
567.925	8353.72
568.287	8314.17
568.648	8322.31
569.01	8443.44
569.372	8452.48
569.734	8426.94
570.095	8458.13
570.457	8466.03
570.819	8532.93
571.18	8512.36
571.542	8611.12
571.903	8609.53
572.265	8668.97
572.626	8647.72
572.987	8656.99
573.349	8693.83
573.71	8687.72
574.071	8707.61
574.432	8754.61
574.794	8824.44
575.155	8841.39
575.516	8797.55
575.877	8812.92
576.238	8827.15
576.599	8872.8
576.96	8926.36
577.32	8918.45
577.681	8904.22
578.042	9015.85
578.403	8943.76
578.763	8931.33
579.124	8946.93
579.485	8988.51
579.845	8984.66
580.206	8990.99
580.566	8982.63
580.927	9068.05
581.287	9108.28
581.648	9029.86
582.008	9087.49
582.368	9070.99
582.728	9128.39
583.089	9063.53
583.449	9091.55
583.809	9149.63
584.169	9090.88
584.529	9035.29
584.889	9119.12
585.249	9073.02
585.609	9080.03
585.969	9166.58
586.329	9079.8
586.688	9150.31
587.048	9066.02
587.408	9101.95
587.768	9153.93
588.127	9123.87
588.487	9102.85
588.846	9209.74
589.206	9077.32
589.565	9169.07
589.925	9199.12
590.284	9178.11
590.643	9175.62
591.003	9152.12
591.362	9206.58
591.721	9143.53
592.08	9278.44
592.44	9255.39
592.799	9161.38
593.158	9161.84
593.517	9153.47
593.876	9233.47
594.235	9224.88
594.593	9194.83
594.952	9298.78
595.311	9236.64
595.67	9259.69
596.029	9253.36
596.387	9258.78
596.746	9293.81
597.104	9240.25
597.463	9245
597.822	9273.92
598.18	9265.11
598.538	9235.05
598.897	9254.26
599.255	9233.47
599.613	9388.95
599.972	9277.54
600.33	9294.94
600.688	9258.1
601.046	9319.35
601.404	9326.8
601.762	9362.06
602.12	9343.07
602.478	9339.91
602.836	9392.34
603.194	9357.76
603.552	9387.37
603.91	9385.56
604.268	9341.04
604.625	9433.92
604.983	9427.37
605.341	9341.27
605.698	9382.62
606.056	9447.7
606.413	9404.31
606.771	9419.91
607.128	9465.78
607.485	9351.21
607.843	9419.46
608.2	9391.66
608.557	9572.67
608.914	9529.74
609.272	9566.34
609.629	9562.5
609.986	9534.71
610.343	9552.56
610.7	9548.94
611.057	9558.66
611.414	9501.04
611.771	9568.83
612.127	9658.32
612.484	9670.07
612.841	9598.89
613.198	9660.81
613.554	9569.51
613.911	9644.76
614.267	9672.56
614.624	9709.62
614.98	9721.59
615.337	9722.27
615.693	9677.3
616.05	9694.48
616.406	9755.94
616.762	9699.9
617.118	9685.66
617.475	9754.81
617.831	9744.64
618.187	9769.28
618.543	9785.32
618.899	9780.35
619.255	9864.87
619.611	9800.69
619.967	9880.91
620.323	9829.16
620.678	9781.03
621.034	9786.45
621.39	9795.94
621.746	9776.51
622.101	9864.87
622.457	9787.13
622.812	9771.76
623.168	9812.89
623.523	9778.77
623.879	9872.1
624.234	9786
624.589	9859.44
624.945	9884.08
625.3	9865.55
625.655	9874.81
626.01	9845.43
626.365	9894.02
626.72	9824.64
627.075	9844.76
627.43	9807.02
627.785	9766.57
628.14	9835.94
628.495	9774.7
628.85	9748.71
629.205	9725.44
629.559	9866.22
629.914	9781.48
630.269	9786.45
630.623	9803.17
630.978	9741.03
631.332	9758.88
631.687	9771.76
632.041	9719.56
632.396	9827.13
632.75	9751.2
633.104	9769.05
633.459	9684.53
633.813	9704.65
634.167	9679.11
634.521	9739.22
634.875	9652.22
635.229	9672.56
635.583	9613.8
635.937	9566.34
636.291	9602.05
636.645	9598.43
636.999	9554.14
637.352	9602.05
637.706	9557.31
638.06	9566.12
638.413	9499
638.767	9550.98
639.121	9547.59
639.474	9540.13
639.828	9495.84
640.181	9583.29
640.534	9470.98
640.888	9431.21
641.241	9441.15
641.594	9459
641.947	9432.34
642.301	9412.45
642.654	9378.55
643.007	9417.2
643.36	9393.24
643.713	9369.97
644.066	9429.17
644.419	9356.86
644.771	9229.4
645.124	9213.59
645.477	9185.56
645.83	9183.08
646.182	9090.2
646.535	9094.27
646.888	9105.11
647.24	8993.48
647.593	9123.64
647.945	9072.12
648.298	8972.69
648.65	8981.73
649.002	9023.08
649.355	9014.04
649.707	9056.98
650.059	9042.52
650.411	9132.23
650.763	9141.04
651.115	9207.03
651.467	9181.04
651.819	9180.82
652.171	9169.07
652.523	9109.18
652.875	9142.63
653.227	9086.58
653.578	9155.96
653.93	9122.29
654.282	9105.11
654.633	9015.85
654.985	9068.5
655.337	9114.6
655.688	9082.06
656.039	9097.88
656.391	9004.33
656.742	9115.28
657.094	8988.28
657.445	9082.29
657.796	9128.62
658.147	9098.56
658.498	9084.78
658.849	9113.7
659.2	9054.95
659.551	9016.08
659.902	9068.5
660.253	9061.73
660.604	8999.58
660.955	8915.06
661.306	9009.07
661.656	8945.12
662.007	8984.44
662.358	9008.39
662.708	9008.39
663.059	9020.6
663.409	8990.54
663.76	8982.18
664.11	8983.53
664.461	8940.82
664.811	8922.75
665.161	9005.91
665.511	8982.86
665.862	8945.57
666.212	9014.04
666.562	8930.2
666.912	8932.24
667.262	8984.44
667.612	8961.39
667.962	8994.83
668.312	8910.09
668.662	8920.03
669.011	8938.11
669.361	8834.16
669.711	8901.96
670.06	8893.37
670.41	8919.81
670.76	8860.15
671.109	8866.7
671.459	8868.28
671.808	8875.52
672.157	8916.19
672.507	8812.47
672.856	8874.84
673.205	8860.15
673.554	8857.66
673.904	8836.65
674.253	8821.51
674.602	8818.79
674.951	8752.81
675.3	8700.6
675.649	8915.06
675.998	8748.74
676.346	8818.34
676.695	8811.56
677.044	8774.27
677.393	8817.66
677.741	8713.71
678.09	8764.56
678.438	8733.37
678.787	8706.03
679.135	8692.92
679.484	8719.14
679.832	8746.48
680.181	8675.07
680.529	8716.65
680.877	8678.46
681.225	8602.08
681.573	8694.95
681.922	8648.85
682.27	8626.03
682.618	8564.79
682.966	8640.27
683.314	8578.57
683.661	8567.27
684.009	8586.94
684.357	8498.12
684.705	8500.16
685.053	8549.42
685.4	8488.41
685.748	8448.63
686.095	8473.04
686.443	8404.57
686.79	8413.83
687.138	8450.44
687.485	8397.11
687.832	8356.88
688.18	8426.49
688.527	8376.77
688.874	8305.36
689.221	8266.72
689.568	8319.82
689.915	8289.77
690.262	8272.14
690.609	8269.43
690.956	8198.47
691.303	8195.53
691.65	8214.74
691.997	8114.41
692.344	8100.17
692.69	8089.1
693.037	8117.34
693.383	8003.67
693.73	8055.65
694.077	8031.02
694.423	8027.18
694.769	7985.6
695.116	7996.22
695.462	7997.35
695.808	7914.18
696.155	7950.79
696.501	7912.38
696.847	7856.11
697.193	7776.34
697.539	7891.81
697.885	7816.11
698.231	7800.52
698.577	7770.01
698.923	7818.59
699.269	7704.92
699.614	7717.13
699.96	7714.87
700.306	7717.58
700.651	7683
700.997	7653.17
701.342	7684.59
701.688	7612.27
702.033	7611.37
702.379	7606.4
702.724	7600.97
703.069	7564.36
703.415	7472.61
703.76	7522.1
704.105	7460.41
704.45	7493.18
704.795	7389.9
705.14	7391.94
705.485	7408.21
705.83	7375.22
706.175	7350.36
706.52	7358.94
706.865	7319.62
707.209	7285.95
707.554	7324.14
707.899	7296.35
708.243	7268.1
708.588	7275.78
708.932	7232.62
709.277	7217.48
709.621	7264.94
709.966	7210.47
710.31	7232.17
710.654	7150.36
710.998	7146.75
711.342	7139.74
711.687	7146.3
712.031	7057.94
712.375	7109.01
712.719	7068.33
713.063	7059.97
713.407	7132.51
713.75	7059.52
714.094	7042.34
714.438	7015.68
714.782	7004.15
715.125	6971.38
715.469	6937.71
715.812	6929.13
716.156	6972.29
716.499	6971.84
716.843	6933.87
717.186	6891.39
717.53	6940.65
717.873	6928.22
718.216	6923.25
718.559	6874.66
718.902	6829.69
719.246	6857.04
719.589	6820.65
719.932	6813.2
720.275	6747.89
720.617	6737.94
720.96	6811.84
721.303	6779.98
721.646	6769.36
721.989	6737.49
722.331	6764.16
722.674	6737.72
723.016	6694.1
723.359	6706.98
723.701	6721.45
724.044	6669.7
724.386	6626.31
724.729	6635.12
725.071	6667.21
725.413	6650.26
725.755	6651.62
726.097	6594.9
726.439	6568.68
726.782	6561.23
727.124	6638.06
727.465	6573.88
727.807	6584.73
728.149	6528.91
728.491	6541.57
728.833	6533.43
729.175	6525.52
729.516	6463.6
729.858	6499.08
730.199	6514
730.541	6463.38
730.882	6509.25
731.224	6445.3
731.565	6444.84
731.906	6486.2
732.248	6485.07
732.589	6436.94
732.93	6409.59
733.271	6407.56
733.612	6352.19
733.953	6403.04
734.294	6378.41
734.635	6368.69
734.976	6394.45
735.317	6306.54
735.658	6369.14
735.999	6374.56
736.339	6341.12
736.68	6341.12
737.021	6265.64
737.361	6339.54
737.702	6297.73
738.042	6240.78
738.383	6242.14
738.723	6323.27
739.063	6227.9
739.404	6263.61
739.744	6278.52
740.084	6166.66
740.424	6200.11
740.764	6184.74
741.104	6200.11
741.444	6191.07
741.784	6150.84
742.124	6143.16
742.464	6194.91
742.804	6154.68
743.143	6156.04
743.483	6162.37
743.823	6158.98
744.162	6070.17
744.502	6098.64
744.841	6130.05
745.181	6148.36
745.52	6029.49
745.86	6098.87
746.199	6073.1
746.538	6038.3
746.877	6071.3
747.216	6080.56
747.556	6066.32
747.895	6013.9
748.234	6006.21
748.573	6004.18
748.911	5944.07
749.25	6003.73
749.589	5988.36
749.928	5949.72
750.267	5906.78
750.605	5958.76
750.944	5932.77
751.283	5907.68
751.621	5908.36
751.96	5892.54
752.298	5899.32
752.636	5863.17
752.975	5817.06
753.313	5834.24
753.651	5832.21
753.989	5796.5
754.327	5818.42
754.666	5800.12
755.004	5779.1
755.342	5783.62
755.679	5772.55
756.017	5697.97
756.355	5732.77
756.693	5644.19
757.031	5744.75
757.368	5708.37
757.706	5710.17
758.044	5696.62
758.381	5678.99
758.719	5647.13
759.056	5627.47
759.394	5599.22
759.731	5566.45
760.068	5636.28
760.405	5549.05
760.743	5527.81
761.08	5557.86
761.417	5523.51
761.754	5531.42
762.091	5518.77
762.428	5533.91
762.765	5446
763.102	5486.23
763.438	5426.34
763.775	5476.06
764.112	5427.02
764.449	5427.24
764.785	5400.8
765.122	5387.7
765.458	5373.01
765.795	5350.18
766.131	5331.43
766.467	5295.04
766.804	5277.19
767.14	5276.29
767.476	5231.09
767.812	5261.6
768.148	5245.55
768.485	5223.41
768.821	5218.44
769.157	5204.2
769.492	5173.24
769.828	5143.18
770.164	5129.63
770.5	5124.2
770.836	5068.16
