Data from black_metal_pc_casing_FLMS001491_00088.txt Node
Date: Wed Feb 08 14:33:38 GMT 2017
User: dcchb
Spectrometer: FLMS00149
Trigger mode: 0
Integration Time (sec): 2.000000E-2
Scans to average: 10
Electric dark correction enabled: true
Nonlinearity correction enabled: false
Boxcar width: 0
XAxis mode: Wavelengths
Number of Pixels in Spectrum: 2048
>>>>>Begin Spectral Data<<<<<
341.393	-33.61
341.776	-33.61
342.16	-33.61
342.543	-53.95
342.927	-65.7
343.31	-74.07
343.693	-72.71
344.077	-71.35
344.46	-58.47
344.843	-46.27
345.226	-51.69
345.61	-42.2
345.993	-6.5
346.376	-1.3
346.759	9.32
347.142	38.25
347.525	43.45
347.908	54.07
348.291	75.31
348.674	92.03
349.057	112.14
349.44	121.86
349.823	130.9
350.206	139.04
350.588	191.24
350.971	205.25
351.354	221.75
351.737	224.91
352.119	230.78
352.502	252.93
352.884	268.3
353.267	281.41
353.65	269.65
354.032	291.12
354.414	289.31
354.797	304.91
355.179	315.53
355.562	323.21
355.944	319.6
356.326	316.43
356.709	330.9
357.091	332.48
357.473	334.28
357.855	324.12
358.238	323.66
358.62	332.03
359.002	346.49
359.384	334.74
359.766	330.44
360.148	323.44
360.53	310.33
360.912	346.26
361.294	330.44
361.676	310.56
362.057	327.28
362.439	324.79
362.821	316.21
363.203	321.4
363.584	320.5
363.966	305.59
364.348	320.27
364.729	329.09
365.111	329.09
365.493	317.56
365.874	303.1
366.256	299.71
366.637	308.52
367.019	309.65
367.4	326.15
367.781	313.95
368.163	313.95
368.544	322.31
368.925	294.29
369.306	318.69
369.688	308.52
370.069	310.33
370.45	323.21
370.831	312.59
371.212	337.45
371.593	328.18
371.974	338.35
372.355	310.78
372.736	301.29
373.117	318.24
373.498	306.94
373.879	314.62
374.26	304.91
374.641	318.24
375.021	319.6
375.402	317.56
375.783	333.38
376.163	312.82
376.544	342.87
376.925	327.05
377.305	305.36
377.686	339.71
378.066	346.94
378.447	330.22
378.827	326.38
379.208	323.66
379.588	334.51
379.968	335.87
380.349	358.01
380.729	339.03
381.109	352.36
381.489	349.65
381.87	347.39
382.25	349.65
382.63	371.8
383.01	339.93
383.39	361.63
383.77	366.15
384.15	355.98
384.53	375.64
384.91	379.26
385.29	361.63
385.67	378.58
386.049	380.16
386.429	370.67
386.809	348.52
387.189	379.93
387.568	376.77
387.948	379.03
388.328	402.31
388.707	391.01
389.087	383.78
389.466	383.55
389.846	383.55
390.225	386.71
390.605	413.15
390.984	400.5
391.363	414.73
391.743	390.78
392.122	413.83
392.501	430.55
392.881	403.66
393.26	403.66
393.639	406.6
394.018	412.48
394.397	397.79
394.776	410.44
395.155	412.02
395.534	414.28
395.913	402.98
396.292	433.27
396.671	431.46
397.05	440.5
397.429	452.25
397.808	459.93
398.186	445.92
398.565	439.59
398.944	431.91
399.323	448.63
399.701	447.5
400.08	447.28
400.458	470.78
400.837	479.14
401.215	470.78
401.594	462.19
401.972	470.1
402.351	464
402.729	455.19
403.107	480.27
403.486	477.33
403.864	479.82
404.242	476.2
404.62	473.72
404.999	473.72
405.377	466.94
405.755	467.84
406.133	520.27
406.511	515.75
406.889	494.51
407.267	531.57
407.645	512.59
408.023	521.85
408.401	526.6
408.779	527.05
409.156	532.92
409.534	516.65
409.912	551.45
410.29	563.21
410.667	537.44
411.045	546.26
411.422	540.38
411.8	567.95
412.178	564.79
412.555	573.15
412.933	579.93
413.31	586.93
413.687	585.13
414.065	598.46
414.442	585.35
414.819	607.95
415.197	591.23
415.574	596.65
415.951	609.31
416.328	647.5
416.705	606.59
417.082	605.69
417.46	615.86
417.837	621.06
418.214	646.37
418.591	638.23
418.967	653.6
419.344	624.45
419.721	640.72
420.098	641.17
420.475	664.9
420.852	652.47
421.228	683.65
421.605	693.82
421.982	691.79
422.358	689.3
422.735	695.86
423.111	675.97
423.488	669.42
423.864	703.31
424.241	722.75
424.617	708.96
424.994	691.56
425.37	706.03
425.746	694.73
426.123	713.71
426.499	727.27
426.875	734.73
427.251	754.84
427.627	752.81
428.003	758.23
428.379	784.89
428.756	779.92
429.132	786.02
429.507	791.9
429.883	786.02
430.259	832.13
430.635	805.23
431.011	843.2
431.387	831.67
431.763	874.61
432.138	860.82
432.514	863.54
432.89	880.71
433.265	871.45
433.641	885.46
434.016	900.15
434.392	899.02
434.767	932.01
435.143	925.91
435.518	927.94
435.894	956.19
436.269	927.04
436.644	947.6
437.02	980.82
437.395	975.62
437.77	1004.1
438.145	996.41
438.52	967.26
438.895	1002.74
439.271	1013.59
439.646	1002.52
440.021	1024.44
440.395	1020.14
440.77	1017.66
441.145	1025.79
441.52	1036.19
441.895	1038.9
442.27	1059.01
442.645	1090.65
443.019	1086.13
443.394	1065.79
443.769	1076.64
444.143	1081.38
444.518	1086.36
444.892	1104.43
445.267	1109.86
445.641	1114.83
446.016	1107.37
446.39	1117.99
446.764	1131.55
447.139	1144.43
447.513	1125
447.887	1152.12
448.262	1139.46
448.636	1161.83
449.01	1175.84
449.384	1177.43
449.758	1196.64
450.132	1162.06
450.506	1199.8
450.88	1202.51
451.254	1228.27
451.628	1228.5
452.002	1216.75
452.376	1246.8
452.75	1251.77
453.123	1287.03
453.497	1289.97
453.871	1265.56
454.244	1317.31
454.618	1343.75
454.992	1315.73
455.365	1350.53
455.739	1362.05
456.112	1389.17
456.486	1377.2
456.859	1408.16
457.232	1412.67
457.606	1394.82
457.979	1428.72
458.352	1459.68
458.725	1467.36
459.099	1475.72
459.472	1522.5
459.845	1536.06
460.218	1527.02
460.591	1562.5
460.964	1556.4
461.337	1601.6
461.71	1611.99
462.083	1613.35
462.456	1632.56
462.829	1645.21
463.201	1701.71
463.574	1691.99
463.947	1669.39
464.32	1736.28
464.692	1743.29
465.065	1746.45
465.438	1764.08
465.81	1798.88
466.183	1830.74
466.555	1851.76
466.928	1833.91
467.3	1840.01
467.672	1890.18
468.045	1920.01
468.417	1901.7
468.789	1935.15
469.161	1971.98
469.534	1995.94
469.906	2016.05
470.278	2055.14
470.65	2054.92
471.022	2096.05
471.394	2128.14
471.766	2146.21
472.138	2181.92
472.51	2232.54
472.882	2218.53
473.253	2266.44
473.625	2264.18
473.997	2314.57
474.369	2358.19
474.74	2367.45
475.112	2392.99
475.484	2436.83
475.855	2489.03
476.227	2533.1
476.598	2523.61
476.97	2598.63
477.341	2662.59
477.713	2678.18
478.084	2666.2
478.455	2760.21
478.827	2766.31
479.198	2830.72
479.569	2860.77
479.94	2918.4
480.311	2925.18
480.682	3016.47
481.053	3079.3
481.424	3145.28
481.795	3096.92
482.166	3165.85
482.537	3232.51
482.908	3291.5
483.279	3291.95
483.65	3368.1
484.021	3443.58
484.391	3434.09
484.762	3496.46
485.133	3542.34
485.503	3593.86
485.874	3670.02
486.244	3658.94
486.615	3751.82
486.985	3798.37
487.356	3840.86
487.726	3871.82
488.097	3933.74
488.467	3975.55
488.837	4019.61
489.207	4046.05
489.578	4138.25
489.948	4154.98
490.318	4247.4
490.688	4262.54
491.058	4321.52
491.428	4347.51
491.798	4409.88
492.168	4477
492.538	4465.7
492.908	4556.32
493.278	4564.23
493.648	4616.21
494.017	4682.42
494.387	4720.38
494.757	4737.33
495.126	4785.02
495.496	4830.89
495.866	4809.2
496.235	4858.01
496.605	4953.15
496.974	4996.54
497.344	5013.03
497.713	5047.16
498.082	5073.6
498.452	5128.74
498.821	5216.19
499.19	5209.19
499.559	5182.52
499.928	5262.74
500.298	5330.54
500.667	5370.54
501.036	5326.92
501.405	5384.77
501.774	5397.43
502.143	5418.22
502.512	5525.56
502.88	5528.5
503.249	5535.73
503.618	5601.94
503.987	5619.8
504.356	5698.66
504.724	5768.72
505.093	5733.01
505.462	5708.83
505.83	5805.1
506.199	5849.62
506.567	5922.61
506.936	5934.36
507.304	5997.19
507.672	5969.62
508.041	6083.06
508.409	6069.28
508.777	6156.73
509.145	6197.41
509.514	6193.34
509.882	6180.01
510.25	6271.53
510.618	6325.99
510.986	6363.73
511.354	6364.63
511.722	6407.57
512.09	6471.75
512.458	6528.47
512.826	6613.67
513.193	6622.48
513.561	6689.37
513.929	6707.9
514.297	6758.3
514.664	6776.83
515.032	6772.76
515.4	6871.51
515.767	6900.21
516.135	6927.33
516.502	6935.24
516.869	7043.94
517.237	7074.67
517.604	7118.74
517.972	7189.25
518.339	7193.54
518.706	7257.04
519.073	7275.57
519.44	7349.47
519.808	7412.06
520.175	7503.59
520.542	7560.76
520.909	7585.39
521.276	7591.95
521.643	7640.99
522.009	7651.61
522.376	7760.53
522.743	7802.11
523.11	7878.95
523.477	7910.13
523.843	8048.66
524.21	8082.1
524.577	8191.48
524.943	8177.47
525.31	8284.58
525.676	8334.3
526.043	8348.99
526.409	8414.75
526.776	8511.47
527.142	8537.69
527.508	8613.16
527.874	8666.04
528.241	8752.14
528.607	8764.35
528.973	8787.4
529.339	8891.35
529.705	8912.14
530.071	8911.69
530.437	9040.27
530.803	9048.18
531.169	9135.64
531.535	9220.15
531.901	9243.43
532.267	9235.29
532.632	9258.8
532.998	9362.52
533.364	9443.88
533.73	9401.84
534.095	9476.64
534.461	9461.95
534.826	9550.54
535.192	9595.51
535.557	9642.29
535.923	9681.16
536.288	9776.3
536.653	9829.63
537.019	9732.91
537.384	9819.46
537.749	9884.99
538.114	9871.44
538.479	9967.48
538.845	9981.26
539.21	9997.76
539.575	10049.51
539.94	10030.53
540.305	10114.82
540.67	10125.67
541.034	10165.89
541.399	10228.71
541.764	10268.04
542.129	10204.31
542.494	10290.41
542.858	10420.57
543.223	10407.47
543.587	10491.08
543.952	10492.89
544.316	10557.07
544.681	10552.77
545.045	10532.43
545.41	10574.92
545.774	10700.11
546.138	10644.97
546.503	10764.75
546.867	10688.14
547.231	10846.1
547.595	10892.2
547.959	10888.36
548.324	10872.09
548.688	10940.56
549.052	10927.9
549.416	10979.2
549.779	11022.14
550.143	11011.74
550.507	11156.6
550.871	11115.92
551.235	11132.65
551.599	11291.06
551.962	11284.73
552.326	11302.81
552.689	11320.21
553.053	11316.14
553.417	11465.74
553.78	11564.05
554.143	11471.39
554.507	11522.92
554.87	11552.97
555.234	11662.12
555.597	11568.57
555.96	11744.83
556.323	11734.66
556.686	11754.78
557.05	11888.33
557.413	12026.86
557.776	11947.54
558.139	12026.63
558.502	12058.27
558.865	12096.24
559.228	12164.48
559.59	12202
559.953	12262.56
560.316	12403.57
560.679	12365.16
561.041	12483.57
561.404	12500.29
561.767	12697.8
562.129	12497.13
562.492	12641.31
562.854	12680.63
563.217	12640.63
563.579	12765.37
563.941	12834.75
564.304	12890.34
564.666	12994.97
565.028	13024.57
565.39	13093.27
565.753	13154.29
566.115	13109.77
566.477	13190.44
566.839	13236.77
567.201	13322.64
567.563	13359.71
567.925	13516.99
568.287	13430.21
568.648	13465.92
569.01	13608.74
569.372	13656.65
569.734	13613.71
570.095	13717.66
570.457	13744.33
570.819	13825.68
571.18	13889.63
571.542	13941.61
571.903	13915.62
572.265	14058.67
572.626	13993.81
572.987	14110.87
573.349	14173.24
573.71	14145.45
574.071	14116.97
574.432	14259.12
574.794	14321.71
575.155	14275.39
575.516	14282.39
575.877	14440.35
576.238	14382.05
576.599	14422.28
576.96	14517.64
577.32	14471.99
577.681	14519.45
578.042	14620.69
578.403	14612.55
578.763	14649.16
579.124	14676.05
579.485	14714.02
579.845	14653.23
580.206	14702.04
580.566	14643.97
580.927	14572.78
581.287	14818.88
581.648	14751.08
582.008	14816.62
582.368	14813.68
582.728	14771.65
583.089	14770.06
583.449	14844.19
583.809	14872.66
584.169	14925.77
584.529	14790.85
584.889	14898.2
585.249	14921.7
585.609	14873.79
585.969	14916.27
586.329	14817.75
586.688	14907.24
587.048	14900.23
587.408	14916.95
587.768	14938.42
588.127	14828.37
588.487	14848.48
588.846	14965.09
589.206	14841.93
589.565	14916.73
589.925	14973.9
590.284	14859.1
590.643	14907.91
591.003	14926.22
591.362	15032.66
591.721	14932.77
592.08	14972.09
592.44	14941.13
592.799	14882.6
593.158	14949.72
593.517	14960.34
593.876	14911.3
594.235	14901.36
594.593	14967.8
594.952	14872.66
595.311	14900.23
595.67	14987.69
596.029	15134.57
596.387	15085.08
596.746	15098.87
597.104	15071.75
597.463	14999.89
597.822	15097.29
598.18	15064.07
598.538	15000.57
598.897	15178.64
599.255	15038.76
599.613	15207.79
599.972	15065.65
600.33	15174.57
600.688	15143.61
601.046	15199.88
601.404	15302.48
601.762	15216.15
602.12	15203.72
602.478	15167.34
602.836	15292.99
603.194	15161.47
603.552	15202.37
603.91	15105.87
604.268	15299.54
604.625	15199.66
604.983	15276.04
605.341	15306.09
605.698	15310.61
606.056	15329.82
606.413	15320.11
606.771	15354.68
607.128	15421.57
607.485	15325.98
607.843	15337.05
608.2	15462.93
608.557	15550.83
608.914	15452.76
609.272	15556.26
609.629	15511.29
609.986	15585.41
610.343	15493.89
610.7	15701.34
611.057	15532.98
611.414	15531.63
611.771	15546.31
612.127	15612.98
612.484	15665.18
612.841	15763.94
613.198	15720.1
613.554	15703.37
613.911	15691.4
614.267	15784.05
614.624	15735.46
614.98	15757.38
615.337	15807.55
615.693	15814.33
616.05	15800.54
616.406	15859.3
616.762	15855.01
617.118	15772.52
617.475	15778.4
617.831	15870.15
618.187	15823.37
618.543	15952.41
618.899	15983.37
619.255	15856.59
619.611	15924.61
619.967	15917.83
620.323	16005.74
620.678	15895.46
621.034	15924.16
621.39	15878.28
621.746	15891.84
622.101	16132.29
622.457	15981.11
622.812	16001.9
623.168	16090.48
623.523	16022.01
623.879	16124.6
624.234	15936.13
624.589	16039.41
624.945	16031.27
625.3	16063.36
625.655	16045.51
626.01	15989.47
626.365	16029.92
626.72	16062.23
627.075	15979.07
627.43	15966.87
627.785	15999.64
628.14	16082.8
628.495	16032.86
628.85	16019.52
629.205	15959.86
629.559	15992.86
629.914	15940.2
630.269	15950.15
630.623	15882.8
630.978	15893.65
631.332	15912.18
631.687	15915.8
632.041	15868.34
632.396	15920.32
632.75	15887.77
633.104	15959.18
633.459	15768.91
633.813	15806.87
634.167	15828.34
634.521	15735.69
634.875	15784.05
635.229	15751.28
635.583	15767.55
635.937	15662.7
636.291	15699.98
636.645	15752.86
636.999	15615.01
637.352	15633.77
637.706	15501.8
638.06	15635.58
638.413	15595.35
638.767	15536.82
639.121	15583.83
639.474	15412.08
639.828	15479.42
640.181	15430.16
640.534	15424.28
640.888	15358.75
641.241	15419.31
641.594	15441.01
641.947	15490.5
642.301	15424.96
642.654	15403.72
643.007	15436.71
643.36	15471.97
643.713	15329.14
644.066	15387.45
644.419	15280.78
644.771	15205.76
645.124	14951.75
645.477	14986.1
645.83	14871.76
646.182	14815.49
646.535	14772.78
646.888	14841.02
647.24	14753.79
647.593	14860.68
647.945	14889.16
648.298	14768.93
648.65	14724.19
649.002	14599.9
649.355	14694.36
649.707	14654.36
650.059	14673.34
650.411	14859.1
650.763	14846.67
651.115	15015.71
651.467	14969.15
651.819	14970.06
652.171	14976.84
652.523	14927.12
652.875	14873.34
653.227	14896.84
653.578	14947.91
653.93	14898.42
654.282	14882.38
654.633	14867.01
654.985	14899.33
655.337	14849.16
655.688	14849.16
656.039	14900.68
656.391	14753.11
656.742	14775.71
657.094	14822.72
657.445	14810.29
657.796	14768.26
658.147	14695.49
658.498	14820.68
658.849	14728.93
659.2	14697.3
659.551	14699.33
659.902	14756.73
660.253	14640.58
660.604	14730.97
660.955	14533.46
661.306	14681.25
661.656	14645.77
662.007	14616.62
662.358	14682.61
662.708	14667.69
663.059	14610.07
663.409	14541.37
663.76	14657.3
664.11	14562.16
664.461	14634.02
664.811	14570.29
665.161	14591.54
665.511	14588.83
665.862	14584.31
666.212	14550.18
666.562	14543.85
666.912	14557.87
667.262	14483.97
667.612	14548.6
667.962	14514.25
668.312	14552.44
668.662	14597.64
669.011	14495.49
669.361	14573.46
669.711	14485.55
670.06	14452.56
670.41	14431.09
670.76	14500.24
671.109	14465.89
671.459	14451.2
671.808	14425.44
672.157	14458.43
672.507	14411.2
672.856	14396.51
673.205	14408.27
673.554	14364.42
673.904	14353.8
674.253	14404.88
674.602	14376.4
674.951	14165.79
675.3	14160.81
675.649	14379.11
675.998	14365.55
676.346	14324.88
676.695	14323.97
677.044	14276.52
677.393	14328.72
677.741	14307.48
678.09	14350.87
678.438	14311.32
678.787	14290.53
679.135	14291.43
679.484	14074.94
679.832	14217.76
680.181	14189.74
680.529	14162.85
680.877	14122.62
681.225	14118.33
681.573	14173.02
681.922	14064.55
682.27	14015.28
682.618	14053.47
682.966	13970.76
683.314	14108.16
683.661	13994.72
684.009	13916.53
684.357	13840.14
684.705	14002.4
685.053	13987.71
685.4	13859.35
685.748	13843.08
686.095	13732.8
686.443	13820.03
686.79	13666.36
687.138	13793.59
687.485	13698.68
687.832	13668.85
688.18	13716.98
688.527	13597.67
688.874	13599.7
689.221	13613.03
689.568	13514.96
689.915	13516.09
690.262	13523.99
690.609	13476.09
690.956	13531.23
691.303	13488.52
691.65	13304.57
691.997	13332.59
692.344	13280.61
692.69	13322.87
693.037	13269.09
693.383	13128.98
693.73	13126.49
694.077	13143.67
694.423	13113.84
694.769	13113.61
695.116	12997.91
695.462	13039.49
695.808	12899.38
696.155	12997
696.501	12807.86
696.847	12876.1
697.193	12850.34
697.539	12886.95
697.885	12743.68
698.231	12655.54
698.577	12694.64
698.923	12621.42
699.269	12612.83
699.614	12545.49
699.96	12538.03
700.306	12494.42
700.651	12456
700.997	12478.6
701.342	12451.03
701.688	12399.96
702.033	12425.72
702.379	12277.02
702.724	12325.38
703.069	12423.46
703.415	12194.09
703.76	12239.73
704.105	12194.31
704.45	12192.5
704.795	12040.64
705.14	12083.81
705.485	12091.04
705.83	12005.16
706.175	12032.06
706.52	11943.02
706.865	11915
707.209	11891.72
707.554	11890.59
707.899	11924.26
708.243	11834.77
708.588	11858.95
708.932	11792.74
709.277	11733.53
709.621	11761.56
709.966	11554.55
710.31	11729.92
710.654	11555.46
710.998	11692.18
711.342	11594.55
711.687	11560.43
712.031	11519.98
712.375	11504.16
712.719	11531.73
713.063	11522.24
713.407	11542.58
713.75	11464.39
714.094	11455.8
714.438	11372.64
714.782	11342.36
715.125	11328.12
715.469	11434.56
715.812	11310.95
716.156	11267.1
716.499	11211.51
716.843	11244.05
717.186	11159.31
717.53	11225.52
717.873	11238.18
718.216	11160.44
718.559	11102.82
718.902	11041.8
719.246	11122.02
719.589	11084.06
719.932	11018.98
720.275	10977.62
720.617	11058.75
720.96	10976.94
721.303	11014.91
721.646	10957.06
721.989	10908.24
722.331	10868.92
722.674	10977.62
723.016	10964.74
723.359	10859.21
723.701	10900.56
724.044	10865.08
724.386	10840.9
724.729	10755.25
725.071	10792.09
725.413	10792.09
725.755	10804.97
726.097	10705.54
726.439	10632.77
726.782	10692.2
727.124	10657.18
727.465	10624.64
727.807	10612.88
728.149	10641.58
728.491	10616.73
728.833	10644.97
729.175	10572.89
729.516	10555.71
729.858	10535.82
730.199	10556.84
730.541	10462.61
730.882	10463.28
731.224	10513.9
731.565	10468.71
731.906	10463.74
732.248	10513.9
732.589	10396.85
732.93	10383.06
733.271	10321.59
733.612	10282.05
733.953	10361.59
734.294	10394.59
734.635	10257.41
734.976	10360.46
735.317	10259.9
735.658	10239.11
735.999	10280.24
736.339	10226.23
736.68	10254.25
737.021	10271.88
737.361	10209.28
737.702	10230.97
738.042	10158.89
738.383	10204.31
738.723	10192.33
739.063	10172.22
739.404	10186
739.744	10117.3
740.084	10120.47
740.424	10108.94
740.764	10102.62
741.104	10110.98
741.444	10047.48
741.784	10041.15
742.124	9976.07
742.464	10011.77
742.804	9906.69
743.143	10019.91
743.483	9918.67
743.823	9923.19
744.162	9923.64
744.502	9863.53
744.841	9897.88
745.181	9887.93
745.52	9933.35
745.86	9866.01
746.199	9840.02
746.538	9793.47
746.877	9807.48
747.216	9763.87
747.556	9722.51
747.895	9756.86
748.234	9703.08
748.573	9687.03
748.911	9671.21
749.25	9732.23
749.589	9594.61
749.928	9636.41
750.267	9603.65
750.605	9619.24
750.944	9579.47
751.283	9566.13
751.621	9531.56
751.96	9477.77
752.298	9523.87
752.636	9507.15
752.975	9380.37
753.313	9421.05
753.651	9459.69
753.989	9357.32
754.327	9369.08
754.666	9263.77
755.004	9372.01
755.342	9400.04
755.679	9297.21
756.017	9276.87
756.355	9327.95
756.693	9248.85
757.031	9281.39
757.368	9201.62
757.706	9180.61
758.044	9145.35
