Data from black_metal_pc_casing_FLMS001491_00064.txt Node
Date: Wed Feb 08 14:33:18 GMT 2017
User: dcchb
Spectrometer: FLMS00149
Trigger mode: 0
Integration Time (sec): 2.000000E-2
Scans to average: 10
Electric dark correction enabled: true
Nonlinearity correction enabled: false
Boxcar width: 0
XAxis mode: Wavelengths
Number of Pixels in Spectrum: 2048
>>>>>Begin Spectral Data<<<<<
341.393	-21.34
341.776	-21.34
342.16	-21.34
342.543	-74.67
342.927	-55.69
343.31	-73.54
343.693	-71.06
344.077	-64.5
344.46	-76.26
344.843	-57.72
345.226	-54.56
345.61	-14.79
345.993	5.32
346.376	-19.99
346.759	-2.13
347.142	31.54
347.525	44.65
347.908	79.9
348.291	63.85
348.674	92.33
349.057	116.96
349.44	115.15
349.823	146.79
350.206	155.38
350.588	166.22
350.971	207.81
351.354	211.2
351.737	215.71
352.119	241.7
352.502	261.36
352.884	244.87
353.267	264.07
353.65	290.51
354.032	278.76
354.414	279.44
354.797	286.67
355.179	277.86
355.562	290.51
355.944	296.84
356.326	300.68
356.709	322.83
357.091	311.08
357.473	308.59
357.855	334.58
358.238	325.09
358.62	333
359.002	337.97
359.384	320.34
359.766	333.23
360.148	322.83
360.53	319.44
360.912	302.27
361.294	326.45
361.676	306.56
362.057	308.37
362.439	302.27
362.821	309.5
363.203	314.7
363.584	311.31
363.966	283.96
364.348	309.27
364.729	325.54
365.111	323.73
365.493	302.49
365.874	309.27
366.256	307.24
366.637	300.46
367.019	305.43
367.4	315.6
367.781	296.62
368.163	319.67
368.544	298.88
368.925	300.46
369.306	319.67
369.688	305.43
370.069	302.49
370.45	302.94
370.831	312.89
371.212	301.14
371.593	304.53
371.974	315.83
372.355	313.79
372.736	318.99
373.117	289.39
373.498	306.33
373.879	296.84
374.26	318.08
374.641	330.06
375.021	298.42
375.402	312.89
375.783	330.97
376.163	330.06
376.544	307.92
376.925	321.25
377.305	316.95
377.686	322.15
378.066	322.38
378.447	325.54
378.827	323.96
379.208	337.75
379.588	345.65
379.968	351.3
380.349	320.57
380.729	341.14
381.109	334.36
381.489	332.77
381.87	335.49
382.25	343.85
382.63	353.11
383.01	346.78
383.39	332.32
383.77	343.17
384.15	331.19
384.53	365.54
384.91	358.31
385.29	355.82
385.67	337.97
386.049	373.9
386.429	360.8
386.809	356.05
387.189	377.29
387.568	343.85
387.948	358.54
388.328	382.04
388.707	367.35
389.087	362.38
389.466	354.02
389.846	380.46
390.225	348.59
390.605	364.64
390.984	380.46
391.363	378.65
391.743	362.6
392.122	381.36
392.501	376.16
392.881	368.93
393.26	369.83
393.639	404.64
394.018	370.96
394.397	393.79
394.776	389.95
395.155	396.27
395.534	396.05
395.913	364.86
396.292	391.08
396.671	384.3
397.05	396.27
397.429	414.13
397.808	406.67
398.186	419.78
398.565	400.57
398.944	402.83
399.323	405.77
399.701	399.66
400.08	404.18
400.458	414.81
400.837	403.73
401.215	414.35
401.594	408.7
401.972	437.86
402.351	438.99
402.729	451.41
403.107	429.49
403.486	427.91
403.864	455.93
404.242	468.82
404.62	455.71
404.999	463.62
405.377	439.44
405.755	456.39
406.133	431.75
406.511	473.56
406.889	486.22
407.267	438.99
407.645	474.01
408.023	494.35
408.401	474.46
408.779	473.56
409.156	483.5
409.534	480.57
409.912	520.79
410.29	484.63
410.667	489.61
411.045	497.74
411.422	491.87
411.8	504.52
412.178	515.14
412.555	507.01
412.933	508.14
413.31	511.98
413.687	518.31
414.065	515.82
414.442	512.66
414.819	521.24
415.197	529.6
415.574	526.44
415.951	532.77
416.328	540.45
416.705	560.11
417.082	541.81
417.46	538.19
417.837	558.76
418.214	570.51
418.591	550.17
418.967	569.83
419.344	569.83
419.721	589.26
420.098	565.31
420.475	582.71
420.852	612.09
421.228	602.82
421.605	616.83
421.982	601.02
422.358	593.78
422.735	607.57
423.111	623.84
423.488	598.53
423.864	637.4
424.241	622.03
424.617	622.26
424.994	634.23
425.37	630.39
425.746	625.42
426.123	618.64
426.499	650.51
426.875	670.39
427.251	637.85
427.627	666.78
428.003	677.17
428.379	723.95
428.756	680.34
429.132	685.76
429.507	696.83
429.883	686.21
430.259	701.13
430.635	711.75
431.011	711.97
431.387	758.98
431.763	740.45
432.138	746.55
432.514	750.62
432.89	762.14
433.265	768.69
433.641	763.04
434.016	777.28
434.392	799.65
434.767	799.2
435.143	807.34
435.518	811.86
435.894	813.44
436.269	845.98
436.644	812.31
437.02	825.64
437.395	837.39
437.77	813.44
438.145	869.03
438.52	827.9
438.895	872.19
439.271	856.83
439.646	884.4
440.021	879.65
440.395	872.42
440.77	898.18
441.145	902.02
441.52	900.22
441.895	888.24
442.27	943.38
442.645	901.8
443.019	930.95
443.394	939.31
443.769	907
444.143	930.72
444.518	977.73
444.892	921.01
445.267	951.74
445.641	979.31
446.016	953.32
446.39	984.73
446.764	969.37
447.139	985.19
447.513	992.42
447.887	977.95
448.262	990.38
448.636	1007.11
449.01	984.51
449.384	1002.13
449.758	1003.49
450.132	1040.33
450.506	1034.68
450.88	1045.98
451.254	1033.77
451.628	1075.13
452.002	1028.8
452.376	1082.13
452.75	1071.51
453.123	1057.95
453.497	1109.7
453.871	1111.51
454.244	1102.92
454.618	1128.91
454.992	1159.64
455.365	1122.36
455.739	1165.52
456.112	1172.75
456.486	1195.12
456.859	1196.48
457.232	1212.3
457.606	1211.62
457.979	1224.73
458.352	1233.54
458.725	1248.68
459.099	1264.5
459.472	1284.16
459.845	1305.4
460.218	1311.05
460.591	1335.01
460.964	1299.75
461.337	1365.06
461.71	1354.89
462.083	1401.67
462.456	1394.44
462.829	1400.32
463.201	1387.66
463.574	1407.32
463.947	1449.35
464.32	1461.11
464.692	1474.21
465.065	1506.08
465.438	1506.53
465.81	1502.91
466.183	1507.88
466.555	1589.01
466.928	1571.39
467.3	1555.11
467.672	1607.54
468.045	1590.14
468.417	1659.52
468.789	1644.38
469.161	1678.28
469.534	1675.56
469.906	1729.57
470.278	1701.33
470.65	1716.47
471.022	1780.87
471.394	1814.99
471.766	1784.49
472.138	1813.41
472.51	1858.16
472.882	1892.73
473.253	1877.59
473.625	1917.36
473.997	1965.27
474.369	1963.24
474.74	1999.62
475.112	2015.44
475.484	2047.98
475.855	2078.94
476.227	2092.73
476.598	2123.69
476.97	2147.87
477.341	2212.27
477.713	2226.51
478.084	2250.92
478.455	2288.2
478.827	2332.72
479.198	2364.36
479.569	2388.76
479.94	2464.24
480.311	2451.81
480.682	2526.61
481.053	2541.98
481.424	2610.45
481.795	2618.59
482.166	2679.83
482.537	2682.54
482.908	2712.6
483.279	2743.33
483.65	2811.8
484.021	2863.33
484.391	2877.57
484.762	2896.77
485.133	2916.66
485.503	2971.8
485.874	3013.83
486.244	3051.12
486.615	3120.27
486.985	3169.08
487.356	3198.91
487.726	3239.82
488.097	3317.78
488.467	3267.84
488.837	3385.12
489.207	3401.39
489.578	3432.13
489.948	3510.09
490.318	3511.22
490.688	3580.15
491.058	3605.23
491.428	3599.13
491.798	3639.58
492.168	3760.03
492.538	3757.99
492.908	3744.44
493.278	3852
493.648	3826.92
494.017	3903.53
494.387	3958.44
494.757	3985.56
495.126	4033.47
495.496	4006.12
495.866	4053.35
496.235	4101.04
496.605	4103.07
496.974	4108.95
497.344	4155.72
497.713	4175.84
498.082	4248.6
498.452	4271.43
498.821	4308.71
499.19	4291.09
499.559	4386.9
499.928	4384.19
500.298	4429.39
500.667	4437.52
501.036	4401.14
501.405	4497.18
501.774	4517.07
502.143	4585.54
502.512	4583.96
502.88	4642.94
503.249	4557.75
503.618	4654.02
503.987	4666.45
504.356	4668.93
504.724	4712.77
505.093	4751.41
505.462	4762.71
505.83	4825.99
506.199	4863.95
506.567	4905.08
506.936	4926.78
507.304	4966.1
507.672	4985.31
508.041	5031.18
508.409	5075.47
508.777	5102.14
509.145	5070.28
509.514	5108.47
509.882	5162.7
510.25	5153.66
510.618	5186.66
510.986	5297.16
511.354	5267.79
511.722	5335.35
512.09	5383.26
512.458	5412.64
512.826	5443.83
513.193	5447.44
513.561	5510.49
513.929	5493.77
514.297	5586.19
514.664	5644.5
515.032	5635.46
515.4	5699.64
515.767	5672.29
516.135	5816.25
516.502	5785.06
516.869	5871.16
517.237	5854.44
517.604	5875
517.972	5936.02
518.339	6009.91
518.706	6014.66
519.073	6037.48
519.44	6079.52
519.808	6174.65
520.175	6131.49
520.542	6268.89
520.909	6274.99
521.276	6262.34
521.643	6372.39
522.009	6390.47
522.376	6405.16
522.743	6486.74
523.11	6542.33
523.477	6608.99
523.843	6618.26
524.21	6691.7
524.577	6693.51
524.943	6756.33
525.31	6818.48
525.676	6892.38
526.043	6936.89
526.409	6935.31
526.776	7018.02
527.142	7025.03
527.508	7076.78
527.874	7142.31
528.241	7149.09
528.607	7257.56
528.973	7292.36
529.339	7307.05
529.705	7366.04
530.071	7365.81
530.437	7453.72
530.803	7414.85
531.169	7489.42
531.535	7531.45
531.901	7550.44
532.267	7599.48
532.632	7623.66
532.998	7726.03
533.364	7715.18
533.73	7737.55
534.095	7855.74
534.461	7905
534.826	7919.24
535.192	7981.61
535.557	7965.34
535.923	8009.18
536.288	8040.14
536.653	8106.35
537.019	8007.37
537.384	8118.78
537.749	8151.55
538.114	8156.75
538.479	8116.07
538.845	8256.86
539.21	8192.91
539.575	8264.54
539.94	8278.55
540.305	8353.81
540.67	8311.55
541.034	8491.66
541.399	8487.81
541.764	8399.68
542.129	8454.37
542.494	8527.59
542.858	8568.72
543.223	8565.78
543.587	8675.61
543.952	8604.87
544.316	8613.69
544.681	8674.02
545.045	8733.23
545.41	8719.22
545.774	8771.65
546.138	8786.79
546.503	8768.94
546.867	8803.29
547.231	8969.16
547.595	8817.52
547.959	8929.38
548.324	8967.35
548.688	8955.6
549.052	9012.32
549.416	9061.58
549.779	9059.1
550.143	9118.08
550.507	9116.5
550.871	9192.88
551.235	9167.34
551.599	9220.68
551.962	9272.43
552.326	9341.12
552.689	9349.49
553.053	9369.6
553.417	9360.33
553.78	9478.52
554.143	9446.66
554.507	9452.31
554.87	9505.19
555.234	9636.94
555.597	9578.18
555.96	9615.92
556.323	9663.38
556.686	9655.47
557.05	9770.72
557.413	9803.71
557.776	9813.43
558.139	9890.71
558.502	9836.7
558.865	9925.97
559.228	10053.87
559.59	10047.77
559.953	10076.47
560.316	10182.46
560.679	10123.93
561.041	10149.69
561.404	10283.7
561.767	10392.17
562.129	10224.04
562.492	10353.75
562.854	10358.05
563.217	10392.4
563.579	10483.92
563.941	10483.69
564.304	10611.37
564.666	10611.6
565.028	10662.45
565.39	10669.23
565.753	10756.91
566.115	10813.4
566.477	10810.01
566.839	10852.5
567.201	10985.83
567.563	10971.82
567.925	10994.87
568.287	11043.45
568.648	11015.88
569.01	11075.32
569.372	11181.08
569.734	11193.05
570.095	11260.85
570.457	11182.88
570.819	11292.49
571.18	11328.64
571.542	11351.47
571.903	11473.5
572.265	11397.34
572.626	11486.83
572.987	11477.79
573.349	11587.39
573.71	11590.78
574.071	11676.88
574.432	11689.31
574.794	11771.57
575.155	11739.03
575.516	11672.81
575.877	11735.64
576.238	11819.48
576.599	11869.19
576.96	11781.29
577.32	11818.57
577.681	11886.14
578.042	11948.29
578.403	11933.6
578.763	11863.09
579.124	11915.07
579.485	12018.57
579.845	12112.35
580.206	11987.83
580.566	12013.37
580.927	12015.18
581.287	12096.08
581.648	12031.68
582.008	12057.66
582.368	12077.1
582.728	12096.76
583.089	12009.75
583.449	12026.48
583.809	12043.2
584.169	12142.86
584.529	12170.65
584.889	12279.35
585.249	12133.37
585.609	12028.29
585.969	12213.14
586.329	12137.21
586.688	12113.93
587.048	12175.63
587.408	12091.79
587.768	12178.34
588.127	12124.33
588.487	12141.73
588.846	12197.55
589.206	12175.17
589.565	12110.54
589.925	12249.07
590.284	12144.67
590.643	12146.93
591.003	12167.26
591.362	12216.08
591.721	12203.2
592.08	12245.23
592.44	12255.85
592.799	12253.36
593.158	12327.71
593.517	12278.9
593.876	12226.7
594.235	12275.96
594.593	12194.16
594.952	12208.39
595.311	12250.65
595.67	12262.86
596.029	12342.85
596.387	12336.98
596.746	12319.35
597.104	12287.26
597.463	12315.51
597.822	12331.78
598.18	12382.17
598.538	12238.45
598.897	12315.96
599.255	12263.99
599.613	12443.19
599.972	12375.85
600.33	12368.39
600.688	12354.83
601.046	12442.29
601.404	12495.84
601.762	12445.22
602.12	12456.3
602.478	12517.76
602.836	12416.07
603.194	12431.21
603.552	12438.9
603.91	12385.79
604.268	12516.18
604.625	12491.78
604.983	12546.92
605.341	12529.52
605.698	12587.82
606.056	12609.29
606.413	12496.52
606.771	12567.71
607.128	12584.2
607.485	12558.67
607.843	12512.79
608.2	12613.35
608.557	12634.37
608.914	12649.51
609.272	12729.51
609.629	12739.91
609.986	12717.31
610.343	12698.1
610.7	12761.37
611.057	12680.02
611.414	12703.97
611.771	12782.39
612.127	12776.06
612.484	12773.8
612.841	12929.05
613.198	12846.34
613.554	12852.67
613.911	12883.18
614.267	12908.49
614.624	12914.59
614.98	12917.75
615.337	12960.69
615.693	12989.62
616.05	12962.95
616.406	12988.71
616.762	12995.49
617.118	13016.06
617.475	13061.03
617.831	13024.19
618.187	13073.68
618.543	13054.7
618.899	13083.62
619.255	13079.33
619.611	13021.25
619.967	13034.81
620.323	13159.1
620.678	13090.4
621.034	13048.82
621.39	13033
621.746	13075.04
622.101	13141.02
622.457	13068.48
622.812	13159.56
623.168	13102.16
623.523	13133.57
623.879	13052.21
624.234	13143.96
624.589	13187.35
624.945	13190.29
625.3	13136.73
625.655	13155.94
626.01	13136.96
626.365	13101.03
626.72	13076.39
627.075	13152.78
627.43	13220.8
627.785	13018.32
628.14	13038.88
628.495	13105.55
628.85	13114.13
629.205	13040.91
629.559	13068.94
629.914	13035.49
630.269	13074.13
630.623	13008.37
630.978	13015.15
631.332	13101.03
631.687	13089.05
632.041	13001.37
632.396	13002.95
632.75	12934.02
633.104	13007.47
633.459	12885.21
633.813	12901.71
634.167	12907.13
634.521	12866.91
634.875	12857.87
635.229	12895.38
635.583	12856.29
635.937	12739
636.291	12799.11
636.645	12898.55
636.999	12714.37
637.352	12875.95
637.706	12770.19
638.06	12837.76
638.413	12795.04
638.767	12767.02
639.121	12825.55
639.474	12708.49
639.828	12653.35
640.181	12666.69
640.534	12653.13
640.888	12610.42
641.241	12640.7
641.594	12606.35
641.947	12647.25
642.301	12647.93
642.654	12584.43
643.007	12661.26
643.36	12541.72
643.713	12603.86
644.066	12567.25
644.419	12490.19
644.771	12379.46
645.124	12216.53
645.477	12233.7
645.83	12258.56
646.182	12193.03
646.535	12113.03
646.888	12122.52
647.24	12110.09
647.593	12058.57
647.945	12085.69
648.298	12019.25
648.65	11980.15
649.002	12025.12
649.355	12013.82
649.707	12012.92
650.059	12029.87
650.411	12179.24
650.763	12235.96
651.115	12346.24
651.467	12209.3
651.819	12312.8
652.171	12214.27
652.523	12203.2
652.875	12218.34
653.227	12229.86
653.578	12259.69
653.93	12239.58
654.282	12112.13
654.633	12244.55
654.985	12165.68
655.337	12179.69
655.688	12181.05
656.039	12237.32
656.391	12149.86
656.742	12103.09
657.094	12127.49
657.445	12163.42
657.796	12085.69
658.147	12042.52
658.498	12130.43
658.849	12089.53
659.2	12105.12
659.551	12036.19
659.902	12105.35
660.253	12054.05
660.604	12039.81
660.955	11997.55
661.306	12042.52
661.656	12035.29
662.007	12040.94
662.358	11963.65
662.708	11944.67
663.059	11959.59
663.409	11903.99
663.76	11951.9
664.11	11980.15
664.461	12051.34
664.811	11957.55
665.161	11899.7
665.511	11951.9
665.862	11936.76
666.212	11867.16
666.562	11902.64
666.912	11917.55
667.262	11918.01
667.612	11934.95
667.962	11868.06
668.312	11853.15
668.662	11890.89
669.011	11917.1
669.361	11821.06
669.711	11826.93
670.06	11876.88
670.41	11854.73
670.76	11866.71
671.109	11913.26
671.459	11854.5
671.808	11845.69
672.157	11895.63
672.507	11727.28
672.856	11736.54
673.205	11785.81
673.554	11753.72
673.904	11749.65
674.253	11772.7
674.602	11784.68
674.951	11603.44
675.3	11517.56
675.649	11745.81
675.998	11720.04
676.346	11655.87
676.695	11748.52
677.044	11611.8
677.393	11674.4
677.741	11755.07
678.09	11624.23
678.438	11620.39
678.787	11686.6
679.135	11607.96
679.484	11551.46
679.832	11595.08
680.181	11549.2
680.529	11655.41
680.877	11520.05
681.225	11516.66
681.573	11554.85
681.922	11550.78
682.27	11451.13
682.618	11472.82
682.966	11394.18
683.314	11466.27
683.661	11428.3
684.009	11374.97
684.357	11345.14
684.705	11348.53
685.053	11299.49
685.4	11319.6
685.748	11314.18
686.095	11254.52
686.443	11277.57
686.79	11206.39
687.138	11256.78
687.485	11211.58
687.832	11192.83
688.18	11212.71
688.527	11060.85
688.874	11128.2
689.221	11062.89
689.568	11045.49
689.915	11072.6
690.262	11023.57
690.609	10941.31
690.956	10933.62
691.303	10950.35
691.65	10837.81
691.997	10898.15
692.344	10733.4
692.69	10801.43
693.037	10828.32
693.383	10761.2
693.73	10753.29
694.077	10697.02
694.423	10740.18
694.769	10654.54
695.116	10628.77
695.462	10641.43
695.808	10611.83
696.155	10590.13
696.501	10555.1
696.847	10493.86
697.193	10412.73
697.539	10487.76
697.885	10383.36
698.231	10397.14
698.577	10410.25
698.923	10390.14
699.269	10266.75
699.614	10296.81
699.96	10274.43
700.306	10240.31
700.651	10204.6
700.997	10289.12
701.342	10099.75
701.688	10203.7
702.033	10143.14
702.379	10182.01
702.724	10029.92
703.069	10053.65
703.415	10005.29
703.76	9969.13
704.105	10026.76
704.45	9920.54
704.795	9897.27
705.14	9936.81
705.485	9847.1
705.83	9801
706.175	9817.72
706.52	9776.37
706.865	9752.64
707.209	9742.92
707.554	9754.22
707.899	9747.22
708.243	9688.69
708.588	9757.16
708.932	9590.61
709.277	9625.41
709.621	9621.34
709.966	9517.39
710.31	9587.67
710.654	9418.41
710.998	9523.72
711.342	9532.53
711.687	9482.36
712.031	9404.17
712.375	9394.46
712.719	9393.1
713.063	9427.68
713.407	9459.09
713.75	9363.95
714.094	9430.39
714.438	9396.26
714.782	9405.53
715.125	9296.38
715.469	9332.99
715.812	9327.57
716.156	9212.99
716.499	9252.31
716.843	9222.26
717.186	9165.99
717.53	9229.04
717.873	9172.77
718.216	9172.09
718.559	9180.68
718.902	9102.49
719.246	9140.68
719.589	9123.05
719.932	9037.63
720.275	9064.75
720.617	8989.04
720.96	9037.86
721.303	9008.7
721.646	9084.41
721.989	8928.93
722.331	9036.05
722.674	8994.69
723.016	8923.96
723.359	8924.64
723.701	8943.62
724.044	8928.25
724.386	8843.96
724.729	8880.12
725.071	8896.62
725.413	8822.04
725.755	8858.2
726.097	8815.49
726.439	8800.8
726.782	8741.14
727.124	8856.39
727.465	8771.42
727.807	8726.45
728.149	8690.52
728.491	8749.28
728.833	8710.63
729.175	8638.32
729.516	8573.69
729.858	8619.56
730.199	8637.19
730.541	8561.48
730.882	8599.68
731.224	8599.45
731.565	8474.03
731.906	8563.52
732.248	8526
732.589	8514.03
732.93	8472.22
733.271	8523.29
733.612	8528.26
733.953	8508.6
734.294	8461.6
734.635	8465.89
734.976	8446.68
735.317	8458.21
735.658	8455.27
735.999	8417.76
736.339	8361.26
736.68	8409.85
737.021	8368.72
737.361	8356.07
737.702	8406.23
738.042	8387.48
738.383	8337.76
738.723	8377.31
739.063	8234.94
739.404	8316.97
739.744	8306.8
740.084	8228.16
740.424	8297.08
740.764	8255.5
741.104	8290.98
741.444	8202.4
741.784	8205.56
742.124	8202.17
742.464	8197.65
742.804	8172.12
743.143	8179.8
743.483	8160.14
743.823	8057.77
744.162	8105.22
744.502	8168.95
744.841	8080.37
745.181	8093.7
745.52	8033.81
745.86	8072.23
746.199	8022.29
746.538	7947.04
746.877	8030.88
747.216	8000.14
747.556	7993.36
747.895	7997.88
748.234	7976.87
748.573	7961.73
748.911	7901.39
749.25	7975.96
749.589	7822.29
749.928	7882.41
750.267	7876.76
750.605	7843.08
750.944	7855.06
751.283	7872.69
751.621	7865.46
751.96	7753.14
752.298	7822.97
752.636	7781.62
752.975	7802.63
753.313	7791.33
753.651	7788.17
753.989	7707.72
754.327	7686.7
754.666	7699.59
755.004	7599.93
755.342	7719.47
755.679	7676.31
756.017	7600.15
756.355	7652.81
756.693	7566.71
757.031	7593.15
757.368	7547.27
757.706	7519.03
758.044	7502.08
758.381	7497.33
758.719	7519.7
759.056	7458.91
759.394	7420.05
759.731	7371.01
760.068	7355.87
760.405	7376.66
760.743	7368.29
761.08	7372.14
761.417	7339.37
761.754	7265.47
