Data from black_metal_pc_casing_FLMS001491_00036.txt Node
Date: Wed Feb 08 14:32:35 GMT 2017
User: dcchb
Spectrometer: FLMS00149
Trigger mode: 0
Integration Time (sec): 2.000000E-2
Scans to average: 10
Electric dark correction enabled: true
Nonlinearity correction enabled: false
Boxcar width: 0
XAxis mode: Wavelengths
Number of Pixels in Spectrum: 2048
>>>>>Begin Spectral Data<<<<<
341.393	-10.82
341.776	-10.82
342.16	-10.82
342.543	-69.35
342.927	-50.59
343.31	-69.57
343.693	-51.5
344.077	-69.8
344.46	-62.34
344.843	-40.42
345.226	-61.21
345.61	-0.88
345.993	-23.47
346.376	-5.4
346.759	-1.55
347.142	36.86
347.525	17.2
347.908	53.81
348.291	89.52
348.674	80.48
349.057	108.27
349.44	136.75
349.823	146.69
350.206	158.22
350.588	172.68
350.971	184.43
351.354	216.52
351.737	238.21
352.119	226.46
352.502	239.57
352.884	259.23
353.267	259.91
353.65	262.85
354.032	302.17
354.414	288.83
354.797	301.04
355.179	310.53
355.562	292
355.944	326.12
356.326	339.45
356.709	323.18
357.091	333.8
357.473	329.96
357.855	345.78
358.238	320.92
358.62	329.96
359.002	328.16
359.384	334.48
359.766	342.84
360.148	331.54
360.53	367.7
360.912	337.87
361.294	326.35
361.676	305.33
362.057	325.44
362.439	317.08
362.821	307.59
363.203	304.65
363.584	323.64
363.966	302.17
364.348	309.17
364.729	310.75
365.111	319.79
365.493	314.37
365.874	315.73
366.256	324.77
366.637	302.39
367.019	313.92
367.4	312.11
367.781	333.8
368.163	292
368.544	318.66
368.925	300.13
369.306	341.94
369.688	301.49
370.069	304.88
370.45	297.42
370.831	309.17
371.212	304.43
371.593	291.32
371.974	318.66
372.355	281.38
372.736	313.47
373.117	323.18
373.498	318.89
373.879	302.39
374.26	304.43
374.641	313.01
375.021	325.44
375.402	318.44
375.783	314.82
376.163	287.93
376.544	330.42
376.925	310.08
377.305	316.4
377.686	326.35
378.066	310.3
378.447	339.91
378.827	305.56
379.208	339.68
379.588	336.97
379.968	331.32
380.349	313.01
380.729	334.71
381.109	321.15
381.489	313.47
381.87	346.91
382.25	346.23
382.63	354.37
383.01	327.93
383.39	342.84
383.77	339.68
384.15	326.57
384.53	355.5
384.91	367.02
385.29	370.19
385.67	351.43
386.049	352.79
386.429	366.57
386.809	360.47
387.189	351.88
387.568	355.05
387.948	353.92
388.328	361.83
388.707	354.6
389.087	347.82
389.466	365.22
389.846	372.22
390.225	356.4
390.605	354.82
390.984	386.91
391.363	376.74
391.743	372
392.122	381.94
392.501	387.14
392.881	373.58
393.26	392.79
393.639	366.12
394.018	373.13
394.397	379.68
394.776	389.85
395.155	383.97
395.534	386.23
395.913	372
396.292	381.94
396.671	411.09
397.05	411.99
397.429	390.53
397.808	408.15
398.186	420.58
398.565	393.92
398.944	417.87
399.323	416.29
399.701	401.15
400.08	395.27
400.458	417.87
400.837	416.06
401.215	426.23
401.594	426.46
401.972	429.85
402.351	435.5
402.729	421.94
403.107	432.56
403.486	435.5
403.864	451.99
404.242	434.37
404.62	451.99
404.999	442.73
405.377	419.9
405.755	452.22
406.133	435.27
406.511	451.32
406.889	441.6
407.267	477.76
407.645	467.81
408.023	489.28
408.401	448.6
408.779	462.84
409.156	470.3
409.534	464.2
409.912	476.17
410.29	478.66
410.667	486.34
411.045	501.48
411.422	484.76
411.8	482.05
412.178	484.08
412.555	515.04
412.933	496.29
413.31	515.27
413.687	513.24
414.065	508.94
414.442	543.29
414.819	537.87
415.197	545.55
415.574	547.13
415.951	531.99
416.328	542.39
416.705	550.07
417.082	557.08
417.46	557.98
417.837	553.69
418.214	547.36
418.591	564.53
418.967	558.88
419.344	570.63
419.721	576.74
420.098	562.73
420.475	603.4
420.852	582.39
421.228	567.7
421.605	570.63
421.982	578.77
422.358	584.19
422.735	597.3
423.111	608.37
423.488	595.49
423.864	621.03
424.241	588.26
424.617	615.83
424.994	600.69
425.37	632.78
425.746	625.1
426.123	633.01
426.499	640.01
426.875	650.41
427.251	642.72
427.627	662.61
428.003	670.97
428.379	668.49
428.756	681.59
429.132	689.73
429.507	685.43
429.883	686.56
430.259	710.29
430.635	709.16
431.011	696.28
431.387	712.78
431.763	716.62
432.138	710.07
432.514	698.31
432.89	717.98
433.265	749.16
433.641	778.76
434.016	762.49
434.392	756.62
434.767	759.56
435.143	783.06
435.518	770.63
435.894	796.62
436.269	797.75
436.644	795.26
437.02	799.33
437.395	809.05
437.77	825.32
438.145	844.98
438.52	824.41
438.895	842.94
439.271	842.04
439.646	860.57
440.021	839.78
440.395	848.82
440.77	858.08
441.145	861.7
441.52	870.06
441.895	875.71
442.27	875.03
442.645	890.85
443.019	912.55
443.394	905.77
443.769	906.9
444.143	898.76
444.518	917.97
444.892	903.51
445.267	919.55
445.641	919.1
446.016	915.71
446.39	904.19
446.764	924.98
447.139	919.1
447.513	946.9
447.887	955.26
448.262	950.74
448.636	978.76
449.01	974.92
449.384	964.52
449.758	974.24
450.132	974.24
450.506	986.67
450.88	1001.81
451.254	989.83
451.628	1012.66
452.002	997.06
452.376	1022.37
452.75	1023.05
453.123	1042.71
453.497	1050.62
453.871	1049.49
454.244	1090.4
454.618	1051.07
454.992	1084.52
455.365	1113.22
455.739	1130.39
456.112	1139.66
456.486	1120.68
456.859	1159.32
457.232	1168.36
457.606	1171.97
457.979	1171.75
458.352	1210.84
458.725	1223.27
459.099	1209.26
459.472	1218.53
459.845	1215.82
460.218	1242.93
460.591	1255.81
460.964	1243.16
461.337	1281.58
461.71	1289.49
462.083	1292.65
462.456	1312.99
462.829	1341.24
463.201	1346.89
463.574	1336.94
463.947	1357.73
464.32	1408.58
464.692	1415.58
465.065	1411.29
465.438	1433.66
465.81	1447.67
466.183	1447.22
466.555	1446.09
466.928	1495.13
467.3	1484.96
467.672	1513.89
468.045	1557.5
468.417	1539.42
468.789	1521.8
469.161	1548.46
469.534	1595.01
469.906	1626.65
470.278	1618.52
470.65	1645.63
471.022	1649.7
471.394	1682.02
471.766	1721.34
472.138	1722.47
472.51	1752.3
472.882	1776.48
473.253	1799.75
473.625	1825.97
473.997	1848.34
474.369	1879.75
474.74	1835.46
475.112	1909.36
475.484	1915.46
475.855	1945.97
476.227	1962.69
476.598	2026.19
476.97	2070.48
477.341	2112.29
477.713	2102.35
478.084	2120.88
478.455	2151.16
478.827	2181.89
479.198	2227.54
479.569	2233.19
479.94	2306.41
480.311	2305.73
480.682	2360.64
481.053	2397.93
481.424	2399.29
481.795	2478.38
482.166	2500.98
482.537	2549.79
482.908	2557.02
483.279	2612.61
483.65	2635.21
484.021	2671.6
484.391	2689.9
484.762	2718.83
485.133	2749.33
485.503	2808.32
485.874	2851.03
486.244	2875.88
486.615	2947.52
486.985	2972.83
487.356	3008.54
487.726	2986.16
488.097	3103.22
488.467	3081.3
488.837	3137.35
489.207	3171.47
489.578	3198.81
489.948	3219.38
490.318	3282.88
490.688	3305.93
491.058	3343.44
491.428	3379.15
491.798	3413.5
492.168	3476.55
492.538	3539.6
492.908	3553.61
493.278	3592.48
493.648	3578.01
494.017	3631.12
494.387	3684.68
494.757	3682.87
495.126	3725.13
495.496	3761.74
495.866	3747.27
496.235	3814.62
496.605	3841.96
496.974	3863.88
497.344	3863.66
497.713	3892.13
498.082	3930.77
498.452	3988.62
498.821	4008.74
499.19	4039.7
499.559	4041.28
499.928	4061.62
500.298	4129.19
500.667	4129.41
501.036	4141.61
501.405	4158.56
501.774	4170.09
502.143	4206.92
502.512	4201.27
502.88	4292.57
503.249	4280.37
503.618	4347.48
503.987	4333.93
504.356	4378.9
504.724	4360.59
505.093	4389.74
505.462	4454.15
505.83	4446.69
506.199	4481.94
506.567	4541.83
506.936	4564.2
507.304	4641.94
507.672	4593.35
508.041	4644.65
508.409	4692.56
508.777	4723.29
509.145	4754.48
509.514	4761.26
509.882	4857.08
510.25	4857.3
510.618	4833.35
510.986	4871.99
511.354	4943.18
511.722	4924.19
512.09	5016.39
512.458	4983.17
512.826	5086.67
513.193	5060.69
513.561	5104.98
513.929	5155.6
514.297	5234.92
514.664	5228.59
515.032	5289.61
515.4	5280.57
515.767	5268.36
516.135	5382.71
516.502	5327.12
516.869	5409.6
517.237	5466.33
517.604	5469.94
517.972	5502.48
518.339	5547.45
518.706	5558.75
519.073	5593.33
519.44	5649.82
519.808	5713.1
520.175	5684.85
520.542	5787.9
520.909	5833.55
521.276	5832.42
521.643	5848.91
522.009	5882.81
522.376	6012.98
522.743	6040.1
523.11	6079.87
523.477	6091.85
523.843	6123.03
524.21	6225.18
524.577	6273.54
524.943	6285.51
525.31	6342.69
525.676	6366.19
526.043	6441.44
526.409	6434.66
526.776	6599.63
527.142	6543.81
527.508	6583.36
527.874	6624.94
528.241	6666.52
528.607	6708.55
528.973	6718.04
529.339	6779.06
529.705	6840.75
530.071	6902.67
530.437	6905.16
530.803	6932.95
531.169	7013.4
531.535	6981.54
531.901	7045.72
532.267	7079.16
532.632	7092.05
532.998	7155.09
533.364	7181.53
533.73	7210.91
534.095	7305.82
534.461	7351.25
534.826	7291.14
535.192	7373.39
535.557	7364.13
535.923	7430.57
536.288	7430.34
536.653	7558.02
537.019	7453.62
537.384	7515.54
537.749	7549.66
538.114	7578.59
538.479	7584.69
538.845	7660.62
539.21	7674.18
539.575	7703.55
539.94	7760.28
540.305	7785.13
540.67	7842.53
541.034	7840.5
541.399	7871.91
541.764	7844.12
542.129	7922.98
542.494	7897.67
542.858	7956.43
543.223	8032.36
543.587	7998.46
543.952	8049.53
544.316	8096.31
544.681	8067.84
545.045	8130.66
545.41	8168.85
545.774	8209.98
546.138	8181.06
546.503	8224.67
546.867	8233.48
547.231	8305.8
547.595	8315.97
547.959	8381.28
548.324	8392.58
548.688	8423.76
549.052	8445.46
549.416	8499.47
549.779	8491.1
550.143	8453.14
550.507	8513.02
550.871	8638.45
551.235	8594.83
551.599	8658.11
551.962	8639.12
552.326	8721.15
552.689	8785.79
553.053	8802.06
553.417	8765.9
553.78	8926.35
554.143	8878.44
554.507	8862.62
554.87	8914.82
555.234	9033.24
555.597	8997.53
555.96	8994.82
556.323	9035.04
556.686	9070.07
557.05	9159.79
557.413	9180.35
557.776	9188.26
558.139	9275.04
558.502	9364.08
558.865	9293.57
559.228	9443.4
559.59	9420.57
559.953	9412.21
560.316	9509.83
560.679	9550.96
561.041	9568.14
561.404	9603.62
561.767	9645.2
562.129	9729.72
562.492	9840.9
562.854	9807.68
563.217	9788.7
563.579	9886.32
563.941	9891.97
564.304	9891.07
564.666	10009.26
565.028	9963.38
565.39	10094.23
565.753	10058.97
566.115	10098.97
566.477	10275.46
566.839	10222.36
567.201	10318.85
567.563	10351.17
567.925	10440.88
568.287	10366.99
568.648	10395.69
569.01	10509.81
569.372	10534.44
569.734	10519.07
570.095	10602.24
570.457	10669.35
570.819	10682.23
571.18	10746.41
571.542	10721.1
571.903	10755.9
572.265	10768.56
572.626	10853.75
572.987	10871.83
573.349	10961.1
573.71	10954.54
574.071	10986.63
574.432	11038.16
574.794	11070.47
575.155	11040.19
575.516	11032.05
575.877	11136.46
576.238	11145.5
576.599	11117.48
576.96	11181.2
577.32	11116.12
577.681	11244.7
578.042	11240.86
578.403	11240.41
578.763	11305.27
579.124	11224.82
579.485	11382.33
579.845	11380.75
580.206	11293.52
580.566	11343.91
580.927	11353.85
581.287	11347.3
581.648	11304.82
582.008	11417.36
582.368	11369.22
582.728	11489.44
583.089	11358.37
583.449	11400.86
583.809	11406.96
584.169	11397.92
584.529	11421.42
584.889	11472.49
585.249	11473.4
585.609	11452.83
585.969	11509.1
586.329	11452.61
586.688	11490.12
587.048	11471.37
587.408	11472.95
587.768	11420.07
588.127	11494.19
588.487	11465.72
588.846	11456.9
589.206	11504.58
589.565	11446.96
589.925	11478.6
590.284	11442.44
590.643	11487.18
591.003	11505.71
591.362	11530.35
591.721	11493.96
592.08	11497.58
592.44	11531.93
592.799	11547.52
593.158	11512.72
593.517	11552.72
593.876	11522.21
594.235	11533.51
594.593	11488.99
594.952	11584.81
595.311	11550.23
595.67	11599.05
596.029	11658.48
596.387	11548.88
596.746	11656.22
597.104	11567.41
597.463	11635.88
597.822	11644.69
598.18	11587.07
598.538	11640.17
598.897	11703.9
599.255	11611.02
599.613	11747.74
599.972	11666.39
600.33	11674.75
600.688	11684.24
601.046	11752.94
601.404	11646.95
601.762	11706.16
602.12	11759.95
602.478	11842.2
602.836	11778.25
603.194	11745.48
603.552	11746.16
603.91	11686.73
604.268	11850.79
604.625	11800.85
604.983	11876.78
605.341	11769.66
605.698	11879.94
606.056	11911.58
606.413	11900.28
606.771	11878.81
607.128	11933.95
607.485	11881.52
607.843	11910.9
608.2	11984.12
608.557	11973.95
608.914	11898.02
609.272	11952.71
609.629	12096.89
609.986	12123.55
610.343	11971.92
610.7	12159.71
611.057	12042.88
611.414	12067.96
611.771	12046.27
612.127	12178.01
612.484	12120.61
612.841	12171.91
613.198	12153.38
613.554	12203.32
613.911	12214.17
614.267	12211.91
614.624	12236.54
614.98	12290.78
615.337	12296.2
615.693	12217.79
616.05	12276.54
616.406	12362.19
616.762	12248.75
617.118	12257.79
617.475	12300.04
617.831	12291.46
618.187	12350.44
618.543	12347.95
618.899	12363.09
619.255	12405.13
619.611	12273.83
619.967	12341.17
620.323	12425.46
620.678	12359.25
621.034	12356.31
621.39	12362.87
621.746	12368.52
622.101	12538.46
622.457	12409.19
622.812	12412.36
623.168	12434.5
623.523	12410.55
623.879	12508.63
624.234	12407.61
624.589	12504.11
624.945	12406.48
625.3	12441.28
625.655	12348.63
626.01	12474.5
626.365	12397.22
626.72	12477.89
627.075	12507.04
627.43	12428.85
627.785	12369.87
628.14	12375.52
628.495	12416.2
628.85	12364.45
629.205	12370.78
629.559	12476.54
629.914	12264.79
630.269	12388.4
630.623	12356.09
630.978	12281.06
631.332	12376.43
631.687	12348.86
632.041	12291.68
632.396	12365.58
632.75	12267.95
633.104	12302.08
633.459	12272.47
633.813	12282.64
634.167	12298.46
634.521	12202.87
634.875	12259.37
635.229	12243.1
635.583	12228.18
635.937	12156.77
636.291	12206.49
636.645	12186.15
636.999	12188.18
637.352	12166.94
637.706	12099.15
638.06	12143.66
638.413	12123.55
638.767	12006.72
639.121	12177.34
639.474	12088.07
639.828	12031.35
640.181	12074.51
640.534	12024.8
640.888	11952.48
641.241	11900.51
641.594	12078.35
641.947	12011.24
642.301	11880.62
642.654	11926.49
643.007	11971.69
643.36	11958.81
643.713	11865.7
644.066	11956.1
644.419	11830.45
644.771	11756.1
645.124	11562.21
645.477	11666.16
645.83	11563.11
646.182	11560.18
646.535	11549.1
646.888	11539.61
647.24	11459.61
647.593	11545.04
647.945	11488.99
648.298	11416.9
648.65	11429.33
649.002	11424.13
649.355	11476.34
649.707	11406.06
650.059	11358.6
650.411	11623.9
650.763	11580.29
651.115	11699.83
651.467	11834.75
651.819	11601.98
652.171	11607.63
652.523	11552.27
652.875	11558.14
653.227	11583
653.578	11620.29
653.93	11594.3
654.282	11544.36
654.633	11526.28
654.985	11593.85
655.337	11522.66
655.688	11512.72
656.039	11556.79
656.391	11477.01
656.742	11515.21
657.094	11412.61
657.445	11449.22
657.796	11439.05
658.147	11460.97
658.498	11451.03
658.849	11444.02
659.2	11420.29
659.551	11445.38
659.902	11456.68
660.253	11376.23
660.604	11426.85
660.955	11348.43
661.306	11503.45
661.656	11360.41
662.007	11416.68
662.358	11446.73
662.708	11378.94
663.059	11330.13
663.409	11396.56
663.76	11340.52
664.11	11359.96
664.461	11399.05
664.811	11482.44
665.161	11385.94
665.511	11332.16
665.862	11362.22
666.212	11398.37
666.562	11357.7
666.912	11316.11
667.262	11382.78
667.612	11359.5
667.962	11281.99
668.312	11294.42
668.662	11349.79
669.011	11287.42
669.361	11323.8
669.711	11286.29
670.06	11292.39
670.41	11211.71
670.76	11211.03
671.109	11256.91
671.459	11226.17
671.808	11245.61
672.157	11248.55
672.507	11196.8
672.856	11135.1
673.205	11120.41
673.554	11265.04
673.904	11204.71
674.253	11199.73
674.602	11171.03
674.951	10951.6
675.3	10920.19
675.649	11159.51
675.998	11013.52
676.346	11117.48
676.695	11222.56
677.044	11056.69
677.393	11101.21
677.741	11157.93
678.09	11056.23
678.438	10971.49
678.787	11093.97
679.135	11038.16
679.484	11036.57
679.832	11097.14
680.181	10959.97
680.529	10951.6
680.877	10943.47
681.225	11013.3
681.573	10946.86
681.922	10919.52
682.27	10831.16
682.618	10937.37
682.966	10923.13
683.314	10891.04
683.661	10837.94
684.009	10790.7
684.357	10787.54
684.705	10733.76
685.053	10765.17
685.4	10817.14
685.748	10756.13
686.095	10711.39
686.443	10726.07
686.79	10592.07
687.138	10694.66
687.485	10660.31
687.832	10613.76
688.18	10575.34
688.527	10512.52
688.874	10554.55
689.221	10550.26
689.568	10503.03
689.915	10493.54
690.262	10421.68
690.609	10478.62
690.956	10467.55
691.303	10423.93
691.65	10357.5
691.997	10315.01
692.344	10289.93
692.69	10265.97
693.037	10231.62
693.383	10217.61
693.73	10271.17
694.077	10199.08
694.423	10148.24
694.769	10125.19
695.116	10064.85
695.462	10093.1
695.808	10062.81
696.155	10084.51
696.501	10026.21
696.847	10029.14
697.193	9955.7
697.539	9993.66
697.885	9879.54
698.231	9852.2
698.577	9903.95
698.923	9873.44
699.269	9861.24
699.614	9751.64
699.96	9762.48
700.306	9743.95
700.651	9734.01
700.997	9688.59
701.342	9664.86
701.688	9703.05
702.033	9651.3
702.379	9595.93
702.724	9599.55
703.069	9657.4
703.415	9474.81
703.76	9527.91
704.105	9490.17
704.45	9552.77
704.795	9373.12
705.14	9371.31
705.485	9362.27
705.83	9383.06
706.175	9352.55
706.52	9349.84
706.865	9308.03
707.209	9313.46
707.554	9304.64
707.899	9306.9
708.243	9294.02
708.588	9270.29
708.932	9195.49
709.277	9206.11
709.621	9182.61
709.966	9156.4
710.31	9089.28
710.654	9066.91
710.998	9107.36
711.342	9067.36
711.687	9049.06
712.031	9019.45
712.375	9029.85
712.719	9009.73
713.063	9044.76
713.407	9014.71
713.75	9001.83
714.094	8936.29
714.438	8915.73
714.782	8954.82
715.125	8872.34
715.469	8920.47
715.812	8883.64
716.156	8817.2
716.499	8749.63
716.843	8827.82
717.186	8713.25
717.53	8853.13
717.873	8773.13
718.216	8801.83
718.559	8703.98
718.902	8666.47
719.246	8676.86
719.589	8658.78
719.932	8613.36
720.275	8613.81
720.617	8634.6
720.96	8581.5
721.303	8609.97
721.646	8619.69
721.989	8521.16
722.331	8548.28
722.674	8588.28
723.016	8595.06
723.359	8539.92
723.701	8500.82
724.044	8398.68
724.386	8389.86
724.729	8470.99
725.071	8439.81
725.413	8448.39
725.755	8389.19
726.097	8397.32
726.439	8390.09
726.782	8416.98
727.124	8376.53
727.465	8244.33
727.807	8357.77
728.149	8298.12
728.491	8224.44
728.833	8291.34
729.175	8270.77
729.516	8189.64
729.858	8220.83
730.199	8231.22
730.541	8175.18
730.882	8253.37
731.224	8175.18
731.565	8189.19
731.906	8208.85
732.248	8212.92
732.589	8124.79
732.93	8148.06
733.271	8107.16
733.612	8137.89
733.953	8108.06
734.294	8087.95
734.635	8128.4
734.976	8069.42
735.317	8042.98
735.658	8080.72
735.999	8096.31
736.339	8069.19
736.68	7979.93
737.021	7998.69
737.361	8041.62
737.702	7967.73
738.042	7980.16
738.383	7953.04
738.723	7981.06
739.063	7898.35
739.404	7911.68
739.744	7949.65
740.084	7837.11
740.424	7873.27
740.764	7830.56
741.104	7854.51
741.444	7875.53
741.784	7837.11
742.124	7839.6
742.464	7814.96
742.804	7748.53
743.143	7812.25
743.483	7791.46
743.823	7781.29
744.162	7776.32
744.502	7755.08
744.841	7671.92
745.181	7737
745.52	7701.29
745.86	7754.17
746.199	7645.02
746.538	7719.37
746.877	7694.74
747.216	7665.36
747.556	7624.23
747.895	7673.27
748.234	7582.65
748.573	7607.06
748.911	7617.23
749.25	7607.51
749.589	7569.32
749.928	7550.79
750.267	7551.69
750.605	7569.55
750.944	7552.15
751.283	7455.2
751.621	7551.47
751.96	7455.2
752.298	7451.36
752.636	7473.05
752.975	7423.79
753.313	7404.35
753.651	7411.36
753.989	7354.64
754.327	7330.46
754.666	7246.17
755.004	7348.99
755.342	7270.8
755.679	7278.25
756.017	7222.21
756.355	7265.6
756.693	7256.56
757.031	7274.41
757.368	7201.87
757.706	7193.96
758.044	7209.78
758.381	7142.67
758.719	7161.87
759.056	7126.39
759.394	7165.49
759.731	7094.08
760.068	7078.26
760.405	7054.31
760.743	6996.68
761.08	7035.32
761.417	6996.68
761.754	6950.81
762.091	6993.74
762.428	6894.31
762.765	6838.94
