Data from black_metal_pc_casing_FLMS001491_00057.txt Node
Date: Wed Feb 08 14:33:04 GMT 2017
User: dcchb
Spectrometer: FLMS00149
Trigger mode: 0
Integration Time (sec): 2.000000E-2
Scans to average: 10
Electric dark correction enabled: true
Nonlinearity correction enabled: false
Boxcar width: 0
XAxis mode: Wavelengths
Number of Pixels in Spectrum: 2048
>>>>>Begin Spectral Data<<<<<
341.393	-5.65
341.776	-5.65
342.16	-5.65
342.543	-56.27
342.927	-45.42
343.31	-60.11
343.693	-77.51
344.077	-84.97
344.46	-64.41
344.843	-58.08
345.226	-33.22
345.61	-36.38
345.993	-11.53
346.376	13.33
346.759	4.07
347.142	23.28
347.525	46.55
347.908	58.08
348.291	79.09
348.674	94.23
349.057	107.57
349.44	120
349.823	138.98
350.206	145.76
350.588	188.92
350.971	196.83
351.354	219.88
351.737	223.72
352.119	210.39
352.502	249.48
352.884	247.23
353.267	268.69
353.65	295.59
354.032	285.42
354.414	274.12
354.797	294.91
355.179	305.53
355.562	317.05
355.944	306.43
356.326	308.24
356.709	319.54
357.091	309.6
357.473	327.22
357.855	323.16
358.238	344.62
358.62	321.8
359.002	336.26
359.384	328.35
359.766	322.03
360.148	325.64
360.53	334.68
360.912	329.03
361.294	308.01
361.676	335.58
362.057	329.71
362.439	320.9
362.821	327
363.203	327.22
363.584	319.54
363.966	308.92
364.348	315.02
364.729	326.55
365.111	315.92
365.493	312.08
365.874	301.24
366.256	298.98
366.637	306.43
367.019	301.24
367.4	298.98
367.781	293.55
368.163	298.75
368.544	315.47
368.925	308.92
369.306	305.98
369.688	323.83
370.069	298.52
370.45	314.57
370.831	311.86
371.212	324.29
371.593	301.91
371.974	329.26
372.355	308.47
372.736	305.3
373.117	310.05
373.498	307.34
373.879	309.14
374.26	318.86
374.641	335.36
375.021	310.05
375.402	326.55
375.783	311.18
376.163	329.48
376.544	301.01
376.925	331.74
377.305	323.83
377.686	307.56
378.066	315.47
378.447	324.29
378.827	312.99
379.208	326.77
379.588	343.72
379.968	342.36
380.349	329.48
380.729	342.82
381.109	319.54
381.489	343.04
381.87	330.39
382.25	350.27
382.63	352.53
383.01	359.09
383.39	354.57
383.77	352.76
384.15	352.08
384.53	369.03
384.91	352.99
385.29	370.16
385.67	362.48
386.049	379.2
386.429	359.99
386.809	356.83
387.189	377.17
387.568	380.33
387.948	360.44
388.328	372.65
388.707	370.84
389.087	380.78
389.466	392.76
389.846	374.45
390.225	362.02
390.605	391.18
390.984	385.3
391.363	393.66
391.743	397.73
392.122	380.1
392.501	390.95
392.881	398.86
393.26	371.06
393.639	404.74
394.018	407.22
394.397	384.4
394.776	393.21
395.155	414.45
395.534	404.06
395.913	411.97
396.292	410.61
396.671	416.03
397.05	413.32
397.429	416.03
397.808	420.78
398.186	436.82
398.565	435.69
398.944	428.92
399.323	457.16
399.701	422.81
400.08	442.02
400.458	444.28
400.837	439.54
401.215	418.52
401.594	439.99
401.972	447.45
402.351	446.54
402.729	432.53
403.107	444.73
403.486	456.26
403.864	470.5
404.242	463.26
404.62	452.87
404.999	459.2
405.377	441.8
405.755	484.73
406.133	470.95
406.511	504.62
406.889	470.5
407.267	486.99
407.645	486.09
408.023	491.74
408.401	501.91
408.779	494.9
409.156	507.78
409.534	493.32
409.912	511.17
410.29	511.62
410.667	515.92
411.045	518.4
411.422	494.68
411.8	536.03
412.178	535.35
412.555	550.72
412.933	539.65
413.31	545.3
413.687	538.29
414.065	548.69
414.442	575.13
414.819	566.99
415.197	586.65
415.574	565.86
415.951	572.41
416.328	605.41
416.705	612.19
417.082	586.65
417.46	602.47
417.837	601.79
418.214	606.76
418.591	607.89
418.967	613.54
419.344	594.56
419.721	599.76
420.098	637.72
420.475	617.84
420.852	636.14
421.228	612.64
421.605	606.76
421.982	620.55
422.358	618.97
422.735	635.69
423.111	630.94
423.488	645.63
423.864	657.16
424.241	679.08
424.617	645.41
424.994	670.72
425.37	663.94
425.746	681.56
426.123	683.15
426.499	655.35
426.875	695.8
427.251	690.83
427.627	717.95
428.003	728.79
428.379	719.98
428.756	750.26
429.132	757.04
429.507	743.48
429.883	748.91
430.259	753.88
430.635	765.4
431.011	771.28
431.387	769.02
431.763	810.6
432.138	784.61
432.514	808.11
432.89	800.88
433.265	797.49
433.641	793.65
434.016	850.37
434.392	829.81
434.767	858.06
435.143	831.16
435.518	845.85
435.894	866.42
436.269	890.6
436.644	912.52
437.02	926.98
437.395	891.73
437.77	884.72
438.145	890.15
438.52	917.26
438.895	928.79
439.271	922.01
439.646	919.3
440.021	959.75
440.395	955.91
440.77	951.39
441.145	939.64
441.52	962.23
441.895	981.44
442.27	973.53
442.645	957.71
443.019	995.23
443.394	988.9
443.769	1010.59
444.143	992.06
444.518	998.84
444.892	999.75
445.267	1013.53
445.641	1014.21
446.016	1022.8
446.39	1022.35
446.764	1037.71
447.139	1007.43
447.513	1055.34
447.887	1038.62
448.262	1063.47
448.636	1051.95
449.01	1103.47
449.384	1082.46
449.758	1065.51
450.132	1102.8
450.506	1080.88
450.88	1083.59
451.254	1113.19
451.628	1142.79
452.002	1145.96
452.376	1152.29
452.75	1131.95
453.123	1138.73
453.497	1181.89
453.871	1183.47
454.244	1206.07
454.618	1182.34
454.992	1232.74
455.365	1246.75
455.739	1249.46
456.112	1269.8
456.486	1300.53
456.859	1276.8
457.232	1315.22
457.606	1280.19
457.979	1301.89
458.352	1331.04
458.725	1353.64
459.099	1357.48
459.472	1375.56
459.845	1376.01
460.218	1399.51
460.591	1402.9
460.964	1407.65
461.337	1445.61
461.71	1472.96
462.083	1495.78
462.456	1490.36
462.829	1489.45
463.201	1521.99
463.574	1514.76
463.947	1533.52
464.32	1559.06
464.692	1595.21
465.065	1590.92
465.438	1622.1
465.81	1595.21
466.183	1637.47
466.555	1673.4
466.928	1662.33
467.3	1662.1
467.672	1686.28
468.045	1735.1
468.417	1738.94
468.789	1759.95
469.161	1765.6
469.534	1805.38
469.906	1822.55
470.278	1842.44
470.65	1855.54
471.022	1906.39
471.394	1945.49
471.766	1969.89
472.138	1975.99
472.51	1979.83
472.882	2032.71
473.253	2043.11
473.625	2061.87
473.997	2083.79
474.369	2144.8
474.74	2157.68
475.112	2165.82
475.484	2222.77
475.855	2259.38
476.227	2269.54
476.598	2307.96
476.97	2341.41
477.341	2372.82
477.713	2406.49
478.084	2416.21
478.455	2472.03
478.827	2466.6
479.198	2586.15
479.569	2582.3
479.94	2589.54
480.311	2626.15
480.682	2704.79
481.053	2746.82
481.424	2776.88
481.795	2783.2
482.166	2861.17
482.537	2897.78
482.908	2949.75
483.279	2970.77
483.65	2995.63
484.021	3053.71
484.391	3112.23
484.762	3165.57
485.133	3138.9
485.503	3197.2
485.874	3259.35
486.244	3245.11
486.615	3375.28
486.985	3398.55
487.356	3454.15
487.726	3452.34
488.097	3512.45
488.467	3513.13
488.837	3631.77
489.207	3620.02
489.578	3706.57
489.948	3719.22
490.318	3802.16
490.688	3798.32
491.058	3824.98
491.428	3928.94
491.798	3945.21
492.168	4014.58
492.538	3996.51
492.908	4073.34
493.278	4081.25
493.648	4115.37
494.017	4179.78
494.387	4176.39
494.757	4236.5
495.126	4272.66
495.496	4295.03
495.866	4329.38
496.235	4372.54
496.605	4395.36
496.974	4459.77
497.344	4462.48
497.713	4511.29
498.082	4533.21
498.452	4569.15
498.821	4633.32
499.19	4605.75
499.559	4673.78
499.928	4665.87
500.298	4729.37
500.667	4770.5
501.036	4778.18
501.405	4803.04
501.774	4809.14
502.143	4866.31
502.512	4918.74
502.88	4880.1
503.249	4906.09
503.618	4991.96
503.987	5007.78
504.356	5031.05
504.724	5075.8
505.093	5069.25
505.462	5110.6
505.83	5150.6
506.199	5182.69
506.567	5262.91
506.936	5263.82
507.304	5311.95
507.672	5341.78
508.041	5385.85
508.409	5412.74
508.777	5450.48
509.145	5515.34
509.514	5497.48
509.882	5561.89
510.25	5544.04
510.618	5602.34
510.986	5637.14
511.354	5697.25
511.722	5768.21
512.09	5823.12
512.458	5801.43
512.826	5843.91
513.193	5875.78
513.561	5912.84
513.929	5920.3
514.297	5974.76
514.664	6022.21
515.032	6038.71
515.4	6103.57
515.767	6137.24
516.135	6147.41
516.502	6200.29
516.869	6270.12
517.237	6315.31
517.604	6345.6
517.972	6325.26
518.339	6394.41
518.706	6377.91
519.073	6468.98
519.44	6452.94
519.808	6583.1
520.175	6581.07
520.542	6705.36
520.909	6651.12
521.276	6723.44
521.643	6838.24
522.009	6863.77
522.376	6897.67
522.743	6968.63
523.11	7010.66
523.477	7083.88
523.843	7071.45
524.21	7198.91
524.577	7205.01
524.943	7306.25
525.31	7284.33
525.676	7387.83
526.043	7369.98
526.409	7480.26
526.776	7535.62
527.142	7565.22
527.508	7678.89
527.874	7683.64
528.241	7727.48
528.607	7790.53
528.973	7845.67
529.339	7850.42
529.705	7920.47
530.071	7981.26
530.437	7977.64
530.803	8045.44
531.169	8103.06
531.535	8123.85
531.901	8136.28
532.267	8211.31
532.632	8232.78
532.998	8284.08
533.364	8303.28
533.73	8394.81
534.095	8441.13
534.461	8506.89
534.826	8520.68
535.192	8534.24
535.557	8588.25
535.923	8648.36
536.288	8636.84
536.653	8748.47
537.019	8699.43
537.384	8760.22
537.749	8740.11
538.114	8826.21
538.479	8785.76
538.845	8849.94
539.21	8864.85
539.575	8860.33
539.94	8966.77
540.305	8970.61
540.67	9033.21
541.034	9026.43
541.399	9125.18
541.764	9168.12
542.129	9188.01
542.494	9163.6
542.858	9273.43
543.223	9271.39
543.587	9224.39
543.952	9301.45
544.316	9332.86
544.681	9351.17
545.045	9438.62
545.41	9430.94
545.774	9436.14
546.138	9451.95
546.503	9528.34
546.867	9595.45
547.231	9600.65
547.595	9655.11
547.959	9697.82
548.324	9660.08
548.688	9701.44
549.052	9795.22
549.416	9765.84
549.779	9771.95
550.143	9749.35
550.507	9864.37
550.871	9949.79
551.235	9971.72
551.599	9964.03
551.962	9953.86
552.326	10083.58
552.689	10114.99
553.053	10094.65
553.417	10065.5
553.78	10166.29
554.143	10218.04
554.507	10251.03
554.87	10277.7
555.234	10399.5
555.597	10389.78
555.96	10377.13
556.323	10417.81
556.686	10455.32
557.05	10561.08
557.413	10550.01
557.776	10631.36
558.139	10642.88
558.502	10688.31
558.865	10710.23
559.228	10826.61
559.59	10795.2
559.953	10869.54
560.316	10967.85
560.679	10985.25
561.041	11106.15
561.404	11072.03
561.767	11219.14
562.129	11187.28
562.492	11305.92
562.854	11311.79
563.217	11334.39
563.579	11366.25
563.941	11430.43
564.304	11460.04
564.666	11495.97
565.028	11571.45
565.39	11635.4
565.753	11779.58
566.115	11712.91
566.477	11796.07
566.839	11827.03
567.201	11850.08
567.563	11915.62
567.925	12015.5
568.287	11968.95
568.648	12018.22
569.01	12103.64
569.372	12122.62
569.734	12087.82
570.095	12207.14
570.457	12270.86
570.819	12300.47
571.18	12356.74
571.542	12405.55
571.903	12434.93
572.265	12372.78
572.626	12400.8
572.987	12473.57
573.349	12522.38
573.71	12551.99
574.071	12610.97
574.432	12716.5
574.794	12801.25
575.155	12741.81
575.516	12758.08
575.877	12682.83
576.238	12780.91
576.599	12936.83
576.96	12780.91
577.32	12870.4
577.681	12963.5
578.042	12969.83
578.403	12921.47
578.763	12923.95
579.124	12982.94
579.485	12944.97
579.845	13046.44
580.206	13064.97
580.566	13007.12
580.927	13073.55
581.287	13079.66
581.648	13057.28
582.008	13248.69
582.368	13179.31
582.728	13159.43
583.089	13211.4
583.449	13139.32
583.809	13152.87
584.169	13171.63
584.529	13097.96
584.889	13249.14
585.249	13132.54
585.609	13134.34
585.969	13235.13
586.329	13151.52
586.688	13207.34
587.048	13212.53
587.408	13134.8
587.768	13165.53
588.127	13164.85
588.487	13204.17
588.846	13306.09
589.206	13208.24
589.565	13194.46
589.925	13263.83
590.284	13199.65
590.643	13227.45
591.003	13319.42
591.362	13314.45
591.721	13243.04
592.08	13253.66
592.44	13340.21
592.799	13348.58
593.158	13220.9
593.517	13259.76
593.876	13273.55
594.235	13329.59
594.593	13343.38
594.952	13408.69
595.311	13324.62
595.67	13300.44
596.029	13442.81
596.387	13437.84
596.746	13404.17
597.104	13351.74
597.463	13362.36
597.822	13396.26
598.18	13349.93
598.538	13385.64
598.897	13422.25
599.255	13299.76
599.613	13542.24
599.972	13508.8
600.33	13461.11
600.688	13463.6
601.046	13458.18
601.404	13532.07
601.762	13510.83
602.12	13588.8
602.478	13569.13
602.836	13572.75
603.194	13510.38
603.552	13507.67
603.91	13576.59
604.268	13563.49
604.625	13527.78
604.983	13644.39
605.341	13536.59
605.698	13553.99
606.056	13683.93
606.413	13650.71
606.771	13705.4
607.128	13658.62
607.485	13635.35
607.843	13647.1
608.2	13715.12
608.557	13739.53
608.914	13786.08
609.272	13790.15
609.629	13850.03
609.986	13914.44
610.343	13854.32
610.7	13845.74
611.057	13877.15
611.414	13864.27
611.771	13850.94
612.127	13935.9
612.484	13951.72
612.841	13946.07
613.198	13957.6
613.554	14017.03
613.911	14044.83
614.267	13994.66
614.624	13962.8
614.98	14022
615.337	14039.18
615.693	14048.67
616.05	14009.35
616.406	14136.13
616.762	13935.9
617.118	14078.95
617.475	14137.93
617.831	14064.49
618.187	14059.97
618.543	14099.52
618.899	14159.63
619.255	14158.05
619.611	14175.9
619.967	14151.27
620.323	14235.56
620.678	14224.26
621.034	14196.46
621.39	14132.96
621.746	14128.44
622.101	14160.31
622.457	14198.27
622.812	14268.55
623.168	14259.06
623.523	14236.24
623.879	14252.05
624.234	14181.77
624.589	14262.22
624.945	14219.06
625.3	14197.82
625.655	14254.09
626.01	14217.71
626.365	14293.64
626.72	14200.76
627.075	14188.78
627.43	14187.42
627.785	14169.57
628.14	14261.32
628.495	14219.51
628.85	14275.56
629.205	14140.87
629.559	14254.77
629.914	14171.15
630.269	14193.53
630.623	14240.3
630.978	14146.07
631.332	14200.98
631.687	14195.78
632.041	14126.41
632.396	14127.09
632.75	14153.98
633.104	14134.32
633.459	14031.04
633.813	14052.74
634.167	14099.29
634.521	14041.44
634.875	14042.34
635.229	14097.48
635.583	14006.19
635.937	13955.79
636.291	13921.22
636.645	13857.71
636.999	13937.71
637.352	13975
637.706	13862.01
638.06	13894.78
638.413	13834.44
638.767	13890.26
639.121	13867.21
639.474	13833.31
639.828	13871.73
640.181	13828.34
640.534	13798.06
640.888	13790.82
641.241	13720.32
641.594	13741.79
641.947	13812.97
642.301	13781.11
642.654	13707.44
643.007	13753.08
643.36	13782.46
643.713	13730.71
644.066	13698.4
644.419	13592.41
644.771	13559.19
645.124	13333.66
645.477	13299.54
645.83	13215.25
646.182	13236.49
646.535	13201.91
646.888	13211.18
647.24	13135.47
647.593	13217.96
647.945	13147
648.298	13121.24
648.65	13030.84
649.002	13052.54
649.355	13118.75
649.707	13087.34
650.059	13161.69
650.411	13268.13
650.763	13307.22
651.115	13433.55
651.467	13291.4
651.819	13315.58
652.171	13323.49
652.523	13306.77
652.875	13296.15
653.227	13196.26
653.578	13389.25
653.93	13283.04
654.282	13249.6
654.633	13231.52
654.985	13226.32
655.337	13200.56
655.688	13185.87
656.039	13254.79
656.391	13086.89
656.742	13176.83
657.094	13187.9
657.445	13183.16
657.796	13192.42
658.147	13143.16
658.498	13160.78
658.849	13102.03
659.2	13070.84
659.551	13040.11
659.902	13097.96
660.253	13062.48
660.604	13108.13
660.955	12989.94
661.306	13103.84
661.656	13042.14
662.007	13142.03
662.358	13067.9
662.708	13072.2
663.059	13059.54
663.409	12893.45
663.76	13053.89
664.11	12937.06
664.461	13050.73
664.811	12980.22
665.161	13019.54
665.511	12952.43
665.862	12921.47
666.212	13057.74
666.562	13005.53
666.912	12991.97
667.262	12995.59
667.612	12984.29
667.962	12905.88
668.312	12895.93
668.662	12973.9
669.011	12906.33
669.361	12921.47
669.711	12928.47
670.06	12935.25
670.41	12932.54
670.76	12760.34
671.109	12916.04
671.459	12918.53
671.808	12831.98
672.157	12809.83
672.507	12751.98
672.856	12827.23
673.205	12828.59
673.554	12824.75
673.904	12782.49
674.253	12776.61
674.602	12784.52
674.951	12696.16
675.3	12600.12
675.649	12748.59
675.998	12779.32
676.346	12776.39
676.695	12818.42
677.044	12688.48
677.393	12735.03
677.741	12721.7
678.09	12674.02
678.438	12711.76
678.787	12744.98
679.135	12693.68
679.484	12604.41
679.832	12573.91
680.181	12574.13
680.529	12631.53
680.877	12610.29
681.225	12521.03
681.573	12591.53
681.922	12480.35
682.27	12529.16
682.618	12496.62
682.966	12462.95
683.314	12408.71
683.661	12412.55
684.009	12392.22
684.357	12372.56
684.705	12308.15
685.053	12347.25
685.4	12265.67
685.748	12265.67
686.095	12298.43
686.443	12227.93
686.79	12255.95
687.138	12199.91
687.485	12238.77
687.832	12149.29
688.18	12136.4
688.527	12041.27
688.874	12120.36
689.221	12065.22
689.568	12109.06
689.915	12014.83
690.262	12047.82
690.609	11916.97
690.956	11952.68
691.303	11930.31
691.65	11832.91
691.997	11835.85
692.344	11772.57
692.69	11777.77
693.037	11777.77
693.383	11661.84
693.73	11696.64
694.077	11622.75
694.423	11664.33
694.769	11596.31
695.116	11596.31
695.462	11599.02
695.808	11487.61
696.155	11531.67
696.501	11486.03
696.847	11467.72
697.193	11389.76
697.539	11471.34
697.885	11342.07
698.231	11273.6
698.577	11261.62
698.923	11264.56
699.269	11288.52
699.614	11154.51
699.96	11111.8
700.306	11079.71
700.651	11115.64
700.997	11029.09
701.342	11030.67
701.688	10979.37
702.033	10942.99
702.379	10919.71
702.724	10997.22
703.069	11050.1
703.415	10908.64
703.76	10852.37
704.105	10859.15
704.45	10842.88
704.795	10736.67
705.14	10728.76
705.485	10749.32
705.83	10616.9
706.175	10719.49
706.52	10641.53
706.865	10618.7
707.209	10617.8
707.554	10557.24
707.899	10588.42
708.243	10545.49
708.588	10550.46
708.932	10467.07
709.277	10469.78
709.621	10411.48
709.966	10345.04
710.31	10446.73
710.654	10321.31
710.998	10314.31
711.342	10302.55
711.687	10274.08
712.031	10386.17
712.375	10244.02
712.719	10251.48
713.063	10225.95
713.407	10254.87
713.75	10175.55
714.094	10198.15
714.438	10168.09
714.782	10211.48
715.125	10081.99
715.469	10123.8
715.812	10087.64
716.156	10060.53
716.499	10086.06
716.843	10055.78
717.186	9925.16
717.53	10031.15
717.873	10024.37
718.216	9930.13
718.559	9929.46
718.902	9859.4
719.246	9921.55
719.589	9887.88
719.932	9789.12
720.275	9822.79
720.617	9827.99
720.96	9792.51
721.303	9796.13
721.646	9739.86
721.989	9747.77
722.331	9768.78
722.674	9769.91
723.016	9778.5
723.359	9721.55
723.701	9686.07
724.044	9658.5
724.386	9625.96
724.729	9655.34
725.071	9596.58
725.413	9581.67
725.755	9606.75
726.097	9609.01
726.439	9600.43
726.782	9574.66
727.124	9601.33
727.465	9486.3
727.807	9510.71
728.149	9472.75
728.491	9457.38
728.833	9518.62
729.175	9432.75
729.516	9415.12
729.858	9405.85
730.199	9367.89
730.541	9391.62
730.882	9425.29
731.224	9356.14
731.565	9292.41
731.906	9329.92
732.248	9346.42
732.589	9280.89
732.93	9213.54
733.271	9285.63
733.612	9226.42
733.953	9216.48
734.294	9216.25
734.635	9270.04
734.976	9179.87
735.317	9135.58
735.658	9128.8
735.999	9148.91
736.339	9115.24
736.68	9151.4
737.021	9063.72
737.361	9124.73
737.702	9115.24
738.042	9086.99
738.383	9084.73
738.723	9124.96
739.063	9063.26
739.404	9031.4
739.744	8997.73
740.084	8965.19
740.424	8996.37
740.764	8979.65
741.104	8985.07
741.444	8918.64
741.784	8899.65
742.124	8910.95
742.464	8906.66
742.804	8857.62
743.143	8790.28
743.483	8873.89
743.823	8755.25
744.162	8821.69
744.502	8840.9
744.841	8724.97
745.181	8807.68
745.52	8733.33
745.86	8776.27
746.199	8712.99
746.538	8756.38
746.877	8775.59
747.216	8731.52
747.556	8701.01
747.895	8711.64
748.234	8644.52
748.573	8592.99
748.911	8638.64
749.25	8646.33
749.589	8607.01
749.928	8607.68
750.267	8657.63
750.605	8563.16
750.944	8569.27
751.283	8507.35
751.621	8582.37
751.96	8493.56
752.298	8536.5
752.636	8480.91
752.975	8446.11
753.313	8418.76
753.651	8394.81
753.989	8360.68
754.327	8346.9
754.666	8372.89
755.004	8389.38
755.342	8350.97
755.679	8344.19
756.017	8230.97
756.355	8279.1
756.693	8259.44
757.031	8260.35
757.368	8179.22
757.706	8210.63
758.044	8210.63
758.381	8175.38
758.719	8182.84
759.056	8162.95
759.394	8091.09
759.731	8034.59
760.068	8017.42
760.405	8005.89
