Data from black_metal_pc_casing_FLMS001491_00004.txt Node
Date: Wed Feb 08 14:31:50 GMT 2017
User: dcchb
Spectrometer: FLMS00149
Trigger mode: 0
Integration Time (sec): 2.000000E-2
Scans to average: 10
Electric dark correction enabled: true
Nonlinearity correction enabled: false
Boxcar width: 0
XAxis mode: Wavelengths
Number of Pixels in Spectrum: 2048
>>>>>Begin Spectral Data<<<<<
341.393	-24.35
341.776	-24.35
342.16	-24.35
342.543	-55.76
342.927	-75.65
343.31	-84.01
343.693	-55.76
344.077	-67.29
344.46	-67.29
344.843	-34.52
345.226	-34.29
345.61	-40.62
345.993	-13.05
346.376	-18.25
346.759	15.2
347.142	42.77
347.525	37.12
347.908	58.59
348.291	87.29
348.674	71.69
349.057	102.43
349.44	131.58
349.823	154.85
350.206	172.03
350.588	177.45
350.971	201.18
351.354	226.27
351.737	245.25
352.119	226.72
352.502	258.58
352.884	270.11
353.267	279.15
353.65	288.64
354.032	274.17
354.414	290.67
354.797	305.13
355.179	301.52
355.562	324.12
355.944	315.53
356.326	318.01
356.709	334.51
357.091	324.57
357.473	336.09
357.855	319.37
358.238	326.15
358.62	342.87
359.002	333.61
359.384	335.87
359.766	323.89
360.148	322.53
360.53	328.64
360.912	328.18
361.294	347.39
361.676	326.6
362.057	333.16
362.439	324.79
362.821	315.08
363.203	325.02
363.584	317.79
363.966	326.6
364.348	314.85
364.729	309.2
365.111	304.46
365.493	314.85
365.874	308.07
366.256	288.86
366.637	319.6
367.019	330.67
367.4	302.87
367.781	306.04
368.163	313.95
368.544	315.53
368.925	312.59
369.306	308.75
369.688	319.37
370.069	280.73
370.45	300.39
370.831	325.7
371.212	297
371.593	333.83
371.974	297.9
372.355	301.07
372.736	314.17
373.117	302.65
373.498	308.52
373.879	318.01
374.26	299.71
374.641	295.19
375.021	323.21
375.402	329.31
375.783	346.94
376.163	317.11
376.544	325.7
376.925	325.7
377.305	315.53
377.686	324.12
378.066	324.57
378.447	333.61
378.827	329.09
379.208	316.66
379.588	321.63
379.968	337.9
380.349	334.96
380.729	324.34
381.109	339.48
381.489	334.96
381.87	336.77
382.25	339.48
382.63	348.97
383.01	330.9
383.39	350.33
383.77	356.21
384.15	329.99
384.53	342.65
384.91	338.8
385.29	348.75
385.67	329.99
386.049	352.59
386.429	344
386.809	359.14
387.189	354.62
387.568	363.44
387.948	348.97
388.328	353.04
388.707	379.71
389.087	365.92
389.466	371.12
389.846	336.54
390.225	376.09
390.605	368.18
390.984	362.31
391.363	361.4
391.743	382.19
392.122	368.18
392.501	366.37
392.881	387.16
393.26	380.16
393.639	385.58
394.018	386.26
394.397	377
394.776	390.55
395.155	399.59
395.534	368.86
395.913	372.25
396.292	369.76
396.671	412.7
397.05	391.23
397.429	402.31
397.808	384
398.186	388.29
398.565	397.33
398.944	388.75
399.323	398.92
399.701	403.21
400.08	424.23
400.458	405.7
400.837	412.48
401.215	416.99
401.594	419.48
401.972	418.58
402.351	426.49
402.729	401.63
403.107	410.67
403.486	432.59
403.864	431.91
404.242	414.51
404.62	456.77
404.999	445.92
405.377	435.07
405.755	445.47
406.133	421.74
406.511	471
406.889	462.19
407.267	447.5
407.645	440.27
408.023	464
408.401	476.43
408.779	482.98
409.156	461.97
409.534	484.34
409.912	485.47
410.29	495.41
410.667	491.57
411.045	480.5
411.422	486.82
411.8	484.11
412.178	493.38
412.555	501.29
412.933	517.11
413.31	514.62
413.687	504.9
414.065	526.37
414.442	527.5
414.819	536.99
415.197	539.48
415.574	522.75
415.951	514.17
416.328	540.83
416.705	534.51
417.082	541.06
417.46	546.93
417.837	541.06
418.214	542.87
418.591	557.56
418.967	536.77
419.344	559.36
419.721	572.47
420.098	565.47
420.475	555.07
420.852	587.84
421.228	551.23
421.605	586.03
421.982	586.93
422.358	583.09
422.735	591.23
423.111	588.74
423.488	590.55
423.864	598.46
424.241	606.14
424.617	614.96
424.994	609.08
425.37	608.85
425.746	593.04
426.123	631.45
426.499	628.51
426.875	628.29
427.251	628.29
427.627	631.45
428.003	661.51
428.379	654.5
428.756	667.16
429.132	667.84
429.507	683.88
429.883	699.7
430.259	662.86
430.635	694.73
431.011	699.25
431.387	683.2
431.763	698.8
432.138	698.57
432.514	732.24
432.89	712.58
433.265	748.96
433.641	750.09
434.016	761.17
434.392	754.84
434.767	771.56
435.143	764.1
435.518	780.37
435.894	767.04
436.269	789.64
436.644	802.97
437.02	807.04
437.395	789.41
437.77	788.51
438.145	818.79
438.52	818.34
438.895	845.46
439.271	840.94
439.646	849.98
440.021	809.3
440.395	846.59
440.77	860.6
441.145	841.16
441.52	848.4
441.895	852.46
442.27	877.32
442.645	872.12
443.019	895.4
443.394	880.94
443.769	887.72
444.143	868.51
444.518	921.16
444.892	904.21
445.267	900.37
445.641	926.13
446.016	923.2
446.39	914.16
446.764	910.09
447.139	932.24
447.513	929.98
447.887	926.36
448.262	950.31
448.636	950.54
449.01	976.3
449.384	950.54
449.758	946.25
450.132	980.6
450.506	986.92
450.88	1022.4
451.254	990.99
451.628	1008.17
452.002	999.8
452.376	1015.62
452.75	1000.03
453.123	1030.09
453.497	1030.09
453.871	1050.2
454.244	1074.6
454.618	1086.58
454.992	1068.05
455.365	1065.11
455.739	1092.23
456.112	1108.05
456.486	1109.86
456.859	1129.07
457.232	1153.02
457.606	1161.61
457.979	1182.85
458.352	1158.44
458.725	1197.31
459.099	1197.77
459.472	1209.74
459.845	1199.35
460.218	1237.76
460.591	1214.49
460.964	1285.22
461.337	1268.05
461.71	1309.63
462.083	1308.27
462.456	1298.55
462.829	1336.29
463.201	1331.55
463.574	1342.62
463.947	1358.21
464.32	1381.72
464.692	1415.84
465.065	1400.7
465.438	1413.8
465.81	1436.85
466.183	1453.35
466.555	1452.9
466.928	1438.44
467.3	1459.23
467.672	1491.09
468.045	1503.29
468.417	1532.22
468.789	1530.41
469.161	1526.12
469.534	1582.16
469.906	1599.56
470.278	1623.74
470.65	1638.88
471.022	1665.78
471.394	1689.5
471.766	1691.31
472.138	1712.55
472.51	1751.2
472.882	1771.99
473.253	1790.07
473.625	1824.42
473.997	1829.61
474.369	1863.96
474.74	1834.13
475.112	1896.5
475.484	1905.32
475.855	1927.24
476.227	1985.99
476.598	2004.98
476.97	2045.88
477.341	2089.04
477.713	2077.29
478.084	2148.02
478.455	2151.19
478.827	2174.01
479.198	2247.23
479.569	2269.38
479.94	2291.75
480.311	2310.05
480.682	2334.91
481.053	2417.17
481.424	2434.34
481.795	2453.1
482.166	2501.69
482.537	2536.04
482.908	2569.93
483.279	2599.99
483.65	2620.1
484.021	2668.69
484.391	2704.84
484.762	2698.74
485.133	2736.71
485.503	2750.49
485.874	2846.76
486.244	2860.32
486.615	2923.37
486.985	2922.24
487.356	2959.98
487.726	3007.89
488.097	3078.39
488.467	3071.84
488.837	3123.36
489.207	3171.95
489.578	3217.82
489.948	3275.9
490.318	3306.86
490.688	3296.02
491.058	3348.67
491.428	3370.82
491.798	3399.97
492.168	3464.82
492.538	3487.2
492.908	3523.35
493.278	3547.08
493.648	3580.75
494.017	3600.87
494.387	3659.17
494.757	3701.65
495.126	3713.63
495.496	3691.26
495.866	3810.8
496.235	3819.62
496.605	3856.23
496.974	3845.38
497.344	3901.65
497.713	3942.78
498.082	3918.6
498.452	3989.56
498.821	3962.66
499.19	4028.65
499.559	4060.06
499.928	4063
500.298	4104.58
500.667	4098.48
501.036	4152.94
501.405	4182.77
501.774	4178.7
502.143	4259.38
502.512	4268.64
502.88	4320.85
503.249	4296.44
503.618	4365.82
503.987	4316.78
504.356	4413.95
504.724	4412.37
505.093	4406.27
505.462	4463.22
505.83	4502.54
506.199	4503.21
506.567	4572.59
506.936	4593.16
507.304	4631.35
507.672	4618.01
508.041	4665.92
508.409	4708.86
508.777	4732.36
509.145	4793.38
509.514	4825.47
509.882	4819.82
510.25	4776.88
510.618	4893.26
510.986	4870.89
511.354	4926.71
511.722	4970.55
512.09	5026.14
512.458	5046.48
512.826	5053.71
513.193	5074.95
513.561	5051
513.929	5169.64
514.297	5216.19
514.664	5265.68
515.032	5262.29
515.4	5314.27
515.767	5328.73
516.135	5386.36
516.502	5328.73
516.869	5420.25
517.237	5430.65
517.604	5496.64
517.972	5545.22
518.339	5564.66
518.706	5569.85
519.073	5614.15
519.44	5615.28
519.808	5692.79
520.175	5722.84
520.542	5797.64
520.909	5777.31
521.276	5768.27
521.643	5886.23
522.009	5955.15
522.376	6003.97
522.743	6030.86
523.11	6091.42
523.477	6100.46
523.843	6141.82
524.21	6284.19
524.577	6242.38
524.943	6277.86
525.31	6312.43
525.676	6384.97
526.043	6418.42
526.409	6481.24
526.776	6592.65
527.142	6551.75
527.508	6580.9
527.874	6652.76
528.241	6697.73
528.607	6680.56
528.973	6763.49
529.339	6751.52
529.705	6826.77
530.071	6856.83
530.437	6908.8
530.803	6949.25
531.169	6993.32
531.535	6997.84
531.901	7021.79
532.267	7091.4
532.632	7108.8
532.998	7158.06
533.364	7170.94
533.73	7167.33
534.095	7318.96
534.461	7310.6
534.826	7336.81
535.192	7393.53
535.557	7407.32
535.923	7440.09
536.288	7449.13
536.653	7560.08
537.019	7528.67
537.384	7547.65
537.749	7509.46
538.114	7573.19
538.479	7610.48
538.845	7600.99
539.21	7639.4
539.575	7618.16
539.94	7763.02
540.305	7768.67
540.67	7747.2
541.034	7753.07
541.399	7782.68
541.764	7813.18
542.129	7912.84
542.494	7895.67
542.858	7954.88
543.223	7941.77
543.587	8061.54
543.952	7997.59
544.316	7951.71
544.681	8031.26
545.045	8078.26
545.41	8095.44
545.774	8160.97
546.138	8169.33
546.503	8208.43
546.867	8175.21
547.231	8263.34
547.595	8316
547.959	8317.58
548.324	8334.98
548.688	8376.79
549.052	8367.97
549.416	8336.79
549.779	8422.21
550.143	8464.01
550.507	8477.8
550.871	8488.87
551.235	8514.41
551.599	8662.2
551.962	8672.82
552.326	8620.17
552.689	8706.95
553.053	8626.72
553.417	8720.05
553.78	8801.41
554.143	8781.29
554.507	8788.75
554.87	8874.85
555.234	8942.87
555.597	8936.54
555.96	8883.66
556.323	8975.64
556.686	8923.66
557.05	9078.69
557.413	9096.99
557.776	9118.91
558.139	9175.86
558.502	9159.82
558.865	9200.72
559.228	9248.63
559.59	9261.96
559.953	9307.16
560.316	9410.66
560.679	9387.61
561.041	9376.31
561.404	9515.96
561.767	9562.52
562.129	9549.86
562.492	9646.13
562.854	9600.71
563.217	9669.86
563.579	9720.7
563.941	9724.55
564.304	9786.92
564.666	9858.33
565.028	9870.53
565.39	9920.25
565.753	9979.23
566.115	10042.5
566.477	10004.54
566.839	10070.07
567.201	10132.45
567.563	10178.09
567.925	10237.53
568.287	10251.99
568.648	10302.84
569.01	10334.47
569.372	10369.73
569.734	10398.2
570.095	10465.54
570.457	10404.98
570.819	10490.63
571.18	10531.31
571.542	10546.9
571.903	10618.76
572.265	10616.5
572.626	10646.56
572.987	10683.39
573.349	10727.68
573.71	10767.23
574.071	10739.66
574.432	10792.09
574.794	10882.26
575.155	10832.09
575.516	10908.47
575.877	10938.07
576.238	10890.17
576.599	10992.08
576.96	11009.94
577.32	11003.61
577.681	11039.99
578.042	11086.54
578.403	10970.39
578.763	11039.31
579.124	11037.05
579.485	11151.18
579.845	11158.63
580.206	11119.76
580.566	11104.85
580.927	11138.07
581.287	11202.25
581.648	11148.01
582.008	11226.88
582.368	11198.41
582.728	11203.83
583.089	11186.66
583.449	11213.32
583.809	11245.41
584.169	11255.81
584.529	11211.29
584.889	11364.96
585.249	11310.72
585.609	11210.84
585.969	11304.17
586.329	11282.47
586.688	11322.24
587.048	11273.88
587.408	11312.08
587.768	11343.26
588.127	11265.52
588.487	11201.57
588.846	11312.75
589.206	11290.16
589.565	11240.44
589.925	11319.08
590.284	11284.28
590.643	11309.14
591.003	11303.04
591.362	11270.95
591.721	11269.14
592.08	11281.79
592.44	11398.63
592.799	11351.62
593.158	11385.52
593.517	11379.87
593.876	11403.15
594.235	11288.8
594.593	11388.23
594.952	11409.25
595.311	11316.37
595.67	11363.37
596.029	11446.99
596.387	11417.16
596.746	11399.98
597.104	11361.11
597.463	11313.43
597.822	11426.87
598.18	11439.53
598.538	11424.16
598.897	11470.94
599.255	11399.98
599.613	11533.31
599.972	11524.05
600.33	11529.24
600.688	11456.03
601.046	11547.78
601.404	11570.37
601.762	11532.63
602.12	11581.45
602.478	11571.28
602.836	11573.09
603.194	11495.12
603.552	11660.09
603.91	11539.19
604.268	11574.22
604.625	11560.2
604.983	11608.56
605.341	11644.5
605.698	11642.69
606.056	11754.78
606.413	11656.93
606.771	11600.66
607.128	11715.91
607.485	11620.54
607.843	11696.92
608.2	11726.98
608.557	11771.27
608.914	11668
609.272	11754.55
609.629	11782.8
609.986	11845.62
610.343	11849.46
610.7	11882.23
611.057	11889.24
611.414	11764.27
611.771	11919.07
612.127	11850.37
612.484	11919.52
612.841	11923.81
613.198	11868.22
613.554	11897.6
613.911	11990.25
614.267	11967.65
614.624	11907.77
614.98	11999.97
615.337	12025.05
615.693	12031.6
616.05	12031.38
616.406	12093.75
616.762	12050.14
617.118	11970.59
617.475	12071.15
617.831	12067.31
618.187	12055.11
618.543	12044.26
618.899	12134.88
619.255	12156.12
619.611	12110.92
619.967	12147.76
620.323	12162.9
620.678	12116.35
621.034	12100.98
621.39	12185.05
621.746	12025.28
622.101	12223.69
622.457	12090.13
622.812	12166.97
623.168	12156.8
623.523	12184.37
623.879	12218.94
624.234	12087.65
624.589	12133.3
624.945	12110.92
625.3	12228.66
625.655	12154.54
626.01	12200.19
626.365	12154.77
626.72	12204.93
627.075	12171.04
627.43	12151.15
627.785	12186.4
628.14	12078.16
628.495	12204.71
628.85	12188.66
629.205	12115.22
629.559	12232.96
629.914	12159.28
630.269	12137.82
630.623	12083.35
630.978	12064.6
631.332	12162
631.687	12130.58
632.041	12113.86
632.396	12075.9
632.75	12042.9
633.104	12079.06
633.459	12002.68
633.813	11961.32
634.167	11962.68
634.521	12005.16
634.875	12002
635.229	11966.97
635.583	11897.82
635.937	11868.22
636.291	11932.85
636.645	11938.05
636.999	11914.09
637.352	11955
637.706	11893.76
638.06	11905.51
638.413	11818.73
638.767	11795.9
639.121	11861.89
639.474	11687.43
639.828	11726.08
640.181	11717.26
640.534	11755.45
640.888	11740.54
641.241	11751.84
641.594	11748.9
641.947	11705.51
642.301	11634.55
642.654	11712.97
643.007	11661.22
643.36	11658.96
643.713	11665.51
644.066	11658.96
644.419	11600.88
644.771	11550.49
645.124	11391.17
645.477	11375.35
645.83	11359.53
646.182	11303.71
646.535	11235.02
646.888	11294.67
647.24	11205.64
647.593	11300.1
647.945	11172.87
648.298	11198.86
648.65	11070.73
649.002	11096.71
649.355	11204.73
649.707	11125.19
650.059	11150.95
650.411	11261.68
650.763	11379.42
651.115	11384.39
651.467	11430.04
651.819	11348.68
652.171	11324.96
652.523	11341.68
652.875	11342.58
653.227	11244.28
653.578	11315.92
653.93	11322.7
654.282	11258.52
654.633	11177.62
654.985	11251.96
655.337	11260.55
655.688	11231.4
656.039	11355.01
656.391	11185.3
656.742	11242.7
657.094	11241.57
657.445	11252.19
657.796	11207.22
658.147	11102.82
658.498	11128.8
658.849	11173.55
659.2	11242.7
659.551	11156.6
659.902	11202.93
660.253	11161.8
660.604	11148.69
660.955	11167.22
661.306	11148.92
661.656	11166.99
662.007	11232.3
662.358	11153.44
662.708	11106.66
663.059	11056.04
663.409	11019.65
663.76	11088.35
664.11	11118.41
664.461	11118.18
664.811	11090.61
665.161	11048.13
665.511	11072.76
665.862	11070.73
666.212	11115.02
666.562	11122.02
666.912	11021.69
667.262	10964.74
667.612	11035.47
667.962	11067.56
668.312	11089.93
668.662	11099.65
669.011	11070.5
669.361	10981.01
669.711	10988.92
670.06	11055.36
670.41	11066.88
670.76	11039.09
671.109	10964.51
671.459	11024.4
671.808	10965.87
672.157	11001.58
672.507	10913.89
672.856	10963.84
673.205	10990.5
673.554	10941.92
673.904	10853.33
674.253	10980.78
674.602	10933.55
674.951	10854.91
675.3	10784.41
675.649	10969.26
675.998	10894.91
676.346	10839.77
676.695	10966.1
677.044	10840.68
677.393	10923.39
677.741	10905.53
678.09	10862.37
678.438	10807.23
678.787	10816.27
679.135	10894.46
679.484	10731.75
679.832	10818.98
680.181	10830.96
680.529	10779.43
680.877	10698.08
681.225	10732.66
681.573	10752.32
681.922	10692.66
682.27	10632.55
682.618	10726.55
682.966	10670.51
683.314	10708.7
683.661	10668.7
684.009	10612.21
684.357	10565.88
684.705	10527.46
685.053	10535.6
685.4	10531.08
685.748	10475.04
686.095	10510.29
686.443	10447.24
686.79	10329.5
687.138	10398.2
687.485	10447.47
687.832	10343.29
688.18	10448.6
688.527	10368.15
688.874	10371.31
689.221	10357.07
689.568	10240.01
689.915	10281.82
690.262	10251.31
690.609	10239.56
690.956	10165.21
691.303	10210.64
691.65	10128.83
691.997	10039.34
692.344	10092.45
692.69	10069.85
693.037	10052.9
693.383	9994.14
693.73	10021.26
694.077	9975.39
694.423	9937.2
694.769	9899.68
695.116	9861.94
695.462	9938.33
695.808	9810.42
696.155	9807.71
696.501	9760.93
696.847	9705.56
697.193	9670.31
697.539	9760.93
697.885	9729.74
698.231	9665.57
698.577	9637.54
698.923	9652.46
699.269	9614.94
699.614	9493.14
699.96	9588.96
700.306	9569.52
700.651	9455.4
700.997	9453.37
701.342	9466.47
701.688	9451.56
702.033	9383.09
702.379	9394.39
702.724	9335.63
703.069	9403.65
703.415	9332.24
703.76	9266.03
704.105	9296.54
704.45	9261.06
704.795	9209.98
705.14	9218.57
705.485	9174.05
705.83	9155.07
706.175	9188.29
706.52	9110.1
706.865	9093.83
707.209	9065.58
707.554	9031.68
707.899	9070.55
708.243	9031.23
708.588	9013.83
708.932	8959.14
709.277	8988.75
709.621	8936.32
709.966	8920.05
710.31	8918.69
710.654	8807.06
710.998	8819.71
711.342	8799.6
711.687	8829.43
712.031	8713.5
712.375	8736.32
712.719	8766.38
713.063	8710.34
713.407	8755.53
713.75	8712.82
714.094	8683.22
714.438	8739.26
714.782	8652.48
715.125	8678.7
715.469	8717.57
715.812	8608.87
716.156	8592.82
716.499	8609.1
716.843	8568.19
717.186	8529.1
717.53	8624.01
717.873	8627.85
718.216	8518.48
718.559	8518.48
718.902	8434.64
719.246	8412.49
719.589	8386.95
719.932	8388.76
720.275	8360.51
720.617	8400.97
720.96	8398.93
721.303	8374.53
721.646	8378.37
721.989	8284.36
722.331	8435.09
722.674	8344.02
723.016	8374.3
723.359	8314.41
723.701	8315.54
724.044	8257.24
724.386	8219.73
724.729	8249.11
725.071	8198.94
725.413	8209.78
725.755	8238.94
726.097	8148.99
726.439	8147.19
726.782	8158.03
727.124	8176.79
727.465	8161.65
727.807	8175.43
728.149	8170.46
728.491	8101.54
728.833	8150.58
729.175	8042.56
729.516	8101.54
729.858	7991.48
730.199	8043.01
730.541	8036.23
730.882	7960.75
731.224	8039.39
731.565	7927.31
731.906	7969.11
732.248	7989.22
732.589	7986.97
732.93	7932.73
733.271	7932.05
733.612	7937.47
733.953	7889.57
734.294	7854.09
734.635	7869.68
734.976	7886.18
735.317	7804.6
735.658	7888.44
735.999	7853.18
736.339	7820.64
736.68	7909.23
737.021	7880.3
737.361	7791.72
737.702	7839.62
738.042	7765.28
738.383	7772.73
738.723	7765.95
739.063	7711.27
739.404	7774.77
739.744	7700.42
740.084	7699.97
740.424	7659.52
740.764	7715.11
741.104	7754.88
741.444	7631.95
741.784	7666.75
742.124	7667.43
742.464	7665.39
742.804	7584.49
743.143	7570.03
743.483	7598.73
743.823	7512.18
744.162	7511.5
744.502	7550.37
744.841	7509.69
745.181	7550.82
745.52	7460.65
745.86	7485.74
746.199	7480.31
746.538	7477.83
746.877	7421.78
747.216	7501.1
747.556	7498.84
747.895	7443.7
748.234	7431.73
748.573	7407.32
748.911	7377.26
749.25	7396.7
749.589	7372.07
749.928	7387.66
750.267	7360.99
750.605	7349.02
750.944	7270.83
751.283	7252.97
751.621	7292.97
751.96	7250.71
752.298	7262.24
752.636	7248.45
752.975	7228.34
753.313	7219.08
753.651	7221.79
753.989	7188.79
754.327	7118.97
754.666	7142.24
755.004	7154.22
755.342	7155.57
755.679	7098.63
756.017	7090.49
756.355	7052.75
756.693	7081
757.031	7030.61
757.368	7021.11
757.706	7026.99
758.044	7066.76
758.381	6917.84
758.719	7011.62
759.056	7009.36
759.394	6916.48
759.731	6916.03
760.068	6889.37
760.405	6835.58
760.743	6836.94
761.08	6845.75
761.417	6779.09
761.754	6770.05
762.091	6786.09
762.428	6778.18
762.765	6686.66
763.102	6680.11
763.438	6702.48
