Data from black_plastic_tray_FLMS001491_065.txt Node
Date: Tue Feb 07 10:40:21 GMT 2017
User: dcchb
Spectrometer: FLMS00149
Trigger mode: 0
Integration Time (sec): 2.000000E-2
Scans to average: 10
Electric dark correction enabled: true
Nonlinearity correction enabled: false
Boxcar width: 0
XAxis mode: Wavelengths
Number of Pixels in Spectrum: 2048
>>>>>Begin Spectral Data<<<<<
341.393	-2.34
341.776	-2.34
342.16	-2.34
342.543	-53.64
342.927	-71.04
343.31	-54.32
343.693	-62
344.077	-58.84
344.46	-51.83
344.843	-66.75
345.226	-41.21
345.61	-35.56
345.993	-10.48
346.376	-10.25
346.759	15.96
347.142	45.34
347.525	35.39
347.908	31.78
348.291	75.85
348.674	73.36
349.057	113.58
349.44	137.99
349.823	136.41
350.206	170.98
350.588	190.42
350.971	202.4
351.354	208.5
351.737	201.04
352.119	237.65
352.502	222.51
352.884	250.3
353.267	266.57
353.65	290.76
354.032	282.17
354.414	300.47
354.797	317.65
355.179	291.66
355.562	289.17
355.944	304.77
356.326	317.87
356.709	332.11
357.091	342.73
357.473	327.36
357.855	315.39
358.238	316.74
358.62	338.66
359.002	321.49
359.384	341.83
359.766	361.71
360.148	315.39
360.53	344.09
360.912	335.95
361.294	319.23
361.676	315.61
362.057	352.67
362.439	355.16
362.821	314.26
363.203	298.21
363.584	319.23
363.966	306.57
364.348	325.78
364.729	314.71
365.111	298.89
365.493	324.2
365.874	322.84
366.256	307.93
366.637	303.18
367.019	308.38
367.4	312.68
367.781	312.22
368.163	325.56
368.544	312.22
368.925	301.6
369.306	305.22
369.688	300.02
370.069	303.41
370.45	299.79
370.831	316.29
371.212	316.97
371.593	307.25
371.974	307.25
372.355	293.01
372.736	290.3
373.117	299.34
373.498	313.35
373.879	304.54
374.26	298.89
374.641	312.45
375.021	308.16
375.402	324.65
375.783	326.69
376.163	335.05
376.544	319.23
376.925	321.04
377.305	333.01
377.686	322.84
378.066	337.31
378.447	346.8
378.827	336.4
379.208	335.95
379.588	343.64
379.968	316.74
380.349	318.32
380.729	337.31
381.109	328.95
381.489	319
381.87	350.41
382.25	337.08
382.63	344.54
383.01	343.64
383.39	331.88
383.77	331.88
384.15	334.82
384.53	354.71
384.91	340.47
385.29	358.32
385.67	344.76
386.049	366.23
386.429	346.35
386.809	352.45
387.189	347.7
387.568	357.19
387.948	349.06
388.328	370.08
388.707	366.69
389.087	366.69
389.466	376.18
389.846	365.1
390.225	366.69
390.605	363.97
390.984	382.73
391.363	373.92
391.743	392.22
392.122	401.03
392.501	389.96
392.881	392.22
393.26	398.77
393.639	373.92
394.018	401.49
394.397	383.41
394.776	356.06
395.155	394.26
395.534	391.09
395.913	407.81
396.292	396.29
396.671	387.25
397.05	408.27
397.429	387.02
397.808	380.02
398.186	397.64
398.565	395.16
398.944	397.87
399.323	398.32
399.701	389.28
400.08	406.23
400.458	419.34
400.837	402.62
401.215	431.32
401.594	425.89
401.972	419.79
402.351	396.29
402.729	420.92
403.107	443.29
403.486	438.55
403.864	444.42
404.242	458.21
404.62	440.13
404.999	446.91
405.377	420.02
405.755	449.62
406.133	452.56
406.511	460.02
406.889	457.53
407.267	443.75
407.645	459.11
408.023	457.08
408.401	466.8
408.779	471.77
409.156	493.91
409.534	488.94
409.912	495.72
410.29	487.36
410.667	494.37
411.045	500.47
411.422	482.84
411.8	487.59
412.178	502.73
412.555	496.4
412.933	520.58
413.31	515.61
413.687	523.29
414.065	533.01
414.442	519.22
414.819	516.06
415.197	514.7
415.574	535.49
415.951	531.2
416.328	541.6
416.705	553.35
417.082	546.57
417.46	540.01
417.837	564.19
418.214	575.95
418.591	553.57
418.967	535.27
419.344	575.27
419.721	569.62
420.098	568.26
420.475	578.21
420.852	589.96
421.228	591.76
421.605	612.78
421.982	599.67
422.358	591.99
422.735	594.93
423.111	606.68
423.488	606
423.864	599.45
424.241	603.29
424.617	616.4
424.994	614.14
425.37	626.57
425.746	646.68
426.123	657.3
426.499	653.23
426.875	652.33
427.251	639.22
427.627	693.68
428.003	659.33
428.379	678.54
428.756	667.47
429.132	704.3
429.507	704.76
429.883	687.81
430.259	706.34
430.635	717.64
431.011	727.58
431.387	728.48
431.763	738.2
432.138	750.86
432.514	733.46
432.89	738.65
433.265	768.26
433.641	772.78
434.016	779.33
434.392	779.56
434.767	779.78
435.143	817.97
435.518	788.37
435.894	823.85
436.269	815.26
436.644	831.76
437.02	817.29
437.395	826.56
437.77	830.4
438.145	841.7
438.52	843.73
438.895	852.77
439.271	845.32
439.646	872.89
440.021	879.44
440.395	887.58
440.77	887.8
441.145	879.67
441.52	907.01
441.895	931.19
442.27	885.54
442.645	893.23
443.019	914.24
443.394	923.28
443.769	944.52
444.143	943.62
444.518	925.77
444.892	904.07
445.267	947.69
445.641	959.21
446.016	981.81
446.39	965.09
446.764	963.28
447.139	989.27
447.513	973.67
447.887	1000.57
448.262	1010.28
448.636	1013.67
449.01	1005.31
449.384	1021.81
449.758	1026.1
450.132	1036.5
450.506	1019.32
450.88	1010.06
451.254	1018.65
451.628	1048.02
452.002	1073.33
452.376	1075.82
452.75	1068.81
453.123	1087.34
453.497	1102.94
453.871	1122.37
454.244	1109.26
454.618	1128.93
454.992	1130.96
455.365	1153.33
455.739	1166.21
456.112	1149.72
456.486	1179.55
456.859	1222.93
457.232	1222.93
457.606	1228.81
457.979	1195.36
458.352	1236.72
458.725	1254.12
459.099	1241.46
459.472	1305.19
459.845	1292.99
460.218	1295.02
460.591	1312.88
460.964	1317.62
461.337	1361.01
461.71	1374.12
462.083	1370.73
462.456	1355.81
462.829	1380.22
463.201	1408.92
463.574	1434
463.947	1431.74
464.32	1470.61
464.692	1462.25
465.065	1484.62
465.438	1496.15
465.81	1520.55
466.183	1572.08
466.555	1561.46
466.928	1563.94
467.3	1579.76
467.672	1599.87
468.045	1621.79
468.417	1642.81
468.789	1660.21
469.161	1684.84
469.534	1686.42
469.906	1706.99
470.278	1732.75
470.65	1753.09
471.022	1792.41
471.394	1803.71
471.766	1803.03
472.138	1826.53
472.51	1832.18
472.882	1876.48
473.253	1909.24
473.625	1922.58
473.997	1950.82
474.369	1981.33
474.74	1975.46
475.112	2022.69
475.484	2009.58
475.855	2072.4
476.227	2094.55
476.598	2151.72
476.97	2148.11
477.341	2155.79
477.713	2249.8
478.084	2250.25
478.455	2287.54
478.827	2330.7
479.198	2403.24
479.569	2389.23
479.94	2446.4
480.311	2434.65
480.682	2512.62
481.053	2553.52
481.424	2606.17
481.795	2602.56
482.166	2641.2
482.537	2728.43
482.908	2737.24
483.279	2778.37
483.65	2819.28
484.021	2869.9
484.391	2906.28
484.762	2916.45
485.133	2958.48
485.503	2995.99
485.874	3038.25
486.244	3084.81
486.615	3135.2
486.985	3160.74
487.356	3175.42
487.726	3271.02
488.097	3287.29
488.467	3344.91
488.837	3336.1
489.207	3435.98
489.578	3425.81
489.948	3479.82
490.318	3513.27
490.688	3551.91
491.058	3585.58
491.428	3645.02
491.798	3673.72
492.168	3764.79
492.538	3721.17
492.908	3808.4
493.278	3825.13
493.648	3847.05
494.017	3922.07
494.387	3932.02
494.757	3977.44
495.126	3975.63
495.496	4001.62
495.866	4054.05
496.235	4103.08
496.605	4109.41
496.974	4124.33
497.344	4168.17
497.713	4164.55
498.082	4235.96
498.452	4286.58
498.821	4243.65
499.19	4325.45
499.559	4316.64
499.928	4378.56
500.298	4451.32
500.667	4457.2
501.036	4419.91
501.405	4477.99
501.774	4495.62
502.143	4506.01
502.512	4534.49
502.88	4567.93
503.249	4605.44
503.618	4588.04
503.987	4684.09
504.356	4670.3
504.724	4716.18
505.093	4753.69
505.462	4788.26
505.83	4790.98
506.199	4832.1
506.567	4873.69
506.936	4875.04
507.304	4949.62
507.672	4950.75
508.041	5027.58
508.409	5058.31
508.777	5050.4
509.145	5099.89
509.514	5115.49
509.882	5182.38
510.25	5175.37
510.618	5182.38
510.986	5249.72
511.354	5261.47
511.722	5359.32
512.09	5376.27
512.458	5363.39
512.826	5436.16
513.193	5451.3
513.561	5497.4
513.929	5572.2
514.297	5516.15
514.664	5616.26
515.032	5615.36
515.4	5711.18
515.767	5710.5
516.135	5739.43
516.502	5767.9
516.869	5850.16
517.237	5872.08
517.604	5832.98
517.972	5958.4
518.339	5954.79
518.706	6034.78
519.073	6023.94
519.44	6072.07
519.808	6190.49
520.175	6177.15
520.542	6243.82
520.909	6294.66
521.276	6301.44
521.643	6350.48
522.009	6394.1
522.376	6443.59
522.743	6516.13
523.11	6543.02
523.477	6630.7
523.843	6649.23
524.21	6703.02
524.577	6759.51
524.943	6696.01
525.31	6835.89
525.676	6896.68
526.043	6877.02
526.409	6913.86
526.776	7038.37
527.142	7033.63
527.508	7064.59
527.874	7117.47
528.241	7147.52
528.607	7152.95
528.973	7199.73
529.339	7233.4
529.705	7388.87
530.071	7378.93
530.437	7411.25
530.803	7457.8
531.169	7432.04
531.535	7495.99
531.901	7550
532.267	7612.14
532.632	7633.84
532.998	7718.58
533.364	7656.89
533.73	7683.33
534.095	7717.23
534.461	7824.34
534.826	7866.38
535.192	7851.91
535.557	7866.83
535.923	7919.93
536.288	7981.85
536.653	7953.6
537.019	7994.51
537.384	8115.63
537.749	8055.52
538.114	8051.23
538.479	8188.17
538.845	8219.81
539.21	8166.03
539.575	8163.77
539.94	8267.04
540.305	8297.55
540.67	8261.62
541.034	8348.4
541.399	8336.19
541.764	8415.06
542.129	8416.19
542.494	8433.59
542.858	8430.65
543.223	8534.15
543.587	8575.28
543.952	8540.26
544.316	8550.2
544.681	8628.16
545.045	8604.21
545.41	8674.72
545.774	8727.37
546.138	8687.6
546.503	8747.71
546.867	8741.38
547.231	8873.58
547.595	8856.86
547.959	8905.9
548.324	8867.25
548.688	8884.65
549.052	8930.08
549.416	8983.63
549.779	9016.18
550.143	8988.38
550.507	9177.98
550.871	9048.26
551.235	9117.64
551.599	9277.86
551.962	9202.84
552.326	9262.5
552.689	9257.3
553.053	9294.59
553.417	9296.85
553.78	9470.4
554.143	9403.51
554.507	9523.28
554.87	9474.69
555.234	9604.63
555.597	9614.13
555.96	9541.13
556.323	9609.38
556.686	9689.15
557.05	9749.72
557.413	9765.99
557.776	9795.59
558.139	9809.6
558.502	9907.23
558.865	9863.38
559.228	9970.95
559.59	9979.54
559.953	10130.5
560.316	10134.79
560.679	10188.12
561.041	10216.37
561.404	10193.77
561.767	10292.07
562.129	10224.96
562.492	10366.42
562.854	10308.8
563.217	10333.43
563.579	10405.29
563.941	10470.83
564.304	10506.31
564.666	10573.87
565.028	10565.06
565.39	10600.31
565.753	10655.45
566.115	10674.89
566.477	10716.47
566.839	10750.14
567.201	10844.6
567.563	10812.51
567.925	10985.16
568.287	10939.29
568.648	10951.49
569.01	11040.75
569.372	11110.58
569.734	11046.63
570.095	11178.6
570.457	11234.2
570.819	11185.38
571.18	11201.65
571.542	11278.94
571.903	11299.96
572.265	11316.23
572.626	11273.07
572.987	11377.24
573.349	11316.91
573.71	11390.8
574.071	11478.26
574.432	11431.71
574.794	11587.41
575.155	11530.91
575.516	11550.8
575.877	11533.4
576.238	11595.09
576.599	11565.71
576.96	11657.24
577.32	11600.29
577.681	11758.7
578.042	11710.57
578.403	11697.69
578.763	11762.09
579.124	11746.27
579.485	11814.52
579.845	11835.99
580.206	11777.68
580.566	11772.49
580.927	11737.69
581.287	11853.16
581.648	11785.37
582.008	11855.42
582.368	11852.03
582.728	11908.08
583.089	11863.56
583.449	11821.53
583.809	11850.9
584.169	11950.11
584.529	11924.35
584.889	11899.49
585.249	11959.37
585.609	11895.42
585.969	11944.23
586.329	11870.79
586.688	11936.78
587.048	11949.21
587.408	11839.15
587.768	11862.65
588.127	11957.11
588.487	11946.49
588.846	11993.72
589.206	11913.5
589.565	11939.49
589.925	12003.67
590.284	11977.45
590.643	11997.79
591.003	12022.88
591.362	12068.3
591.721	11992.82
592.08	12048.41
592.44	12032.59
592.799	12152.82
593.158	12101.74
593.517	12043.67
593.876	12055.87
594.235	12194.62
594.593	12161.86
594.952	12105.59
595.311	12062.2
595.67	12161.18
596.029	12207.05
596.387	12111.69
596.746	12157.56
597.104	12099.94
597.463	12114.4
597.822	12191.46
598.18	12123.89
598.538	12060.39
598.897	12156.43
599.255	12094.74
599.613	12224.45
599.972	12177.67
600.33	12349.2
600.688	12135.42
601.046	12298.57
601.404	12291.12
601.762	12271.68
602.12	12353.04
602.478	12271.68
602.836	12344.68
603.194	12335.64
603.552	12265.36
603.91	12299.25
604.268	12316.43
604.625	12248.86
604.983	12386.71
605.341	12243.89
605.698	12236.66
606.056	12386.26
606.413	12374.28
606.771	12317.78
607.128	12376.09
607.485	12364.11
607.843	12301.29
608.2	12380.83
608.557	12377.22
608.914	12402.75
609.272	12437.55
609.629	12467.38
609.986	12503.09
610.343	12398.01
610.7	12478.23
611.057	12475.07
611.414	12430.55
611.771	12480.94
612.127	12456.08
612.484	12529.76
612.841	12574.05
613.198	12490.89
613.554	12547.61
613.911	12511
614.267	12548.29
614.624	12596.19
614.98	12632.8
615.337	12697.43
615.693	12576.76
616.05	12591.22
616.406	12678.23
616.762	12558.68
617.118	12603.88
617.475	12625.57
617.831	12651.56
618.187	12722.74
618.543	12681.39
618.899	12728.39
619.255	12703.54
619.611	12718.9
619.967	12788.96
620.323	12764.33
620.678	12644.33
621.034	12722.07
621.39	12660.83
621.746	12741.73
622.101	12816.53
622.457	12659.92
622.812	12757.55
623.168	12808.84
623.523	12811.1
623.879	12739.69
624.234	12735.85
624.589	12732.91
624.945	12801.16
625.3	12781.95
625.655	12746.25
626.01	12784.44
626.365	12774.27
626.72	12693.59
627.075	12713.71
627.43	12800.71
627.785	12744.66
628.14	12687.04
628.495	12703.54
628.85	12708.06
629.205	12578.79
629.559	12677.1
629.914	12624.89
630.269	12705.34
630.623	12582.86
630.978	12687.72
631.332	12668.96
631.687	12579.92
632.041	12711.45
632.396	12628.51
632.75	12600.04
633.104	12683.65
633.459	12581.73
633.813	12553.03
634.167	12538.57
634.521	12546.03
634.875	12535.63
635.229	12477.33
635.583	12459.02
635.937	12469.87
636.291	12448.63
636.645	12340.61
636.999	12354.39
637.352	12430.32
637.706	12273.26
638.06	12402.08
638.413	12350.78
638.767	12304.45
639.121	12382.87
639.474	12207.05
639.828	12266.71
640.181	12328.18
640.534	12304.22
640.888	12181.74
641.241	12095.42
641.594	12189.2
641.947	12223.1
642.301	12121.86
642.654	12189.43
643.007	12202.08
643.36	12148.75
643.713	12165.92
644.066	12155.08
644.419	12117.34
644.771	12000.5
645.124	11906.04
645.477	11938.36
645.83	11812.03
646.182	11723.67
646.535	11556.45
646.888	11654.75
647.24	11645.03
647.593	11649.33
647.945	11591.25
648.298	11612.04
648.65	11629.21
649.002	11607.97
649.355	11593.28
649.707	11605.94
650.059	11644.81
650.411	11787.18
650.763	11802.09
651.115	11904.24
651.467	11832.6
651.819	11842.99
652.171	11862.2
652.523	11725.03
652.875	11817.23
653.227	11774.75
653.578	11801.86
653.93	11765.03
654.282	11801.86
654.633	11697.46
654.985	11749.44
655.337	11705.37
655.688	11673.28
656.039	11730
656.391	11591.47
656.742	11679.38
657.094	11591.02
657.445	11663.79
657.796	11708.08
658.147	11622.89
658.498	11578.59
658.849	11646.84
659.2	11644.35
659.551	11604.58
659.902	11599.38
660.253	11586.73
660.604	11617.91
660.955	11503.79
661.306	11590.8
661.656	11473.06
662.007	11556.9
662.358	11551.48
662.708	11566.62
663.059	11552.15
663.409	11482.55
663.76	11537.01
664.11	11483.23
664.461	11550.35
664.811	11542.21
665.161	11481.87
665.511	11484.36
665.862	11468.99
666.212	11599.16
666.562	11448.2
666.912	11493.4
667.262	11468.09
667.612	11457.47
667.962	11419.28
668.312	11368.2
668.662	11501.99
669.011	11418.15
669.361	11379.96
669.711	11350.58
670.06	11294.76
670.41	11267.64
670.76	11302.67
671.109	11251.6
671.459	11239.85
671.808	11210.92
672.157	11312.84
672.507	11296.34
672.856	11184.03
673.205	11277.13
673.554	11237.36
673.904	11171.15
674.253	11253.18
674.602	11327.75
674.951	11099.06
675.3	10986.29
675.649	11211.6
675.998	11160.53
676.346	11184.71
676.695	11280.97
677.044	11168.66
677.393	11171.82
677.741	11176.8
678.09	11095.22
678.438	11028.1
678.787	11026.52
679.135	11085.27
679.484	10997.82
679.832	11030.59
680.181	10991.94
680.529	11040.53
680.877	11017.25
681.225	11026.07
681.573	11058.16
681.922	11024.94
682.27	10927.31
682.618	10909.46
682.966	10893.19
683.314	10995.11
683.661	10876.69
684.009	10916.01
684.357	10898.16
684.705	10878.05
685.053	10852.96
685.4	10886.41
685.748	10768.9
686.095	10658.84
686.443	10684.38
686.79	10709.01
687.138	10746.07
687.485	10695.91
687.832	10670.37
688.18	10690.71
688.527	10563.71
688.874	10564.16
689.221	10576.13
689.568	10541.33
689.915	10580.88
690.262	10564.38
690.609	10478.28
690.956	10508.79
691.303	10406.87
691.65	10365.74
691.997	10334.11
692.344	10373.2
692.69	10358.96
693.037	10290.49
693.383	10292.07
693.73	10281.23
694.077	10201
694.423	10268.57
694.769	10182.92
695.116	10137.5
695.462	10201.68
695.808	10169.59
696.155	10111.74
696.501	10125.52
696.847	10046.66
697.193	10111.74
697.539	10017.05
697.885	9990.84
698.231	9814.35
698.577	9862.25
698.923	9878.53
699.269	9931.18
699.614	9829.71
699.96	9842.37
700.306	9809.15
700.651	9683.28
700.997	9748.36
701.342	9732.31
701.688	9670.85
702.033	9658.19
702.379	9699.55
702.724	9649.38
703.069	9681.69
703.415	9559.44
703.76	9550.62
704.105	9528.7
704.45	9504.52
704.795	9493.68
705.14	9459.33
705.485	9425.66
705.83	9404.19
706.175	9350.63
706.52	9399.89
706.865	9311.31
707.209	9339.56
707.554	9292.1
707.899	9354.47
708.243	9280.8
708.588	9276.73
708.932	9186.79
709.277	9220.46
709.621	9175.72
709.966	9201.93
710.31	9186.11
710.654	9098.66
710.998	9096.4
711.342	9034.25
711.687	9033.8
712.031	8988.15
712.375	8907.48
712.719	9006.23
713.063	8932.56
713.407	8921.49
713.75	8876.52
714.094	8877.2
714.438	8885.11
714.782	8886.46
715.125	8784.32
715.469	8838.1
715.812	8762.85
716.156	8665.22
716.499	8725.79
716.843	8736.41
717.186	8685.34
717.53	8730.99
717.873	8709.06
718.216	8673.13
718.559	8645.11
718.902	8595.62
719.246	8675.39
719.589	8642.85
719.932	8559.24
720.275	8596.98
720.617	8551.78
720.96	8466.81
721.303	8484.89
721.646	8526.24
721.989	8392.91
722.331	8493.03
722.674	8518.11
723.016	8438.79
723.359	8356.76
723.701	8405.57
724.044	8348.17
724.386	8409.64
724.729	8411.9
725.071	8266.36
725.413	8314.27
725.755	8266.14
726.097	8249.42
726.439	8206.48
726.782	8254.39
727.124	8203.32
727.465	8228.85
727.807	8223.88
728.149	8230.21
728.491	8133.03
728.833	8218.23
729.175	8123.09
729.516	8153.83
729.858	8142.3
730.199	8162.19
730.541	8138.91
730.882	8102.75
731.224	8118.35
731.565	8051.23
731.906	7994.06
732.248	8049.65
732.589	8030.21
732.93	8074.96
733.271	8011.46
733.612	8073.83
733.953	8027.73
734.294	7963.77
734.635	8022.53
734.976	7981.63
735.317	7886.26
735.658	7972.14
735.999	7972.36
736.339	7963.55
736.68	7849.43
737.021	7925.81
737.361	7864.79
737.702	7863.21
738.042	7843.1
738.383	7851.46
738.723	7795.64
739.063	7795.64
739.404	7787.73
739.744	7755.42
740.084	7773.27
740.424	7771.69
740.764	7779.6
741.104	7802.65
741.444	7791.8
741.784	7718.13
742.124	7706.83
742.464	7726.94
742.804	7736.66
743.143	7705.93
743.483	7726.72
743.823	7709.32
744.162	7638.58
744.502	7684.01
744.841	7592.94
745.181	7681.07
745.52	7658.7
745.86	7648.08
746.199	7662.09
746.538	7608.08
746.877	7616.66
747.216	7613.95
747.556	7569.43
747.895	7639.49
748.234	7497.12
748.573	7524.46
748.911	7452.83
749.25	7502.32
749.589	7467.06
749.928	7487.18
750.267	7453.96
750.605	7423.67
750.944	7418.48
751.283	7366.05
751.621	7376.22
751.96	7346.16
752.298	7366.5
752.636	7278.59
752.975	7321.08
753.313	7328.31
753.651	7316.11
753.989	7351.36
754.327	7295.54
754.666	7216.45
755.004	7201.53
755.342	7207.41
755.679	7234.08
756.017	7145.94
756.355	7190.91
756.693	7091.25
757.031	7126.28
757.368	7073.85
757.706	7093.74
758.044	7065.27
758.381	7135.77
758.719	7060.07
759.056	6996.57
759.394	7013.74
759.731	6953.63
760.068	6978.49
760.405	6948.89
760.743	6902.78
761.08	6891.71
761.417	6896.23
761.754	6885.16
762.091	6882.9
762.428	6801.54
