Data from black_metal_pc_casing_FLMS001491_00083.txt Node
Date: Wed Feb 08 14:33:37 GMT 2017
User: dcchb
Spectrometer: FLMS00149
Trigger mode: 0
Integration Time (sec): 2.000000E-2
Scans to average: 10
Electric dark correction enabled: true
Nonlinearity correction enabled: false
Boxcar width: 0
XAxis mode: Wavelengths
Number of Pixels in Spectrum: 2048
>>>>>Begin Spectral Data<<<<<
341.393	-19.12
341.776	-19.12
342.16	-19.12
342.543	-57.31
342.927	-59.8
343.31	-51.89
343.693	-61.38
344.077	-72.23
344.46	-61.61
344.843	-55.51
345.226	-55.28
345.61	-38.11
345.993	-20.71
346.376	4.83
346.759	17.94
347.142	3.93
347.525	58.16
347.908	65.17
348.291	59.07
348.674	78.05
349.057	129.57
349.44	105.62
349.823	146.97
350.206	140.19
350.588	201.89
350.971	190.36
351.354	227.65
351.737	222.45
352.119	239.85
352.502	245.5
352.884	254.54
353.267	287.76
353.65	276.69
354.032	287.31
354.414	316.69
354.797	310.81
355.179	330.25
355.562	325.95
355.944	330.7
356.326	325.5
356.709	313.97
357.091	312.62
357.473	330.92
357.855	332.51
358.238	330.92
358.62	346.29
359.002	339.28
359.384	344.71
359.766	357.59
360.148	320.08
360.53	335.9
360.912	302.45
361.294	340.64
361.676	323.92
362.057	334.77
362.439	333.64
362.821	313.97
363.203	308.78
363.584	312.17
363.966	319.62
364.348	304.03
364.729	297.93
365.111	321.43
365.493	290.02
365.874	326.18
366.256	316.69
366.637	315.1
367.019	323.01
367.4	307.65
367.781	331.38
368.163	320.75
368.544	306.07
368.925	301.09
369.306	307.2
369.688	306.97
370.069	327.31
370.45	304.71
370.831	308.33
371.212	315.78
371.593	331.83
371.974	296.57
372.355	311.04
372.736	336.8
373.117	314.2
373.498	319.4
373.879	299.96
374.26	322.79
374.641	310.13
375.021	308.33
375.402	320.75
375.783	318.04
376.163	332.96
376.544	337.03
376.925	338.15
377.305	339.28
377.686	335.22
378.066	342.45
378.447	341.54
378.827	342.22
379.208	333.41
379.588	340.87
379.968	342
380.349	352.39
380.729	344.48
381.109	348.78
381.489	352.39
381.87	363.01
382.25	348.55
382.63	361.88
383.01	335.44
383.39	348.1
383.77	354.43
384.15	345.84
384.53	393.29
384.91	370.02
385.29	364.37
385.67	380.87
386.049	380.87
386.429	348.55
386.809	383.13
387.189	370.24
387.568	378.15
387.948	401.88
388.328	368.44
388.707	366.4
389.087	379.06
389.466	381.77
389.846	385.84
390.225	376.35
390.605	404.59
390.984	403.01
391.363	380.87
391.743	404.37
392.122	387.42
392.501	412.05
392.881	423.35
393.26	424.03
393.639	407.98
394.018	415.89
394.397	415.22
394.776	418.83
395.155	433.75
395.534	390.13
395.913	409.57
396.292	430.36
396.671	437.81
397.05	440.98
397.429	424.93
397.808	424.48
398.186	432.84
398.565	440.53
398.944	435.78
399.323	440.98
399.701	441.43
400.08	443.91
400.458	457.93
400.837	451.82
401.215	475.33
401.594	466.29
401.972	461.32
402.351	472.84
402.729	469.68
403.107	473.97
403.486	469.22
403.864	461.99
404.242	490.47
404.62	497.25
404.999	473.74
405.377	492.73
405.755	501.09
406.133	506.74
406.511	486.17
406.889	508.55
407.267	482.56
407.645	519.62
408.023	501.54
408.401	525.04
408.779	535.21
409.156	530.92
409.534	534.31
409.912	540.18
410.29	551.71
410.667	537.47
411.045	561.88
411.422	549.9
411.8	554.87
412.178	564.82
412.555	591.26
412.933	563.01
413.31	578.37
413.687	577.02
414.065	586.28
414.442	615.89
414.819	587.19
415.197	603.01
415.574	597.13
415.951	596.91
416.328	614.31
416.705	615.44
417.082	631.03
417.46	609.56
417.837	612.5
418.214	638.94
418.591	665.6
418.967	622.67
419.344	646.17
419.721	657.92
420.098	664.47
420.475	661.76
420.852	670.35
421.228	655.66
421.605	680.52
421.982	691.59
422.358	679.84
422.735	686.39
423.111	683.91
423.488	693.17
423.864	682.1
424.241	716.45
424.617	720.29
424.994	689.33
425.37	733.17
425.746	731.82
426.123	728.65
426.499	721.87
426.875	727.07
427.251	755.32
427.627	773.62
428.003	773.17
428.379	780.63
428.756	794.19
429.132	802.32
429.507	808.2
429.883	807.75
430.259	831.02
430.635	800.06
431.011	804.81
431.387	831.48
431.763	844.36
432.138	838.03
432.514	858.59
432.89	864.02
433.265	889.78
433.641	900.63
434.016	918.48
434.392	915.54
434.767	930
435.143	911.7
435.518	929.55
435.894	917.12
436.269	929.55
436.644	944.47
437.02	958.25
437.395	965.94
437.77	979.72
438.145	977.46
438.52	1000.28
438.895	971.58
439.271	994.86
439.646	1019.49
440.021	1026.27
440.395	999.38
440.77	1001.41
441.145	1032.83
441.52	1044.58
441.895	1026.72
442.27	1073.5
442.645	1033.96
443.019	1065.14
443.394	1103.11
443.769	1085.48
444.143	1079.38
444.518	1103.33
444.892	1095.42
445.267	1113.95
445.641	1109.21
446.016	1098.59
446.39	1142.65
446.764	1144.24
447.139	1155.99
447.513	1149.89
447.887	1144.91
448.262	1160.51
448.636	1202.99
449.01	1157.34
449.384	1174.29
449.758	1182.2
450.132	1211.58
450.506	1196.21
450.88	1216.32
451.254	1207.51
451.628	1209.09
452.002	1230.11
452.376	1242.99
452.75	1249.32
453.123	1297.9
453.497	1306.27
453.871	1295.64
454.244	1324.57
454.618	1301.29
454.992	1348.3
455.365	1349.43
455.739	1407.73
456.112	1361.86
456.486	1387.84
456.859	1416.09
457.232	1394.4
457.606	1444.57
457.979	1452.93
458.352	1455.19
458.725	1468.07
459.099	1501.06
459.472	1514.85
459.845	1550.33
460.218	1552.13
460.591	1532.7
460.964	1527.05
461.337	1593.04
461.71	1601.17
462.083	1615.41
462.456	1623.77
462.829	1643.66
463.201	1654.28
463.574	1698.8
463.947	1706.25
464.32	1719.14
464.692	1758.91
465.065	1760.49
465.438	1766.59
465.81	1812.47
466.183	1802.52
466.555	1843.2
466.928	1851.56
467.3	1892.92
467.672	1882.3
468.045	1898.57
468.417	1922.52
468.789	1944.89
469.161	1992.8
469.534	2003.2
469.906	2036.64
470.278	2070.99
470.65	2078
471.022	2073.93
471.394	2130.88
471.766	2134.94
472.138	2157.77
472.51	2220.59
472.882	2229.86
473.253	2264.21
473.625	2292.23
473.997	2348.95
474.369	2338.78
474.74	2386.46
475.112	2456.52
475.484	2454.03
475.855	2489.51
476.227	2480.7
476.598	2587.14
476.97	2614.71
477.341	2662.16
477.713	2662.61
478.084	2674.14
478.455	2773.12
478.827	2761.14
479.198	2849.28
479.569	2861.03
479.94	2877.07
480.311	2975.37
480.682	2999.33
481.053	3051.98
481.424	3136.27
481.795	3121.81
482.166	3162.49
482.537	3175.37
482.908	3251.07
483.279	3277.51
483.65	3327.68
484.021	3446.55
484.391	3443.61
484.762	3493.78
485.133	3518.41
485.503	3563.38
485.874	3602.48
486.244	3666.43
486.615	3722.92
486.985	3769.7
487.356	3887.89
487.726	3892.86
488.097	3963.37
488.467	3952.3
488.837	4048.57
489.207	4105.97
489.578	4140.31
489.948	4176.47
490.318	4229.13
490.688	4252.63
491.058	4299.86
491.428	4369.69
491.798	4397.48
492.168	4501.21
492.538	4505.73
492.908	4530.59
493.278	4626.18
493.648	4608.55
494.017	4686.97
494.387	4704.59
494.757	4779.39
495.126	4798.83
495.496	4837.25
495.866	4825.49
496.235	4944.14
496.605	4944.14
496.974	5001.99
497.344	5061.19
497.713	5048.31
498.082	5138.71
498.452	5163.79
498.821	5232.49
499.19	5173.51
499.559	5227.29
499.928	5272.26
500.298	5338.25
500.667	5361.53
501.036	5328.76
501.405	5391.58
501.774	5414.63
502.143	5456.89
502.512	5526.27
502.88	5525.59
503.249	5511.8
503.618	5622.54
503.987	5588.41
504.356	5677.68
504.724	5683.1
505.093	5733.72
505.462	5803.55
505.83	5787.05
506.199	5861.17
506.567	5913.83
506.936	5924
507.304	6026.37
507.672	5990.89
508.041	6062.07
508.409	6129.19
508.777	6106.82
509.145	6157.44
509.514	6181.84
509.882	6262.97
510.25	6279.24
510.618	6292.12
510.986	6328.51
511.354	6373.25
511.722	6438.56
512.09	6507.71
512.458	6510.87
512.826	6526.69
513.193	6591.1
513.561	6632.23
513.929	6707.03
514.297	6777.08
514.664	6801.94
515.032	6850.75
515.4	6874.93
515.767	6868.6
516.135	6990.64
516.502	6914.25
516.869	7058.43
517.237	7092.1
517.604	7114.02
517.972	7202.61
518.339	7213.91
518.706	7257.52
519.073	7296.39
519.44	7308.14
519.808	7437.86
520.175	7420
520.542	7581.35
520.909	7633.1
521.276	7556.5
521.643	7721.92
522.009	7759.65
522.376	7768.92
522.743	7820.9
523.11	7925.07
523.477	7979.54
523.843	8066.31
524.21	8115.13
524.577	8131.62
524.943	8207.1
525.31	8294.56
525.676	8278.96
526.043	8371.62
526.409	8427.89
526.776	8561.67
527.142	8557.6
527.508	8569.35
527.874	8640.99
528.241	8695
528.607	8794.88
528.973	8843.47
529.339	8856.58
529.705	8925.73
530.071	9012.96
530.437	9002.56
530.803	9109.68
531.169	9175.21
531.535	9131.82
531.901	9245.27
532.267	9207.53
532.632	9316.45
532.998	9276.68
533.364	9416.11
533.73	9424.7
534.095	9523.68
534.461	9545.37
534.826	9673.5
535.192	9686.61
535.557	9649.77
535.923	9655.42
536.288	9720.28
536.653	9835.53
537.019	9755.99
537.384	9838.02
537.749	9890.9
538.114	9922.31
538.479	9948.98
538.845	10018.58
539.21	9915.08
539.575	10082.76
539.94	10030.78
540.305	10157.11
540.67	10139.48
541.034	10166.15
541.399	10255.18
541.764	10233.49
542.129	10289.98
542.494	10390.09
542.858	10324.79
543.223	10367.72
543.587	10438.45
543.952	10490.43
544.316	10493.82
544.681	10548.28
545.045	10562.52
545.41	10568.39
545.774	10691.78
546.138	10661.27
546.503	10707.6
546.867	10701.72
547.231	10793.7
547.595	10801.83
547.959	10880.93
548.324	10873.92
548.688	10844.09
549.052	10892.45
549.416	11035.5
549.779	10932
550.143	11107.36
550.507	11148.72
550.871	11223.52
551.235	11116.4
551.599	11221.26
551.962	11208.38
552.326	11385.77
552.689	11267.81
553.053	11291.09
553.417	11453.12
553.78	11498.99
554.143	11454.7
554.507	11544.41
554.87	11628.48
555.234	11774.92
555.597	11678.87
555.96	11727.69
556.323	11759.32
556.686	11847
557.05	11923.84
557.413	11915.7
557.776	11895.37
558.139	12030.95
558.502	12059.88
558.865	12070.95
559.228	12181.23
559.59	12226.2
559.953	12194.11
560.316	12364.28
560.679	12341.23
561.041	12459.19
561.404	12487.21
561.767	12557.95
562.129	12450.6
562.492	12740.31
562.854	12628.91
563.217	12798.84
563.579	12734.21
563.941	12866.19
564.304	12895.11
564.666	12943.25
565.028	13031.83
565.39	13071.61
565.753	13175.11
566.115	13168.33
566.477	13210.81
566.839	13291.03
567.201	13406.74
567.563	13409.68
567.925	13385.95
568.287	13545.27
568.648	13448.77
569.01	13610.12
569.372	13685.83
569.734	13685.6
570.095	13715.66
570.457	13800.17
570.819	13813.73
571.18	13895.76
571.542	13891.24
571.903	14112.93
572.265	14037.46
572.626	14133.05
572.987	14087.4
573.349	14139.37
573.71	14268.41
574.071	14231.35
574.432	14283.78
574.794	14382.53
575.155	14331.46
575.516	14234.51
575.877	14328.07
576.238	14374.85
576.599	14455.75
576.96	14508.86
577.32	14488.97
577.681	14499.82
578.042	14526.26
578.403	14533.71
578.763	14616.65
579.124	14703.43
579.485	14755.4
579.845	14807.15
580.206	14717.89
580.566	14643.99
580.927	14682.18
581.287	14742.75
581.648	14688.96
582.008	14836.3
582.368	14725.12
582.728	14800.15
583.089	14857.1
583.449	14799.92
583.809	14835.4
584.169	14774.61
584.529	14869.3
584.889	14994.27
585.249	14845.34
585.609	14773.48
585.969	14898.68
586.329	14846.47
586.688	14859.81
587.048	14796.31
587.408	14883.76
587.768	14828.62
588.127	14857.77
588.487	14892.8
588.846	14989.97
589.206	14830.2
589.565	14856.19
589.925	14875.4
590.284	14796.76
590.643	14932.8
591.003	14963.08
591.362	14966.02
591.721	14933.25
592.08	14952.46
592.44	15008.5
592.799	15022.06
593.158	14949.75
593.517	15000.14
593.876	14991.33
594.235	14920.37
594.593	14949.52
594.952	15044.21
595.311	14994.94
595.67	15029.52
596.029	15070.2
596.387	15081.04
596.746	15052.12
597.104	15072.91
597.463	15016.87
597.822	15128.73
598.18	15037.2
598.538	14977.32
598.897	15185.45
599.255	15036.98
599.613	15243.75
599.972	15177.09
600.33	15216.18
600.688	15107.94
601.046	15179.57
601.404	15328.5
601.762	15178.22
602.12	15198.56
602.478	15296.63
602.836	15261.38
603.194	15191.78
603.552	15241.94
603.91	15176.63
604.268	15218.67
604.625	15284.43
604.983	15382.96
605.341	15207.14
605.698	15319
606.056	15345.44
606.413	15385.89
606.771	15340.25
607.128	15389.06
607.485	15317.2
607.843	15395.39
608.2	15432.45
608.557	15503.41
608.914	15402.17
609.272	15511.09
609.629	15504.31
609.986	15539.34
610.343	15417.98
610.7	15626.11
611.057	15570.52
611.414	15525.78
611.771	15632.67
612.127	15600.13
612.484	15676.73
612.841	15704.98
613.198	15681.03
613.554	15681.03
613.911	15740.01
614.267	15777.75
614.624	15687.13
614.98	15763.74
615.337	15921.7
615.693	15803.74
616.05	15748.6
616.406	15939.33
616.762	15787.92
617.118	15811.42
617.475	15862.04
617.831	15887.58
618.187	15859.78
618.543	15958.99
618.899	16036.95
619.255	16053.45
619.611	15968.48
619.967	16012.32
620.323	16056.84
620.678	16018.42
621.034	15887.8
621.39	15953.56
621.746	15875.83
622.101	16016.16
622.457	15838.31
622.812	15963.96
623.168	16059.32
623.523	15942.94
623.879	16057.52
624.234	15961.02
624.589	16018.42
624.945	16035.6
625.3	16132.77
625.655	16034.92
626.01	16013.45
626.365	16073.33
626.72	16021.81
627.075	16092.32
627.43	16014.8
627.785	16004.64
628.14	16060.23
628.495	16086.44
628.85	15973.45
629.205	15935.94
629.559	16011.42
629.914	16005.31
630.269	15921.25
630.623	15999.89
630.978	15866.33
631.332	16021.36
631.687	15965.99
632.041	15964.86
632.396	15974.58
632.75	15869.5
633.104	15838.99
633.459	15765.55
633.813	15778.88
634.167	15796.28
634.521	15781.14
634.875	15789.05
635.229	15750.18
635.583	15682.61
635.937	15635.61
636.291	15629.96
636.645	15652.78
636.999	15699.78
637.352	15727.35
637.706	15566.23
638.06	15596.96
638.413	15549.96
638.767	15607.36
639.121	15574.82
639.474	15476.51
639.828	15519.9
640.181	15483.97
640.534	15496.17
640.888	15501.6
641.241	15470.86
641.594	15423.41
641.947	15474.93
642.301	15414.82
642.654	15410.75
643.007	15486.01
643.36	15386.57
643.713	15364.2
644.066	15443.52
644.419	15234.71
644.771	15157.88
645.124	15004.89
645.477	14998.56
645.83	14918.11
646.182	14900.03
646.535	14808.06
646.888	14929.64
647.24	14748.17
647.593	14885.57
647.945	14771
648.298	14744.56
648.65	14776.65
649.002	14713.6
649.355	14793.59
649.707	14645.35
650.059	14742.97
650.411	14851.45
650.763	14930.77
651.115	15154.04
651.467	14970.31
651.819	14985.23
652.171	14919.69
652.523	14970.09
652.875	14979.13
653.227	14865.23
653.578	14967.37
653.93	14873.59
654.282	14811.9
654.633	14869.3
654.985	14832.01
655.337	14827.72
655.688	14843.31
656.039	14930.99
656.391	14719.92
656.742	14740.71
657.094	14744.1
657.445	14740.49
657.796	14801.73
658.147	14780.94
658.498	14759.47
658.849	14685.35
659.2	14799.47
659.551	14699.36
659.902	14786.59
660.253	14672.69
660.604	14755.85
660.955	14643.77
661.306	14687.38
661.656	14666.82
662.007	14650.77
662.358	14517.9
662.708	14673.82
663.059	14612.36
663.409	14672.69
663.76	14673.37
664.11	14577.33
664.461	14652.58
664.811	14622.07
665.161	14538.46
665.511	14573.49
665.862	14628.85
666.212	14647.16
666.562	14594.05
666.912	14571.68
667.262	14535.07
667.612	14489.42
667.962	14517.22
668.312	14483.09
668.662	14619.59
669.011	14554.73
669.361	14499.82
669.711	14516.31
670.06	14468.63
670.41	14510.44
670.76	14452.36
671.109	14514.96
671.459	14484
671.808	14503.21
672.157	14458.46
672.507	14390.67
672.856	14396.32
673.205	14409.42
673.554	14556.31
673.904	14391.12
674.253	14457.11
674.602	14428.63
674.951	14225.93
675.3	14146.61
675.649	14370.78
675.998	14401.29
676.346	14336.66
676.695	14425.24
677.044	14328.97
677.393	14299.82
677.741	14356.32
678.09	14251.01
678.438	14275.87
678.787	14223.89
679.135	14288.52
679.484	14221.63
679.832	14255.76
680.181	14130.33
680.529	14241.52
680.877	14169.2
681.225	14048.98
681.573	14224.8
681.922	14114.97
682.27	14045.37
682.618	14001.07
682.966	14039.72
683.314	14095.76
683.661	13979.6
684.009	13963.11
684.357	13940.51
684.705	13900.51
685.053	13975.76
685.4	13854.18
685.748	13872.26
686.095	13769.89
686.443	13807.86
686.79	13732.83
687.138	13835.43
687.485	13723.57
687.832	13764.47
688.18	13652.38
688.527	13631.82
688.874	13650.57
689.221	13546.17
689.568	13587.75
689.915	13492.39
690.262	13548.43
690.609	13607.41
690.956	13423.01
691.303	13468.66
691.65	13321.32
691.997	13352.5
692.344	13286.29
692.69	13202.68
693.037	13286.74
693.383	13098.5
693.73	13157.7
694.077	13095.79
694.423	13123.36
694.769	13087.42
695.116	13072.74
695.462	13046.3
695.808	13003.81
696.155	12951.38
696.501	12807.21
696.847	12890.37
697.193	12794.78
697.539	12907.99
697.885	12710.49
698.231	12677.72
698.577	12665.97
698.923	12779.86
699.269	12634.55
699.614	12573.99
699.96	12529.92
700.306	12595.01
700.651	12497.84
700.997	12480.66
701.342	12487.89
701.688	12397.5
702.033	12360.66
702.379	12366.31
702.724	12288.8
703.069	12344.17
703.415	12177.17
703.76	12205.87
704.105	12209.71
704.45	12113.44
704.795	12073.44
705.14	12085.42
705.485	12079.54
705.83	12050.16
706.175	12054.91
706.52	12005.64
706.865	11970.84
707.209	11829.83
707.554	11820.56
707.899	11849.26
708.243	11837.97
708.588	11848.59
708.932	11746.44
709.277	11750.51
709.621	11738.08
709.966	11632.1
710.31	11686.56
710.654	11602.04
710.998	11599.78
711.342	11567.69
711.687	11635.03
712.031	11596.84
712.375	11573.79
712.719	11518.65
713.063	11501.48
713.407	11559.1
713.75	11424.42
714.094	11420.8
714.438	11417.64
714.782	11315.27
715.125	11381.03
715.469	11398.88
715.812	11292.67
716.156	11238.43
716.499	11261.26
716.843	11307.81
717.186	11140.13
717.53	11262.84
717.873	11185.33
718.216	11224.42
718.559	11203.86
718.902	11064.43
719.246	11154.82
719.589	11069.17
719.932	11032.56
720.275	11023.98
720.617	10973.58
720.96	11023.98
721.303	10987.82
721.646	10977.42
721.989	10890.87
722.331	10957.99
722.674	10934.26
723.016	10904.66
723.359	10796.86
723.701	10920.02
724.044	10878.89
724.386	10764.1
724.729	10916.86
725.071	10802.06
725.413	10725
725.755	10720.25
726.097	10714.38
726.439	10663.31
726.782	10621.5
727.124	10677.09
727.465	10569.75
727.807	10600.48
728.149	10644.32
728.491	10579.02
728.833	10593.48
729.175	10547.15
729.516	10589.64
729.858	10541.5
730.199	10535.85
730.541	10515.51
730.882	10534.5
731.224	10581.5
731.565	10509.41
731.906	10449.08
732.248	10457.89
732.589	10433.03
732.93	10355.97
733.271	10342.19
733.612	10327.72
733.953	10384.9
734.294	10330.66
734.635	10298.12
734.976	10306.48
735.317	10272.81
735.658	10286.37
735.999	10217.22
736.339	10242.53
736.68	10293.37
737.021	10199.14
737.361	10161.4
737.702	10186.71
738.042	10143.32
738.383	10176.54
738.723	10166.37
739.063	10133.15
739.404	10177.22
739.744	10130.44
740.084	10109.88
740.424	10126.15
740.764	10113.49
741.104	10086.37
741.444	10024.45
741.784	10031.01
742.124	9959.6
742.464	9980.39
742.804	9977.9
743.143	9944
743.483	9992.14
743.823	9936.77
744.162	9811.8
744.502	9962.53
744.841	9876.89
745.181	9868.53
745.52	9898.13
745.86	9871.92
746.199	9818.81
746.538	9817.23
746.877	9849.77
747.216	9833.05
747.556	9791.47
747.895	9767.74
748.234	9679.83
748.573	9692.26
748.911	9708.98
749.25	9668.08
749.589	9548.31
749.928	9657.68
750.267	9665.37
750.605	9600.74
750.944	9534.07
751.283	9516.44
751.621	9527.52
751.96	9462.89
752.298	9557.35
752.636	9561.87
752.975	9494.98
753.313	9422.44
753.651	9448.2
753.989	9372.27
754.327	9285.94
754.666	9399.16
755.004	9323
755.342	9403.68
755.679	9377.69
756.017	9245.49
756.355	9271.03
756.693	9274.19
757.031	9272.16
757.368	9181.31
757.706	9160.3
758.044	9084.37
758.381	9165.49
