Data from black_metal_pc_casing_FLMS001491_00062.txt Node
Date: Wed Feb 08 14:33:18 GMT 2017
User: dcchb
Spectrometer: FLMS00149
Trigger mode: 0
Integration Time (sec): 2.000000E-2
Scans to average: 10
Electric dark correction enabled: true
Nonlinearity correction enabled: false
Boxcar width: 0
XAxis mode: Wavelengths
Number of Pixels in Spectrum: 2048
>>>>>Begin Spectral Data<<<<<
341.393	-5.86
341.776	-5.86
342.16	-5.86
342.543	-52.87
342.927	-58.29
343.31	-65.75
343.693	-77.5
344.077	-75.01
344.46	-47.44
344.843	-58.29
345.226	-45.63
345.61	-24.39
345.993	-24.84
346.376	-1.12
346.759	21.93
347.142	8.83
347.525	50.63
347.908	59.9
348.291	77.98
348.674	98.99
349.057	101.71
349.44	110.75
349.823	134.7
350.206	148.94
350.588	187.13
350.971	196.39
351.354	217.41
351.737	231.19
352.119	225.54
352.502	237.07
352.884	267.58
353.267	275.71
353.65	283.17
354.032	280.91
354.414	293.57
354.797	297.86
355.179	273
355.562	291.53
355.944	322.72
356.326	316.62
356.709	313
357.091	334.69
357.473	324.53
357.855	330.4
358.238	336.05
358.62	346.22
359.002	320.68
359.384	323.62
359.766	326.79
360.148	301.93
360.53	346.67
360.912	328.14
361.294	325.43
361.676	323.4
362.057	330.17
362.439	319.55
362.821	333.11
363.203	331.76
363.584	329.95
363.966	309.61
364.348	324.3
364.729	311.87
365.111	297.86
365.493	321.81
365.874	290.63
366.256	313.68
366.637	325.2
367.019	319.33
367.4	322.27
367.781	291.53
368.163	298.99
368.544	331.76
368.925	324.3
369.306	327.01
369.688	305.77
370.069	309.16
370.45	308.25
370.831	302.15
371.212	318.65
371.593	326.79
371.974	282.72
372.355	301.25
372.736	328.59
373.117	309.84
373.498	314.81
373.879	301.48
374.26	307.12
374.641	315.26
375.021	303.28
375.402	318.65
375.783	308.93
376.163	324.53
376.544	309.38
376.925	307.58
377.305	325.88
377.686	321.14
378.066	339.44
378.447	334.92
378.827	324.98
379.208	333.34
379.588	325.66
379.968	337.86
380.349	334.24
380.729	343.96
381.109	340.12
381.489	345.54
381.87	365.43
382.25	327.01
382.63	331.98
383.01	343.73
383.39	342.38
383.77	346.22
384.15	353.23
384.53	352.32
384.91	348.93
385.29	350.97
385.67	353.68
386.049	342.83
386.429	350.29
386.809	350.06
387.189	364.75
387.568	353.9
387.948	367.01
388.328	351.19
388.707	356.39
389.087	388.25
389.466	372.21
389.846	374.92
390.225	389.61
390.605	394.35
390.984	392.09
391.363	367.69
391.743	385.77
392.122	391.42
392.501	395.26
392.881	392.55
393.26	379.44
393.639	390.29
394.018	381.7
394.397	398.2
394.776	408.14
395.155	398.87
395.534	399.1
395.913	390.29
396.292	395.03
396.671	417.4
397.05	414.47
397.429	410.17
397.808	418.53
398.186	394.35
398.565	389.83
398.944	418.76
399.323	409.72
399.701	420.34
400.08	433.68
400.458	423.51
400.837	427.35
401.215	445.43
401.594	435.26
401.972	455.37
402.351	430.96
402.729	428.03
403.107	440.68
403.486	437.29
403.864	429.61
404.242	464.18
404.62	463.28
404.999	456.95
405.377	451.53
405.755	441.58
406.133	456.95
406.511	456.05
406.889	464.41
407.267	481.81
407.645	480.23
408.023	482.26
408.401	487.46
408.779	489.04
409.156	483.62
409.534	494.69
409.912	520
410.29	509.61
410.667	515.03
411.045	508.25
411.422	515.25
411.8	504.63
412.178	506.67
412.555	501.02
412.933	522.03
413.31	545.99
413.687	533.11
414.065	538.08
414.442	523.62
414.819	539.89
415.197	533.33
415.574	532.2
415.951	554.12
416.328	555.48
416.705	539.66
417.082	557.29
417.46	558.42
417.837	566.1
418.214	563.16
418.591	574.46
418.967	566.1
419.344	589.6
419.721	571.3
420.098	571.98
420.475	581.69
420.852	599.32
421.228	595.25
421.605	595.48
421.982	613.56
422.358	608.81
422.735	625.53
423.111	614.46
423.488	628.25
423.864	638.42
424.241	628.7
424.617	632.54
424.994	625.08
425.37	648.81
425.746	650.39
426.123	650.84
426.499	656.95
426.875	692.88
427.251	694.46
427.627	677.96
428.003	659.21
428.379	692.2
428.756	698.3
429.132	689.04
429.507	704.63
429.883	715.02
430.259	722.26
430.635	708.92
431.011	739.88
431.387	728.81
431.763	756.83
432.138	767
432.514	781.91
432.89	751.63
433.265	772.88
433.641	765.19
434.016	790.05
434.392	800.22
434.767	821.91
435.143	817.85
435.518	843.38
435.894	794.12
436.269	810.39
436.644	823.27
437.02	841.35
437.395	823.27
437.77	847.9
438.145	876.15
438.52	883.15
438.895	887.22
439.271	868.01
439.646	882.7
440.021	885.64
440.395	891.52
440.77	892.19
441.145	900.78
441.52	906.43
441.895	937.16
442.27	931.74
442.645	938.29
443.019	925.19
443.394	931.97
443.769	927.9
444.143	936.94
444.518	955.92
444.892	938.75
445.267	948.24
445.641	954.57
446.016	964.96
446.39	973.77
446.764	975.36
447.139	981.46
447.513	989.14
447.887	975.58
448.262	997.5
448.636	1008.58
449.01	998.18
449.384	1022.81
449.758	1014.9
450.132	1030.95
450.506	1034.11
450.88	1041.79
451.254	1040.89
451.628	1060.33
452.002	1083.15
452.376	1065.52
452.75	1071.4
453.123	1087.67
453.497	1103.04
453.871	1106.2
454.244	1111.62
454.618	1139.42
454.992	1165.41
455.365	1154.79
455.739	1175.35
456.112	1193.2
456.486	1171.51
456.859	1202.92
457.232	1218.74
457.606	1225.97
457.979	1232.3
458.352	1254.67
458.725	1266.2
459.099	1247.44
459.472	1291.96
459.845	1328.57
460.218	1309.36
460.591	1288.57
460.964	1322.47
461.337	1354.78
461.71	1359.75
462.083	1396.81
462.456	1413.99
462.829	1407.43
463.201	1429.36
463.574	1430.48
463.947	1437.72
464.32	1461.22
464.692	1477.72
465.065	1475.46
465.438	1494.66
465.81	1512.74
466.183	1550.93
466.555	1566.98
466.928	1592.51
467.3	1601.78
467.672	1579.63
468.045	1653.53
468.417	1651.27
468.789	1662.8
469.161	1672.29
469.534	1694.43
469.906	1679.97
470.278	1721.55
470.65	1742.12
471.022	1794.77
471.394	1813.53
471.766	1824.6
472.138	1817.14
472.51	1871.15
472.882	1835.9
473.253	1921.32
473.625	1922.45
473.997	1969.68
474.369	1978.95
474.74	1999.28
475.112	2030.7
475.484	2064.14
475.855	2058.94
476.227	2123.12
476.598	2156.79
476.97	2141.65
477.341	2195.66
477.713	2259.84
478.084	2212.16
478.455	2309.33
478.827	2330.8
479.198	2374.87
479.569	2384.58
479.94	2469.55
480.311	2488.99
480.682	2508.42
481.053	2566.95
481.424	2605.6
481.795	2629.55
482.166	2641.53
482.537	2712.26
482.908	2778.47
483.279	2770.79
483.65	2798.58
484.021	2879.71
484.391	2856.89
484.762	2921.75
485.133	2959.71
485.503	2986.6
485.874	3052.36
486.244	3080.39
486.615	3119.48
486.985	3130.55
487.356	3193.38
487.726	3269.08
488.097	3312.24
488.467	3290.78
488.837	3384.56
489.207	3433.14
489.578	3437.44
489.948	3446.93
490.318	3524.22
490.688	3557.21
491.058	3599.92
491.428	3619.13
491.798	3634.04
492.168	3740.71
492.538	3743.64
492.908	3801.5
493.278	3889.4
493.648	3869.97
494.017	3931.89
494.387	3931.89
494.757	3973.47
495.126	4031.32
495.496	4056.63
495.866	4050.3
496.235	4109.06
496.605	4110.64
496.974	4164.42
497.344	4154.48
497.713	4252.11
498.082	4250.07
498.452	4260.24
498.821	4303.4
499.19	4295.04
499.559	4324.65
499.928	4386.57
500.298	4399.45
500.667	4431.99
501.036	4455.04
501.405	4495.04
501.774	4520.12
502.143	4551.76
502.512	4547.47
502.88	4612.55
503.249	4643.73
503.618	4637.41
503.987	4696.61
504.356	4704.3
504.724	4746.56
505.093	4767.8
505.462	4752.88
505.83	4809.15
506.199	4853.67
506.567	4885.99
506.936	4922.82
507.304	4977.06
507.672	4993.78
508.041	5000.33
508.409	5032.42
508.777	5044.85
509.145	5128.47
509.514	5130.27
509.882	5150.39
510.25	5185.19
510.618	5286.88
510.986	5224.28
511.354	5298.86
511.722	5402.13
512.09	5381.79
512.458	5389.02
512.826	5475.58
513.193	5501.34
513.561	5487.33
513.929	5541.56
514.297	5546.76
514.664	5590.83
515.032	5619.3
515.4	5711.28
515.767	5731.84
516.135	5690.26
516.502	5710.15
516.869	5811.16
517.237	5847.54
517.604	5915.34
517.972	5967.77
518.339	5996.69
518.706	6006.18
519.073	6006.64
519.44	6043.25
519.808	6102.23
520.175	6158.04
520.542	6191.04
520.909	6259.28
521.276	6289.11
521.643	6358.72
522.009	6358.94
522.376	6465.83
522.743	6518.49
523.11	6556
523.477	6552.84
523.843	6625.6
524.21	6685.71
524.577	6709.89
524.943	6799.38
525.31	6814.98
525.676	6867.4
526.043	6893.84
526.409	6969.1
526.776	7038.25
527.142	7011.58
527.508	7084.8
527.874	7158.24
528.241	7216.77
528.607	7194.18
528.973	7300.61
529.339	7277.34
529.705	7299.94
530.071	7415.41
530.437	7419.71
530.803	7463.32
531.169	7474.39
531.535	7532.02
531.901	7586.93
532.267	7608.18
532.632	7698.34
532.998	7687.95
533.364	7705.8
533.73	7763.43
534.095	7876.19
534.461	7891.11
534.826	7901.95
535.192	7932.01
535.557	7976.08
535.923	8029.63
536.288	8094.94
536.653	8002.29
537.019	8095.39
537.384	8059.69
537.749	8165.45
538.114	8163.19
538.479	8164.09
538.845	8247.93
539.21	8265.11
539.575	8270.53
539.94	8286.35
540.305	8358.89
540.67	8362.51
541.034	8406.12
541.399	8399.57
541.764	8446.12
542.129	8439.57
542.494	8484.54
542.858	8520.47
543.223	8637.08
543.587	8655.83
543.952	8562.95
544.316	8700.35
544.681	8629.62
545.045	8704.42
545.41	8724.53
545.774	8765.21
546.138	8762.04
546.503	8823.06
546.867	8858.99
547.231	8927.24
547.595	8893.79
547.959	8911.19
548.324	8922.27
548.688	8973.79
549.052	9020.57
549.416	9016.95
549.779	9030.96
550.143	9120.45
550.507	9195.48
550.871	9122.03
551.235	9204.52
551.599	9224.4
551.962	9286.32
552.326	9299.88
552.689	9329.71
553.053	9327
553.417	9380.56
553.78	9599.54
554.143	9423.04
554.507	9520.44
554.87	9574.9
555.234	9685.18
555.597	9600.21
555.96	9660.78
556.323	9725.63
556.686	9706.2
557.05	9826.87
557.413	9785.52
557.776	9830.72
558.139	9898.74
558.502	9927.66
558.865	9928.79
559.228	9987.77
559.59	10068.22
559.953	10052.18
560.316	10187.54
560.679	10140.54
561.041	10232.74
561.404	10261.44
561.767	10396.35
562.129	10365.39
562.492	10406.07
562.854	10466.63
563.217	10441.55
563.579	10491.94
563.941	10504.82
564.304	10587.31
564.666	10627.53
565.028	10632.95
565.39	10734.65
565.753	10760.86
566.115	10785.04
566.477	10843.12
566.839	10889.45
567.201	11005.6
567.563	10987.97
567.925	11056.67
568.287	11014.19
568.648	11060.29
569.01	11122.43
569.372	11191.58
569.734	11168.31
570.095	11210.57
570.457	11340.51
570.819	11353.39
571.18	11310.45
571.542	11382.54
571.903	11385.03
572.265	11474.06
572.626	11444.01
572.987	11535.08
573.349	11581.86
573.71	11619.37
574.071	11588.86
574.432	11691.68
574.794	11692.81
575.155	11685.36
575.516	11660.72
575.877	11778.46
576.238	11843.54
576.599	11909.08
576.96	11839.7
577.32	11786.37
577.681	11882.41
578.042	11872.47
578.403	11859.14
578.763	11858.23
579.124	11984.11
579.485	12004.44
579.845	12009.87
580.206	12012.13
580.566	11972.81
580.927	12068.62
581.287	12079.24
581.648	12014.39
582.008	12086.25
582.368	12074.05
582.728	12131.67
583.089	12099.13
583.449	12148.85
583.809	12096.87
584.169	12145.46
584.529	12086.93
584.889	12177.77
585.249	12146.14
585.609	12126.93
585.969	12160.6
586.329	12108.4
586.688	12141.16
587.048	12155.4
587.408	12144.78
587.768	12156.53
588.127	12115.18
588.487	12127.38
588.846	12309.52
589.206	12220.71
589.565	12168.06
589.925	12217.77
590.284	12088.74
590.643	12159.24
591.003	12229.75
591.362	12248.28
591.721	12214.16
592.08	12161.5
592.44	12283.76
592.799	12289.63
593.158	12186.36
593.517	12236.98
593.876	12252.57
594.235	12186.36
594.593	12229.75
594.952	12241.95
595.311	12220.26
595.67	12256.64
596.029	12253.93
596.387	12298
596.746	12270.88
597.104	12302.52
597.463	12297.32
597.822	12328.05
598.18	12354.72
598.538	12302.06
598.897	12393.36
599.255	12329.86
599.613	12417.31
599.972	12406.69
600.33	12361.27
600.688	12437.43
601.046	12425.68
601.404	12416.86
601.762	12433.81
602.12	12480.36
602.478	12518.33
602.836	12464.32
603.194	12395.85
603.552	12445.34
603.91	12468.84
604.268	12505.67
604.625	12540.25
604.983	12546.12
605.341	12560.14
605.698	12564.2
606.056	12631.55
606.413	12489.63
606.771	12618.44
607.128	12594.71
607.485	12579.34
607.843	12647.37
608.2	12660.92
608.557	12739.11
608.914	12662.96
609.272	12741.6
609.629	12744.31
609.986	12766.01
610.343	12672.68
610.7	12795.61
611.057	12744.31
611.414	12703.86
611.771	12799.9
612.127	12817.08
612.484	12797.19
612.841	12825.21
613.198	12886
613.554	12806.23
613.911	12930.07
614.267	12954.02
614.624	12950.41
614.98	12943.4
615.337	13037.86
615.693	12998.77
616.05	12988.6
616.406	13025.21
616.762	13017.98
617.118	13033.34
617.475	13017.07
617.831	13057.07
618.187	12993.12
618.543	13044.19
618.899	13100.91
619.255	13048.03
619.611	13087.13
619.967	13071.53
620.323	13125.54
620.678	13169.61
621.034	13040.58
621.39	13070.18
621.746	13055.26
622.101	13122.83
622.457	13093.68
622.812	13077.18
623.168	13106.11
623.523	13106.79
623.879	13114.92
624.234	13102.27
624.589	13135.94
624.945	13114.47
625.3	13176.84
625.655	13191.98
626.01	13107.24
626.365	13072.89
626.72	13095.49
627.075	13170.29
627.43	13159.22
627.785	13125.77
628.14	13049.16
628.495	13194.24
628.85	13126
629.205	13072.66
629.559	13108.6
629.914	13070.63
630.269	13041.25
630.623	13001.25
630.978	13035.83
631.332	13014.59
631.687	13027.92
632.041	13055.49
632.396	13008.94
632.75	12952.67
633.104	13031.76
633.459	12960.8
633.813	12883.97
634.167	12955.83
634.521	12909.05
634.875	12949.28
635.229	12894.82
635.583	12814.82
635.937	12826.57
636.291	12857.98
636.645	12802.39
636.999	12860.01
637.352	12810.07
637.706	12697.08
638.06	12724.65
638.413	12735.95
638.767	12739.34
639.121	12676.07
639.474	12692.79
639.828	12726.01
640.181	12731.88
640.534	12680.81
640.888	12641.94
641.241	12623.86
641.594	12571.21
641.947	12728.94
642.301	12577.31
642.654	12598.1
643.007	12557.2
643.36	12626.57
643.713	12609.85
644.066	12603.52
644.419	12536.18
644.771	12384.1
645.124	12334.83
645.477	12279.24
645.83	12235.62
646.182	12103.88
646.535	12060.26
646.888	12084.67
647.24	12079.7
647.593	12086.93
647.945	12076.08
648.298	12023.2
648.65	12077.21
649.002	11924.45
649.355	11986.59
649.707	11985.69
650.059	12012.58
650.411	12183.2
650.763	12187.49
651.115	12278.34
651.467	12291.44
651.819	12269.07
652.171	12317.2
652.523	12247.38
652.875	12246.47
653.227	12172.8
653.578	12368.5
653.93	12247.6
654.282	12207.6
654.633	12105.23
654.985	12132.58
655.337	12129.19
655.688	12187.49
656.039	12186.59
656.391	12124.89
656.742	12128.06
657.094	12057.32
657.445	12100.94
657.796	12153.59
658.147	12100.71
658.498	12029.53
658.849	12135.51
659.2	12123.54
659.551	11999.25
659.902	12018.46
660.253	12043.99
660.604	12037.89
660.955	12033.6
661.306	11986.82
661.656	12052.58
662.007	12041.51
662.358	12019.59
662.708	11981.62
663.059	12043.54
663.409	11919.47
663.76	11950.43
664.11	11958.57
664.461	11948.17
664.811	12039.25
665.161	11874.28
665.511	11809.87
665.862	11895.97
666.212	11895.07
666.562	11924.45
666.912	11992.47
667.262	11920.83
667.612	11890.1
667.962	11936.2
668.312	11925.12
668.662	11882.64
669.011	11889.42
669.361	11874.96
669.711	11879.93
670.06	11845.13
670.41	11872.47
670.76	11790.89
671.109	11846.03
671.459	11923.09
671.808	11804.22
672.157	11833.38
672.507	11789.08
672.856	11665.7
673.205	11744.56
673.554	11824.11
673.904	11735.07
674.253	11813.04
674.602	11776.43
674.951	11662.31
675.3	11489.2
675.649	11724.9
675.998	11719.03
676.346	11694.17
676.695	11778.24
677.044	11646.49
677.393	11684
677.741	11695.3
678.09	11719.48
678.438	11589.54
678.787	11659.59
679.135	11695.75
679.484	11590.22
679.832	11646.04
680.181	11520.16
680.529	11510.67
680.877	11535.98
681.225	11507.51
681.573	11630.89
681.922	11541.41
682.27	11427.06
682.618	11537.11
682.966	11450.56
683.314	11463.44
683.661	11479.94
684.009	11342.09
684.357	11284.46
684.705	11315.42
685.053	11369.21
685.4	11379.15
685.748	11205.6
686.095	11253.73
686.443	11258.7
686.79	11208.31
687.138	11211.47
687.485	11250.11
687.832	11247.63
688.18	11137.57
688.527	11160.85
688.874	11079.72
689.221	11093.73
689.568	11010.57
689.915	11033.62
690.262	10991.82
690.609	11011.93
690.956	10988.2
691.303	10936.22
691.65	10910.69
691.997	10891.25
692.344	10875.43
692.69	10812.16
693.037	10801.99
693.383	10718.15
693.73	10693.52
694.077	10748.21
694.423	10732.16
694.769	10630.24
695.116	10663.91
695.462	10613.29
695.808	10500.53
696.155	10560.64
696.501	10506.4
696.847	10495.78
697.193	10463.92
697.539	10541.43
697.885	10413.3
698.231	10416.69
698.577	10467.08
698.923	10273.87
699.269	10353.41
699.614	10294.43
699.96	10310.25
700.306	10283.81
700.651	10282.68
700.997	10183.48
701.342	10187.77
701.688	10132.4
702.033	10108.45
702.379	10081.33
702.724	10046.76
703.069	10025.29
703.415	9945.29
703.76	10094.21
704.105	10007.43
704.45	10026.42
704.795	9929.92
705.14	9932.86
705.485	9885.86
705.83	9851.51
706.175	9826.2
706.52	9749.81
706.865	9775.35
707.209	9819.19
707.554	9726.31
707.899	9689.48
708.243	9723.83
708.588	9723.6
708.932	9577.62
709.277	9628.24
709.621	9545.75
709.966	9549.59
710.31	9526.54
710.654	9464.85
710.998	9591.85
711.342	9592.76
711.687	9518.86
712.031	9537.39
712.375	9440.67
712.719	9426.88
713.063	9405.64
713.407	9435.25
713.75	9374.91
714.094	9393.44
714.438	9390.95
714.782	9338.98
715.125	9256.95
715.469	9344.63
715.812	9291.3
716.156	9222.14
716.499	9218.3
716.843	9291.52
717.186	9239.09
717.53	9215.37
717.873	9247
718.216	9227.12
718.559	9209.26
718.902	9089.04
719.246	9122.94
719.589	9104.86
719.932	9001.81
720.275	9034.8
720.617	9088.14
720.96	9023.28
721.303	8967.69
721.646	8993.9
721.989	8976.28
722.331	9008.14
722.674	8955.48
723.016	8948.93
723.359	8976.05
723.701	8969.04
724.044	8915.94
724.386	8845.88
724.729	8892.89
725.071	8891.98
725.413	8856.73
725.755	8908.71
726.097	8802.95
726.439	8810.18
726.782	8783.06
727.124	8800.46
727.465	8748.94
727.807	8781.93
728.149	8753.46
728.491	8698.09
728.833	8707.13
729.175	8672.33
729.516	8633.23
729.858	8627.13
730.199	8655.83
730.541	8627.58
730.882	8605.66
731.224	8649.96
731.565	8560.02
731.906	8579.9
732.248	8567.92
732.589	8524.31
732.93	8505.33
733.271	8509.85
733.612	8536.51
733.953	8557.3
734.294	8468.27
734.635	8510.07
734.976	8481.15
735.317	8427.82
735.658	8395.5
735.999	8391.21
736.339	8434.59
736.68	8409.28
737.021	8446.8
737.361	8360.25
737.702	8359.57
738.042	8372.68
738.383	8306.24
738.723	8342.62
739.063	8324.32
739.404	8301.49
739.744	8293.58
740.084	8285.22
740.424	8262.62
740.764	8272.79
741.104	8296.07
741.444	8216.07
741.784	8170.87
742.124	8241.15
742.464	8187.82
742.804	8128.61
743.143	8158.44
743.483	8137.43
743.823	8110.31
744.162	8109.18
744.502	8120.7
744.841	8098.33
745.181	8084.55
745.52	7998.67
745.86	8138.11
746.199	8054.94
746.538	8073.7
746.877	8017.88
747.216	8076.19
747.556	7973.14
747.895	7948.51
748.234	7946.7
748.573	7972.01
748.911	7978.34
749.25	7989.86
749.589	7908.96
749.928	7872.8
750.267	7949.18
750.605	7890.2
750.944	7868.73
751.283	7918.9
751.621	7815.18
751.96	7802.07
752.298	7823.54
752.636	7852.46
752.975	7809.3
753.313	7751.9
753.651	7740.83
753.989	7718.46
754.327	7697.66
754.666	7619.93
755.004	7765.23
755.342	7691.11
755.679	7675.29
756.017	7583.54
756.355	7698.12
756.693	7579.93
757.031	7569.98
757.368	7527.95
757.706	7566.14
758.044	7510.33
758.381	7473.04
758.719	7489.76
759.056	7525.92
759.394	7412.7
759.731	7447.73
760.068	7415.41
760.405	7349.2
760.743	7400.5
761.08	7348.75
761.417	7320.73
761.754	7312.14
762.091	7296.55
762.428	7285.25
