Data from black_metal_pc_casing_FLMS001491_00071.txt Node
Date: Wed Feb 08 14:33:28 GMT 2017
User: dcchb
Spectrometer: FLMS00149
Trigger mode: 0
Integration Time (sec): 2.000000E-2
Scans to average: 10
Electric dark correction enabled: true
Nonlinearity correction enabled: false
Boxcar width: 0
XAxis mode: Wavelengths
Number of Pixels in Spectrum: 2048
>>>>>Begin Spectral Data<<<<<
341.393	-11.64
341.776	-11.64
342.16	-11.64
342.543	-62.71
342.927	-74.01
343.31	-77.4
343.693	-71.3
344.077	-73.56
344.46	-63.39
344.843	-51.64
345.226	-52.54
345.61	-15.48
345.993	-16.38
346.376	3.95
346.759	-3.28
347.142	30.17
347.525	53.67
347.908	50.73
348.291	76.72
348.674	102.48
349.057	107.23
349.44	123.5
349.823	140.22
350.206	167.57
350.588	205.31
350.971	201.01
351.354	228.81
351.737	238.52
352.119	246.21
352.502	269.26
352.884	268.35
353.267	276.72
353.65	275.36
354.032	282.37
354.414	283.72
354.797	290.05
355.179	318.97
355.562	305.87
355.944	315.36
356.326	325.53
356.709	336.15
357.091	313.55
357.473	319.88
357.855	313.78
358.238	338.64
358.62	333.66
359.002	344.28
359.384	356.71
359.766	339.54
360.148	339.99
360.53	337.05
360.912	332.76
361.294	342.93
361.676	343.15
362.057	316.94
362.439	326.21
362.821	314.23
363.203	287.56
363.584	336.15
363.966	309.03
364.348	325.75
364.729	329.6
365.111	311.29
365.493	323.49
365.874	344.51
366.256	302.03
366.637	307.9
367.019	311.07
367.4	321.01
367.781	304.51
368.163	309.48
368.544	278.98
368.925	316.04
369.306	298.18
369.688	291.18
370.069	319.2
370.45	306.77
370.831	318.07
371.212	307.68
371.593	321.69
371.974	325.75
372.355	324.62
372.736	292.99
373.117	314.23
373.498	314.91
373.879	310.84
374.26	297.28
374.641	322.36
375.021	324.62
375.402	342.02
375.783	330.27
376.163	332.31
376.544	341.8
376.925	324.85
377.305	339.54
377.686	347.9
378.066	340.22
378.447	338.86
378.827	347.45
379.208	341.35
379.588	353.1
379.968	345.64
380.349	341.12
380.729	362.59
381.109	328.69
381.489	345.41
381.87	348.13
382.25	340.89
382.63	342.7
383.01	360.33
383.39	367.11
383.77	369.59
384.15	345.41
384.53	356.49
384.91	382.02
385.29	339.31
385.67	353.78
386.049	356.26
386.429	367.79
386.809	376.15
387.189	370.95
387.568	368.46
387.948	371.18
388.328	369.14
388.707	391.52
389.087	378.18
389.466	376.15
389.846	386.09
390.225	386.32
390.605	382.25
390.984	400.33
391.363	393.55
391.743	391.29
392.122	371.18
392.501	403.04
392.881	408.69
393.26	424.51
393.639	390.61
394.018	403.49
394.397	403.94
394.776	418.41
395.155	409.59
395.534	407.79
395.913	422.7
396.292	411.18
396.671	424.73
397.05	423.38
397.429	429.03
397.808	427.22
398.186	427.9
398.565	429.25
398.944	435.81
399.323	447.56
399.701	472.19
400.08	425.64
400.458	435.36
400.837	435.13
401.215	472.42
401.594	444.62
401.972	458.86
402.351	438.52
402.729	456.15
403.107	490.04
403.486	453.43
403.864	457.05
404.242	483.26
404.62	483.72
404.999	480.55
405.377	469.71
405.755	490.04
406.133	494.56
406.511	483.04
406.889	497.28
407.267	501.12
407.645	512.64
408.023	493.43
408.401	511.29
408.779	506.54
409.156	511.51
409.534	522.13
409.912	534.34
410.29	529.36
410.667	546.77
411.045	526.65
411.422	566.65
411.8	563.04
412.178	552.19
412.555	543.6
412.933	576.6
413.31	565.75
413.687	584.28
414.065	568.46
414.442	587.44
414.819	580.44
415.197	598.29
415.574	581.79
415.951	608.46
416.328	592.19
416.705	612.53
417.082	596.71
417.46	606.88
417.837	617.27
418.214	618.4
418.591	619.31
418.967	622.92
419.344	610.94
419.721	646.88
420.098	633.09
420.475	645.97
420.852	643.94
421.228	658.85
421.605	650.27
421.982	660.66
422.358	636.25
422.735	675.58
423.111	667.21
423.488	692.3
423.864	689.36
424.241	688.23
424.617	669.47
424.994	686.42
425.37	665.18
425.746	682.58
426.123	723.71
426.499	708.57
426.875	725.07
427.251	737.27
427.627	729.59
428.003	763.26
428.379	749.02
428.756	751.28
429.132	758.51
429.507	760.09
429.883	797.38
430.259	782.24
430.635	786.76
431.011	784.05
431.387	804.61
431.763	810.26
432.138	832.18
432.514	821.33
432.89	840.77
433.265	871.5
433.641	877.15
434.016	843.71
434.392	866.98
434.767	890.26
435.143	878.51
435.518	892.97
435.894	910.37
436.269	906.76
436.644	934.1
437.02	922.35
437.395	924.38
437.77	939.3
438.145	947.21
438.52	948.34
438.895	958.96
439.271	953.76
439.646	979.97
440.021	997.37
440.395	1012.52
440.77	997.83
441.145	961.9
441.52	1010.93
441.895	1049.12
442.27	1037.83
442.645	1015
443.019	1024.49
443.394	1063.36
443.769	1031.05
444.143	1046.41
444.518	1053.19
444.892	1058.84
445.267	1023.36
445.641	1088.22
446.016	1099.75
446.39	1097.71
446.764	1083.25
447.139	1104.72
447.513	1111.04
447.887	1099.07
448.262	1104.94
448.636	1133.87
449.01	1145.39
449.384	1155.34
449.758	1145.85
450.132	1171.16
450.506	1163.7
450.88	1190.36
451.254	1184.71
451.628	1205.05
452.002	1204.15
452.376	1213.19
452.75	1222.68
453.123	1226.75
453.497	1235.56
453.871	1270.14
454.244	1268.33
454.618	1258.84
454.992	1306.07
455.365	1308.78
455.739	1306.29
456.112	1311.04
456.486	1354.65
456.859	1329.34
457.232	1367.76
457.606	1336.58
457.979	1370.92
458.352	1408.66
458.725	1405.73
459.099	1447.31
459.472	1431.71
459.845	1464.48
460.218	1492.5
460.591	1514.42
460.964	1480.53
461.337	1541.99
461.71	1535.44
462.083	1553.74
462.456	1540.19
462.829	1557.13
463.201	1596.46
463.574	1620.41
463.947	1633.29
464.32	1654.98
464.692	1648.88
465.065	1658.6
465.438	1694.08
465.81	1714.64
466.183	1714.64
466.555	1779.05
466.928	1763.46
467.3	1792.83
467.672	1788.77
468.045	1859.73
468.417	1857.92
468.789	1863.34
469.161	1901.98
469.534	1887.52
469.906	1939.95
470.278	2011.59
470.65	1987.63
471.022	2012.49
471.394	2061.53
471.766	2072.83
472.138	2085.48
472.51	2107.18
472.882	2152.15
473.253	2185.14
473.625	2211.13
473.997	2217.46
474.369	2232.14
474.74	2267.85
475.112	2300.39
475.484	2333.84
475.855	2396.89
476.227	2398.92
476.598	2437.34
476.97	2481.18
477.341	2546.03
477.713	2567.28
478.084	2593.94
478.455	2635.98
478.827	2708.29
479.198	2707.84
479.569	2704.22
479.94	2788.29
480.311	2812.69
480.682	2864.9
481.053	2926.59
481.424	2954.16
481.795	3014.95
482.166	3056.3
482.537	3061.5
482.908	3147.15
483.279	3201.38
483.65	3253.13
484.021	3309.4
484.391	3316.86
484.762	3364.32
485.133	3399.35
485.503	3413.81
485.874	3498.78
486.244	3507.82
486.615	3565.89
486.985	3652.22
487.356	3705.55
487.726	3694.25
488.097	3774.7
488.467	3780.13
488.837	3868.03
489.207	3901.25
489.578	3948.26
489.948	3976.73
490.318	4017.86
490.688	4078.2
491.058	4126.56
491.428	4183.28
491.798	4210.85
492.168	4337.4
492.538	4328.13
492.908	4354.57
493.278	4437.28
493.648	4394.12
494.017	4475.02
494.387	4530.84
494.757	4522.03
495.126	4597.05
495.496	4617.84
495.866	4651.97
496.235	4725.19
496.605	4745.07
496.974	4763.83
497.344	4812.42
497.713	4852.64
498.082	4869.14
498.452	4959.3
498.821	4936.03
499.19	4967.67
499.559	5000.43
499.928	5069.36
500.298	5036.36
500.667	5129.92
501.036	5140.54
501.405	5139.19
501.774	5169.02
502.143	5237.04
502.512	5263.03
502.88	5304.61
503.249	5305.06
503.618	5365.4
503.987	5351.84
504.356	5387.09
504.724	5429.12
505.093	5406.07
505.462	5512.96
505.83	5558.16
506.199	5599.29
506.567	5668.89
506.936	5671.83
507.304	5695.56
507.672	5736.23
508.041	5799.51
508.409	5826.17
508.777	5869.34
509.145	5911.37
509.514	5915.44
509.882	5951.14
510.25	5974.65
510.618	6031.82
510.986	6020.07
511.354	6127.86
511.722	6138.26
512.09	6271.13
512.458	6168.99
512.826	6284.92
513.193	6330.57
513.561	6333.05
513.929	6432.94
514.297	6473.16
514.664	6515.42
515.032	6518.81
515.4	6575.99
515.767	6620.73
516.135	6622.31
516.502	6624.8
516.869	6758.35
517.237	6799.93
517.604	6816.66
517.972	6819.14
518.339	6946.6
518.706	6898.01
519.073	6952.25
519.44	7036.99
519.808	7095.07
520.175	7169.64
520.542	7165.8
520.909	7255.97
521.276	7278.57
521.643	7286.02
522.009	7363.54
522.376	7418.22
522.743	7469.3
523.11	7550.42
523.477	7607.6
523.843	7683.3
524.21	7743.86
524.577	7775.95
524.943	7827.25
525.31	7867.7
525.676	7988.15
526.043	8001.71
526.409	7982.28
526.776	8137.07
527.142	8161.71
527.508	8203.06
527.874	8234.25
528.241	8300.23
528.607	8329.16
528.973	8420
529.339	8461.13
529.705	8496.84
530.071	8597.18
530.437	8613.45
530.803	8621.81
531.169	8709.49
531.535	8666.78
531.901	8754.23
532.267	8810.5
532.632	8846.43
532.998	8885.3
533.364	8899.54
533.73	8993.32
534.095	9055.02
534.461	9092.3
534.826	9129.36
535.192	9220.44
535.557	9287.55
535.923	9266.08
536.288	9242.36
536.653	9332.07
537.019	9289.13
537.384	9433.31
537.749	9450.94
538.114	9492.52
538.479	9483.93
538.845	9537.94
539.21	9532.07
539.575	9572.97
539.94	9601.44
540.305	9706.98
540.67	9623.81
541.034	9713.98
541.399	9770.48
541.764	9759.18
542.129	9814.09
542.494	9822.23
542.858	9863.13
543.223	9881.21
543.587	9964.82
543.952	9995.78
544.316	10031.94
544.681	10037.36
545.045	10092.73
545.41	10129.11
545.774	10198.94
546.138	10158.26
546.503	10203.01
546.867	10186.96
547.231	10348.77
547.595	10359.39
547.959	10357.81
548.324	10387.86
548.688	10378.6
549.052	10490.01
549.416	10498.37
549.779	10484.81
550.143	10507.41
550.507	10614.07
550.871	10664.01
551.235	10635.31
551.599	10737.46
551.962	10774.07
552.326	10855.87
552.689	10840.96
553.053	10774.07
553.417	10861.07
553.78	10985.59
554.143	11020.61
554.507	11047.51
554.87	11084.57
555.234	11133.83
555.597	11130.44
555.96	11179.25
556.323	11206.15
556.686	11338.12
557.05	11371.11
557.413	11285.24
557.776	11381.73
558.139	11488.62
558.502	11478.91
558.865	11546.02
559.228	11633.48
559.59	11637.1
559.953	11700.14
560.316	11845.9
560.679	11749.18
561.041	11819.69
561.404	11910.31
561.767	11976.52
562.129	12020.14
562.492	12121.83
562.854	12077.76
563.217	12090.19
563.579	12204.09
563.941	12314.82
564.304	12332.67
564.666	12370.86
565.028	12434.59
565.39	12491.31
565.753	12545.77
566.115	12568.6
566.477	12566.56
566.839	12647.92
567.201	12727.01
567.563	12751.19
567.925	12892.66
568.287	12831.19
568.648	12849.72
569.01	12988.7
569.372	13037.96
569.734	13011.97
570.095	13095.81
570.457	13153.44
570.819	13209.48
571.18	13177.39
571.542	13257.84
571.903	13225.53
572.265	13343.04
572.626	13370.38
572.987	13416.94
573.349	13386.65
573.71	13508.68
574.071	13497.61
574.432	13523.83
574.794	13704.39
575.155	13597.95
575.516	13527.89
575.877	13629.13
576.238	13715.91
576.599	13710.26
576.96	13734.44
577.32	13869.13
577.681	13824.61
578.042	13888.34
578.403	13938.28
578.763	13937.6
579.124	13913.87
579.485	14011.72
579.845	13983.47
580.206	13989.8
580.566	13985.51
580.927	14081.1
581.287	14132.62
581.648	13978.28
582.008	14117.26
582.368	14012.4
582.728	14099.4
583.089	14107.09
583.449	14072.74
583.809	14171.04
584.169	14068.22
584.529	14098.73
584.889	14193.41
585.249	14099.4
585.609	14134.2
585.969	14215.78
586.329	14070.48
586.688	14226.41
587.048	14240.64
587.408	14169.23
587.768	14153.41
588.127	14156.8
588.487	14093.08
588.846	14183.02
589.206	14168.1
589.565	14211.04
589.925	14257.59
590.284	14193.86
590.643	14207.88
591.003	14207.2
591.362	14293.97
591.721	14259.63
592.08	14238.16
592.44	14302.56
592.799	14225.28
593.158	14206.52
593.517	14212.17
593.876	14237.48
594.235	14204.71
594.593	14317.7
594.952	14248.55
595.311	14240.19
595.67	14254.65
596.029	14328.78
596.387	14348.21
596.746	14333.3
597.104	14253.52
597.463	14335.33
597.822	14380.07
598.18	14309.57
598.538	14329.91
598.897	14399.73
599.255	14269.12
599.613	14506.4
599.972	14394.76
600.33	14395.44
600.688	14436.57
601.046	14481.31
601.404	14526.96
601.762	14471.82
602.12	14620.97
602.478	14490.13
602.836	14475.21
603.194	14494.65
603.552	14575.55
603.91	14542.1
604.268	14584.36
604.625	14566.74
604.983	14673.17
605.341	14521.31
605.698	14738.71
606.056	14717.24
606.413	14606.96
606.771	14657.81
607.128	14717.47
607.485	14672.72
607.843	14677.47
608.2	14764.92
608.557	14805.6
608.914	14720.18
609.272	14781.87
609.629	14716.79
609.986	14881.76
610.343	14775.77
610.7	14922.21
611.057	14789.78
611.414	14800.85
611.771	14899.83
612.127	14950.68
612.484	14856.67
612.841	14962.21
613.198	14892.83
613.554	14953.39
613.911	15006.72
614.267	15046.95
614.624	15010.11
614.98	15100.28
615.337	15063.67
615.693	15100.28
616.05	15072.03
616.406	15158.81
616.762	15086.72
617.118	15083.56
617.475	15140.51
617.831	15127.85
618.187	15249.43
618.543	15195.65
618.899	15273.38
619.255	15203.78
619.611	15218.24
619.967	15259.15
620.323	15250.33
620.678	15176.89
621.034	15197.23
621.39	15196.78
621.746	15165.82
622.101	15286.72
622.457	15184.8
622.812	15247.85
623.168	15326.04
623.523	15299.15
623.879	15376.88
624.234	15281.52
624.589	15315.19
624.945	15320.39
625.3	15187.51
625.655	15326.04
626.01	15251.46
626.365	15274.51
626.72	15328.75
627.075	15302.99
627.43	15221.18
627.785	15242.2
628.14	15265.02
628.495	15192.93
628.85	15214.85
629.205	15227.74
629.559	15333.95
629.914	15105.48
630.269	15159.04
630.623	15136.44
630.978	15181.86
631.332	15269.09
631.687	15211.01
632.041	15188.41
632.396	15114.29
632.75	15119.94
633.104	15075.65
633.459	15064.8
633.813	15088.98
634.167	15094.86
634.521	15042.66
634.875	15038.59
635.229	15024.58
635.583	14895.54
635.937	14898.03
636.291	15042.88
636.645	14936.67
636.999	14933.05
637.352	15010.11
637.706	14915.65
638.06	14883.56
638.413	14899.83
638.767	14880.85
639.121	14910.46
639.474	14788.2
639.828	14750.01
640.181	14798.82
640.534	14855.32
640.888	14786.16
641.241	14617.58
641.594	14709.33
641.947	14751.36
642.301	14660.74
642.654	14682.66
643.007	14710.23
643.36	14669.11
643.713	14689.67
644.066	14626.17
644.419	14598.37
644.771	14523.12
645.124	14303.47
645.477	14338.27
645.83	14230.25
646.182	14032.06
646.535	14110.7
646.888	14093.3
647.24	14024.38
647.593	14138.95
647.945	14084.04
648.298	13980.76
648.65	13957.49
649.002	14030.25
649.355	14060.53
649.707	13990.48
650.059	14049.01
650.411	14265.27
650.763	14238.16
651.115	14377.14
651.467	14194.09
651.819	14292.39
652.171	14228.89
652.523	14211.72
652.875	14175.79
653.227	14134.88
653.578	14245.39
653.93	14251.94
654.282	14105.05
654.633	14115.22
654.985	14188.89
655.337	14150.25
655.688	14098.27
656.039	14179.63
656.391	14025.51
656.742	14066.86
657.094	14063.92
657.445	14117.03
657.796	13991.16
658.147	14028.9
658.498	14023.47
658.849	14073.64
659.2	13967.66
659.551	13992.74
659.902	13958.39
660.253	13986.86
660.604	14027.99
660.955	13900.09
661.306	13949.58
661.656	13858.73
662.007	13950.71
662.358	13994.1
662.708	13933.31
663.059	13954.32
663.409	13872.29
663.76	13987.99
664.11	13887.88
664.461	14007.88
664.811	13913.19
665.161	13898.5
665.511	13856.47
665.862	13921.55
666.212	13921.33
666.562	13908.45
666.912	13950.03
667.262	13862.12
667.612	13841.78
667.962	13831.16
668.312	13883.82
668.662	13882.46
669.011	13845.62
669.361	13766.53
669.711	13825.06
670.06	13798.62
670.41	13801.11
670.76	13743.25
671.109	13850.14
671.459	13798.39
671.808	13741.45
672.157	13839.07
672.507	13625.52
672.856	13724.5
673.205	13764.95
673.554	13857.83
673.904	13757.04
674.253	13830.48
674.602	13720.66
674.951	13538.97
675.3	13506.2
675.649	13715.23
675.998	13579.19
676.346	13641.56
676.695	13731.96
677.044	13632.75
677.393	13604.95
677.741	13615.8
678.09	13547.33
678.438	13543.94
678.787	13589.13
679.135	13601.34
679.484	13444.05
679.832	13584.84
680.181	13408.12
680.529	13507.55
680.877	13432.3
681.225	13339.2
681.573	13532.19
681.922	13390.27
682.27	13371.96
682.618	13379.2
682.966	13309.59
683.314	13354.56
683.661	13266.88
684.009	13282.93
684.357	13268.24
684.705	13241.35
685.053	13192.76
685.4	13154.8
685.748	13182.37
686.095	13180.11
686.443	13043.16
686.79	13145.98
687.138	13077.96
687.485	13089.94
687.832	13043.84
688.18	13048.81
688.527	12921.81
688.874	12898.3
689.221	12880.68
689.568	12902.6
689.915	12873.45
690.262	12852.2
690.609	12789.38
690.956	12772.66
691.303	12789.83
691.65	12693.79
691.997	12725.43
692.344	12522.72
692.69	12593.68
693.037	12546.9
693.383	12475.72
693.73	12623.28
694.077	12463.74
694.423	12478.88
694.769	12439.79
695.116	12487.92
695.462	12416.74
695.808	12391.2
696.155	12353.46
696.501	12262.62
696.847	12260.36
697.193	12098.33
697.539	12206.12
697.885	12029.4
698.231	12111.43
698.577	12043.86
698.923	12098.1
699.269	11924.77
699.614	11895.39
699.96	11948.05
700.306	11980.36
700.651	11929.52
700.997	11777.2
701.342	11800.93
701.688	11760.03
702.033	11782.18
702.379	11715.29
702.724	11740.82
703.069	11809.97
703.415	11547.83
703.76	11562.29
704.105	11689.52
704.45	11596.19
704.795	11501.28
705.14	11473.03
705.485	11447.72
705.83	11445.01
706.175	11403.43
706.52	11315.3
706.865	11344.22
707.209	11355.29
707.554	11308.97
707.899	11300.38
708.243	11255.86
708.588	11268.29
708.932	11225.81
709.277	11195.98
709.621	11158.92
709.966	11195.75
710.31	11090.89
710.654	11054.29
710.998	11094.51
711.342	11060.39
711.687	11057.45
712.031	11021.07
712.375	10917.57
712.719	10941.52
713.063	10961.63
713.407	10933.61
713.75	10936.55
714.094	10901.75
714.438	10819.94
714.782	10807.51
715.125	10785.14
715.469	10771.58
715.812	10778.36
716.156	10711.02
716.499	10714.18
716.843	10692.26
717.186	10625.14
717.53	10621.75
717.873	10676.44
718.216	10620.4
718.559	10624.69
718.902	10544.92
719.246	10598.93
719.589	10475.32
719.932	10480.52
720.275	10553.51
720.617	10467.63
720.96	10462.21
721.303	10420.86
721.646	10517.35
721.989	10414.3
722.331	10444.13
722.674	10364.81
723.016	10420.86
723.359	10308.99
723.701	10341.76
724.044	10300.63
724.386	10281.88
724.729	10261.76
725.071	10324.36
725.413	10222.44
725.755	10288.2
726.097	10170.24
726.439	10142.45
726.782	10205.95
727.124	10198.26
727.465	10175.66
727.807	10090.24
728.149	10087.76
728.491	10103.35
728.833	10075.33
729.175	10039.4
729.516	10062.9
729.858	9987.2
730.199	10020.19
730.541	10017.02
730.882	10027.65
731.224	9958.04
731.565	9916.01
731.906	9909.68
732.248	9965.27
732.589	9889.12
732.93	9819.06
733.271	9894.99
733.612	9909.68
733.953	9815.67
734.294	9779.06
734.635	9775
734.976	9799.18
735.317	9805.28
735.658	9763.02
735.999	9780.87
736.339	9730.7
736.68	9702.23
737.021	9750.82
737.361	9696.81
737.702	9662.23
738.042	9731.38
738.383	9727.77
738.723	9697.94
739.063	9690.71
739.404	9660.2
739.744	9616.81
740.084	9565.06
740.424	9634.66
740.764	9629.24
741.104	9629.24
741.444	9515.79
741.784	9467.89
742.124	9553.08
742.464	9499.52
742.804	9455.91
743.143	9471.05
743.483	9430.83
743.823	9411.16
744.162	9369.81
744.502	9405.97
744.841	9408.45
745.181	9407.78
745.52	9375.91
745.86	9423.59
746.199	9370.04
746.538	9336.14
746.877	9363.93
747.216	9339.98
747.556	9276.93
747.895	9325.52
748.234	9301.11
748.573	9282.35
748.911	9259.76
749.25	9261.56
749.589	9255.01
749.928	9190.61
750.267	9166.43
750.605	9104.05
750.944	9126.88
751.283	9111.06
751.621	9059.99
751.96	9075.35
752.298	9023.38
752.636	9056.82
752.975	9000.1
753.313	8932.31
753.651	9000.55
753.989	8977.28
754.327	8909.48
754.666	8865.87
755.004	8867.45
755.342	8916.26
755.679	8885.08
756.017	8785.64
756.355	8818.41
756.693	8836.49
757.031	8873.1
757.368	8754.01
757.706	8823.38
758.044	8720.11
758.381	8754.91
758.719	8683.27
