Data from black_plastic_tray_FLMS001491_009.txt Node
Date: Tue Feb 07 10:39:10 GMT 2017
User: dcchb
Spectrometer: FLMS00149
Trigger mode: 0
Integration Time (sec): 2.000000E-2
Scans to average: 10
Electric dark correction enabled: true
Nonlinearity correction enabled: false
Boxcar width: 0
XAxis mode: Wavelengths
Number of Pixels in Spectrum: 2048
>>>>>Begin Spectral Data<<<<<
341.393	6.21
341.776	6.21
342.16	6.21
342.543	-75.82
342.927	-59.32
343.31	-71.07
343.693	-74.91
344.077	-79.88
344.46	-51.41
344.843	-47.12
345.226	-34.91
345.61	-25.2
345.993	-14.58
346.376	-9.6
346.759	19.32
347.142	23.16
347.525	40.56
347.908	66.78
348.291	48.47
348.674	88.25
349.057	122.14
349.44	111.07
349.823	136.83
350.206	167.57
350.588	170.73
350.971	205.98
351.354	201.24
351.737	212.31
352.119	240.56
352.502	239.88
352.884	254.8
353.267	253.89
353.65	271.07
354.032	278.52
354.414	275.36
354.797	307
355.179	298.18
355.562	334.34
355.944	307.45
356.326	330.95
356.709	332.31
357.091	338.86
357.473	330.27
357.855	330.27
358.238	347.45
358.62	323.04
359.002	307.9
359.384	335.02
359.766	316.26
360.148	335.47
360.53	304.06
360.912	328.01
361.294	312.87
361.676	321.69
362.057	332.76
362.439	287.79
362.821	320.78
363.203	318.97
363.584	319.88
363.966	314
364.348	292.53
364.729	309.03
365.111	291.4
365.493	309.94
365.874	308.58
366.256	317.62
366.637	290.27
367.019	300.67
367.4	297.73
367.781	298.18
368.163	288.47
368.544	274.46
368.925	283.27
369.306	328.69
369.688	302.48
370.069	306.09
370.45	315.36
370.831	287.34
371.212	300.22
371.593	290.95
371.974	292.53
372.355	297.96
372.736	293.66
373.117	308.81
373.498	294.79
373.879	315.81
374.26	305.19
374.641	324.62
375.021	298.18
375.402	304.96
375.783	311.07
376.163	323.49
376.544	325.53
376.925	321.23
377.305	313.33
377.686	330.05
378.066	320.56
378.447	322.59
378.827	311.29
379.208	319.43
379.588	307.45
379.968	321.01
380.349	329.37
380.729	330.5
381.109	349.48
381.489	342.25
381.87	322.82
382.25	341.35
382.63	339.99
383.01	342.7
383.39	328.24
383.77	316.71
384.15	332.31
384.53	342.7
384.91	361.46
385.29	342.93
385.67	331.63
386.049	339.54
386.429	354.68
386.809	362.36
387.189	370.05
387.568	369.14
387.948	348.8
388.328	368.69
388.707	342.25
389.087	350.39
389.466	375.24
389.846	367.79
390.225	363.04
390.605	369.82
390.984	365.3
391.363	361.23
391.743	399.2
392.122	369.59
392.501	375.7
392.881	373.89
393.26	377.05
393.639	372.76
394.018	373.66
394.397	385.87
394.776	410.5
395.155	387.9
395.534	404.4
395.913	389.71
396.292	394.68
396.671	414.11
397.05	392.19
397.429	400.78
397.808	406.2
398.186	400.33
398.565	403.72
398.944	395.13
399.323	394.45
399.701	419.54
400.08	417.28
400.458	404.4
400.837	430.84
401.215	429.48
401.594	411.18
401.972	415.7
402.351	406.66
402.729	436.94
403.107	415.24
403.486	428.8
403.864	443.49
404.242	417.73
404.62	458.86
404.999	444.62
405.377	453.21
405.755	431.97
406.133	453.66
406.511	444.4
406.889	454.56
407.267	459.99
407.645	480.55
408.023	468.8
408.401	472.42
408.779	484.17
409.156	471.51
409.534	462.02
409.912	488.24
410.29	478.97
410.667	469.48
411.045	524.39
411.422	519.87
411.8	494.56
412.178	502.47
412.555	503.83
412.933	502.47
413.31	502.02
413.687	513.32
414.065	504.28
414.442	532.98
414.819	517.84
415.197	536.6
415.574	523.94
415.951	547.44
416.328	552.64
416.705	547.22
417.082	550.61
417.46	545.18
417.837	569.59
418.214	556.48
418.591	568.46
418.967	560.78
419.344	567.78
419.721	572.08
420.098	568.01
420.475	564.84
420.852	607.33
421.228	604.62
421.605	584.5
421.982	602.13
422.358	588.57
422.735	610.94
423.111	592.19
423.488	615.92
423.864	614.33
424.241	613.2
424.617	624.96
424.994	619.98
425.37	608.91
425.746	647.55
426.123	621.79
426.499	640.1
426.875	646.65
427.251	663.37
427.627	660.89
428.003	683.48
428.379	671.28
428.756	668.34
429.132	690.72
429.507	697.04
429.883	682.35
430.259	705.41
430.635	690.49
431.011	716.7
431.387	721.9
431.763	739.75
432.138	747.89
432.514	742.47
432.89	767.55
433.265	777.27
433.641	763.71
434.016	772.52
434.392	789.7
434.767	779.75
435.143	785.18
435.518	805.97
435.894	792.86
436.269	812.07
436.644	799.87
437.02	814.33
437.395	829.92
437.77	848.9
438.145	857.49
438.52	863.14
438.895	857.72
439.271	861.56
439.646	852.75
440.021	879.64
440.395	874.21
440.77	857.72
441.145	874.44
441.52	915.34
441.895	887.77
442.27	903.14
442.645	900.2
443.019	913.76
443.394	916.7
443.769	940.2
444.143	936.59
444.518	955.79
444.892	907.89
445.267	953.99
445.641	947.66
446.016	982.91
446.39	958.05
446.764	986.08
447.139	967.09
447.513	968.68
447.887	1011.16
448.262	1009.58
448.636	976.36
449.01	982.69
449.384	987.88
449.758	991.27
450.132	1035.79
450.506	1030.37
450.88	1028.56
451.254	1057.49
451.628	1054.1
452.002	1059.75
452.376	1063.81
452.75	1062.91
453.123	1086.41
453.497	1096.36
453.871	1091.61
454.244	1096.13
454.618	1129.57
454.992	1135.45
455.365	1137.26
455.739	1162.79
456.112	1141.1
456.486	1172.96
456.859	1199.63
457.232	1224.04
457.606	1236.24
457.979	1215.45
458.352	1226.97
458.725	1252.06
459.099	1286.18
459.472	1300.42
459.845	1304.71
460.218	1283.7
460.591	1303.13
460.964	1305.62
461.337	1352.39
461.71	1342.9
462.083	1370.25
462.456	1400.53
462.829	1368.89
463.201	1407.08
463.574	1391.71
463.947	1432.62
464.32	1442.11
464.692	1470.36
465.065	1469.23
465.438	1483.24
465.81	1505.61
466.183	1529.56
466.555	1558.26
466.928	1567.98
467.3	1588.09
467.672	1589
468.045	1615.66
468.417	1626.96
468.789	1641.65
469.161	1650.69
469.534	1676
469.906	1696.34
470.278	1713.06
470.65	1748.99
471.022	1804.13
471.394	1791.93
471.766	1820.86
472.138	1828.31
472.51	1879.61
472.882	1883.45
473.253	1889.33
473.625	1918.25
473.997	1943.56
474.369	1979.5
474.74	1977.46
475.112	2034.86
475.484	2070.34
475.855	2053.39
476.227	2103.79
476.598	2123.9
476.97	2159.38
477.341	2201.86
477.713	2198.25
478.084	2233.27
478.455	2306.49
478.827	2314.4
479.198	2362.76
479.569	2363.67
479.94	2413.61
480.311	2458.13
480.682	2478.69
481.053	2569.76
481.424	2610.67
481.795	2620.38
482.166	2668.52
482.537	2736.09
482.908	2737.22
483.279	2764.79
483.65	2832.58
484.021	2872.81
484.391	2906.03
484.762	2920.04
485.133	2962.52
485.503	2971.79
485.874	3054.27
486.244	3062.41
486.615	3104.44
486.985	3128.17
487.356	3180.37
487.726	3250.87
488.097	3284.32
488.467	3333.36
488.837	3336.75
489.207	3409.97
489.578	3425.33
489.948	3516.63
490.318	3528.83
490.688	3500.36
491.058	3618.77
491.428	3604.99
491.798	3684.31
492.168	3740.58
492.538	3718.21
492.908	3784.65
493.278	3804.98
493.648	3847.47
494.017	3877.53
494.387	3897.86
494.757	3954.13
495.126	4018.76
495.496	4010.4
495.866	4010.85
496.235	4078.88
496.605	4111.87
496.974	4159.1
497.344	4137.86
497.713	4195.48
498.082	4225.09
498.452	4273.45
498.821	4275.71
499.19	4294.24
499.559	4371.3
499.928	4355.7
500.298	4433.67
500.667	4456.27
501.036	4455.14
501.405	4528.13
501.774	4545.53
502.143	4549.37
502.512	4542.14
502.88	4569.48
503.249	4599.99
503.618	4617.84
503.987	4694.45
504.356	4697.84
504.724	4760.44
505.093	4743.04
505.462	4760.44
505.83	4799.99
506.199	4846.54
506.567	4921.57
506.936	4907.33
507.304	4953.66
507.672	5042.47
508.041	4966.31
508.409	5041.56
508.777	5074.78
509.145	5088.79
509.514	5157.94
509.882	5173.99
510.25	5156.81
510.618	5187.77
510.986	5202.69
511.354	5258.28
511.722	5396.81
512.09	5423.93
512.458	5419.41
512.826	5451.5
513.193	5478.61
513.561	5435.22
513.929	5547.31
514.297	5656.01
514.664	5650.81
515.032	5656.69
515.4	5674.99
515.767	5688.78
516.135	5757.48
516.502	5737.59
516.869	5780.07
517.237	5840.86
517.604	5903.91
517.972	5887.19
518.339	5900.75
518.706	5978.26
519.073	5961.76
519.44	6025.04
519.808	6164.24
520.175	6139.84
520.542	6185.49
520.909	6231.81
521.276	6280.63
521.643	6315.43
522.009	6371.92
522.376	6405.59
522.743	6452.37
523.11	6534.63
523.477	6642.65
523.843	6653.05
524.21	6766.04
524.577	6742.31
524.943	6766.04
525.31	6789.31
525.676	6869.54
526.043	6968.07
526.409	6941.17
526.776	7010.32
527.142	7032.7
527.508	7096.42
527.874	7138.23
528.241	7192.24
528.607	7200.38
528.973	7300.49
529.339	7258.91
529.705	7298.23
530.071	7401.5
530.437	7394.49
530.803	7463.42
531.169	7546.13
531.535	7447.83
531.901	7559.69
532.267	7667.26
532.632	7632.68
532.998	7685.79
533.364	7806.24
533.73	7760.13
534.095	7811.43
534.461	7889.17
534.826	7909.74
535.192	7883.75
535.557	7989.28
535.923	8005.33
536.288	8134.59
536.653	8080.35
537.019	8090.75
537.384	8065.66
537.749	8177.75
538.114	8161.93
538.479	8147.24
538.845	8218.88
539.21	8258.88
539.575	8216.39
539.94	8236.28
540.305	8337.07
540.67	8307.69
541.034	8386.79
541.399	8408.25
541.764	8381.36
542.129	8432.89
542.494	8485.09
542.858	8489.83
543.223	8543.17
543.587	8584.52
543.952	8599.43
544.316	8647.12
544.681	8699.77
545.045	8625.42
545.41	8808.24
545.774	8728.7
546.138	8796.94
546.503	8805.98
546.867	8808.92
547.231	8910.39
547.595	8930.95
547.959	8998.07
548.324	8965.3
548.688	9012.76
549.052	9019.08
549.416	9052.76
549.779	9079.2
550.143	9016.37
550.507	9140.66
550.871	9152.41
551.235	9147.44
551.599	9214.79
551.962	9240.77
552.326	9213.88
552.689	9319.64
553.053	9272.41
553.417	9241.23
553.78	9470.15
554.143	9348.79
554.507	9408.23
554.87	9538.62
555.234	9592.18
555.597	9474.89
555.96	9584.72
556.323	9608.22
556.686	9659.07
557.05	9807.54
557.413	9720.76
557.776	9760.31
558.139	9823.58
558.502	9901.55
558.865	9962.79
559.228	10008.44
559.59	9978.16
559.953	10039.4
560.316	10153.52
560.679	10102.9
561.041	10180.64
561.404	10222.9
561.767	10306.73
562.129	10331.59
562.492	10406.85
562.854	10348.09
563.217	10387.86
563.579	10430.8
563.941	10417.92
564.304	10513.51
564.666	10530.23
565.028	10548.54
565.39	10606.84
565.753	10574.75
566.115	10698.81
566.477	10698.59
566.839	10744.69
567.201	10851.81
567.563	10832.6
567.925	10968.64
568.287	10906.49
568.648	11036.21
569.01	11078.92
569.372	11133.61
569.734	11169.08
570.095	11158.24
570.457	11213.38
570.819	11247.5
571.18	11282.3
571.542	11393.26
571.903	11358.23
572.265	11408.17
572.626	11402.75
572.987	11418.12
573.349	11485.69
573.71	11494.27
574.071	11496.53
574.432	11575.85
574.794	11640.48
575.155	11586.48
575.516	11590.99
575.877	11670.99
576.238	11721.39
576.599	11658.34
576.96	11697.88
577.32	11727.04
577.681	11679.35
578.042	11729.75
578.403	11816.98
578.763	11831.44
579.124	11800.25
579.485	11882.74
579.845	11840.25
580.206	11893.81
580.566	11801.84
580.927	11812.46
581.287	11934.49
581.648	11911.89
582.008	12014.03
582.368	11972
582.728	11973.36
583.089	12039.57
583.449	11951.66
583.809	12131.55
584.169	11939.46
584.529	12070.76
584.889	12126.57
585.249	11965.22
585.609	12021.27
585.969	12101.72
586.329	12090.19
586.688	12148.27
587.048	12166.12
587.408	12059.68
587.768	12067.82
588.127	12002.06
588.487	12032.79
588.846	12053.81
589.206	11950.99
589.565	12004.09
589.925	12018.78
590.284	12044.54
590.643	12083.41
591.003	12039.34
591.362	12063.07
591.721	11993.47
592.08	12009.06
592.44	11998.67
592.799	12033.69
593.158	11988.05
593.517	12042.96
593.876	12085.22
594.235	12058.33
594.593	11979.91
594.952	12091.32
595.311	12028.5
595.67	12024.2
596.029	12121.38
596.387	12118.44
596.746	12174.26
597.104	12125.9
597.463	12169.96
597.822	12153.69
598.18	12106.46
598.538	12177.19
598.897	12233.69
599.255	12188.72
599.613	12282.73
599.972	12308.94
600.33	12268.49
600.688	12187.36
601.046	12382.39
601.404	12348.71
601.762	12343.74
602.12	12366.57
602.478	12316.4
602.836	12267.59
603.194	12187.36
603.552	12241.15
603.91	12293.35
604.268	12356.4
604.625	12294.93
604.983	12241.15
605.341	12223.52
605.698	12299.22
606.056	12273.24
606.413	12306.68
606.771	12362.73
607.128	12290.41
607.485	12260.81
607.843	12319.11
608.2	12453.34
608.557	12474.81
608.914	12390.52
609.272	12509.39
609.629	12430.07
609.986	12547.13
610.343	12543.29
610.7	12605.66
611.057	12556.39
611.414	12510.74
611.771	12482.5
612.127	12555.72
612.484	12589.61
612.841	12667.58
613.198	12563.85
613.554	12617.41
613.911	12660.12
614.267	12659.22
614.624	12670.29
614.98	12682.27
615.337	12802.26
615.693	12671.19
616.05	12670.29
616.406	12721.36
616.762	12740.57
617.118	12665.09
617.475	12655.6
617.831	12656.28
618.187	12719.78
618.543	12736.28
618.899	12888.59
619.255	12785.77
619.611	12828.02
619.967	12842.04
620.323	12797.29
620.678	12785.99
621.034	12782.6
621.39	12802.71
621.746	12770.17
622.101	12851.75
622.457	12793.45
622.812	12724.3
623.168	12818.08
623.523	12837.29
623.879	12842.04
624.234	12731.08
624.589	12819.44
624.945	12858.31
625.3	12855.59
625.655	12818.53
626.01	12875.71
626.365	12834.35
626.72	12869.83
627.075	12826.44
627.43	12851.75
627.785	12847.23
628.14	12914.8
628.495	12887.01
628.85	12854.24
629.205	12832.32
629.559	12887.46
629.914	12835.03
630.269	12833.45
630.623	12748.48
630.978	12786.9
631.332	12860.34
631.687	12842.04
632.041	12811.3
632.396	12760.68
632.75	12695.82
633.104	12686.11
633.459	12615.83
633.813	12579.44
634.167	12598.2
634.521	12663.51
634.875	12665.09
635.229	12574.47
635.583	12551.2
635.937	12549.16
636.291	12439.56
636.645	12527.02
636.999	12508.48
637.352	12438.2
637.706	12397.3
638.06	12475.04
638.413	12404.53
638.767	12374.7
639.121	12442.5
639.474	12294.48
639.828	12342.39
640.181	12398.21
640.534	12366.57
640.888	12299
641.241	12267.59
641.594	12291.54
641.947	12385.1
642.301	12362.95
642.654	12250.41
643.007	12242.73
643.36	12253.58
643.713	12277.98
644.066	12308.26
644.419	12221.03
644.771	12139
645.124	12037.76
645.477	12063.07
645.83	11994.37
646.182	11887.48
646.535	11798.67
646.888	11969.06
647.24	11838.67
647.593	11780.82
647.945	11840.71
648.298	11690.43
648.65	11674.83
649.002	11667.6
649.355	11767.04
649.707	11703.53
650.059	11711.44
650.411	11850.65
650.763	11927.48
651.115	11976.75
651.467	11921.61
651.819	11921.16
652.171	11981.72
652.523	11930.42
652.875	11860.37
653.227	11831.89
653.578	11885
653.93	11848.16
654.282	11809.52
654.633	11806.36
654.985	11785.57
655.337	11779.92
655.688	11733.59
656.039	11815.4
656.391	11739.69
656.742	11780.59
657.094	11713.48
657.445	11744.21
657.796	11755.28
658.147	11786.02
658.498	11725.23
658.849	11751.67
659.2	11781.5
659.551	11715.51
659.902	11798.22
660.253	11763.19
660.604	11800.25
660.955	11747.37
661.306	11724.78
661.656	11682.52
662.007	11682.74
662.358	11702.86
662.708	11664.67
663.059	11663.76
663.409	11536.53
663.76	11652.69
664.11	11647.72
664.461	11584.89
664.811	11581.5
665.161	11586.25
665.511	11495.4
665.862	11555.29
666.212	11603.88
666.562	11566.81
666.912	11591.67
667.262	11620.37
667.612	11540.15
667.962	11527.72
668.312	11454.05
668.662	11531.34
669.011	11486.36
669.361	11482.07
669.711	11552.35
670.06	11492.01
670.41	11398.46
670.76	11456.99
671.109	11519.36
671.459	11423.32
671.808	11403.43
672.157	11412.69
672.507	11361.4
672.856	11379.7
673.205	11451.11
673.554	11497.21
673.904	11447.95
674.253	11486.82
674.602	11433.26
674.951	11247.95
675.3	11170.44
675.649	11396.2
675.998	11349.42
676.346	11344.67
676.695	11458.57
677.044	11423.99
677.393	11352.36
677.741	11322.53
678.09	11301.96
678.438	11226.48
678.787	11263.32
679.135	11325.92
679.484	11194.62
679.832	11231.46
680.181	11236.88
680.529	11228.97
680.877	11207.5
681.225	11171.57
681.573	11284.34
681.922	11149.65
682.27	11050.9
682.618	11095.64
682.966	11075.98
683.314	11082.76
683.661	11117.79
684.009	11012.03
684.357	10943.1
684.705	10929.54
685.053	10978.36
685.4	10989.65
685.748	10925.93
686.095	10870.11
686.443	10779.04
686.79	10791.69
687.138	10781.98
687.485	10821.75
687.832	10800.28
688.18	10755.08
688.527	10694.97
688.874	10712.37
689.221	10640.96
689.568	10679.61
689.915	10655.2
690.262	10721.41
690.609	10595.54
690.956	10554.19
691.303	10571.59
691.65	10485.94
691.997	10462.21
692.344	10429.44
692.69	10372.04
693.037	10447.3
693.383	10311.25
693.73	10385.6
694.077	10345.6
694.423	10390.8
694.769	10323.01
695.116	10256.79
695.462	10348.77
695.808	10283.46
696.155	10220.64
696.501	10228.77
696.847	10206.17
697.193	10080.3
697.539	10126.63
697.885	10045.95
698.231	9995.78
698.577	9987.87
698.923	9991.94
699.269	9975.67
699.614	9915.56
699.96	9925.95
700.306	9848.89
700.651	9844.37
700.997	9803.02
701.342	9795.11
701.688	9800.08
702.033	9742.68
702.379	9661.1
702.724	9661.55
703.069	9705.17
703.415	9669.24
703.76	9573.19
704.105	9572.06
704.45	9592.63
704.795	9576.58
705.14	9548.79
705.485	9505.17
705.83	9483.25
706.175	9392.86
706.52	9413.42
706.865	9371.84
707.209	9422.24
707.554	9358.96
707.899	9370.49
708.243	9323.03
708.588	9273.99
708.932	9288.46
709.277	9311.05
709.621	9244.39
709.966	9237.16
710.31	9237.61
710.654	9176.82
710.998	9149.7
711.342	9175.24
711.687	9155.35
712.031	9145.41
712.375	9101.12
712.719	9093.43
713.063	9062.7
713.407	9051.85
713.75	9080.1
714.094	9020.89
714.438	8998.97
714.782	9034.9
715.125	9009.82
715.469	9028.58
715.812	8875.13
716.156	8858.64
716.499	8816.83
716.843	8898.64
717.186	8852.54
717.53	8842.14
717.873	8904.51
718.216	8869.26
718.559	8764.4
718.902	8780.45
719.246	8777.96
719.589	8680.79
719.932	8714.01
720.275	8747.91
720.617	8674.24
720.96	8637.63
721.303	8592.66
721.646	8634.24
721.989	8618.64
722.331	8609.15
722.674	8508.59
723.016	8581.36
723.359	8569.61
723.701	8574.58
724.044	8506.33
724.386	8400.8
724.729	8538.87
725.071	8500.23
725.413	8436.95
725.755	8427.01
726.097	8437.41
726.439	8377.97
726.782	8353.79
727.124	8443.73
727.465	8288.71
727.807	8311.08
728.149	8337.29
728.491	8317.18
728.833	8326.9
729.175	8285.32
729.516	8271.99
729.858	8247.81
730.199	8247.13
730.541	8252.78
730.882	8292.55
731.224	8303.62
731.565	8183.4
731.906	8250.07
732.248	8285.09
732.589	8138.43
732.93	8156.28
733.271	8180.46
733.612	8177.98
733.953	8144.31
734.294	8167.58
734.635	8120.58
734.976	8151.99
735.317	8122.61
735.658	8094.14
735.999	8101.14
736.339	8063.18
736.68	8079.9
737.021	8027.02
737.361	7994.03
737.702	8046.23
738.042	7978.43
738.383	7988.6
738.723	7986.34
739.063	7930.07
739.404	7947.02
739.744	8002.61
740.084	7888.49
740.424	7913.8
740.764	7916.06
741.104	7895.72
741.444	7824.31
741.784	7826.12
742.124	7847.14
742.464	7790.64
742.804	7773.24
743.143	7757.88
743.483	7779.57
743.823	7766.91
744.162	7716.75
744.502	7736.41
744.841	7691.21
745.181	7715.84
745.52	7727.59
745.86	7672.23
746.199	7735.73
746.538	7684.43
746.877	7671.32
747.216	7648.27
747.556	7621.61
747.895	7627.71
748.234	7583.42
748.573	7635.62
748.911	7564.66
749.25	7608.5
749.589	7475.85
749.928	7539.12
750.267	7579.57
750.605	7520.59
750.944	7473.14
751.283	7530.31
751.621	7506.36
751.96	7380.48
752.298	7475.85
752.636	7418.67
752.975	7407.15
753.313	7436.75
753.651	7355.4
753.989	7369.18
754.327	7359.92
754.666	7295.51
755.004	7286.7
755.342	7305.46
755.679	7246.7
756.017	7225.23
756.355	7205.57
756.693	7206.93
757.031	7208.74
757.368	7177.55
757.706	7191.79
758.044	7157.89
758.381	7123.09
758.719	7105.46
759.056	7107.04
759.394	7068.4
759.731	7058.68
760.068	7014.17
760.405	6964.45
760.743	6988.18
761.08	6979.36
761.417	6916.09
761.754	6993.38
762.091	7019.36
762.428	6932.59
762.765	6912.7
