Data from black_plastic_tray_FLMS001491_051.txt Node
Date: Tue Feb 07 10:40:08 GMT 2017
User: dcchb
Spectrometer: FLMS00149
Trigger mode: 0
Integration Time (sec): 2.000000E-2
Scans to average: 10
Electric dark correction enabled: true
Nonlinearity correction enabled: false
Boxcar width: 0
XAxis mode: Wavelengths
Number of Pixels in Spectrum: 2048
>>>>>Begin Spectral Data<<<<<
341.393	-14.75
341.776	-14.75
342.16	-14.75
342.543	-50.9
342.927	-62.43
343.31	-72.37
343.693	-59.72
344.077	-55.87
344.46	-63.78
344.843	-58.36
345.226	-38.47
345.61	-20.62
345.993	1.3
346.376	-14.52
346.759	20.51
347.142	14.86
347.525	51.24
347.908	36.33
348.291	69.55
348.674	86.72
349.057	103.22
349.44	117.45
349.823	135.99
350.206	136.21
350.588	175.98
350.971	188.87
351.354	218.69
351.737	225.02
352.119	255.08
352.502	232.48
352.884	251.69
353.267	262.99
353.65	280.39
354.032	289.43
354.414	290.56
354.797	303.21
355.179	305.47
355.562	307.28
355.944	310.22
356.326	338.47
356.709	320.39
357.091	302.08
357.473	328.52
357.855	326.26
358.238	341.18
358.62	342.53
359.002	328.75
359.384	330.78
359.766	337.34
360.148	312.48
360.53	336.88
360.912	318.35
361.294	333.95
361.676	336.43
362.057	319.94
362.439	337.34
362.821	323.55
363.203	321.52
363.584	307.96
363.966	323.55
364.348	317.45
364.729	315.42
365.111	344.79
365.493	331.23
365.874	312.25
366.256	292.37
366.637	308.41
367.019	309.54
367.4	312.93
367.781	299.6
368.163	323.78
368.544	299.14
368.925	333.27
369.306	320.84
369.688	310.22
370.069	315.87
370.45	321.07
370.831	307.96
371.212	305.25
371.593	317.45
371.974	304.57
372.355	317.22
372.736	328.97
373.117	312.03
373.498	324.45
373.879	311.57
374.26	314.96
374.641	315.87
375.021	309.77
375.402	319.94
375.783	331.91
376.163	314.29
376.544	319.71
376.925	312.93
377.305	319.26
377.686	314.74
378.066	323.78
378.447	321.52
378.827	328.3
379.208	346.6
379.588	345.47
379.968	359.26
380.349	326.04
380.729	343.21
381.109	351.8
381.489	354.06
381.87	327.62
382.25	364.91
382.63	349.99
383.01	357.9
383.39	372.82
383.77	367.84
384.15	362.19
384.53	356.09
384.91	358.13
385.29	355.19
385.67	354.74
386.049	370.56
386.429	379.59
386.809	359.71
387.189	374.17
387.568	372.14
387.948	363.78
388.328	354.96
388.707	361.74
389.087	407.62
389.466	392.93
389.846	394.96
390.225	394.74
390.605	392.25
390.984	379.59
391.363	392.25
391.743	401.06
392.122	387.05
392.501	400.61
392.881	413.04
393.26	415.07
393.639	415.98
394.018	412.59
394.397	414.62
394.776	399.03
395.155	430.67
395.534	418.46
395.913	416.43
396.292	428.86
396.671	435.41
397.05	419.37
397.429	411.23
397.808	407.16
398.186	431.8
398.565	408.29
398.944	411.01
399.323	428.86
399.701	430.89
400.08	439.93
400.458	441.74
400.837	452.59
401.215	461.63
401.594	462.3
401.972	462.3
402.351	469.54
402.729	467.28
403.107	482.87
403.486	481.29
403.864	485.58
404.242	484.68
404.62	470.89
404.999	497.78
405.377	476.09
405.755	496.2
406.133	478.8
406.511	488.29
406.889	495.98
407.267	511.34
407.645	490.55
408.023	515.64
408.401	525.13
408.779	519.03
409.156	521.96
409.534	520.16
409.912	534.39
410.29	542.98
410.667	545.69
411.045	545.92
411.422	544.34
411.8	538.23
412.178	541.62
412.555	550.89
412.933	568.52
413.31	542.3
413.687	582.98
414.065	592.47
414.442	599.25
414.819	584.79
415.197	604
415.574	616.42
415.951	632.24
416.328	629.76
416.705	592.24
417.082	638.57
417.46	611
417.837	634.05
418.214	620.94
418.591	637.89
418.967	658.23
419.344	661.4
419.721	644.9
420.098	672.69
420.475	672.69
420.852	669.08
421.228	689.64
421.605	692.13
421.982	671.56
422.358	692.35
422.735	695.97
423.111	676.08
423.488	720.15
423.864	716.76
424.241	707.72
424.617	721.28
424.994	716.53
425.37	735.74
425.746	734.61
426.123	734.61
426.499	740.26
426.875	771.67
427.251	772.13
427.627	754.95
428.003	789.3
428.379	789.08
428.756	776.87
429.132	806.02
429.507	812.35
429.883	809.41
430.259	827.27
430.635	840.15
431.011	823.2
431.387	830.66
431.763	850.32
432.138	832.46
432.514	881.28
432.89	869.75
433.265	893.71
433.641	903.42
434.016	914.5
434.392	943.2
434.767	943.2
435.143	917.89
435.518	949.07
435.894	956.98
436.269	949.52
436.644	975.96
437.02	969.64
437.395	984.32
437.77	993.14
438.145	976.19
438.52	1023.19
438.895	1011.22
439.271	989.97
439.646	1034.27
440.021	1041.05
440.395	1054.15
440.77	1064.77
441.145	1043.08
441.52	1075.4
441.895	1075.62
442.27	1063.42
442.645	1074.94
443.019	1105
443.394	1068.16
443.769	1120.37
444.143	1079.01
444.518	1140.25
444.892	1103.42
445.267	1141.16
445.641	1155.17
446.016	1151.55
446.39	1182.06
446.764	1150.65
447.139	1160.59
447.513	1198.33
447.887	1172.57
448.262	1212.57
448.636	1198.1
449.01	1213.24
449.384	1209.18
449.758	1224.77
450.132	1235.17
450.506	1250.08
450.88	1255.05
451.254	1241.04
451.628	1264.77
452.002	1281.49
452.376	1284.2
452.75	1301.38
453.123	1304.09
453.497	1330.76
453.871	1329.63
454.244	1382.73
454.618	1380.02
454.992	1378.44
455.365	1375.27
455.739	1418.21
456.112	1411.66
456.486	1441.71
456.859	1468.61
457.232	1438.55
457.606	1499.34
457.979	1485.1
458.352	1504.76
458.725	1557.19
459.099	1537.98
459.472	1588.6
459.845	1618.21
460.218	1577.08
460.591	1622.73
460.964	1615.27
461.337	1647.81
461.71	1695.27
462.083	1684.64
462.456	1686.23
462.829	1699.33
463.201	1753.57
463.574	1728.49
463.947	1772.78
464.32	1798.09
464.692	1790.63
465.065	1825.66
465.438	1812.1
465.81	1874.92
466.183	1871.31
466.555	1923.73
466.928	1933
467.3	1941.59
467.672	1960.8
468.045	2002.15
468.417	2025.88
468.789	2005.99
469.161	2029.04
469.534	2075.14
469.906	2117.63
470.278	2153.79
470.65	2159.89
471.022	2215.48
471.394	2202.6
471.766	2215.7
472.138	2255.93
472.51	2329.6
472.882	2337.74
473.253	2350.62
473.625	2402.14
473.997	2442.59
474.369	2453.66
474.74	2456.38
475.112	2548.35
475.484	2546.54
475.855	2609.14
476.227	2624.51
476.598	2692.98
476.97	2698.18
477.341	2753.09
477.713	2768.68
478.084	2835.12
478.455	2889.81
478.827	2913.99
479.198	2986.76
479.569	2985.18
479.94	3059.07
480.311	3105.17
480.682	3141.1
481.053	3221.1
481.424	3258.84
481.795	3315.79
482.166	3358.05
482.537	3375.22
482.908	3462.9
483.279	3521.66
483.65	3570.7
484.021	3644.59
484.391	3631.71
484.762	3682.11
485.133	3738.6
485.503	3719.39
485.874	3893.85
486.244	3866.06
486.615	3944.02
486.985	3972.49
487.356	4050.23
487.726	4052.72
488.097	4093.85
488.467	4169.78
488.837	4235.76
489.207	4325.93
489.578	4335.2
489.948	4377.46
490.318	4455.42
490.688	4462.43
491.058	4552.82
491.428	4579.26
491.798	4637.34
492.168	4797.11
492.538	4772.47
492.908	4796.43
493.278	4834.62
493.648	4827.39
494.017	4873.71
494.387	4981.06
494.757	4974.73
495.126	5061.96
495.496	5089.3
495.866	5115.06
496.235	5162.52
496.605	5260.6
496.974	5272.57
497.344	5324.32
497.713	5340.82
498.082	5392.57
498.452	5418.78
498.821	5480.25
499.19	5495.84
499.559	5526.13
499.928	5546.92
500.298	5613.58
500.667	5646.12
501.036	5630.98
501.405	5715.95
501.774	5694.03
502.143	5813.12
502.512	5804.08
502.88	5880.92
503.249	5905.55
503.618	5956.62
503.987	5930.41
504.356	6016.28
504.724	6049.05
505.093	6044.76
505.462	6106
505.83	6128.37
506.199	6222.83
506.567	6231.64
506.936	6249.04
507.304	6333.11
507.672	6412.2
508.041	6417.18
508.409	6466.44
508.777	6473.67
509.145	6544.86
509.514	6641.8
509.882	6680.9
510.25	6660.56
510.618	6666.89
510.986	6729.03
511.354	6826.66
511.722	6853.32
512.09	6978.97
512.458	6859.42
512.826	6993.88
513.193	7011.74
513.561	7061.68
513.929	7076.14
514.297	7160.89
514.664	7239.08
515.032	7285.18
515.4	7363.82
515.767	7330.6
516.135	7415.79
516.502	7381.9
516.869	7533.76
517.237	7554.32
517.604	7531.04
517.972	7571.95
518.339	7693.75
518.706	7736.92
519.073	7744.6
519.44	7841.32
519.808	7877.48
520.175	7949.56
520.542	8035.66
520.909	8093.74
521.276	8153.18
521.643	8162.21
522.009	8236.56
522.376	8301.65
522.743	8319.95
523.11	8396.33
523.477	8448.08
523.843	8490.79
524.21	8608.98
524.577	8681.3
524.943	8695.53
525.31	8781.41
525.676	8808.3
526.043	8927.84
526.409	8948.18
526.776	9039.93
527.142	9018.01
527.508	9095.98
527.874	9168.97
528.241	9263.65
528.607	9289.64
528.973	9405.12
529.339	9412.35
529.705	9463.2
530.071	9603.76
530.437	9603.98
530.803	9695.96
531.169	9752.23
531.535	9698.67
531.901	9778.67
532.267	9847.14
532.632	9891.21
532.998	9957.65
533.364	10010.3
533.73	10015.95
534.095	10028.15
534.461	10138.89
534.826	10191.09
535.192	10181.6
535.557	10297.53
535.923	10308.15
536.288	10312.67
536.653	10340.69
537.019	10389.05
537.384	10442.15
537.749	10498.2
538.114	10512.44
538.479	10541.59
538.845	10583.17
539.21	10641.25
539.575	10714.46
539.94	10686.67
540.305	10741.36
540.67	10748.14
541.034	10815.93
541.399	10851.64
541.764	10928.92
542.129	10973.21
542.494	10910.17
542.858	11106.77
543.223	10925.08
543.587	11067.68
543.952	11068.13
544.316	11130.05
544.681	11148.8
545.045	11151.74
545.41	11216.15
545.774	11288.01
546.138	11304.51
546.503	11300.89
546.867	11340.66
547.231	11463.6
547.595	11510.38
547.959	11478.96
548.324	11570.49
548.688	11557.83
549.052	11640.32
549.416	11607.32
549.779	11693.2
550.143	11658.39
550.507	11778.84
550.871	11816.36
551.235	11818.16
551.599	11947.88
551.962	11864.72
552.326	11993.53
552.689	12051.38
553.053	12003.24
553.417	12070.81
553.78	12233.75
554.143	12221.54
554.507	12283.69
554.87	12318.04
555.234	12457.47
555.597	12416.11
555.96	12396.91
556.323	12496.11
556.686	12454.31
557.05	12553.29
557.413	12596
557.776	12678.25
558.139	12775.2
558.502	12778.59
558.865	12867.63
559.228	12889.77
559.59	12983.1
559.953	12860.17
560.316	13110.11
560.679	13099.71
561.041	13137
561.404	13217.22
561.767	13322.76
562.129	13360.5
562.492	13459.48
562.854	13522.53
563.217	13482.07
563.579	13606.82
563.941	13558.23
564.304	13677.55
564.666	13737.21
565.028	13711.67
565.39	13853.59
565.753	13913.93
566.115	13921.84
566.477	13986.02
566.839	14037.99
567.201	14104.21
567.563	14142.62
567.925	14203.64
568.287	14241.6
568.648	14288.83
569.01	14342.84
569.372	14435.27
569.734	14464.87
570.095	14553.91
570.457	14591.65
570.819	14598.43
571.18	14674.36
571.542	14710.97
571.903	14663.51
572.265	14772.66
572.626	14908.25
572.987	14838.65
573.349	14838.65
573.71	14931.53
574.071	14913
574.432	15049.49
574.794	15169.49
575.155	15056.04
575.516	15043.84
575.877	15124.29
576.238	15135.36
576.599	15214.23
576.96	15206.78
577.32	15240.45
577.681	15273.89
578.042	15425.53
578.403	15364.51
578.763	15410.39
579.124	15446.54
579.485	15514.56
579.845	15509.14
580.206	15456.03
580.566	15428.01
580.927	15458.75
581.287	15538.52
581.648	15420.33
582.008	15508.01
582.368	15522.93
582.728	15552.3
583.089	15527.44
583.449	15547.33
583.809	15679.98
584.169	15547.33
584.529	15445.87
584.889	15768.79
585.249	15570.38
585.609	15496.49
585.969	15723.37
586.329	15591.17
586.688	15720.66
587.048	15536.94
587.408	15609.93
587.768	15631.85
588.127	15481.12
588.487	15559.53
588.846	15596.14
589.206	15498.97
589.565	15489.71
589.925	15649.7
590.284	15540.55
590.643	15638.85
591.003	15651.96
591.362	15635.24
591.721	15658.06
592.08	15684.95
592.44	15703.26
592.799	15744.84
593.158	15660.55
593.517	15717.95
593.876	15833.43
594.235	15797.04
594.593	15716.59
594.952	15731.73
595.311	15703.71
595.67	15668.01
596.029	15728.12
596.387	15798.62
596.746	15828.23
597.104	15792.3
597.463	15770.6
597.822	15797.72
598.18	15687.21
598.538	15624.39
598.897	15823.26
599.255	15779.64
599.613	15873.65
599.972	15941.22
600.33	15874.55
600.688	15870.71
601.046	15841.33
601.404	15971.73
601.762	15942.58
602.12	15991.39
602.478	15980.54
602.836	16053.31
603.194	15995.23
603.552	15900.77
603.91	15877.04
604.268	15974.21
604.625	15962.24
604.983	16027.54
605.341	15903.25
605.698	15997.94
606.056	16010.6
606.413	15993.87
606.771	15967.66
607.128	16071.16
607.485	16072.52
607.843	16023.03
608.2	16180.76
608.557	16251.95
608.914	16220.53
609.272	16216.01
609.629	16237.71
609.986	16215.11
610.343	16119.97
610.7	16257.14
611.057	16221.21
611.414	16163.36
611.771	16302.34
612.127	16327.88
612.484	16377.37
612.841	16347.08
613.198	16410.36
613.554	16322.68
613.911	16425.5
614.267	16414.2
614.624	16401.77
614.98	16421.21
615.337	16451.49
615.693	16503.69
616.05	16513.63
616.406	16590.24
616.762	16503.01
617.118	16545.5
617.475	16535.78
617.831	16609.68
618.187	16627.98
618.543	16612.84
618.899	16736.45
619.255	16724.48
619.611	16729
619.967	16707.3
620.323	16759.5
620.678	16690.13
621.034	16631.6
621.39	16611.03
621.746	16686.28
622.101	16679.5
622.457	16647.64
622.812	16727.87
623.168	16755.89
623.523	16762.21
623.879	16823.23
624.234	16610.13
624.589	16709.79
624.945	16743.68
625.3	16744.59
625.655	16797.69
626.01	16681.76
626.365	16885.6
626.72	16713.4
627.075	16764.93
627.43	16650.35
627.785	16749.56
628.14	16761.31
628.495	16851.03
628.85	16670.47
629.205	16586.85
629.559	16771.25
629.914	16678.38
630.269	16785.04
630.623	16546.4
630.978	16577.59
631.332	16620.3
631.687	16699.62
632.041	16640.64
632.396	16646.29
632.75	16575.78
633.104	16593.63
633.459	16465.73
633.813	16493.52
634.167	16480.87
634.521	16431.38
634.875	16462.79
635.229	16473.86
635.583	16310.48
635.937	16244.04
636.291	16363.36
636.645	16299.18
636.999	16218.73
637.352	16251.95
637.706	16198.61
638.06	16215.34
638.413	16169.24
638.767	16113.87
639.121	16184.15
639.474	16062.8
639.828	16143.93
640.181	16137.6
640.534	16042.46
640.888	16067.77
641.241	15942.35
641.594	15995
641.947	16115.9
642.301	15926.76
642.654	15879.75
643.007	15893.08
643.36	15841.11
643.713	15918.62
644.066	15875.46
644.419	15861.67
644.771	15757.72
645.124	15563.6
645.477	15605.63
645.83	15390.05
646.182	15392.53
646.535	15312.31
646.888	15353.66
647.24	15253.1
647.593	15402.7
647.945	15255.14
648.298	15307.56
648.65	15194.8
649.002	15170.17
649.355	15213.1
649.707	15202.93
650.059	15168.13
650.411	15454.45
650.763	15410.16
651.115	15594.79
651.467	15560.21
651.819	15510.95
652.171	15441.12
652.523	15419.2
652.875	15428.69
653.227	15414.91
653.578	15518.41
653.93	15533.77
654.282	15269.15
654.633	15317.28
654.985	15350.27
655.337	15395.24
655.688	15391.63
656.039	15327.68
656.391	15205.42
656.742	15165.19
657.094	15275.93
657.445	15331.52
657.796	15316.83
658.147	15327.9
658.498	15259.88
658.849	15359.99
659.2	15242.93
659.551	15267.34
659.902	15351.4
660.253	15283.16
660.604	15310.28
660.955	15140.34
661.306	15157.29
661.656	15137.85
662.007	15088.59
662.358	15029.15
662.708	15124.52
663.059	15137.17
663.409	15073.67
663.76	15134.91
664.11	15147.12
664.461	15138.53
664.811	15147.34
665.161	15168.81
665.511	15049.72
665.862	15054.01
666.212	15109.83
666.562	15016.72
666.912	15011.07
667.262	14999.55
667.612	15068.93
667.962	14953.67
668.312	14940.12
668.662	15043.62
669.011	14945.31
669.361	14984.63
669.711	14967.46
670.06	14854.47
670.41	14861.7
670.76	14789.39
671.109	14965.65
671.459	14882.26
671.808	14931.98
672.157	14953.9
672.507	14783.51
672.856	14811.31
673.205	14834.13
673.554	14935.82
673.904	14865.32
674.253	14908.03
674.602	14789.16
674.951	14534.7
675.3	14553.01
675.649	14717.75
675.998	14683.63
676.346	14706.9
676.695	14860.8
677.044	14673.23
677.393	14726.11
677.741	14742.61
678.09	14618.77
678.438	14464.2
678.787	14692.89
679.135	14570.18
679.484	14497.87
679.832	14597.98
680.181	14490.64
680.529	14588.49
680.877	14521.6
681.225	14511.2
681.573	14549.84
681.922	14487.92
682.27	14340.13
682.618	14381.71
682.966	14359.57
683.314	14432.11
683.661	14297.65
684.009	14242.51
684.357	14249.74
684.705	14207.48
685.053	14292.22
685.4	14313.01
685.748	14207.25
686.095	14084.32
686.443	14065.56
686.79	13975.85
687.138	14109.63
687.485	14066.92
687.832	13998.67
688.18	13990.31
688.527	13867.15
688.874	13852.01
689.221	13922.06
689.568	13862.4
689.915	13803.65
690.262	13779.02
690.609	13656.53
690.956	13765.23
691.303	13711.67
691.65	13656.08
691.997	13622.86
692.344	13549.19
692.69	13509.64
693.037	13503.77
693.383	13418.12
693.73	13591.45
694.077	13458.35
694.423	13419.25
694.769	13309.88
695.116	13262.42
695.462	13319.59
695.808	13301.74
696.155	13321.18
696.501	13144.68
696.847	13205.47
697.193	13134.74
697.539	13190.56
697.885	13094.06
698.231	12966.61
698.577	13012.48
698.923	12919.83
699.269	12949.21
699.614	12824.92
699.96	12826.95
700.306	12798.25
700.651	12688.65
700.997	12798.7
701.342	12675.32
701.688	12638.03
702.033	12605.94
702.379	12664.92
702.724	12630.8
703.069	12652.94
703.415	12540.18
703.76	12513.96
704.105	12580.4
704.45	12462.44
704.795	12403.91
705.14	12371.82
705.485	12356.91
705.83	12297.02
706.175	12297.93
706.52	12197.36
706.865	12216.35
707.209	12249.56
707.554	12106.52
707.899	12157.36
708.243	12066.74
708.588	12183.35
708.932	12119.4
709.277	12038.5
709.621	12067.2
709.966	11955.79
710.31	12017.71
710.654	11882.57
710.998	11818.39
711.342	11922.57
711.687	11871.5
712.031	11751.95
712.375	11725.06
712.719	11758.5
713.063	11735
713.407	11728.22
713.75	11645.51
714.094	11658.85
714.438	11546.53
714.782	11625.4
715.125	11534.56
715.469	11594.89
715.812	11537.95
716.156	11523.26
716.499	11518.74
716.843	11478.29
717.186	11439.19
717.53	11451.85
717.873	11530.94
718.216	11396.03
718.559	11447.78
718.902	11295.69
719.246	11404.16
719.589	11263.38
719.932	11329.82
720.275	11288.69
720.617	11188.58
720.96	11188.8
721.303	11201.91
721.646	11178.63
721.989	11109.71
722.331	11137.96
722.674	11161.68
723.016	11119.65
723.359	11081.01
723.701	11154.45
724.044	11072.87
724.386	10989.03
724.729	11029.71
725.071	11016.6
725.413	10999.2
725.755	10986.55
726.097	10836.27
726.439	10836.95
726.782	10868.81
727.124	10909.94
727.465	10813.9
727.807	10835.59
728.149	10852.31
728.491	10819.55
728.833	10882.82
729.175	10810.96
729.516	10748.59
729.858	10704.07
730.199	10738.42
730.541	10724.18
730.882	10769.83
731.224	10730.96
731.565	10679.66
731.906	10671.53
732.248	10548.82
732.589	10562.6
732.93	10491.19
733.271	10572.55
733.612	10528.93
733.953	10531.64
734.294	10518.76
734.635	10469.27
734.976	10593.11
735.317	10493.45
735.658	10451.87
735.999	10398.99
736.339	10416.17
736.68	10392.21
737.021	10371.2
737.361	10299.56
737.702	10371.42
738.042	10384.76
738.383	10355.6
738.723	10343.85
739.063	10302.27
739.404	10274.7
739.744	10205.78
740.084	10219.34
740.424	10261.37
740.764	10198.32
741.104	10263.4
741.444	10145.89
741.784	10107.25
742.124	10171.88
742.464	10154.7
742.804	10165.1
743.143	10080.81
743.483	10143.18
743.823	10101.37
744.162	10004.2
744.502	10108.83
744.841	10019.12
745.181	10118.55
745.52	10057.98
745.86	10004.2
746.199	10019.12
746.538	9996.29
746.877	9963.98
747.216	9889.63
747.556	9844.43
747.895	9857.09
748.234	9844.88
748.573	9871.1
748.911	9781.61
749.25	9789.74
749.589	9851.21
749.928	9787.93
750.267	9831.1
750.605	9806.47
750.944	9750.42
751.283	9709.07
751.621	9791.55
751.96	9674.27
752.298	9673.36
752.636	9666.13
752.975	9659.12
753.313	9527.38
753.651	9582.97
753.989	9589.07
754.327	9621.84
754.666	9463.42
755.004	9518.34
755.342	9496.42
755.679	9428.85
756.017	9374.16
756.355	9345.23
756.693	9316.76
757.031	9385.46
757.368	9317.21
757.706	9351.34
758.044	9262.98
