Data from black_metal_pc_casing_FLMS001491_00074.txt Node
Date: Wed Feb 08 14:33:28 GMT 2017
User: dcchb
Spectrometer: FLMS00149
Trigger mode: 0
Integration Time (sec): 2.000000E-2
Scans to average: 10
Electric dark correction enabled: true
Nonlinearity correction enabled: false
Boxcar width: 0
XAxis mode: Wavelengths
Number of Pixels in Spectrum: 2048
>>>>>Begin Spectral Data<<<<<
341.393	-11.86
341.776	-11.86
342.16	-11.86
342.543	-39.89
342.927	-53.9
343.31	-77.63
343.693	-66.55
344.077	-59.77
344.46	-46.44
344.843	-59.09
345.226	-43.05
345.61	-28.59
345.993	-16.16
346.376	-7.34
346.759	4.41
347.142	27.23
347.525	32.43
347.908	80.79
348.291	65.2
348.674	89.38
349.057	105.19
349.44	137.06
349.823	151.07
350.206	160.79
350.588	190.16
350.971	216.83
351.354	221.58
351.737	228.81
352.119	248.02
352.502	252.99
352.884	279.2
353.267	274
353.65	271.07
354.032	272.65
354.414	308.13
354.797	301.8
355.179	325.75
355.562	322.59
355.944	318.97
356.326	334.34
356.709	319.88
357.091	342.48
357.473	326.66
357.855	330.27
358.238	348.13
358.62	357.84
359.002	347.22
359.384	334.12
359.766	337.28
360.148	328.69
360.53	318.07
360.912	343.15
361.294	328.69
361.676	314.23
362.057	327.56
362.439	326.88
362.821	329.6
363.203	307.22
363.584	325.08
363.966	333.89
364.348	323.95
364.729	321.23
365.111	331.18
365.493	328.92
365.874	329.82
366.256	331.18
366.637	308.81
367.019	308.13
367.4	304.29
367.781	314.91
368.163	330.5
368.544	321.23
368.925	300.22
369.306	325.75
369.688	295.92
370.069	333.21
370.45	304.29
370.831	332.08
371.212	318.52
371.593	317.62
371.974	309.03
372.355	331.4
372.736	305.42
373.117	316.49
373.498	351.97
373.879	326.66
374.26	302.7
374.641	313.1
375.021	325.08
375.402	327.56
375.783	323.72
376.163	333.66
376.544	325.08
376.925	319.65
377.305	326.88
377.686	329.14
378.066	346.09
378.447	336.15
378.827	331.4
379.208	347
379.588	351.74
379.968	350.39
380.349	358.3
380.729	334.12
381.109	337.96
381.489	348.58
381.87	336.83
382.25	329.37
382.63	367.56
383.01	355.58
383.39	357.62
383.77	364.17
384.15	378.41
384.53	364.17
384.91	358.97
385.29	358.3
385.67	372.31
386.049	366.88
386.429	372.08
386.809	383.83
387.189	379.09
387.568	358.3
387.948	372.08
388.328	355.58
388.707	388.13
389.087	379.99
389.466	386.09
389.846	385.19
390.225	399.88
390.605	397.62
390.984	380.89
391.363	387
391.743	396.49
392.122	397.39
392.501	416.83
392.881	421.34
393.26	435.36
393.639	420.44
394.018	398.97
394.397	414.57
394.776	385.19
395.155	436.26
395.534	393.1
395.913	406.88
396.292	415.7
396.671	426.99
397.05	462.25
397.429	420.89
397.808	421.8
398.186	430.38
398.565	429.25
398.944	447.56
399.323	451.17
399.701	439.88
400.08	426.77
400.458	481
400.837	442.81
401.215	459.99
401.594	459.54
401.972	429.25
402.351	472.87
402.729	438.75
403.107	463.15
403.486	470.61
403.864	476.03
404.242	502.02
404.62	473.77
404.999	479.87
405.377	487.33
405.755	481
406.133	495.47
406.511	513.55
406.889	502.7
407.267	496.6
407.645	482.13
408.023	504.96
408.401	513.77
408.779	502.92
409.156	512.64
409.534	523.49
409.912	510.38
410.29	518.74
410.667	536.6
411.045	543.15
411.422	533.66
411.8	538.18
412.178	547.44
412.555	547.22
412.933	559.42
413.31	598.97
413.687	572.75
414.065	573.43
414.442	594.9
414.819	595.58
415.197	548.12
415.574	619.31
415.951	587.22
416.328	600.55
416.705	618.18
417.082	594.22
417.46	591.06
417.837	623.83
418.214	629.25
418.591	603.03
418.967	645.75
419.344	621.11
419.721	628.12
420.098	628.8
420.475	647.78
420.852	626.31
421.228	650.72
421.605	661.11
421.982	659.53
422.358	664.73
422.735	666.08
423.111	688.46
423.488	671.96
423.864	690.94
424.241	683.03
424.617	684.61
424.994	688.91
425.37	695.69
425.746	700.43
426.123	725.07
426.499	727.78
426.875	737.72
427.251	740.43
427.627	738.4
428.003	742.24
428.379	761.67
428.756	759.64
429.132	766.42
429.507	760.77
429.883	799.19
430.259	780.21
430.635	791.28
431.011	788.11
431.387	813.42
431.763	807.1
432.138	806.19
432.514	824.72
432.89	807.1
433.265	847.1
433.641	847.32
434.016	883.03
434.392	889.36
434.767	873.08
435.143	892.29
435.518	898.85
435.894	910.37
436.269	907.89
436.644	929.13
437.02	949.01
437.395	943.82
437.77	944.49
438.145	941.11
438.52	974.1
438.895	966.87
439.271	959.64
439.646	970.93
440.021	972.06
440.395	1015.45
440.77	1001.44
441.145	1015.45
441.52	1003.02
441.895	1000.54
442.27	1029.46
442.645	1032.4
443.019	1033.98
443.394	1031.5
443.769	1074.21
444.143	1037.83
444.518	1043.7
444.892	1048.9
445.267	1069.01
445.641	1086.19
446.016	1086.41
446.39	1094.32
446.764	1070.59
447.139	1074.89
447.513	1095.45
447.887	1099.07
448.262	1103.36
448.636	1100.2
449.01	1143.59
449.384	1144.26
449.758	1156.69
450.132	1157.37
450.506	1162.34
450.88	1162.34
451.254	1173.19
451.628	1188.78
452.002	1179.29
452.376	1215.9
452.75	1223.81
453.123	1208.89
453.497	1246.86
453.871	1221.1
454.244	1280.31
454.618	1259.51
454.992	1278.72
455.365	1291.38
455.739	1304.94
456.112	1318.72
456.486	1338.61
456.859	1357.37
457.232	1383.58
457.606	1367.31
457.979	1379.74
458.352	1403.01
458.725	1408.21
459.099	1443.69
459.472	1449.79
459.845	1473.52
460.218	1474.42
460.591	1516.91
460.964	1491.15
461.337	1515.1
461.71	1544.48
462.083	1563.24
462.456	1559.17
462.829	1554.65
463.201	1602.78
463.574	1633.97
463.947	1629.45
464.32	1661.54
464.692	1688.66
465.065	1685.27
465.438	1718.03
465.81	1717.58
466.183	1701.76
466.555	1744.02
466.928	1792.61
467.3	1748.77
467.672	1788.09
468.045	1847.3
468.417	1838.93
468.789	1823.34
469.161	1894.53
469.534	1914.86
469.906	1979.5
470.278	1947.18
470.65	2003.22
471.022	1996.9
471.394	2040.74
471.766	2059.27
472.138	2074.18
472.51	2111.47
472.882	2162.54
473.253	2161.86
473.625	2195.08
473.997	2243.44
474.369	2228.75
474.74	2252.71
475.112	2317.11
475.484	2358.7
475.855	2390.11
476.227	2408.41
476.598	2440.73
476.97	2474.4
477.341	2491.35
477.713	2555.3
478.084	2576.32
478.455	2649.53
478.827	2647.28
479.198	2708.74
479.569	2737.44
479.94	2846.37
480.311	2817.44
480.682	2935.63
481.053	2952.35
481.424	2951.67
481.795	3023.99
482.166	3077.32
482.537	3118
482.908	3161.16
483.279	3167.71
483.65	3243.87
484.021	3284.77
484.391	3326.35
484.762	3354.6
485.133	3381.27
485.503	3432.79
485.874	3487.93
486.244	3522.73
486.615	3575.39
486.985	3624.88
487.356	3663.07
487.726	3704.42
488.097	3781.26
488.467	3777.64
488.837	3853.57
489.207	3877.53
489.578	3991.65
489.948	4028.48
490.318	4023.51
490.688	4094.24
491.058	4094.02
491.428	4155.26
491.798	4216.05
492.168	4313.22
492.538	4338.3
492.908	4361.35
493.278	4360.22
493.648	4431.18
494.017	4483.38
494.387	4538.98
494.757	4538.3
495.126	4600.9
495.496	4593.89
495.866	4668.01
496.235	4676.83
496.605	4710.95
496.974	4777.16
497.344	4863.94
497.713	4849.25
498.082	4862.13
498.452	4959.3
498.821	4899.65
499.19	4970.6
499.559	5006.08
499.928	5082.92
500.298	5065.97
500.667	5112.07
501.036	5094.67
501.405	5139.19
501.774	5189.58
502.143	5181.67
502.512	5264.16
502.88	5286.53
503.249	5327.66
503.618	5359.52
503.987	5417.6
504.356	5448.78
504.724	5460.53
505.093	5456.69
505.462	5489.91
505.83	5581.66
506.199	5630.93
506.567	5665.73
506.936	5701.66
507.304	5698.72
507.672	5766.74
508.041	5783.46
508.409	5813.52
508.777	5943.01
509.145	5923.35
509.514	5957.24
509.882	5942.1
510.25	5933.97
510.618	6038.82
510.986	6036.56
511.354	6108.2
511.722	6148.88
512.09	6255.54
512.458	6224.36
512.826	6290.12
513.193	6312.26
513.561	6356.78
513.929	6383.45
514.297	6478.59
514.664	6514.97
515.032	6503.44
515.4	6555.65
515.767	6595.19
516.135	6609.88
516.502	6643.33
516.869	6745.92
517.237	6795.87
517.604	6785.7
517.972	6849.42
518.339	6844.23
518.706	6908.41
519.073	6986.37
519.44	7035.86
519.808	7070.21
520.175	7115.86
520.542	7214.61
520.909	7255.52
521.276	7300.26
521.643	7309.98
522.009	7379.81
522.376	7380.48
522.743	7478.56
523.11	7508.62
523.477	7580.93
523.843	7682.62
524.21	7759.46
524.577	7813.47
524.943	7829.96
525.31	7888.27
525.676	7971.2
526.043	8033.12
526.409	8095.49
526.776	8173.46
527.142	8221.59
527.508	8208.03
527.874	8330.06
528.241	8375.49
528.607	8323.06
528.973	8391.53
529.339	8457.97
529.705	8580.9
530.071	8643.73
530.437	8644.86
530.803	8695.25
531.169	8690.73
531.535	8712.2
531.901	8749.26
532.267	8754.91
532.632	8884.4
532.998	8872.42
533.364	8939.76
533.73	9014.79
534.095	9087.78
534.461	9053.89
534.826	9120.78
535.192	9243.49
535.557	9273.32
535.923	9236.03
536.288	9302.02
536.653	9349.47
537.019	9336.59
537.384	9420.43
537.749	9476.93
538.114	9480.32
538.479	9552.86
538.845	9502.91
539.21	9545.85
539.575	9608.67
539.94	9623.36
540.305	9691.84
540.67	9649.35
541.034	9735
541.399	9764.6
541.764	9767.54
542.129	9807.76
542.494	9739.97
542.858	9890.93
543.223	9845.28
543.587	9977.7
543.952	10010.92
544.316	10069
544.681	9991.26
545.045	10088.44
545.41	10149.68
545.774	10180.41
546.138	10218.38
546.503	10220.64
546.867	10167.53
547.231	10319.62
547.595	10349.22
547.959	10337.92
548.324	10386.05
548.688	10367.52
549.052	10489.55
549.416	10477.8
549.779	10530.01
550.143	10555.09
550.507	10621.3
550.871	10610.68
551.235	10674.41
551.599	10731.81
551.962	10746.5
552.326	10872.37
552.689	10881.41
553.053	10835.53
553.417	10859.49
553.78	11014.51
554.143	10939.49
554.507	11050.9
554.87	11116.66
555.234	11161.18
555.597	11125.24
555.96	11170.67
556.323	11220.83
556.686	11223.77
557.05	11356.2
557.413	11445.91
557.776	11440.26
558.139	11464.44
558.502	11482.75
558.865	11554.61
559.228	11642.07
559.59	11648.62
559.953	11668.05
560.316	11781.27
560.679	11826.92
561.041	11885.68
561.404	11937.43
561.767	11984.88
562.129	11929.06
562.492	12051.32
562.854	12162.28
563.217	12111.88
563.579	12231.2
563.941	12274.14
564.304	12337.19
564.666	12402.27
565.028	12490.63
565.39	12521.14
565.753	12546.9
566.115	12578.77
566.477	12696.73
566.839	12676.16
567.201	12730.4
567.563	12807.23
567.925	12917.06
568.287	12757.97
568.648	12860.79
569.01	12962.03
569.372	13106.66
569.734	12939.89
570.095	13090.16
570.457	13177.39
570.819	13171.74
571.18	13120.22
571.542	13251.97
571.903	13193.89
572.265	13342.14
572.626	13434.34
572.987	13433.66
573.349	13465.75
573.71	13494.22
574.071	13577.38
574.432	13498.97
574.794	13593.65
575.155	13601.56
575.516	13602.02
575.877	13675.01
576.238	13805.17
576.599	13727.21
576.96	13803.14
577.32	13787.77
577.681	13838.17
578.042	13887.21
578.403	13870.93
578.763	13817.38
579.124	13923.81
579.485	14004.49
579.845	14010.82
580.206	14041.1
580.566	14110.48
580.927	14044.04
581.287	14026.86
581.648	14050.37
582.008	14108.89
582.368	14008.78
582.728	14105.73
583.089	14077.93
583.449	14041.1
583.809	14072.74
584.169	14095.11
584.529	14102.57
584.889	14181.44
585.249	14114.09
585.609	14094.21
585.969	14187.54
586.329	14132.4
586.688	14131.49
587.048	14168.1
587.408	14170.14
587.768	14173.98
588.127	14092.85
588.487	14142.11
588.846	14245.61
589.206	14116.8
589.565	14231.83
589.925	14249.68
590.284	14103.92
590.643	14211.72
591.003	14181.89
591.362	14271.38
591.721	14287.87
592.08	14185.73
592.44	14233.19
592.799	14227.54
593.158	14154.54
593.517	14237.48
593.876	14220.76
594.235	14240.19
594.593	14297.14
594.952	14342.56
595.311	14298.49
595.67	14270.7
596.029	14403.8
596.387	14404.93
596.746	14293.97
597.104	14299.17
597.463	14290.36
597.822	14366.97
598.18	14386.63
598.538	14328.32
598.897	14468.21
599.255	14345.95
599.613	14607.64
599.972	14426.85
600.33	14475.21
600.688	14424.14
601.046	14512.05
601.404	14585.49
601.762	14436.12
602.12	14472.5
602.478	14574.42
602.836	14556.57
603.194	14437.02
603.552	14548.43
603.91	14536.23
604.268	14656
604.625	14559.73
604.983	14649.22
605.341	14588.2
605.698	14620.75
606.056	14704.36
606.413	14611.48
606.771	14694.19
607.128	14712.72
607.485	14605.6
607.843	14753.62
608.2	14738.03
608.557	14816.22
608.914	14741.42
609.272	14849.67
609.629	14856.67
609.986	14844.92
610.343	14766.73
610.7	14966.5
611.057	14887.41
611.414	14935.77
611.771	14912.49
612.127	14949.78
612.484	14941.87
612.841	14973.96
613.198	14917.01
613.554	14988.87
613.911	14971.7
614.267	15013.05
614.624	15035.2
614.98	15057.8
615.337	15110.45
615.693	15079.94
616.05	15107.74
616.406	15124.46
616.762	14993.84
617.118	15063.9
617.475	15146.83
617.831	15196.32
618.187	15173.5
618.543	15156.55
618.899	15224.8
619.255	15247.85
619.611	15196.55
619.967	15203.56
620.323	15290.11
620.678	15180.5
621.034	15273.84
621.39	15181.41
621.746	15157.45
622.101	15399.93
622.457	15263.89
622.812	15233.61
623.168	15283.78
623.523	15261.41
623.879	15319.03
624.234	15222.99
624.589	15305.47
624.945	15358.58
625.3	15346.6
625.655	15290.33
626.01	15218.24
626.365	15379.6
626.72	15331.91
627.075	15270.22
627.43	15248.98
627.785	15161.52
628.14	15239.49
628.495	15244.46
628.85	15260.28
629.205	15156.32
629.559	15272.71
629.914	15237.45
630.269	15234.97
630.623	15114.29
630.978	15086.5
631.332	15204.23
631.687	15178.7
632.041	15238.13
632.396	15158.58
632.75	15187.96
633.104	15077.23
633.459	15048.76
633.813	15035.2
634.167	15027.29
634.521	15024.12
634.875	15029.55
635.229	15037.68
635.583	14916.1
635.937	15007.85
636.291	15027.74
636.645	14974.63
636.999	14926.05
637.352	14995.88
637.706	14888.31
638.06	14874.07
638.413	14891.92
638.767	14862.77
639.121	14853.28
639.474	14724.7
639.828	14781.19
640.181	14733.96
640.534	14857.12
640.888	14771.93
641.241	14681.08
641.594	14756.11
641.947	14778.48
642.301	14691.25
642.654	14711.14
643.007	14682.44
643.36	14644.47
643.713	14571.71
644.066	14702.33
644.419	14570.58
644.771	14458.26
645.124	14276.8
645.477	14319.06
645.83	14140.98
646.182	14090.82
646.535	14032.29
646.888	14088.1
647.24	13932.63
647.593	14046.3
647.945	14132.85
648.298	13967.88
648.65	13909.35
649.002	13990.03
649.355	14006.52
649.707	13956.36
650.059	14031.83
650.411	14227.08
650.763	14196.8
651.115	14285.39
651.467	14346.4
651.819	14286.07
652.171	14251.94
652.523	14203.81
652.875	14206.29
653.227	14135.79
653.578	14259.4
653.93	14198.61
654.282	14220.76
654.633	14068.67
654.985	14155
655.337	14202
655.688	14157.25
656.039	14174.88
656.391	14037.48
656.742	14079.06
657.094	14076.13
657.445	14169.91
657.796	14052.17
658.147	14009.01
658.498	13961.55
658.849	14094.43
659.2	14099.4
659.551	14065.73
659.902	13983.7
660.253	13994.32
660.604	14007.88
660.955	13924.49
661.306	13987.32
661.656	13869.8
662.007	13914.55
662.358	13891.05
662.708	14011.95
663.059	13920.2
663.409	13893.31
663.76	13929.01
664.11	13921.33
664.461	13910.48
664.811	13911.16
665.161	13933.53
665.511	13845.62
665.862	13863.25
666.212	13935.34
666.562	13928.79
666.912	13830.48
667.262	13915.23
667.612	13869.35
667.962	13847.43
668.312	13813.31
668.662	13930.37
669.011	13856.02
669.361	13791.84
669.711	13815.12
670.06	13838.17
670.41	13752.97
670.76	13836.59
671.109	13838.62
671.459	13859.64
671.808	13731.73
672.157	13762.69
672.507	13668.45
672.856	13770.37
673.205	13718.62
673.554	13769.92
673.904	13795.68
674.253	13784.38
674.602	13722.24
674.951	13566.76
675.3	13379.2
675.649	13681.56
675.998	13669.36
676.346	13651.51
676.695	13655.12
677.044	13603.82
677.393	13591.85
677.741	13639.98
678.09	13578.74
678.438	13561.34
678.787	13583.26
679.135	13582.81
679.484	13491.96
679.832	13555.69
680.181	13457.61
680.529	13480.44
680.877	13407.67
681.225	13446.99
681.573	13520.89
681.922	13390.04
682.27	13336.26
682.618	13418.52
682.966	13372.42
683.314	13336.94
683.661	13374
684.009	13291.97
684.357	13200.22
684.705	13237.51
685.053	13222.14
685.4	13180.33
685.748	13113.44
686.095	13202.48
686.443	13072.76
686.79	13045.42
687.138	13075.48
687.485	13043.16
687.832	13003.84
688.18	12967.46
688.527	12947.57
688.874	12910.06
689.221	12924.07
689.568	12853.33
689.915	12851.07
690.262	12839.1
690.609	12841.13
690.956	12728.37
691.303	12740.57
691.65	12760.23
691.997	12625.77
692.344	12547.35
692.69	12647.01
693.037	12678.88
693.383	12461.71
693.73	12592.78
694.077	12477.75
694.423	12413.8
694.769	12456.06
695.116	12455.83
695.462	12394.59
695.808	12257.64
696.155	12345.55
696.501	12231.2
696.847	12318.21
697.193	12121.83
697.539	12224.88
697.885	12148.27
698.231	12093.58
698.577	12041.83
698.923	11997.76
699.269	11939.01
699.614	11954.37
699.96	11849.29
700.306	11928.39
700.651	11825.79
700.997	11898.11
701.342	11780.82
701.688	11779.46
702.033	11739.24
702.379	11704.21
702.724	11672.12
703.069	11719.58
703.415	11570.66
703.76	11636.19
704.105	11672.57
704.45	11602.29
704.795	11522.3
705.14	11503.77
705.485	11440.49
705.83	11417.21
706.175	11388.06
706.52	11380.38
706.865	11343.77
707.209	11359.81
707.554	11327.72
707.899	11335.86
708.243	11206.6
708.588	11263.77
708.932	11216.54
709.277	11169.99
709.621	11213.83
709.966	11075.53
710.31	11109.43
710.654	11008.64
710.998	11024.91
711.342	11086.38
711.687	11095.19
712.031	10981.29
712.375	10984.46
712.719	10951.24
713.063	10945.14
713.407	10993.72
713.75	10899.49
714.094	10883.22
714.438	10775.42
714.782	10850.45
715.125	10805.25
715.469	10841.41
715.812	10750.34
716.156	10755.08
716.499	10717.8
716.843	10727.29
717.186	10624.92
717.53	10645.48
717.873	10651.36
718.216	10590.34
718.559	10550.57
718.902	10578.14
719.246	10573.39
719.589	10597.8
719.932	10487.07
720.275	10489.33
720.617	10490.91
720.96	10444.58
721.303	10473.06
721.646	10400.07
721.989	10396.9
722.331	10458.6
722.674	10403.91
723.016	10325.04
723.359	10313.97
723.701	10372.04
724.044	10277.81
724.386	10209.34
724.729	10331.37
725.071	10334.53
725.413	10309.22
725.755	10261.99
726.097	10212.5
726.439	10170.92
726.782	10166.63
727.124	10107.42
727.465	10186.06
727.807	10195.33
728.149	10144.93
728.491	10145.16
728.833	10132.05
729.175	10064.26
729.516	10076.23
729.858	9989.68
730.199	10044.59
730.541	10057.48
730.882	9930.02
731.224	10046.85
731.565	9921.66
731.906	9973.64
732.248	9908.33
732.589	9913.52
732.93	9918.27
733.271	9893.19
733.612	9912.85
733.953	9883.02
734.294	9900.19
734.635	9824.94
734.976	9829.46
735.317	9768.9
735.658	9790.36
735.999	9791.04
736.339	9759.63
736.68	9819.52
737.021	9720.99
737.361	9723.93
737.702	9804.6
738.042	9663.59
738.383	9622.23
738.723	9650.25
739.063	9649.12
739.404	9639.63
739.744	9683.02
740.084	9616.81
740.424	9687.99
740.764	9536.13
741.104	9632.4
741.444	9529.58
741.784	9510.37
742.124	9498.62
742.464	9495.46
742.804	9525.74
743.143	9415.46
743.483	9544.95
743.823	9349.02
744.162	9415.46
744.502	9394.89
744.841	9405.74
745.181	9461.33
745.52	9393.09
745.86	9374.56
746.199	9356.25
746.538	9383.6
746.877	9330.94
747.216	9352.18
747.556	9346.31
747.895	9336.14
748.234	9287.78
748.573	9302.92
748.911	9247.78
749.25	9290.94
749.589	9201.45
749.928	9186.76
750.267	9186.09
750.605	9131.85
750.944	9153.32
751.283	9102.02
751.621	9088.01
751.96	9093.43
752.298	9060.67
752.636	9025.41
752.975	8977.73
753.313	8947
753.651	9009.14
753.989	8942.48
754.327	8922.36
754.666	8824.06
755.004	8909.71
755.342	8855.47
755.679	8920.56
756.017	8813.21
756.355	8829.26
756.693	8777.51
757.031	8850.5
757.368	8754.46
757.706	8738.64
758.044	8729.15
758.381	8680.79
758.719	8678.98
759.056	8711.52
759.394	8657.96
759.731	8569.38
