Data from black_plastic_tray_FLMS001491_023.txt Node
Date: Tue Feb 07 10:39:30 GMT 2017
User: dcchb
Spectrometer: FLMS00149
Trigger mode: 0
Integration Time (sec): 2.000000E-2
Scans to average: 10
Electric dark correction enabled: true
Nonlinearity correction enabled: false
Boxcar width: 0
XAxis mode: Wavelengths
Number of Pixels in Spectrum: 2048
>>>>>Begin Spectral Data<<<<<
341.393	-1.13
341.776	-1.13
342.16	-1.13
342.543	-67.57
342.927	-68.25
343.31	-83.39
343.693	-55.37
344.077	-65.76
344.46	-58.08
344.843	-52.88
345.226	-30.06
345.61	-40.45
345.993	-11.75
346.376	-1.13
346.759	-3.16
347.142	22.15
347.525	43.84
347.908	72.31
348.291	90.62
348.674	77.74
349.057	95.36
349.44	108.02
349.823	135.59
350.206	153.89
350.588	198.19
350.971	200.45
351.354	213.55
351.737	218.75
352.119	223.95
352.502	249.03
352.884	275.02
353.267	271.63
353.65	284.06
354.032	299.43
354.414	305.3
354.797	287.68
355.179	301.01
355.562	302.59
355.944	324.06
356.326	325.19
356.709	317.73
357.091	313.89
357.473	332.87
357.855	320.44
358.238	300.33
358.62	331.29
359.002	348.92
359.384	320.44
359.766	342.36
360.148	338.07
360.53	334.23
360.912	325.87
361.294	310.5
361.676	335.81
362.057	331.74
362.439	330.61
362.821	321.8
363.203	334.23
363.584	287.9
363.966	296.26
364.348	313.21
364.729	297.85
365.111	302.36
365.493	310.5
365.874	289.94
366.256	305.3
366.637	311.63
367.019	298.75
367.4	298.52
367.781	319.54
368.163	321.8
368.544	308.01
368.925	312.31
369.306	301.46
369.688	292.2
370.069	313.21
370.45	311.18
370.831	304.17
371.212	318.41
371.593	310.95
371.974	303.27
372.355	306.43
372.736	323.61
373.117	318.86
373.498	303.72
373.879	298.07
374.26	307.34
374.641	315.92
375.021	307.34
375.402	305.53
375.783	301.24
376.163	335.81
376.544	331.52
376.925	314.34
377.305	333.32
377.686	317.96
378.066	316.15
378.447	322.93
378.827	323.61
379.208	331.74
379.588	335.36
379.968	334
380.349	365.87
380.729	334.45
381.109	350.05
381.489	351.18
381.87	336.04
382.25	341.23
382.63	351.18
383.01	319.77
383.39	338.97
383.77	367.22
384.15	340.78
384.53	347.34
384.91	361.12
385.29	370.39
385.67	361.12
386.049	396.15
386.429	351.4
386.809	371.29
387.189	378.3
387.568	369.26
387.948	386.43
388.328	380.78
388.707	378.3
389.087	368.13
389.466	362.93
389.846	372.87
390.225	369.71
390.605	382.36
390.984	381.68
391.363	399.31
391.743	413.77
392.122	381.01
392.501	401.35
392.881	395.47
393.26	403.61
393.639	392.76
394.018	402.25
394.397	414
394.776	417.39
395.155	428.01
395.534	413.55
395.913	396.83
396.292	427.11
396.671	428.46
397.05	395.24
397.429	405.87
397.808	417.16
398.186	411.06
398.565	424.4
398.944	419.65
399.323	444.28
399.701	419.88
400.08	450.61
400.458	448.8
400.837	444.73
401.215	461.91
401.594	448.58
401.972	454.45
402.351	445.86
402.729	467.11
403.107	475.02
403.486	471.17
403.864	469.82
404.242	447.45
404.62	476.6
404.999	480.21
405.377	460.1
405.755	500.1
406.133	496.48
406.511	483.83
406.889	473.89
407.267	483.15
407.645	490.83
408.023	510.5
408.401	492.19
408.779	503.26
409.156	496.03
409.534	502.81
409.912	520.21
410.29	522.47
410.667	539.65
411.045	524.05
411.422	528.8
411.8	551.17
412.178	546.65
412.555	552.98
412.933	528.57
413.31	553.43
413.687	560.21
414.065	565.63
414.442	559.31
414.819	550.95
415.197	566.09
415.574	584.84
415.951	580.32
416.328	587.78
416.705	593.66
417.082	611.51
417.46	587.33
417.837	629.59
418.214	604.28
418.591	619.64
418.967	604.73
419.344	615.58
419.721	631.62
420.098	630.94
420.475	653.77
420.852	625.52
421.228	639.76
421.605	659.64
421.982	657.84
422.358	640.21
422.735	678.17
423.111	674.33
423.488	666.42
423.864	677.95
424.241	675.01
424.617	682.24
424.994	696.93
425.37	693.54
425.746	693.09
426.123	691.51
426.499	723.82
426.875	697.83
427.251	713.43
427.627	726.08
428.003	739.87
428.379	749.13
428.756	757.49
429.132	766.53
429.507	783.26
429.883	780.77
430.259	780.09
430.635	774.44
431.011	799.3
431.387	801.33
431.763	820.54
432.138	817.15
432.514	837.49
432.89	826.87
433.265	834.55
433.641	853.08
434.016	862.12
434.392	872.97
434.767	886.98
435.143	885.4
435.518	891.28
435.894	878.39
436.269	887.43
436.644	924.04
437.02	905.29
437.395	919.07
437.77	934.66
438.145	934.21
438.52	972.86
438.895	959.52
439.271	962.46
439.646	974.66
440.021	979.64
440.395	1010.14
440.77	979.64
441.145	974.21
441.52	990.71
441.895	1009.24
442.27	1018.05
442.645	1021.67
443.019	1027.09
443.394	1037.26
443.769	1034.1
444.143	1040.2
444.518	1053.53
444.892	1055.34
445.267	1054.89
445.641	1106.19
446.016	1041.33
446.39	1083.59
446.764	1069.58
447.139	1090.82
447.513	1108.67
447.887	1107.54
448.262	1129.46
448.636	1125.39
449.01	1130.14
449.384	1155.45
449.758	1137.82
450.132	1166.52
450.506	1168.1
450.88	1155.22
451.254	1166.07
451.628	1151.16
452.002	1196.35
452.376	1204.71
452.75	1218.27
453.123	1235.9
453.497	1244.26
453.871	1244.71
454.244	1282
454.618	1291.27
454.992	1314.54
455.365	1293.98
455.739	1308.89
456.112	1343.02
456.486	1356.35
456.859	1371.04
457.232	1353.41
457.606	1367.2
457.979	1370.81
458.352	1419.17
458.725	1451.94
459.099	1405.61
459.472	1460.98
459.845	1484.71
460.218	1492.16
460.591	1488.32
460.964	1504.14
461.337	1531.71
461.71	1550.24
462.083	1571.94
462.456	1606.06
462.829	1573.97
463.201	1623.01
463.574	1614.87
463.947	1639.96
464.32	1653.97
464.692	1691.93
465.065	1678.15
465.438	1725.38
465.81	1767.86
466.183	1763.12
466.555	1794.3
466.928	1797.01
467.3	1800.4
467.672	1801.08
468.045	1879.27
468.417	1877.01
468.789	1897.8
469.161	1917.92
469.534	1948.42
469.906	1973.06
470.278	1992.49
470.65	1986.39
471.022	2041.08
471.394	2064.8
471.766	2091.24
472.138	2132.6
472.51	2121.53
472.882	2172.15
473.253	2192.94
473.625	2241.07
473.997	2281.3
474.369	2292.14
474.74	2280.17
475.112	2323.1
475.484	2373.27
475.855	2387.06
476.227	2468.41
476.598	2462.76
476.97	2512.7
477.341	2565.36
477.713	2572.36
478.084	2592.47
478.455	2673.6
478.827	2715.18
479.198	2750.21
479.569	2791.11
479.94	2799.25
480.311	2873.14
480.682	2892.13
481.053	2981.39
481.424	3022.29
481.795	3068.39
482.166	3096.87
482.537	3125.79
482.908	3192.23
483.279	3177.77
483.65	3319.69
484.021	3322.4
484.391	3372.11
484.762	3398.55
485.133	3426.12
485.503	3498.67
485.874	3560.58
486.244	3562.39
486.615	3611.66
486.985	3669.73
487.356	3740.24
487.726	3730.3
488.097	3818.43
488.467	3856.85
488.837	3963.29
489.207	3985.21
489.578	4038.09
489.948	4063.85
490.318	4099.33
490.688	4094.13
491.058	4189.04
491.428	4198.53
491.798	4278.98
492.168	4367.57
492.538	4311.53
492.908	4434.69
493.278	4458.64
493.648	4506.77
494.017	4516.49
494.387	4574.34
494.757	4629.71
495.126	4684.17
495.496	4713.1
495.866	4721.23
496.235	4788.8
496.605	4790.16
496.974	4850.04
497.344	4908.12
497.713	4868.8
498.082	4949.93
498.452	4990.6
498.821	5043.71
499.19	5070.38
499.559	5097.27
499.928	5125.97
500.298	5178.85
500.667	5182.46
501.036	5218.85
501.405	5256.81
501.774	5313.98
502.143	5290.93
502.512	5367.77
502.88	5383.59
503.249	5377.26
503.618	5472.62
503.987	5499.97
504.356	5452.51
504.724	5534.32
505.093	5583.36
505.462	5573.86
505.83	5603.24
506.199	5662.9
506.567	5777.02
506.936	5731.6
507.304	5860.64
507.672	5823.8
508.041	5930.47
508.409	5946.74
508.777	5915.32
509.145	6010.69
509.514	6046.85
509.882	6037.13
510.25	6087.52
510.618	6111.03
510.986	6133.85
511.354	6197.58
511.722	6279.83
512.09	6338.82
512.458	6362.77
512.826	6409.32
513.193	6404.35
513.561	6423.33
513.929	6481.19
514.297	6558.25
514.664	6562.09
515.032	6589.88
515.4	6716.21
515.767	6669.66
516.135	6799.14
516.502	6757.79
516.869	6849.09
517.237	6906.94
517.604	6845.92
517.972	6982.42
518.339	7010.21
518.706	7092.92
519.073	7056.76
519.44	7135.63
519.808	7188.96
520.175	7206.59
520.542	7339.92
520.909	7379.24
521.276	7383.08
521.643	7448.17
522.009	7508.73
522.376	7667.6
522.743	7617.65
523.11	7695.16
523.477	7837.99
523.843	7763.64
524.21	7932.22
524.577	7919.57
524.943	7957.98
525.31	7993.01
525.676	8122.95
526.043	8102.61
526.409	8161.59
526.776	8199.56
527.142	8233.91
527.508	8383.06
527.874	8408.37
528.241	8428.25
528.607	8485.88
528.973	8544.18
529.339	8564.29
529.705	8661.02
530.071	8766.32
530.437	8811.07
530.803	8817.17
531.169	8828.24
531.535	8874.57
531.901	8910.73
532.267	9016.71
532.632	9073.21
532.998	8995.24
533.364	9126.99
533.73	9174.67
534.095	9224.84
534.461	9232.53
534.826	9335.8
535.192	9286.54
535.557	9416.48
535.923	9360.43
536.288	9430.94
536.653	9481.33
537.019	9418.96
537.384	9465.74
537.749	9582.57
538.114	9595.23
538.479	9672.29
538.845	9703.25
539.21	9661.89
539.575	9723.13
539.94	9737.37
540.305	9857.14
540.67	9825.28
541.034	9865.73
541.399	9839.06
541.764	9894.43
542.129	9966.97
542.494	9973.52
542.858	10006.06
543.223	9957.7
543.587	10112.95
543.952	10110.47
544.316	10181.88
544.681	10099.62
545.045	10153.41
545.41	10235.44
545.774	10236.79
546.138	10295.1
546.503	10338.94
546.867	10283.8
547.231	10433.17
547.595	10458.03
547.959	10498.71
548.324	10518.82
548.688	10534.19
549.052	10543.68
549.416	10587.07
549.779	10568.08
550.143	10589.33
550.507	10718.36
550.871	10748.87
551.235	10781.64
551.599	10842.65
551.962	10873.61
552.326	10884.01
552.689	11016.66
553.053	10985.7
553.417	10990.9
553.78	11117
554.143	11079.48
554.507	11126.71
554.87	11128.97
555.234	11296.43
555.597	11182.08
555.96	11244
556.323	11343.43
556.686	11346.59
557.05	11348.85
557.413	11489.64
557.776	11446.7
558.139	11591.79
558.502	11605.12
558.865	11698.45
559.228	11713.59
559.59	11766.7
559.953	11781.16
560.316	11861.84
560.679	11856.19
561.041	11994.49
561.404	12090.08
561.767	12050.98
562.129	12029.97
562.492	12184.54
562.854	12184.09
563.217	12193.8
563.579	12208.49
563.941	12371.2
564.304	12445.55
564.666	12406.68
565.028	12435.15
565.39	12579.1
565.753	12553.79
566.115	12699.33
566.477	12662.72
566.839	12677.86
567.201	12813.22
567.563	12817.74
567.925	12877.18
568.287	12905.65
568.648	12950.39
569.01	12936.38
569.372	13066.55
569.734	13029.94
570.095	13085.76
570.457	13238.75
570.819	13197.39
571.18	13267.45
571.542	13279.42
571.903	13357.16
572.265	13391.51
572.626	13351.06
572.987	13454.11
573.349	13491.62
573.71	13482.58
574.071	13459.53
574.432	13592.18
574.794	13642.13
575.155	13608.91
575.516	13561.45
575.877	13655.91
576.238	13684.61
576.599	13792.18
576.96	13740.43
577.32	13668.12
577.681	13842.12
578.042	13864.95
578.403	13941.1
578.763	13917.37
579.124	13895.45
579.485	13998.05
579.845	14000.54
580.206	13972.51
580.566	13939.52
580.927	13949.92
581.287	14024.04
581.648	13962.34
582.008	14119.63
582.368	14035.34
582.728	14089.8
583.089	14033.53
583.449	14009.8
583.809	14096.35
584.169	14072.85
584.529	14035.34
584.889	14218.16
585.249	14099.97
585.609	14012.74
585.969	14059.74
586.329	14105.62
586.688	14148.78
587.048	14222
587.408	13991.72
587.768	14099.74
588.127	14126.18
588.487	14057.48
588.846	14160.76
589.206	14043.25
589.565	14065.62
589.925	14110.82
590.284	14117.37
590.643	14127.76
591.003	14109.91
591.362	14209.34
591.721	14180.42
592.08	14123.24
592.44	14168.67
592.799	14171.38
593.158	14145.39
593.517	14175.22
593.876	14264.03
594.235	14205.28
594.593	14158.05
594.952	14136.8
595.311	14104.71
595.67	14153.3
596.029	14195.56
596.387	14258.61
596.746	14289.12
597.104	14194.43
597.463	14294.99
597.822	14162.34
598.18	14163.47
598.538	14137.93
598.897	14301.32
599.255	14161.89
599.613	14420.86
599.972	14275.78
600.33	14323.01
600.688	14310.81
601.046	14335.67
601.404	14350.36
601.762	14354.65
602.12	14412.73
602.478	14320.3
602.836	14427.64
603.194	14389.23
603.552	14380.19
603.91	14306.29
604.268	14351.71
604.625	14367.08
604.983	14360.75
605.341	14455.21
605.698	14398.72
606.056	14378.38
606.413	14402.79
606.771	14463.35
607.128	14466.96
607.485	14387.19
607.843	14356.68
608.2	14485.49
608.557	14601.2
608.914	14580.41
609.272	14622.89
609.629	14587.41
609.986	14544.7
610.343	14554.19
610.7	14648.65
611.057	14694.98
611.414	14688.88
611.771	14652.72
612.127	14737.01
612.484	14654.76
612.841	14743.57
613.198	14788.99
613.554	14773.17
613.911	14835.09
614.267	14813.4
614.624	14780.85
614.98	14811.14
615.337	14799.16
615.693	14883
616.05	14807.52
616.406	14987.18
616.762	14782.66
617.118	14828.31
617.475	14913.05
617.831	14883
618.187	14965.71
618.543	14853.85
618.899	14990.34
619.255	14946.27
619.611	14939.04
619.967	14985.59
620.323	15040.06
620.678	14995.54
621.034	14920.06
621.39	14882.55
621.746	14927.97
622.101	15135.65
622.457	14965.26
622.812	14998.7
623.168	15015.2
623.523	14998.7
623.879	15074.18
624.234	14986.05
624.589	15002.32
624.945	15086.38
625.3	15038.02
625.655	14960.28
626.01	15044.8
626.365	15063.33
626.72	15052.71
627.075	15018.59
627.43	14935.2
627.785	14959.61
628.14	14976.33
628.495	15029.44
628.85	14992.83
629.205	14907.63
629.559	15096.1
629.914	15027.18
630.269	14994.63
630.623	14852.94
630.978	14851.13
631.332	14924.13
631.687	14992.37
632.041	14813.17
632.396	14947.18
632.75	14845.94
633.104	14804.36
633.459	14714.42
633.813	14779.05
634.167	14818.82
634.521	14720.06
634.875	14729.33
635.229	14729.56
635.583	14562.1
635.937	14649.56
636.291	14546.06
636.645	14648.2
636.999	14600.52
637.352	14595.77
637.706	14491.6
638.06	14574.98
638.413	14536.79
638.767	14529.79
639.121	14453.18
639.474	14412.73
639.828	14501.54
640.181	14481.2
640.534	14440.07
640.888	14423.58
641.241	14380.41
641.594	14403.46
641.947	14445.5
642.301	14363.01
642.654	14309.45
643.007	14334.54
643.36	14352.62
643.713	14265.84
644.066	14309.45
644.419	14362.11
644.771	14226.52
645.124	13993.53
645.477	14033.08
645.83	13911.05
646.182	13836.02
646.535	13739.75
646.888	13833.31
647.24	13710.37
647.593	13760.99
647.945	13741.79
648.298	13679.19
648.65	13616.37
649.002	13587.67
649.355	13632.86
649.707	13594.67
650.059	13773.2
650.411	13839.86
650.763	13906.08
651.115	14018.39
651.467	13870.37
651.819	14026.3
652.171	13919.86
652.523	13909.46
652.875	13798.28
653.227	13805.51
653.578	13939.29
653.93	13930.48
654.282	13720.54
654.633	13731.39
654.985	13785.17
655.337	13805.51
655.688	13818.39
656.039	13787.43
656.391	13688
656.742	13803.25
657.094	13742.46
657.445	13704.72
657.796	13749.24
658.147	13737.27
658.498	13722.35
658.849	13808
659.2	13734.78
659.551	13736.36
659.902	13743.14
660.253	13756.02
660.604	13679.64
660.955	13639.19
661.306	13654.56
661.656	13673.31
662.007	13629.25
662.358	13586.31
662.708	13563.03
663.059	13495.01
663.409	13569.36
663.76	13667.66
664.11	13596.7
664.461	13697.72
664.811	13699.53
665.161	13672.18
665.511	13536.82
665.862	13624.05
666.212	13615.24
666.562	13615.24
666.912	13545.41
667.262	13456.6
667.612	13515.12
667.962	13557.38
668.312	13456.37
668.662	13476.48
669.011	13524.62
669.361	13443.49
669.711	13309.25
670.06	13349.03
670.41	13460.21
670.76	13400.1
671.109	13443.26
671.459	13346.54
671.808	13332.3
672.157	13452.98
672.507	13263.83
672.856	13305.19
673.205	13274
673.554	13224.74
673.904	13242.82
674.253	13331.63
674.602	13251.85
674.951	13145.64
675.3	13038.3
675.649	13237.17
675.998	13346.99
676.346	13323.94
676.695	13363.72
677.044	13236.26
677.393	13188.58
677.741	13262.02
678.09	13222.93
678.438	13094.12
678.787	13122.82
679.135	13171.18
679.484	13070.16
679.832	13128.69
680.181	12989.26
680.529	13100.45
680.877	13144.29
681.225	13050.5
681.573	13047.11
681.922	12973.22
682.27	12941.35
682.618	12975.25
682.966	12958.08
683.314	13035.59
683.661	12977.29
684.009	12940.9
684.357	12798.99
684.705	12856.84
685.053	12916.72
685.4	12871.75
685.748	12805.99
686.095	12748.82
686.443	12643.06
686.79	12573.68
687.138	12608.71
687.485	12737.52
687.832	12543.85
688.18	12492.1
688.527	12464.76
688.874	12492.33
689.221	12480.35
689.568	12498.2
689.915	12429.96
690.262	12387.24
690.609	12378.43
690.956	12361.26
691.303	12271.32
691.65	12143.18
691.997	12228.83
692.344	12087.37
692.69	12208.94
693.037	12132.34
693.383	12091.89
693.73	12163.3
694.077	12071.77
694.423	12118.33
694.769	11985.9
695.116	12022.06
695.462	11983.64
695.808	11865.68
696.155	11951.32
696.501	11830.42
696.847	11807.83
697.193	11759.01
697.539	11813.7
697.885	11650.99
698.231	11628.85
698.577	11694.38
698.923	11705.91
699.269	11511.56
699.614	11533.93
699.96	11452.58
700.306	11393.6
700.651	11389.08
700.997	11356.76
701.342	11382.98
701.688	11342.75
702.033	11384.56
702.379	11334.84
702.724	11333.26
703.069	11432.24
703.415	11155.19
703.76	11240.38
704.105	11198.12
704.45	11249.65
704.795	11133.72
705.14	11126.26
705.485	11131.23
705.83	11039.48
706.175	11009.2
706.52	10967.85
706.865	10956.55
707.209	10955.87
707.554	10856.21
707.899	10858.7
708.243	10848.98
708.588	10825.25
708.932	10759.49
709.277	10815.53
709.621	10749.1
709.966	10664.58
710.31	10729.89
710.654	10639.27
710.998	10712.49
711.342	10653.28
711.687	10690.11
712.031	10630.45
712.375	10563.56
712.719	10525.15
713.063	10553.17
713.407	10529.44
713.75	10516.11
714.094	10455.32
714.438	10331.48
714.782	10335.77
715.125	10323.12
715.469	10433.17
715.812	10330.12
716.156	10303.01
716.499	10227.53
716.843	10296.45
717.186	10291.71
717.53	10263.46
717.873	10334.19
718.216	10251.71
718.559	10215.55
718.902	10185.95
719.246	10225.27
719.589	10170.13
719.932	10126.74
720.275	10160.41
720.617	10122.9
720.96	10135.78
721.303	10094.88
721.646	10067.53
721.989	10022.56
722.331	10098.04
722.674	10101.43
723.016	9985.05
723.359	9955.44
723.701	9982.56
724.044	9887.42
724.386	9913.86
724.729	9910.02
725.071	9862.34
725.413	9822.11
725.755	9860.08
726.097	9740.08
726.439	9717.48
726.782	9743.47
727.124	9799.52
727.465	9750.48
727.807	9709.12
728.149	9665.73
728.491	9771.27
728.833	9742.34
729.175	9667.99
729.516	9646.3
729.858	9692.17
730.199	9710.71
730.541	9596.36
730.882	9613.31
731.224	9604.49
731.565	9505.06
731.906	9544.83
732.248	9514.78
732.589	9553.65
732.93	9495.57
733.271	9473.2
733.612	9507.55
733.953	9500.77
734.294	9448.57
734.635	9383.26
734.976	9423.26
735.317	9375.8
735.658	9402.46
735.999	9398.4
736.339	9347.1
736.68	9332.41
737.021	9287.89
737.361	9264.62
737.702	9291.06
738.042	9307.33
738.383	9208.8
738.723	9209.02
739.063	9133.55
739.404	9166.31
739.744	9145.07
740.084	9112.53
740.424	9112.75
740.764	9112.3
741.104	9170.61
741.444	9060.55
741.784	9086.31
742.124	9085.18
742.464	8992.31
742.804	8967.22
743.143	9032.53
743.483	9021.91
743.823	8995.92
744.162	9008.35
744.502	9018.52
744.841	8993.21
745.181	9049.71
745.52	8977.62
745.86	9019.42
746.199	8989.59
746.538	8924.96
746.877	8902.59
747.216	8859.88
747.556	8862.59
747.895	8913.21
748.234	8844.06
748.573	8840.9
748.911	8810.16
749.25	8821.91
749.589	8783.27
749.928	8748.92
750.267	8755.48
750.605	8725.65
750.944	8762.26
751.283	8762.26
751.621	8701.69
751.96	8683.16
752.298	8676.16
752.636	8651.98
752.975	8636.61
753.313	8686.1
753.651	8631.41
753.989	8610.85
754.327	8596.38
754.666	8513
755.004	8531.53
755.342	8566.55
755.679	8491.75
756.017	8382.38
756.355	8433
756.693	8362.94
757.031	8421.02
757.368	8412.43
757.706	8381.47
758.044	8299.44
758.381	8341.02
758.719	8291.08
759.056	8299.67
759.394	8262.61
759.731	8195.94
760.068	8181.71
