Data from black_metal_pc_casing_FLMS001491_00029.txt Node
Date: Wed Feb 08 14:32:15 GMT 2017
User: dcchb
Spectrometer: FLMS00149
Trigger mode: 0
Integration Time (sec): 2.000000E-2
Scans to average: 10
Electric dark correction enabled: true
Nonlinearity correction enabled: false
Boxcar width: 0
XAxis mode: Wavelengths
Number of Pixels in Spectrum: 2048
>>>>>Begin Spectral Data<<<<<
341.393	-27.08
341.776	-27.08
342.16	-27.08
342.543	-46.96
342.927	-60.3
343.31	-61.2
343.693	-61.65
344.077	-81.99
344.46	-64.36
344.843	-57.13
345.226	-47.19
345.61	-33.4
345.993	-18.94
346.376	-5.61
346.759	9.76
347.142	39.82
347.525	48.63
347.908	69.42
348.291	76.65
348.674	89.98
349.057	97.21
349.44	123.43
349.823	128.17
350.206	158.23
350.588	178.34
350.971	204.78
351.354	200.26
351.737	211.56
352.119	241.62
352.502	254.5
352.884	267.15
353.267	259.47
353.65	263.99
354.032	272.35
354.414	289.53
354.797	307.83
355.179	327.04
355.562	323.65
355.944	316.87
356.326	321.84
356.709	301.28
357.091	333.82
357.473	313.48
357.855	317.1
358.238	326.14
358.62	311.9
359.002	304.89
359.384	344.21
359.766	329.98
360.148	318.45
360.53	327.94
360.912	325.46
361.294	338.11
361.676	336.08
362.057	341.73
362.439	297.21
362.821	315.74
363.203	309.64
363.584	312.35
363.966	315.74
364.348	309.19
364.729	311.67
365.111	307.15
365.493	289.98
365.874	319.36
366.256	318.68
366.637	314.16
367.019	318.9
367.4	290.2
367.781	287.94
368.163	298.79
368.544	301.05
368.925	304.67
369.306	314.16
369.688	303.99
370.069	326.81
370.45	303.76
370.831	316.64
371.212	301.5
371.593	307.38
371.974	302.63
372.355	306.93
372.736	303.31
373.117	302.18
373.498	322.29
373.879	305.8
374.26	295.18
374.641	302.63
375.021	314.38
375.402	289.3
375.783	321.39
376.163	315.51
376.544	336.08
376.925	335.4
377.305	322.29
377.686	320.49
378.066	318.9
378.447	313.71
378.827	324.55
379.208	332.69
379.588	317.77
379.968	351.22
380.349	345.8
380.729	339.47
381.109	349.86
381.489	329.98
381.87	324.1
382.25	328.85
382.63	346.47
383.01	332.01
383.39	333.14
383.77	342.18
384.15	336.53
384.53	343.31
384.91	356.42
385.29	338.56
385.67	346.7
386.049	338.34
386.429	357.32
386.809	362.97
387.189	358.9
387.568	374.5
387.948	366.13
388.328	341.28
388.707	362.07
389.087	360.71
389.466	381.95
389.846	371.56
390.225	379.69
390.605	378.11
390.984	384.89
391.363	366.36
391.743	394.83
392.122	377.21
392.501	372.01
392.881	365.46
393.26	377.21
393.639	391.22
394.018	390.31
394.397	395.51
394.776	390.77
395.155	390.54
395.534	402.52
395.913	417.66
396.292	393.25
396.671	397.77
397.05	416.08
397.429	398.22
397.808	400.03
398.186	395.06
398.565	412.23
398.944	394.83
399.323	401.61
399.701	407.04
400.08	400.94
400.458	432.12
400.837	422.4
401.215	414.49
401.594	423.99
401.972	427.83
402.351	436.64
402.729	429.64
403.107	437.54
403.486	443.19
403.864	448.17
404.242	446.81
404.62	457.43
404.999	436.87
405.377	436.42
405.755	457.43
406.133	460.6
406.511	457.66
406.889	464.66
407.267	472.12
407.645	477.54
408.023	470.76
408.401	478
408.779	485.68
409.156	485
409.534	482.74
409.912	470.09
410.29	480.93
410.667	499.92
411.045	518.22
411.422	493.36
411.8	518.22
412.178	503.98
412.555	510.09
412.933	509.18
413.31	517.54
413.687	528.39
414.065	535.62
414.442	566.58
414.819	558.22
415.197	527.94
415.574	537.2
415.951	532.91
416.328	550.76
416.705	557.32
417.082	550.08
417.46	571.1
417.837	569.29
418.214	584.66
418.591	571.78
418.967	573.59
419.344	601.38
419.721	597.31
420.098	586.02
420.475	599.12
420.852	593.47
421.228	602.06
421.605	597.54
421.982	613.59
422.358	626.24
422.735	614.94
423.111	630.99
423.488	610.2
423.864	634.6
424.241	653.13
424.617	657.43
424.994	655.17
425.37	639.57
425.746	644.55
426.123	640.7
426.499	677.76
426.875	646.58
427.251	656.07
427.627	667.14
428.003	667.82
428.379	681.38
428.756	697.88
429.132	686.35
429.507	711.66
429.883	713.92
430.259	716.18
430.635	723.87
431.011	734.26
431.387	734.26
431.763	742.4
432.138	752.34
432.514	736.75
432.89	757.76
433.265	780.36
433.641	781.94
434.016	787.14
434.392	794.6
434.767	821.94
435.143	830.08
435.518	812.68
435.894	816.52
436.269	825.33
436.644	829.4
437.02	847.48
437.395	847.48
437.77	840.7
438.145	862.17
438.52	870.98
438.895	865.56
439.271	901.26
439.646	923.41
440.021	911.2
440.395	904.43
440.77	904.65
441.145	894.93
441.52	919.79
441.895	938.77
442.27	951.43
442.645	946.23
443.019	934.93
443.394	922.05
443.769	937.42
444.143	948.27
444.518	939
444.892	963.63
445.267	955.27
445.641	967.7
446.016	978.55
446.39	982.84
446.764	997.98
447.139	981.26
447.513	977.87
447.887	988.04
448.262	990.3
448.636	1013.8
449.01	1019.9
449.384	1034.14
449.758	1020.58
450.132	1047.47
450.506	1048.15
450.88	1081.37
451.254	1089.05
451.628	1098.32
452.002	1084.53
452.376	1066.91
452.75	1086.79
453.123	1109.17
453.497	1135.15
453.871	1123.85
454.244	1151.2
454.618	1149.39
454.992	1160.24
455.365	1169.73
455.739	1186
456.112	1200.46
456.486	1203.17
456.859	1222.84
457.232	1229.61
457.606	1245.21
457.979	1245.21
458.352	1283.17
458.725	1281.82
459.099	1306
459.472	1310.74
459.845	1333.34
460.218	1348.26
460.591	1330.18
460.964	1362.49
461.337	1377.86
461.71	1384.86
462.083	1398.42
462.456	1420.57
462.829	1406.33
463.201	1442.94
463.574	1438.65
463.947	1476.16
464.32	1501.47
464.692	1509.61
465.065	1498.99
465.438	1509.38
465.81	1540.34
466.183	1564.07
466.555	1578.08
466.928	1611.75
467.3	1605.2
467.672	1615.82
468.045	1679.55
468.417	1636.84
468.789	1674.57
469.161	1677.06
469.534	1714.12
469.906	1775.81
470.278	1766.55
470.65	1779.2
471.022	1822.14
471.394	1794.57
471.766	1840.45
472.138	1878.19
472.51	1910.27
472.882	1966.09
473.253	1945.53
473.625	1971.29
473.997	2046.99
474.369	2014.9
474.74	2037.5
475.112	2092.64
475.484	2140.1
475.855	2138.52
476.227	2144.17
476.598	2223.26
476.97	2228.23
477.341	2255.58
477.713	2318.63
478.084	2302.81
478.455	2391.39
478.827	2382.35
479.198	2432.75
479.569	2465.06
479.94	2524.95
480.311	2520.2
480.682	2606.98
481.053	2601.56
481.424	2686.53
481.795	2714.1
482.166	2757.03
482.537	2793.42
482.908	2796.13
483.279	2851.04
483.65	2887.2
484.021	2920.42
484.391	3009.23
484.762	2955.9
485.133	3020.75
485.503	3088.55
485.874	3124.93
486.244	3147.98
486.615	3217.36
486.985	3249.22
487.356	3298.26
487.726	3331.03
488.097	3436.56
488.467	3396.79
488.837	3500.52
489.207	3482.21
489.578	3516.33
489.948	3556.56
490.318	3618.03
490.688	3662.09
491.058	3780.06
491.428	3733.28
491.798	3849.66
492.168	3866.61
492.538	3891.92
492.908	3910.45
493.278	3940.28
493.648	3965.81
494.017	3984.12
494.387	4051.69
494.757	4083.55
495.126	4158.13
495.496	4153.38
495.866	4147.05
496.235	4208.52
496.605	4232.7
496.974	4242.64
497.344	4333.04
497.713	4318.35
498.082	4367.84
498.452	4420.04
498.821	4423.65
499.19	4448.06
499.559	4515.63
499.928	4526.03
500.298	4547.49
500.667	4609.19
501.036	4585.01
501.405	4614.16
501.774	4639.24
502.143	4703.65
502.512	4769.41
502.88	4757.66
503.249	4782.74
503.618	4783.65
503.987	4831.33
504.356	4886.02
504.724	4895.51
505.093	4926.24
505.462	4975.5
505.83	5054.6
506.199	5063.86
506.567	5065.45
506.936	5036.75
507.304	5167.14
507.672	5149.96
508.041	5188.83
508.409	5230.64
508.777	5267.25
509.145	5319
509.514	5308.6
509.882	5373.23
510.25	5371.43
510.618	5416.17
510.986	5403.29
511.354	5491.88
511.722	5487.13
512.09	5633.34
512.458	5594.25
512.826	5651.65
513.193	5671.31
513.561	5685.32
513.929	5752.21
514.297	5804.41
514.664	5840.79
515.032	5837.4
515.4	5904.29
515.767	5961.02
516.135	5971.64
516.502	5925.99
516.869	6043.95
517.237	6072.65
517.604	6046.66
517.972	6144.74
518.339	6146.77
518.706	6216.38
519.073	6235.58
519.44	6262.25
519.808	6391.74
520.175	6371.4
520.542	6475.58
520.909	6492.08
521.276	6505.18
521.643	6561
522.009	6626.53
522.376	6690.71
522.743	6692.3
523.11	6769.81
523.477	6867.21
523.843	6852.29
524.21	6954.89
524.577	6941.78
524.943	7018.84
525.31	7064.49
525.676	7091.38
526.043	7212.06
526.409	7191.27
526.776	7274.2
527.142	7310.13
527.508	7353.3
527.874	7395.1
528.241	7456.34
528.607	7478.26
528.973	7519.39
529.339	7541.54
529.705	7636.9
530.071	7678.71
530.437	7748.77
530.803	7737.92
531.169	7830.8
531.535	7809.33
531.901	7841.19
532.267	7942.21
532.632	7927.52
532.998	7953.51
533.364	8026.27
533.73	8066.27
534.095	8143.78
534.461	8150.11
534.826	8233.72
535.192	8275.98
535.557	8285.7
535.923	8268.98
536.288	8362.99
536.653	8413.15
537.019	8336.09
537.384	8416.77
537.749	8459.93
538.114	8446.6
538.479	8465.58
538.845	8523.43
539.21	8530.67
539.575	8586.48
539.94	8594.84
540.305	8642.75
540.67	8689.31
541.034	8737.67
541.399	8741.96
541.764	8769.53
542.129	8833.71
542.494	8790.32
542.858	8843.88
543.223	8854.27
543.587	8963.42
543.952	8851.34
544.316	8978.11
544.681	8955.29
545.045	9050.43
545.41	9030.77
545.774	9086.13
546.138	9063.53
546.503	9161.38
546.867	9156.64
547.231	9207.48
547.595	9285.9
547.959	9266.24
548.324	9331.77
548.688	9335.62
549.052	9358.89
549.416	9378.55
549.779	9421.04
550.143	9396.63
550.507	9503.97
550.871	9478.89
551.235	9460.36
551.599	9539.23
551.962	9641.6
552.326	9661.71
552.689	9696.96
553.053	9665.1
553.417	9742.84
553.78	9832.33
554.143	9819.45
554.507	9886.79
554.87	9846.56
555.234	9989.61
555.597	9953
555.96	9938.54
556.323	10046.78
556.686	10033.68
557.05	10068.03
557.413	10107.57
557.776	10158.87
558.139	10191.64
558.502	10227.8
558.865	10272.31
559.228	10353.67
559.59	10402.03
559.953	10388.92
560.316	10453.33
560.679	10481.12
561.041	10567.9
561.404	10606.09
561.767	10720.89
562.129	10687.9
562.492	10804.96
562.854	10781.91
563.217	10831.17
563.579	10850.6
563.941	10913.43
564.304	10912.07
564.666	10960.43
565.028	11060.32
565.39	11068.45
565.753	11133.76
566.115	11156.59
566.477	11210.6
566.839	11232.29
567.201	11253.76
567.563	11361.33
567.925	11377.82
568.287	11411.04
568.648	11481.77
569.01	11510.7
569.372	11556.35
569.734	11536.24
570.095	11674.54
570.457	11658.04
570.819	11670.24
571.18	11734.42
571.542	11815.32
571.903	11778.26
572.265	11862.78
572.626	11938.71
572.987	11921.54
573.349	12008.77
573.71	12048.31
574.071	12011.93
574.432	12012.16
574.794	12159.72
575.155	12108.65
575.516	12086.28
575.877	12159.27
576.238	12190.46
576.599	12188.87
576.96	12211.25
577.32	12213.28
577.681	12258.93
578.042	12385.03
578.403	12373.05
578.763	12356.1
579.124	12395.42
579.485	12416.89
579.845	12394.29
580.206	12425.03
580.566	12336.44
580.927	12428.64
581.287	12532.59
581.648	12545.93
582.008	12525.36
582.368	12472.71
582.728	12526.94
583.089	12542.54
583.449	12458.92
583.809	12539.37
584.169	12556.1
584.529	12562.88
584.889	12636.09
585.249	12569.88
585.609	12543.44
585.969	12566.72
586.329	12499.37
586.688	12606.72
587.048	12497.34
587.408	12556.1
587.768	12597
588.127	12572.59
588.487	12589.09
588.846	12603.1
589.206	12577.79
589.565	12527.85
589.925	12656.88
590.284	12617.79
590.643	12584.12
591.003	12626.6
591.362	12587.51
591.721	12646.26
592.08	12619.37
592.44	12692.59
592.799	12631.12
593.158	12579.82
593.517	12664.12
593.876	12628.18
594.235	12576.89
594.593	12656.43
594.952	12727.62
595.311	12683.32
595.67	12705.47
596.029	12749.76
596.387	12739.14
596.746	12780.05
597.104	12676.55
597.463	12726.71
597.822	12789.31
598.18	12779.59
598.538	12752.02
598.897	12738.69
599.255	12702.53
599.613	12821.63
599.972	12815.07
600.33	12762.87
600.688	12798.12
601.046	12747.96
601.404	12956.99
601.762	12847.84
602.12	12917.89
602.478	12966.48
602.836	12833.6
603.194	12893.04
603.552	12917.44
603.91	12908.63
604.268	12881.29
604.625	12895.97
604.983	12909.08
605.341	12955.86
605.698	12900.27
606.056	13013.49
606.413	12994.5
606.771	12990.89
607.128	12997.89
607.485	12996.76
607.843	13003.09
608.2	13068.4
608.557	13166.7
608.914	13026.82
609.272	13066.59
609.629	13061.85
609.986	13176.19
610.343	13150.88
610.7	13225.23
611.057	13233.14
611.414	13203.99
611.771	13225.46
612.127	13272.91
612.484	13225.68
612.841	13338.45
613.198	13230.88
613.554	13314.27
613.911	13417.09
614.267	13312.46
614.624	13295.74
614.98	13329.18
615.337	13420.71
615.693	13427.94
616.05	13337.54
616.406	13483.53
616.762	13386.58
617.118	13392.23
617.475	13413.47
617.831	13520.82
618.187	13471.55
618.543	13532.12
618.899	13542.29
619.255	13523.53
619.611	13566.47
619.967	13540.48
620.323	13573.92
620.678	13466.81
621.034	13469.97
621.39	13459.12
621.746	13537.77
622.101	13595.39
622.457	13533.25
622.812	13581.38
623.168	13600.36
623.523	13544.77
623.879	13626.58
624.234	13513.81
624.589	13561.49
624.945	13639.91
625.3	13545.45
625.655	13577.54
626.01	13600.81
626.365	13541.16
626.72	13545.22
627.075	13539.57
627.43	13546.8
627.785	13535.05
628.14	13581.38
628.495	13568.73
628.85	13589.74
629.205	13567.6
629.559	13554.94
629.914	13545.67
630.269	13485.34
630.623	13505.45
630.978	13483.08
631.332	13434.49
631.687	13534.6
632.041	13423.64
632.396	13516.52
632.75	13361.72
633.104	13476.75
633.459	13414.6
633.813	13373.48
634.167	13312.46
634.521	13302.07
634.875	13352.23
635.229	13309.3
635.583	13288.96
635.937	13335.51
636.291	13276.76
636.645	13285.12
636.999	13209.41
637.352	13279.92
637.706	13104.56
638.06	13190.66
638.413	13128.06
638.767	13157.89
639.121	13160.6
639.474	13130.32
639.828	13064.78
640.181	13096.42
640.534	13137.55
640.888	13066.59
641.241	13017.78
641.594	13046.48
641.947	13096.87
642.301	13019.81
642.654	13015.75
643.007	13011.68
643.36	13008.51
643.713	12971.45
644.066	12959.25
644.419	12898.91
644.771	12862.08
645.124	12745.92
645.477	12720.39
645.83	12625.02
646.182	12604.91
646.535	12524.46
646.888	12598.36
647.24	12504.12
647.593	12486.95
647.945	12480.62
648.298	12479.71
648.65	12329.66
649.002	12397.91
649.355	12447.4
649.707	12412.82
650.059	12496.66
650.411	12593.16
650.763	12716.32
651.115	12815.98
651.467	12746.83
651.819	12679.93
652.171	12708.18
652.523	12571.01
652.875	12665.92
653.227	12584.12
653.578	12625.93
653.93	12608.98
654.282	12593.84
654.633	12509.09
654.985	12505.48
655.337	12594.97
655.688	12549.99
656.039	12527.17
656.391	12569.2
656.742	12450.79
657.094	12528.3
657.445	12547.06
657.796	12545.93
658.147	12462.77
658.498	12498.02
658.849	12461.41
659.2	12388.87
659.551	12439.72
659.902	12492.6
660.253	12416.89
660.604	12502.76
660.955	12360.62
661.306	12398.13
661.656	12406.04
662.007	12427.51
662.358	12396.33
662.708	12408.3
663.059	12411.69
663.409	12340.73
663.76	12388.42
664.11	12412.82
664.461	12322.66
664.811	12403.11
665.161	12345.03
665.511	12385.03
665.862	12398.36
666.212	12407.17
666.562	12319.72
666.912	12362.88
667.262	12229.78
667.612	12354.97
667.962	12345.48
668.312	12250.79
668.662	12373.95
669.011	12281.98
669.361	12255.99
669.711	12298.93
670.06	12332.37
670.41	12256.44
670.76	12184.58
671.109	12269.1
671.459	12230.23
671.808	12215.54
672.157	12207.63
672.507	12202.43
672.856	12158.82
673.205	12143
673.554	12206.95
673.904	12157.24
674.253	12239.95
674.602	12206.95
674.951	12016.68
675.3	11962.21
675.649	12168.99
675.998	12120.63
676.346	12150.23
676.695	12158.14
677.044	12112.04
677.393	12103.23
677.741	12134.64
678.09	12078.37
678.438	12047.64
678.787	12031.36
679.135	12077.01
679.484	11989.56
679.832	12108.2
680.181	11968.77
680.529	12030.23
680.877	11966.28
681.225	11926.06
681.573	12030.23
681.922	11941.2
682.27	11869.56
682.618	11898.49
682.966	11881.54
683.314	11836.12
683.661	11902.1
684.009	11751.6
684.357	11732.62
684.705	11705.05
685.053	11718.6
685.4	11699.62
685.748	11639.74
686.095	11624.14
686.443	11725.61
686.79	11616.46
687.138	11617.14
687.485	11557.7
687.832	11587.31
688.18	11515.67
688.527	11400.87
688.874	11478.84
689.221	11385.96
689.568	11428.22
689.915	11389.12
690.262	11379.4
690.609	11365.17
690.956	11356.13
691.303	11310.48
691.65	11266.41
691.997	11288.79
692.344	11202.46
692.69	11177.15
693.037	11123.37
693.383	11083.37
693.73	11144.61
694.077	11115
694.423	11107.32
694.769	11018.28
695.116	11028.23
695.462	10940.09
695.808	10993.88
696.155	11009.92
696.501	10803.37
696.847	10911.39
697.193	10829.81
697.539	10823.03
697.885	10757.95
698.231	10793.66
698.577	10775.35
698.923	10687.9
699.269	10756.14
699.614	10683.15
699.96	10674.11
700.306	10564.96
700.651	10534.45
700.997	10538.75
701.342	10493.33
701.688	10462.82
702.033	10468.92
702.379	10402.25
702.724	10435.47
703.069	10388.02
703.415	10328.81
703.76	10350.73
704.105	10282.03
704.45	10329.04
704.795	10187.12
705.14	10265.76
705.485	10267.57
705.83	10163.39
706.175	10150.51
706.52	10147.57
706.865	10096.95
707.209	10140.79
707.554	10076.39
707.899	10115.03
708.243	10038.2
708.588	10048.37
708.932	9927.69
709.277	9926.34
709.621	9904.64
709.966	9831.42
710.31	9868.03
710.654	9852.89
710.998	9870.29
711.342	9794.36
711.687	9803.4
712.031	9773.57
712.375	9743.06
712.719	9740.8
713.063	9711.43
713.407	9739.22
713.75	9686.57
714.094	9761.82
714.438	9588.49
714.782	9624.87
715.125	9620.81
715.469	9535.61
715.812	9542.39
716.156	9498.55
716.499	9600.92
716.843	9475.73
717.186	9507.14
717.53	9481.83
717.873	9532
718.216	9487.02
718.559	9512.11
718.902	9387.37
719.246	9335.62
719.589	9362.96
719.932	9362.28
720.275	9319.8
720.617	9346.46
720.96	9315.28
721.303	9208.39
721.646	9313.02
721.989	9195.51
722.331	9293.58
722.674	9220.59
723.016	9150.08
723.359	9185.56
723.701	9168.84
724.044	9158.45
724.386	9130.88
724.729	9159.58
725.071	9122.29
725.413	9079.8
725.755	9121.84
726.097	9081.84
726.439	8988.28
726.782	9002.74
727.124	9007.26
727.465	8980.82
727.807	8995.51
728.149	8990.77
728.491	8959.35
728.833	8957.32
729.175	8925.91
729.516	8882.97
729.858	8875.97
730.199	8948.73
730.541	8936.98
730.882	8867.61
731.224	8877.32
731.565	8848.85
731.906	8904.22
732.248	8844.78
732.589	8756.42
732.93	8733.37
733.271	8788.29
733.612	8786.03
733.953	8817.21
734.294	8729.53
734.635	8751.45
734.976	8730.43
735.317	8732.92
735.658	8658.57
735.999	8770.66
736.339	8673.03
736.68	8644.56
737.021	8655.63
737.361	8588.74
737.702	8673.94
738.042	8587.61
738.383	8570.89
738.723	8658.35
739.063	8533.6
739.404	8629.42
739.744	8534.06
740.084	8531.12
740.424	8546.26
740.764	8514.17
741.104	8537.45
741.444	8428.97
741.784	8449.09
742.124	8513.04
742.464	8428.75
742.804	8419.93
743.143	8415.87
743.483	8426.94
743.823	8362.53
744.162	8352.37
744.502	8381.97
744.841	8361.63
745.181	8376.77
745.52	8287.96
745.86	8354.85
746.199	8373.38
746.538	8321.86
746.877	8354.85
747.216	8290.9
747.556	8307.85
747.895	8281.86
748.234	8207.74
748.573	8191.47
748.911	8192.14
749.25	8183.78
749.589	8185.14
749.928	8153.27
750.267	8145.59
750.605	8088.42
750.944	8111.02
751.283	8103.33
751.621	8100.39
751.96	8024.92
752.298	8083.9
752.636	7969.55
752.975	7986.27
753.313	7956.44
753.651	8025.37
753.989	7946.5
754.327	7953.28
754.666	7878.03
755.004	7886.39
755.342	7898.82
755.679	7924.81
756.017	7855.43
756.355	7895.65
756.693	7813.62
757.031	7871.47
757.368	7760.74
757.706	7769.56
758.044	7798.26
758.381	7706.28
758.719	7765.94
759.056	7777.24
759.394	7657.02
759.731	7644.14
760.068	7634.87
760.405	7614.53
760.743	7552.39
761.08	7549.9
761.417	7541.09
761.754	7532.5
