Data from black_plastic_tray_FLMS001491_018.txt Node
Date: Tue Feb 07 10:39:22 GMT 2017
User: dcchb
Spectrometer: FLMS00149
Trigger mode: 0
Integration Time (sec): 2.000000E-2
Scans to average: 10
Electric dark correction enabled: true
Nonlinearity correction enabled: false
Boxcar width: 0
XAxis mode: Wavelengths
Number of Pixels in Spectrum: 2048
>>>>>Begin Spectral Data<<<<<
341.393	-31.37
341.776	-31.37
342.16	-31.37
342.543	-69.79
342.927	-67.3
343.31	-55.55
343.693	-74.98
344.077	-47.19
344.46	-54.65
344.843	-54.19
345.226	-42.67
345.61	-11.93
345.993	-13.29
346.376	-11.03
346.759	5.01
347.142	13.15
347.525	38.46
347.908	62.41
348.291	74.39
348.674	80.27
349.057	91.79
349.44	122.3
349.823	144.67
350.206	154.16
350.588	144.45
350.971	194.84
351.354	220.38
351.737	219.92
352.119	230.32
352.502	232.13
352.884	257.66
353.267	247.27
353.65	266.25
354.032	255.18
354.414	297.66
354.797	292.92
355.179	271
355.562	297.66
355.944	313.48
356.326	301.05
356.709	304.89
357.091	317.55
357.473	292.01
357.855	286.59
358.238	331.11
358.62	330.88
359.002	313.71
359.384	319.58
359.766	318
360.148	308.73
360.53	308.96
360.912	313.25
361.294	313.03
361.676	335.63
362.057	315.29
362.439	322.52
362.821	313.48
363.203	318.23
363.584	315.06
363.966	315.97
364.348	288.62
364.729	292.24
365.111	313.71
365.493	286.14
365.874	283.42
366.256	285.91
366.637	278.91
367.019	284.78
367.4	296.53
367.781	299.47
368.163	277.32
368.544	284.78
368.925	279.58
369.306	296.31
369.688	304.44
370.069	306.47
370.45	281.84
370.831	277.1
371.212	298.79
371.593	281.39
371.974	269.64
372.355	299.47
372.736	283.2
373.117	298.11
373.498	295.18
373.879	306.7
374.26	292.69
374.641	311.67
375.021	295.18
375.402	302.41
375.783	314.84
376.163	287.27
376.544	301.28
376.925	316.42
377.305	327.27
377.686	301.05
378.066	294.5
378.447	308.06
378.827	310.99
379.208	322.07
379.588	314.16
379.968	336.3
380.349	313.48
380.729	303.54
381.109	314.16
381.489	331.79
381.87	312.12
382.25	332.24
382.63	325.46
383.01	335.63
383.39	332.91
383.77	324.33
384.15	332.24
384.53	327.94
384.91	340.15
385.29	318.9
385.67	306.25
386.049	353.25
386.429	334.72
386.809	322.97
387.189	322.75
387.568	323.65
387.948	334.72
388.328	346.7
388.707	325.91
389.087	321.62
389.466	344.89
389.846	364.55
390.225	349.41
390.605	345.34
390.984	346.25
391.363	349.86
391.743	367.26
392.122	368.62
392.501	368.62
392.881	373.82
393.26	378.34
393.639	369.07
394.018	341.73
394.397	390.99
394.776	349.86
395.155	381.5
395.534	382.63
395.913	376.76
396.292	409.52
396.671	383.76
397.05	389.18
397.429	366.59
397.808	389.18
398.186	384.44
398.565	383.08
398.944	367.94
399.323	388.05
399.701	390.54
400.08	396.64
400.458	409.3
400.837	387.6
401.215	392.57
401.594	394.38
401.972	399.58
402.351	395.96
402.729	399.58
403.107	398.45
403.486	416.3
403.864	402.52
404.242	397.09
404.62	417.21
404.999	416.98
405.377	400.71
405.755	421.73
406.133	408.62
406.511	442.29
406.889	431.44
407.267	419.01
407.645	454.72
408.023	423.31
408.401	428.28
408.779	419.01
409.156	442.29
409.534	450.65
409.912	454.72
410.29	466.7
410.667	457.21
411.045	473.48
411.422	449.52
411.8	469.18
412.178	482.52
412.555	479.58
412.933	480.93
413.31	478.67
413.687	472.35
414.065	472.35
414.442	491.55
414.819	492.68
415.197	483.42
415.574	489.07
415.951	471.67
416.328	477.32
416.705	496.98
417.082	511.67
417.46	513.02
417.837	491.55
418.214	516.19
418.591	529.29
418.967	529.07
419.344	533.59
419.721	519.8
420.098	507.37
420.475	531.55
420.852	530.42
421.228	537.88
421.605	525.45
421.982	552.8
422.358	537.88
422.735	565.68
423.111	576.3
423.488	560.71
423.864	563.42
424.241	560.25
424.617	572.91
424.994	591.44
425.37	557.99
425.746	567.26
426.123	583.98
426.499	579.91
426.875	580.82
427.251	592.12
427.627	611.33
428.003	608.39
428.379	621.95
428.756	609.52
429.132	628.95
429.507	600.03
429.883	623.53
430.259	654.71
430.635	649.97
431.011	647.26
431.387	649.06
431.763	657.43
432.138	660.82
432.514	665.11
432.89	671.21
433.265	691.1
433.641	690.19
434.016	700.36
434.392	683.64
434.767	705.79
435.143	698.78
435.518	720.93
435.894	751.89
436.269	728.61
436.644	733.58
437.02	731.77
437.395	752.79
437.77	752.79
438.145	753.92
438.52	757.99
438.895	765.9
439.271	775.84
439.646	759.12
440.021	779.46
440.395	762.06
440.77	798.44
441.145	815.16
441.52	808.16
441.895	788.04
442.27	815.61
442.645	803.41
443.019	837.76
443.394	829.63
443.769	836.86
444.143	808.61
444.518	868.27
444.892	825.33
445.267	863.07
445.641	842.73
446.016	859
446.39	875.5
446.764	854.94
447.139	863.3
447.513	849.06
447.887	869.85
448.262	870.98
448.636	856.74
449.01	887.25
449.384	890.41
449.758	911.66
450.132	923.86
450.506	897.19
450.88	919.11
451.254	899.91
451.628	927.02
452.002	916.63
452.376	985.1
452.75	946.23
453.123	954.82
453.497	967.47
453.871	967.93
454.244	993.69
454.618	978.77
454.992	1010.64
455.365	1017.64
455.739	1030.75
456.112	1032.78
456.486	1028.72
456.859	1065.78
457.232	1070.07
457.606	1062.61
457.979	1086.34
458.352	1093.35
458.725	1098.77
459.099	1116.17
459.472	1109.62
459.845	1120.92
460.218	1153.23
460.591	1157.3
460.964	1168.6
461.337	1186.68
461.71	1174.25
462.083	1216.28
462.456	1210.41
462.829	1230.29
463.201	1238.65
463.574	1237.98
463.947	1248.82
464.32	1262.38
464.692	1278.88
465.065	1338.09
465.438	1310.52
465.81	1314.36
466.183	1341.7
466.555	1339.89
466.928	1382.15
467.3	1362.27
467.672	1365.88
468.045	1429.16
468.417	1417.86
468.789	1432.1
469.161	1440.23
469.534	1462.6
469.906	1503.51
470.278	1505.77
470.65	1498.08
471.022	1537.18
471.394	1578.53
471.766	1569.27
472.138	1582.83
472.51	1591.19
472.882	1628.25
473.253	1642.71
473.625	1692.88
473.997	1708.25
474.369	1729.71
474.74	1724.74
475.112	1754.12
475.484	1796.83
475.855	1842.03
476.227	1817.4
476.598	1853.55
476.97	1852.42
477.341	1904.85
477.713	1937.17
478.084	1968.35
478.455	1999.99
478.827	2021.46
479.198	2063.49
479.569	2061.46
479.94	2129.48
480.311	2143.71
480.682	2177.61
481.053	2188.69
481.424	2240.66
481.795	2301.9
482.166	2316.37
482.537	2328.79
482.908	2378.96
483.279	2353.2
483.65	2402.92
484.021	2486.08
484.391	2504.38
484.762	2512.29
485.133	2531.05
485.503	2557.49
485.874	2609.24
486.244	2670.93
486.615	2670.48
486.985	2721.1
487.356	2737.82
487.726	2759.74
488.097	2833.87
488.467	2831.38
488.837	2901.21
489.207	2939.17
489.578	2947.08
489.948	2988.89
490.318	3027.08
490.688	3044.48
491.058	3115.21
491.428	3131.49
491.798	3119.06
492.168	3170.58
492.538	3190.24
492.908	3244.25
493.278	3273.4
493.648	3318.6
494.017	3310.92
494.387	3376
494.757	3431.82
495.126	3391.37
495.496	3440.4
495.866	3443.79
496.235	3479.5
496.605	3546.16
496.974	3553.4
497.344	3610.79
497.713	3604.47
498.082	3626.61
498.452	3649.89
498.821	3724.01
499.19	3710.91
499.559	3755.88
499.928	3762.2
500.298	3795.42
500.667	3822.77
501.036	3840.85
501.405	3836.55
501.774	3846.27
502.143	3893.5
502.512	3927.17
502.88	3942.76
503.249	3974.63
503.618	3991.58
503.987	4011.01
504.356	4018.47
504.724	4085.36
505.093	4084.68
505.462	4129.88
505.83	4128.3
506.199	4173.49
506.567	4184.57
506.936	4175.98
507.304	4246.94
507.672	4275.41
508.041	4304.34
508.409	4277.44
508.777	4331.68
509.145	4391.79
509.514	4383.66
509.882	4406.25
510.25	4476.99
510.618	4480.6
510.986	4462.98
511.354	4554.27
511.722	4613.03
512.09	4634.04
512.458	4635.4
512.826	4681.73
513.193	4661.16
513.561	4717.88
513.929	4730.31
514.297	4754.49
514.664	4831.1
515.032	4836.3
515.4	4857.09
515.767	4920.59
516.135	4976.63
516.502	4943.42
516.869	4967.37
517.237	4985.9
517.604	5043.53
517.972	5084.2
518.339	5100.7
518.706	5144.09
519.073	5141.38
519.44	5226.12
519.808	5297.08
520.175	5256.18
520.542	5312.22
520.909	5392.89
521.276	5400.58
521.643	5401.26
522.009	5497.98
522.376	5515.15
522.743	5520.58
523.11	5586.56
523.477	5638.76
523.843	5624.3
524.21	5791.75
524.577	5795.6
524.943	5783.62
525.31	5857.29
525.676	5917.4
526.043	5938.64
526.409	5930.28
526.776	6042.6
527.142	6042.14
527.508	6052.99
527.874	6144.74
528.241	6133.21
528.607	6181.35
528.973	6289.14
529.339	6265.41
529.705	6322.14
530.071	6360.78
530.437	6365.75
530.803	6413.43
531.169	6433.77
531.535	6480.1
531.901	6473.32
532.267	6511.96
532.632	6563.94
532.998	6616.14
533.364	6661.11
533.73	6641
534.095	6730.26
534.461	6765.74
534.826	6808.45
535.192	6790.37
535.557	6846.64
535.923	6890.26
536.288	6874.21
536.653	6897.04
537.019	6910.82
537.384	6918.5
537.749	7038.73
538.114	7021.55
538.479	6991.5
538.845	7060.65
539.21	7026.07
539.575	7131.61
539.94	7021.55
540.305	7128.44
540.67	7138.16
541.034	7238.27
541.399	7224.26
541.764	7270.13
542.129	7271.49
542.494	7211.83
542.858	7307.65
543.223	7341.32
543.587	7382
543.952	7382.45
544.316	7419.73
544.681	7451.37
545.045	7488.43
545.41	7550.13
545.774	7493.86
546.138	7532.5
546.503	7556.68
546.867	7622.67
547.231	7640.07
547.595	7640.52
547.959	7674.64
548.324	7657.02
548.688	7661.99
549.052	7710.35
549.416	7684.81
549.779	7746.28
550.143	7748.77
550.507	7889.33
550.871	7831.7
551.235	7850.01
551.599	7904.69
551.962	7936.33
552.326	8010.91
552.689	8062.88
553.053	8024.92
553.417	8111.24
553.78	8135.87
554.143	8140.62
554.507	8140.17
554.87	8212.26
555.234	8305.36
555.597	8205.25
555.96	8225.36
556.323	8261.29
556.686	8232.82
557.05	8359.14
557.413	8345.81
557.776	8407.73
558.139	8481.18
558.502	8451.57
558.865	8552.59
559.228	8582.42
559.59	8632.58
559.953	8645.92
560.316	8777.66
560.679	8702.64
561.041	8777.66
561.404	8850.43
561.767	8852.46
562.129	8820.15
562.492	8939.92
562.854	8920.03
563.217	8917.55
563.579	8968.85
563.941	9009.07
564.304	9051.78
564.666	9182.17
565.028	9111.22
565.39	9162.74
565.753	9173.13
566.115	9374.26
566.477	9336.29
566.839	9316.63
567.201	9414.03
567.563	9439.12
567.925	9501.04
568.287	9557.31
568.648	9508.04
569.01	9532.67
569.372	9626.46
569.734	9565.21
570.095	9633.24
570.457	9715.49
570.819	9701.71
571.18	9732.89
571.542	9753.46
571.903	9760.24
572.265	9824.87
572.626	9868.26
572.987	9861.48
573.349	9951.65
573.71	9938.76
574.071	9947.8
574.432	9991.64
574.794	10068.7
575.155	10012.43
575.516	10002.27
575.877	10030.97
576.238	10074.81
576.599	10136.05
576.96	10117.29
577.32	10046.33
577.681	10133.79
578.042	10166.33
578.403	10213.56
578.763	10197.29
579.124	10287
579.485	10281.35
579.845	10287
580.206	10216.95
580.566	10274.57
580.927	10265.54
581.287	10371.07
581.648	10262.37
582.008	10320.22
582.368	10316.83
582.728	10319.09
583.089	10320.67
583.449	10366.1
583.809	10387.34
584.169	10313.9
584.529	10385.76
584.889	10400.67
585.249	10337.85
585.609	10336.95
585.969	10376.04
586.329	10429.6
586.688	10404.51
587.048	10367.23
587.408	10321.58
587.768	10324.06
588.127	10331.52
588.487	10295.36
588.846	10481.35
589.206	10271.86
589.565	10325.19
589.925	10383.5
590.284	10369.94
590.643	10419.43
591.003	10355.48
591.362	10435.47
591.721	10417.85
592.08	10442.71
592.44	10488.58
592.799	10456.49
593.158	10401.58
593.517	10493.78
593.876	10459.65
594.235	10442.25
594.593	10443.84
594.952	10450.62
595.311	10378.07
595.67	10469.37
596.029	10639.31
596.387	10557.05
596.746	10503.72
597.104	10453.55
597.463	10480.22
597.822	10550.95
598.18	10443.16
598.538	10464.63
598.897	10584.17
599.255	10387.11
599.613	10608.8
599.972	10579.65
600.33	10689.7
600.688	10524.74
601.046	10587.33
601.404	10544.62
601.762	10654.23
602.12	10689.48
602.478	10672.53
602.836	10617.62
603.194	10670.95
603.552	10664.39
603.91	10635.47
604.268	10734.22
604.625	10704.85
604.983	10703.04
605.341	10609.93
605.698	10717.27
606.056	10675.02
606.413	10709.59
606.771	10725.41
607.128	10746.43
607.485	10665.07
607.843	10708.91
608.2	10722.25
608.557	10745.07
608.914	10758.18
609.272	10788.01
609.629	10799.53
609.986	10834.11
610.343	10730.61
610.7	10887.89
611.057	10834.11
611.414	10851.73
611.771	10849.25
612.127	10880.66
612.484	10879.08
612.841	10874.11
613.198	10930.38
613.554	10935.57
613.911	11037.94
614.267	10919.76
614.624	10889.7
614.98	10977.83
615.337	10975.8
615.693	10962.69
616.05	10963.14
616.406	11009.02
616.762	10989.13
617.118	11027.78
617.475	11015.57
617.831	10919.98
618.187	11066.87
618.543	11040.43
618.899	11149.58
619.255	11051.96
619.611	11068.9
619.967	11138.73
620.323	11120.88
620.678	11082.69
621.034	11147.77
621.39	11101.67
621.746	11062.12
622.101	11209.92
622.457	11129.02
622.812	11068.23
623.168	11121.56
623.523	11081.11
623.879	11087.43
624.234	10976.25
624.589	11119.07
624.945	11107.09
625.3	11093.31
625.655	11030.26
626.01	11115.91
626.365	11113.42
626.72	11122.01
627.075	11073.65
627.43	11107.55
627.785	11057.38
628.14	11061.67
628.495	11031.84
628.85	11008.11
629.205	11002.46
629.559	11110.03
629.914	11118.62
630.269	11050.37
630.623	11061.67
630.978	11064.84
631.332	11084.5
631.687	11131.28
632.041	10974.9
632.396	11046.53
632.75	10993.88
633.104	10987.32
633.459	10819.87
633.813	10978.51
634.167	10991.62
634.521	10909.59
634.875	10926.53
635.229	10891.06
635.583	10853.99
635.937	10883.15
636.291	10840.21
636.645	10923.14
636.999	10880.66
637.352	10816.03
637.706	10801.79
638.06	10786.2
638.413	10773.54
638.767	10768.12
639.121	10759.76
639.474	10769.02
639.828	10779.87
640.181	10806.54
640.534	10708.46
640.888	10623.72
641.241	10644.06
641.594	10637.5
641.947	10653.55
642.301	10633.66
642.654	10626.2
643.007	10609.71
643.36	10622.14
643.713	10495.13
644.066	10595.24
644.419	10596.37
644.771	10486.32
645.124	10403.61
645.477	10463.72
645.83	10327.45
646.182	10275.03
646.535	10290.62
646.888	10263.95
647.24	10151.19
647.593	10223.05
647.945	10163.62
648.298	10185.99
648.65	10036.16
649.002	10134.69
649.355	10192.77
649.707	10144.41
650.059	10122.71
650.411	10294.91
650.763	10286.33
651.115	10407.23
651.467	10363.61
651.819	10351.41
652.171	10370.84
652.523	10254.01
652.875	10275.48
653.227	10275.25
653.578	10368.81
653.93	10350.28
654.282	10265.99
654.633	10193.9
654.985	10249.26
655.337	10166.78
655.688	10186.44
656.039	10280.45
656.391	10179.44
656.742	10223.95
657.094	10165.65
657.445	10243.61
657.796	10181.24
658.147	10138.08
658.498	10185.99
658.849	10203.39
659.2	10240.68
659.551	10191.41
659.902	10217.4
660.253	10196.16
660.604	10206.33
660.955	10143.73
661.306	10176.5
661.656	10113.9
662.007	10111.64
662.358	10084.3
662.708	10095.37
663.059	10062.38
663.409	9965.66
663.76	10114.13
664.11	10083.85
664.461	10116.39
664.811	10087.46
665.161	10033.68
665.511	10077.74
665.862	10086.56
666.212	10103.96
666.562	10070.74
666.912	10005.2
667.262	10071.19
667.612	10047.24
667.962	10024.86
668.312	10040
668.662	10073.9
669.011	10017.18
669.361	9989.61
669.711	9989.84
670.06	9920.23
670.41	10009.27
670.76	9931.08
671.109	9964.3
671.459	9986.9
671.808	9943.96
672.157	9952.1
672.507	9881.36
672.856	9903.06
673.205	9879.33
673.554	9875.04
673.904	9879.33
674.253	9961.14
674.602	9848.82
674.951	9754.14
675.3	9693.8
675.649	9863.96
675.998	9819.9
676.346	9864.64
676.695	9857.86
677.044	9830.52
677.393	9863.29
677.741	9779.45
678.09	9747.36
678.438	9783.74
678.787	9748.71
679.135	9803.4
679.484	9672.78
679.832	9767.92
680.181	9712.56
680.529	9724.31
680.877	9714.14
681.225	9683.86
681.573	9695.83
681.922	9614.7
682.27	9660.81
682.618	9598.43
682.966	9567.02
683.314	9581.03
683.661	9626.23
684.009	9566.34
684.357	9574.71
684.705	9553.92
685.053	9578.1
685.4	9519.57
685.748	9440.7
686.095	9448.83
686.443	9425.33
686.79	9389.17
687.138	9451.32
687.485	9380.36
687.832	9427.59
688.18	9370.19
688.527	9305.56
688.874	9363.19
689.221	9298.78
689.568	9316.41
689.915	9311.44
690.262	9253.81
690.609	9241.61
690.956	9178.78
691.303	9196.86
691.65	9119.12
691.997	9134.72
692.344	9079.58
692.69	9039.8
693.037	9053.36
693.383	9027.83
693.73	9123.42
694.077	8993.48
694.423	9011.78
694.769	8959.13
695.116	8934.27
695.462	8951.67
695.808	8867.83
696.155	8932.46
696.501	8814.05
696.847	8814.27
697.193	8766.82
697.539	8778.34
697.885	8697.89
698.231	8657.67
698.577	8712.36
698.923	8689.98
699.269	8592.36
699.614	8650.89
699.96	8633.71
700.306	8513.04
700.651	8503.32
700.997	8525.24
701.342	8441.4
701.688	8479.14
702.033	8392.82
702.379	8370.22
702.724	8447.73
703.069	8468.52
703.415	8360.5
703.76	8326.6
704.105	8342.65
704.45	8314.17
704.795	8317.79
705.14	8303.55
705.485	8228.3
705.83	8264.01
706.175	8266.04
706.52	8176.78
706.865	8209.77
707.209	8182.43
707.554	8119.83
707.899	8155.99
708.243	8098.13
708.588	7997.12
708.932	8025.82
709.277	8101.75
709.621	8035.09
709.966	7992.83
710.31	8003.67
710.654	7923.22
710.998	7954.86
711.342	7955.09
711.687	7947.18
712.031	7896.11
712.375	7903.34
712.719	7892.49
713.063	7928.42
713.407	7858.82
713.75	7793.74
714.094	7776.11
714.438	7762.55
714.782	7794.19
715.125	7774.3
715.469	7809.55
715.812	7706.73
716.156	7717.13
716.499	7721.87
716.843	7664.02
717.186	7668.54
717.53	7706.96
717.873	7685.72
718.216	7665.15
718.559	7593.97
718.902	7551.26
719.246	7562.33
719.589	7596.23
719.932	7581.54
720.275	7573.63
720.617	7520.97
720.96	7514.2
721.303	7545.83
721.646	7451.15
721.989	7479.62
722.331	7512.16
722.674	7509.45
723.016	7410.02
723.359	7436.46
723.701	7464.03
724.044	7412.73
724.386	7359.17
724.729	7417.93
725.071	7328.66
725.413	7359.85
725.755	7285.05
726.097	7275.33
726.439	7301.77
726.782	7297.7
727.124	7329.12
727.465	7271.26
727.807	7205.73
728.149	7228.1
728.491	7243.69
728.833	7227.65
729.175	7125.96
729.516	7162.11
729.858	7111.49
730.199	7145.62
730.541	7157.82
730.882	7151.27
731.224	7216.35
731.565	7106.75
731.906	7094.09
732.248	7022.23
732.589	7094.09
732.93	7034.66
733.271	7038.05
733.612	7050.25
733.953	7007.99
734.294	7075.11
734.635	6988.33
734.976	6983.14
735.317	7011.16
735.658	6937.94
735.999	6969.35
736.339	6952.85
736.68	6917.83
737.021	6922.12
737.361	6937.71
737.702	6947.88
738.042	6886.41
738.383	6888
738.723	6869.24
739.063	6894.78
739.404	6842.12
739.744	6897.71
740.084	6791.73
740.424	6846.64
740.764	6864.49
741.104	6826.98
741.444	6853.2
741.784	6808.45
742.124	6785.85
742.464	6722.13
742.804	6807.77
743.143	6767.55
743.483	6795.12
743.823	6697.27
744.162	6738.62
744.502	6705.63
744.841	6709.7
745.181	6721
745.52	6660.66
745.86	6639.87
746.199	6680.09
746.538	6657.27
746.877	6627.44
747.216	6633.54
747.556	6595.58
747.895	6599.64
748.234	6592.19
748.573	6578.4
748.911	6549.25
749.25	6595.58
749.589	6577.5
749.928	6577.95
750.267	6561.9
750.605	6515.35
750.944	6471.51
751.283	6502.24
751.621	6470.83
751.96	6467.67
752.298	6459.31
752.636	6429.7
752.975	6406.43
753.313	6364.39
753.651	6395.13
753.989	6355.36
754.327	6373.43
754.666	6301.8
755.004	6296.6
755.342	6337.28
755.679	6291.18
756.017	6295.02
756.355	6262.25
756.693	6241.46
757.031	6267
757.368	6268.58
757.706	6239.65
758.044	6198.98
758.381	6243.27
758.719	6161.69
759.056	6170.5
759.394	6187.68
759.731	6126.89
760.068	6150.39
760.405	6078.75
760.743	6089.83
761.08	6077.4
761.417	6078.53
761.754	6004.4
762.091	5999.66
762.428	6022.93
762.765	5932.99
763.102	5996.49
763.438	5948.59
763.775	5961.02
764.112	5902.26
764.449	5866.55
764.785	5840.79
765.122	5888.7
765.458	5848.7
