Data from black_plastic_tray_FLMS001491_066.txt Node
Date: Tue Feb 07 10:40:22 GMT 2017
User: dcchb
Spectrometer: FLMS00149
Trigger mode: 0
Integration Time (sec): 2.000000E-2
Scans to average: 10
Electric dark correction enabled: true
Nonlinearity correction enabled: false
Boxcar width: 0
XAxis mode: Wavelengths
Number of Pixels in Spectrum: 2048
>>>>>Begin Spectral Data<<<<<
341.393	5.4
341.776	5.4
342.16	5.4
342.543	-51.33
342.927	-70.99
343.31	-69.4
343.693	-79.8
344.077	-60.14
344.46	-72.79
344.843	-39.58
345.226	-29.63
345.61	-40.03
345.993	-11.55
346.376	4.49
346.759	7.66
347.142	21.44
347.525	40.42
347.908	44.49
348.291	77.03
348.674	98.95
349.057	108.44
349.44	113.64
349.823	129.01
350.206	158.39
350.588	176.69
350.971	176.92
351.354	195.9
351.737	208.78
352.119	226.41
352.502	255.78
352.884	259.17
353.267	250.81
353.65	277.25
354.032	259.63
354.414	281.09
354.797	284.48
355.179	296.69
355.562	325.84
355.944	320.64
356.326	331.94
356.709	305.5
357.091	325.16
357.473	313.86
357.855	307.76
358.238	319.29
358.62	338.27
359.002	316.57
359.384	330.81
359.766	305.95
360.148	316.35
360.53	317.93
360.912	315.67
361.294	315.67
361.676	324.03
362.057	307.99
362.439	305.95
362.821	336.69
363.203	318.61
363.584	315.9
363.966	322.22
364.348	312.28
364.729	319.06
365.111	314.09
365.493	308.21
365.874	297.37
366.256	299.17
366.637	302.79
367.019	311.83
367.4	316.57
367.781	294.88
368.163	306.63
368.544	302.11
368.925	320.64
369.306	306.18
369.688	300.3
370.069	296.24
370.45	285.61
370.831	297.14
371.212	312.28
371.593	313.41
371.974	305.05
372.355	304.6
372.736	314.54
373.117	319.51
373.498	324.48
373.879	304.14
374.26	318.61
374.641	301.88
375.021	302.34
375.402	303.24
375.783	303.92
376.163	324.71
376.544	317.03
376.925	327.65
377.305	324.93
377.686	313.18
378.066	319.06
378.447	326.29
378.827	324.26
379.208	331.26
379.588	320.64
379.968	322.9
380.349	328.32
380.729	341.66
381.109	342.34
381.489	341.66
381.87	324.03
382.25	334.88
382.63	318.16
383.01	356.57
383.39	346.18
383.77	347.99
384.15	325.61
384.53	349.12
384.91	328.32
385.29	352.28
385.67	333.3
386.049	364.93
386.429	343.01
386.809	343.47
387.189	345.05
387.568	356.12
387.948	350.47
388.328	376.01
388.707	369
389.087	347.76
389.466	360.19
389.846	375.78
390.225	364.71
390.605	369.45
390.984	351.6
391.363	376.46
391.743	366.06
392.122	374.2
392.501	361.32
392.881	386.18
393.26	365.84
393.639	389.57
394.018	383.69
394.397	394.99
394.776	353.63
395.155	383.92
395.534	398.61
395.913	409.45
396.292	404.71
396.671	407.87
397.05	413.75
397.429	404.03
397.808	394.09
398.186	406.74
398.565	402
398.944	411.03
399.323	393.41
399.701	405.84
400.08	414.2
400.458	416.68
400.837	423.69
401.215	405.61
401.594	410.58
401.972	439.96
402.351	437.25
402.729	406.51
403.107	426.4
403.486	425.5
403.864	426.18
404.242	441.77
404.62	427.53
404.999	452.16
405.377	437.25
405.755	451.26
406.133	449.9
406.511	460.75
406.889	464.37
407.267	484.25
407.645	461.65
408.023	466.17
408.401	471.37
408.779	461.65
409.156	469.79
409.534	466.85
409.912	481.09
410.29	487.64
410.667	462.78
411.045	511.14
411.422	496.68
411.8	503.46
412.178	492.39
412.555	512.05
412.933	516.79
413.31	508.66
413.687	499.39
414.065	515.89
414.442	532.84
414.819	530.13
415.197	530.58
415.574	543.69
415.951	531.48
416.328	527.42
416.705	516.79
417.082	539.17
417.46	556.79
417.837	565.83
418.214	558.6
418.591	543.46
418.967	563.57
419.344	571.93
419.721	567.64
420.098	574.87
420.475	574.19
420.852	582.1
421.228	569.67
421.605	604.7
421.982	595.66
422.358	591.59
422.735	621.2
423.111	611.03
423.488	609.45
423.864	603.35
424.241	639.5
424.617	633.18
424.994	623.46
425.37	653.06
425.746	621.88
426.123	632.05
426.499	653.51
426.875	640.18
427.251	662.1
427.627	670.91
428.003	654.64
428.379	663.46
428.756	679.73
429.132	681.08
429.507	683.12
429.883	673.17
430.259	694.19
430.635	690.35
431.011	699.39
431.387	725.38
431.763	749.1
432.138	725.15
432.514	749.78
432.89	750.01
433.265	776.67
433.641	774.19
434.016	766.05
434.392	753.85
434.767	779.16
435.143	780.74
435.518	811.48
435.894	780.74
436.269	799.05
436.644	818.48
437.02	837.69
437.395	833.62
437.77	834.53
438.145	852.6
438.52	852.83
438.895	884.92
439.271	842.44
439.646	884.02
440.021	889.89
440.395	881.3
440.77	892.6
441.145	899.38
441.52	907.07
441.895	895.32
442.27	916.33
442.645	882.89
443.019	913.39
443.394	905.94
443.769	924.02
444.143	922.21
444.518	940.74
444.892	923.11
445.267	946.39
445.641	956.56
446.016	944.35
446.39	959.95
446.764	958.36
447.139	972.83
447.513	981.41
447.887	978.03
448.262	1003.79
448.636	973.51
449.01	997.91
449.384	993.84
449.758	1011.02
450.132	1021.87
450.506	1039.72
450.88	1067.29
451.254	1053.5
451.628	1029.1
452.002	1055.76
452.376	1059.15
452.75	1074.75
453.123	1066.16
453.497	1093.05
453.871	1090.11
454.244	1088.76
454.618	1120.85
454.992	1133.05
455.365	1138.47
455.739	1159.04
456.112	1164.01
456.486	1154.07
456.859	1180.28
457.232	1207.62
457.606	1223.89
457.979	1241.52
458.352	1257.34
458.725	1280.62
459.099	1252.14
459.472	1292.14
459.845	1299.15
460.218	1303.21
460.591	1305.02
460.964	1340.05
461.337	1362.2
461.71	1376.66
462.083	1394.74
462.456	1397.9
462.829	1347.51
463.201	1446.26
463.574	1398.35
463.947	1463.21
464.32	1465.47
464.692	1493.94
465.065	1473.83
465.438	1470.44
465.81	1523.32
466.183	1506.15
466.555	1570.1
466.928	1563.55
467.3	1564
467.672	1612.58
468.045	1638.8
468.417	1634.73
468.789	1643.09
469.161	1655.3
469.534	1672.47
469.906	1703.66
470.278	1690.77
470.65	1740.94
471.022	1770.55
471.394	1797.89
471.766	1794.73
472.138	1811.45
472.51	1863.2
472.882	1898.45
473.253	1897.55
473.625	1892.8
473.997	1942.52
474.369	1972.58
474.74	1996.98
475.112	2027.04
475.484	2031.1
475.855	2094.38
476.227	2090.09
476.598	2156.98
476.97	2149.29
477.341	2225.22
477.713	2269.97
478.084	2255.28
478.455	2297.09
478.827	2331.44
479.198	2420.25
479.569	2398.1
479.94	2430.64
480.311	2476.06
480.682	2504.09
481.053	2563.75
481.424	2588.15
481.795	2639.68
482.166	2647.36
482.537	2689.62
482.908	2744.53
483.279	2804.42
483.65	2790.18
484.021	2874.7
484.391	2863.85
484.762	2908.14
485.133	2939.78
485.503	2998.31
485.874	3075.6
486.244	3077.63
486.615	3140.68
486.985	3148.82
487.356	3221.58
487.726	3209.15
488.097	3277.4
488.467	3288.25
488.837	3406.66
489.207	3415.7
489.578	3417.73
489.948	3462.93
490.318	3511.29
490.688	3541.8
491.058	3576.37
491.428	3684.62
491.798	3685.98
492.168	3787.89
492.538	3774.11
492.908	3845.29
493.278	3853.43
493.648	3851.4
494.017	3883.49
494.387	3937.95
494.757	3968.23
495.126	3965.07
495.496	3993.31
495.866	4048
496.235	4090.03
496.605	4083.71
496.974	4130.94
497.344	4160.77
497.713	4170.94
498.082	4210.71
498.452	4259.97
498.821	4342.23
499.19	4337.94
499.559	4344.49
499.928	4377.26
500.298	4392.17
500.667	4434.66
501.036	4412.29
501.405	4488.44
501.774	4536.8
502.143	4548.78
502.512	4525.5
502.88	4583.13
503.249	4534.32
503.618	4635.1
503.987	4645.95
504.356	4707.42
504.724	4716.23
505.093	4684.82
505.462	4740.41
505.83	4802.11
506.199	4822.22
506.567	4876
506.936	4886.62
507.304	4932.5
507.672	4924.59
508.041	4976.79
508.409	5028.54
508.777	5053.62
509.145	5128.65
509.514	5128.42
509.882	5131.14
510.25	5178.59
510.618	5219.27
510.986	5221.76
511.354	5199.84
511.722	5324.35
512.09	5419.94
512.458	5417.23
512.826	5437.34
513.193	5476.89
513.561	5480.05
513.929	5556.89
514.297	5557.79
514.664	5608.41
515.032	5659.48
515.4	5701.52
515.767	5745.13
516.135	5734.74
516.502	5762.31
516.869	5809.76
517.237	5880.5
517.604	5849.31
517.972	5921.85
518.339	5948.97
518.706	5956.43
519.073	6072.81
519.44	6055.41
519.808	6103.99
520.175	6119.81
520.542	6197.32
520.909	6238.45
521.276	6233.48
521.643	6339.24
522.009	6405
522.376	6422.4
522.743	6484.77
523.11	6494.72
523.477	6592.34
523.843	6612.91
524.21	6715.05
524.577	6763.86
524.943	6741.04
525.31	6739
525.676	6847.48
526.043	6909.17
526.409	6936.96
526.776	6981.03
527.142	6995.95
527.508	7102.84
527.874	7097.86
528.241	7090.86
528.607	7201.59
528.973	7234.36
529.339	7265.09
529.705	7323.62
530.071	7399.78
530.437	7430.28
530.803	7440.23
531.169	7484.75
531.535	7522.49
531.901	7556.16
532.267	7619.88
532.632	7718.41
532.998	7686.32
533.364	7682.48
533.73	7717.28
534.095	7724.06
534.461	7776.49
534.826	7846.77
535.192	7897.62
535.557	7904.85
535.923	7897.39
536.288	8017.84
536.653	7998.63
537.019	7950.95
537.384	8037.5
537.749	8129.02
538.114	8096.03
538.479	8111.17
538.845	8216.25
539.21	8165.18
539.575	8245.18
539.94	8246.76
540.305	8229.81
540.67	8329.02
541.034	8296.7
541.399	8337.61
541.764	8429.81
542.129	8403.14
542.494	8386.19
542.858	8456.02
543.223	8448.11
543.587	8574.66
543.952	8539.41
544.316	8612.63
544.681	8643.13
545.045	8624.6
545.41	8658.05
545.774	8655.34
546.138	8748.22
546.503	8764.04
546.867	8783.47
547.231	8817.82
547.595	8855.56
547.959	8887.2
548.324	8847.2
548.688	8874.09
549.052	8939.62
549.416	8940.98
549.779	8990.92
550.143	9038.15
550.507	9080.18
550.871	9161.31
551.235	9171.03
551.599	9221.42
551.962	9165.15
552.326	9261.2
552.689	9396.11
553.053	9270.01
553.417	9354.53
553.78	9417.58
554.143	9424.13
554.507	9444.47
554.87	9497.8
555.234	9625.48
555.597	9585.93
555.96	9554.75
556.323	9651.7
556.686	9681.53
557.05	9715.42
557.413	9772.14
557.776	9835.87
558.139	9841.52
558.502	9870.45
558.865	9884.46
559.228	9921.97
559.59	10069.09
559.953	10084.45
560.316	10101.63
560.679	10149.99
561.041	10178.24
561.404	10203.32
561.767	10317.21
562.129	10274.05
562.492	10393.82
562.854	10389.08
563.217	10371
563.579	10478.34
563.941	10488.28
564.304	10548.85
564.666	10565.8
565.028	10516.98
565.39	10613.25
565.753	10671.56
566.115	10740.48
566.477	10778.67
566.839	10772.8
567.201	10803.76
567.563	10824.32
567.925	10852.79
568.287	10934.6
568.648	10900.02
569.01	10980.25
569.372	10998.1
569.734	10990.87
570.095	11121.94
570.457	11186.8
570.819	11218.66
571.18	11149.74
571.542	11245.33
571.903	11304.31
572.265	11254.14
572.626	11337.75
572.987	11336.4
573.349	11417.75
573.71	11437.41
574.071	11405.55
574.432	11490.29
574.794	11503.4
575.155	11617.29
575.516	11565.77
575.877	11529.16
576.238	11597.63
576.599	11606.67
576.96	11602.38
577.32	11612.1
577.681	11627.24
578.042	11767.57
578.403	11705.65
578.763	11737.52
579.124	11683.51
579.485	11773.45
579.845	11830.85
580.206	11732.54
580.566	11771.64
580.927	11802.6
581.287	11950.39
581.648	11772.54
582.008	11908.81
582.368	11891.41
582.728	11851.41
583.089	11775.26
583.449	11888.92
583.809	11951.3
584.169	11936.16
584.529	11918.98
584.889	11995.14
585.249	11916.95
585.609	11840.34
585.969	11937.96
586.329	11944.06
586.688	11955.82
587.048	12004.63
587.408	11884.41
587.768	11980.9
588.127	12004.4
588.487	11932.31
588.846	11975.93
589.206	11963.5
589.565	11923.27
589.925	11990.62
590.284	11857.51
590.643	12007.11
591.003	12033.33
591.362	12064.51
591.721	12041.24
592.08	12008.7
592.44	12086.21
592.799	12061.58
593.158	12058.19
593.517	12070.16
593.876	12111.97
594.235	12097.28
594.593	12108.81
594.952	12210.5
595.311	12074.23
595.67	12089.37
596.029	12153.1
596.387	12202.14
596.746	12222.48
597.104	12112.42
597.463	12093.67
597.822	12182.02
598.18	12115.13
598.538	12154.91
598.897	12116.49
599.255	12050.73
599.613	12295.47
599.972	12136.83
600.33	12201.23
600.688	12168.69
601.046	12231.29
601.404	12248.92
601.762	12219.54
602.12	12274.68
602.478	12278.74
602.836	12340.44
603.194	12255.47
603.552	12353.09
603.91	12302.02
604.268	12333.21
604.625	12337.95
604.983	12316.03
605.341	12191.29
605.698	12345.64
606.056	12324.17
606.413	12374.56
606.771	12356.71
607.128	12343.83
607.485	12351.29
607.843	12347.22
608.2	12377.95
608.557	12411.62
608.914	12412.75
609.272	12428.35
609.629	12404.84
609.986	12468.34
610.343	12401
610.7	12520.55
611.057	12480.32
611.414	12423.83
611.771	12534.78
612.127	12474.67
612.484	12497.04
612.841	12560.55
613.198	12452.98
613.554	12566.42
613.911	12578.62
614.267	12602.35
614.624	12567.55
614.98	12512.41
615.337	12579.3
615.693	12636.02
616.05	12594.22
616.406	12729.81
616.762	12603.48
617.118	12547.66
617.475	12641.45
617.831	12650.03
618.187	12715.8
618.543	12611.17
618.899	12697.72
619.255	12730.26
619.611	12782.69
619.967	12728.45
620.323	12720.54
620.678	12640.09
621.034	12720.99
621.39	12670.6
621.746	12632.86
622.101	12887.99
622.457	12717.15
622.812	12770.03
623.168	12812.74
623.523	12754.21
623.879	12785.17
624.234	12814.55
624.589	12731.84
624.945	12755.79
625.3	12830.59
625.655	12762.57
626.01	12783.82
626.365	12726.42
626.72	12696.36
627.075	12749.47
627.43	12714.44
627.785	12715.12
628.14	12713.08
628.495	12713.08
628.85	12772.29
629.205	12590.15
629.559	12758.51
629.914	12699.07
630.269	12688.9
630.623	12603.71
630.978	12620.43
631.332	12652.29
631.687	12666.53
632.041	12629.7
632.396	12610.49
632.75	12596.7
633.104	12621.79
633.459	12499.53
633.813	12489.13
634.167	12571.17
634.521	12477.16
634.875	12522.58
635.229	12486.65
635.583	12395.8
635.937	12443.26
636.291	12344.05
636.645	12375.92
636.999	12331.85
637.352	12346.54
637.706	12345.41
638.06	12426.09
638.413	12340.66
638.767	12355.35
639.121	12325.98
639.474	12279.87
639.828	12234.45
640.181	12257.5
640.534	12212.76
640.888	12253.89
641.241	12199.65
641.594	12194.91
641.947	12199.88
642.301	12215.02
642.654	12191.74
643.007	12161.01
643.36	12144.74
643.713	12171.63
644.066	12135.02
644.419	12054.8
644.771	12028.81
645.124	11869.26
645.477	11844.86
645.83	11804.18
646.182	11750.17
646.535	11635.37
646.888	11666.78
647.24	11608.93
647.593	11674.92
647.945	11637.86
648.298	11647.8
648.65	11618.65
649.002	11518.31
649.355	11531.65
649.707	11625.65
650.059	11562.61
650.411	11741.58
650.763	11789.94
651.115	11952.43
651.467	11814.12
651.819	11859.77
652.171	11841.47
652.523	11795.82
652.875	11815.71
653.227	11720.57
653.578	11778.19
653.93	11772.54
654.282	11735.48
654.633	11714.92
654.985	11662.26
655.337	11685.77
655.688	11683.28
656.039	11713.11
656.391	11655.94
656.742	11557.41
657.094	11674.69
657.445	11712.88
657.796	11674.24
658.147	11633.34
658.498	11652.32
658.849	11705.2
659.2	11618.42
659.551	11642.38
659.902	11596.28
660.253	11555.6
660.604	11605.77
660.955	11638.31
661.306	11569.84
661.656	11511.31
662.007	11564.87
662.358	11576.62
662.708	11524.64
663.059	11451.42
663.409	11450.52
663.76	11515.38
664.11	11554.92
664.461	11541.59
664.811	11555.37
665.161	11544.98
665.511	11464.3
665.862	11434.93
666.212	11524.19
666.562	11506.34
666.912	11429.28
667.262	11507.01
667.612	11403.97
667.962	11418.88
668.312	11429.28
668.662	11417.52
669.011	11387.47
669.361	11345.21
669.711	11348.15
670.06	11323.97
670.41	11252.33
670.76	11228.15
671.109	11343.85
671.459	11288.94
671.808	11243.97
672.157	11238.77
672.507	11181.37
672.856	11201.94
673.205	11245.78
673.554	11237.87
673.904	11228.15
674.253	11224.08
674.602	11182.73
674.951	11047.36
675.3	11004.2
675.649	11123.75
675.998	11202.39
676.346	11226.34
676.695	11258.66
677.044	11144.54
677.393	11251.88
677.741	11151.99
678.09	11118.1
678.438	11060.7
678.787	11100.7
679.135	11066.35
679.484	11003.07
679.832	11089.62
680.181	11064.09
680.529	11069.06
680.877	11058.89
681.225	11019.79
681.573	11041.94
681.922	10948.84
682.27	10856.18
682.618	10975.05
682.966	10888.05
683.314	10992
683.661	10897.31
684.009	10866.35
684.357	10867.26
684.705	10800.59
685.053	10846.01
685.4	10757.2
685.748	10760.14
686.095	10805.11
686.443	10767.82
686.79	10682.4
687.138	10727.15
687.485	10713.14
687.832	10658.22
688.18	10653.25
688.527	10537.1
688.874	10599.02
689.221	10603.53
689.568	10575.74
689.915	10600.37
690.262	10561.5
690.609	10574.38
690.956	10425.69
691.303	10420.04
691.65	10438.57
691.997	10353.6
692.344	10324.22
692.69	10275.41
693.037	10334.39
693.383	10239.93
693.73	10287.38
694.077	10271.11
694.423	10214.84
694.769	10200.16
695.116	10244.67
695.462	10196.54
695.808	10138.24
696.155	10159.93
696.501	10055.3
696.847	10109.54
697.193	10028.41
697.539	10076.99
697.885	9944.57
698.231	9923.33
698.577	9943.89
698.923	9896.66
699.269	9801.97
699.614	9834.97
699.96	9814.4
700.306	9837.91
700.651	9712.94
700.997	9727.4
701.342	9729.66
701.688	9698.25
702.033	9626.61
702.379	9623.22
702.724	9707.51
703.069	9665.03
703.415	9585.26
703.76	9580.51
704.105	9503.68
704.45	9541.64
704.795	9493.06
705.14	9480.4
705.485	9375.54
705.83	9391.14
706.175	9380.74
706.52	9372.38
706.865	9373.51
707.209	9374.19
707.554	9267.52
707.899	9318.82
708.243	9211.48
708.588	9313.4
708.932	9249.67
709.277	9203.12
709.621	9187.53
709.966	9133.06
710.31	9181.43
710.654	9041.54
710.998	9086.29
711.342	9131.03
711.687	9009.9
712.031	9006.06
712.375	8940.08
712.719	8956.35
713.063	8989.79
713.407	8924.26
713.75	8911.6
714.094	8834.99
714.438	8842.68
714.782	8856.01
715.125	8838.16
715.469	8792.51
715.812	8783.02
716.156	8750.7
716.499	8806.97
716.843	8735.34
717.186	8702.79
717.53	8692.62
717.873	8679.52
718.216	8660.99
718.559	8707.77
718.902	8606.53
719.246	8689.01
719.589	8635
719.932	8606.07
720.275	8512.52
720.617	8542.57
720.96	8533.53
721.303	8492.86
721.646	8547.77
721.989	8486.75
722.331	8484.72
722.674	8517.26
723.016	8402.01
723.359	8390.49
723.701	8416.7
724.044	8368.11
724.386	8326.31
724.729	8319.3
725.071	8285.4
725.413	8311.84
725.755	8293.76
726.097	8214.67
726.439	8204.73
726.782	8247.44
727.124	8283.6
727.465	8204.5
727.807	8192.07
728.149	8206.99
728.491	8173.54
728.833	8105.75
729.175	8124.28
729.516	8156.37
729.858	8106.43
730.199	8141
730.541	8124.73
730.882	8126.54
731.224	8086.31
731.565	8074.79
731.906	8100.55
732.248	8087.22
732.589	7996.15
732.93	8048.12
733.271	8037.5
733.612	8020.33
733.953	8004.73
734.294	7936.71
734.635	7992.3
734.976	7957.5
735.317	7932.19
735.658	7959.31
735.999	7909.14
736.339	7898.97
736.68	7944.62
737.021	7873.21
737.361	7834.57
737.702	7884.51
738.042	7860.56
738.383	7846.32
738.723	7864.62
739.063	7802.93
739.404	7810.61
739.744	7734.91
740.084	7755.7
740.424	7788.69
740.764	7756.6
741.104	7788.47
741.444	7758.86
741.784	7718.19
742.124	7702.82
742.464	7691.75
742.804	7705.98
743.143	7742.14
743.483	7723.61
743.823	7675.93
744.162	7653.33
744.502	7659.21
744.841	7663.27
745.181	7702.37
745.52	7638.64
745.86	7573.11
746.199	7649.94
746.538	7557.97
746.877	7613.33
747.216	7609.26
747.556	7534.01
747.895	7488.81
748.234	7569.49
748.573	7548.47
748.911	7583.95
749.25	7574.46
749.589	7448.59
749.928	7474.8
750.267	7483.16
750.605	7402.26
750.944	7437.29
751.283	7364.98
751.621	7396.16
751.96	7395.71
752.298	7348.48
752.636	7334.24
752.975	7289.5
753.313	7295.37
753.651	7329.04
753.989	7329.27
754.327	7196.17
754.666	7220.12
755.004	7215.15
755.342	7237.52
755.679	7184.87
756.017	7216.05
756.355	7218.99
756.693	7083.63
757.031	7107.13
757.368	7117.3
757.706	7098.54
758.044	7038.2
758.381	7070.97
758.719	7069.39
759.056	7006.12
759.394	7019.9
759.731	7033.23
760.068	6991.43
760.405	6944.42
760.743	6908.94
761.08	6923.86
761.417	6845.89
761.754	6854.71
762.091	6857.64
762.428	6843.41
762.765	6755.27
763.102	6835.5
