Data from black_plastic_tray_FLMS001491_025.txt Node
Date: Tue Feb 07 10:39:31 GMT 2017
User: dcchb
Spectrometer: FLMS00149
Trigger mode: 0
Integration Time (sec): 2.000000E-2
Scans to average: 10
Electric dark correction enabled: true
Nonlinearity correction enabled: false
Boxcar width: 0
XAxis mode: Wavelengths
Number of Pixels in Spectrum: 2048
>>>>>Begin Spectral Data<<<<<
341.393	-28.36
341.776	-28.36
342.16	-28.36
342.543	-64.74
342.927	-57.29
343.31	-78.3
343.693	-84.63
344.077	-59.32
344.46	-67.23
344.843	-49.38
345.226	-31.52
345.61	-15.71
345.993	-20.45
346.376	2.15
346.759	16.38
347.142	26.33
347.525	42.6
347.908	50.73
348.291	80.34
348.674	74.69
349.057	113.33
349.44	112.88
349.823	130.05
350.206	157.4
350.588	173.22
350.971	204.18
351.354	216.15
351.737	222.03
352.119	236.94
352.502	267
352.884	260.67
353.267	258.64
353.65	282.37
354.032	280.33
354.414	288.92
354.797	294.12
355.179	298.41
355.562	290.95
355.944	293.21
356.326	312.42
356.709	315.36
357.091	317.39
357.473	330.73
357.855	341.35
358.238	331.18
358.62	328.47
359.002	337.05
359.384	329.6
359.766	324.17
360.148	333.21
360.53	332.08
360.912	321.69
361.294	315.36
361.676	325.98
362.057	313.78
362.439	321.69
362.821	313.33
363.203	322.82
363.584	337.73
363.966	330.27
364.348	314.23
364.729	318.3
365.111	319.65
365.493	328.47
365.874	309.03
366.256	304.06
366.637	332.08
367.019	312.42
367.4	301.8
367.781	309.94
368.163	297.73
368.544	317.62
368.925	305.87
369.306	299.99
369.688	321.69
370.069	296.83
370.45	288.69
370.831	311.07
371.212	319.65
371.593	305.19
371.974	281.46
372.355	321.23
372.736	310.61
373.117	311.52
373.498	305.87
373.879	302.7
374.26	301.35
374.641	312.2
375.021	307
375.402	312.65
375.783	307
376.163	323.27
376.544	343.38
376.925	321.91
377.305	331.4
377.686	327.79
378.066	298.86
378.447	352.65
378.827	320.56
379.208	332.53
379.588	334.34
379.968	338.86
380.349	328.92
380.729	344.28
381.109	328.69
381.489	345.64
381.87	346.77
382.25	340.22
382.63	357.39
383.01	333.66
383.39	338.86
383.77	356.26
384.15	349.26
384.53	365.75
384.91	368.46
385.29	353.55
385.67	342.25
386.049	373.66
386.429	368.92
386.809	363.95
387.189	364.4
387.568	355.58
387.948	343.83
388.328	380.44
388.707	382.48
389.087	376.15
389.466	360.1
389.846	341.8
390.225	358.75
390.605	384.96
390.984	388.35
391.363	382.93
391.743	388.8
392.122	395.81
392.501	403.49
392.881	410.72
393.26	379.76
393.639	402.59
394.018	397.84
394.397	408.46
394.776	428.12
395.155	406.88
395.534	409.82
395.913	397.62
396.292	409.37
396.671	410.72
397.05	410.27
397.429	417.05
397.808	426.77
398.186	430.84
398.565	407.11
398.944	398.75
399.323	435.81
399.701	450.04
400.08	427.9
400.458	440.1
400.837	424.28
401.215	426.54
401.594	458.18
401.972	463.83
402.351	446.43
402.729	446.43
403.107	452.76
403.486	470.61
403.864	443.04
404.242	464.51
404.62	452.3
404.999	455.24
405.377	469.25
405.755	461.12
406.133	463.6
406.511	482.13
406.889	496.82
407.267	501.34
407.645	501.34
408.023	513.55
408.401	499.31
408.779	502.02
409.156	490.95
409.534	504.51
409.912	537.5
410.29	518.74
410.667	516.71
411.045	540.21
411.422	549.03
411.8	547.67
412.178	530.95
412.555	544.73
412.933	558.52
413.31	574.11
413.687	561.23
414.065	554.9
414.442	553.54
414.819	582.92
415.197	570.95
415.574	580.66
415.951	592.87
416.328	605.29
416.705	599.65
417.082	595.13
417.46	593.54
417.837	607.33
418.214	620.89
418.591	619.98
418.967	613.43
419.344	620.21
419.721	609.81
420.098	651.17
420.475	633.09
420.852	625.86
421.228	641
421.605	616.82
421.982	659.3
422.358	664.05
422.735	671.51
423.111	674.9
423.488	666.54
423.864	683.48
424.241	667.67
424.617	678.97
424.994	692.07
425.37	688.91
425.746	702.47
426.123	723.26
426.499	713.31
426.875	718.06
427.251	719.42
427.627	725.29
428.003	731.17
428.379	729.81
428.756	760.54
429.132	771.39
429.507	753.31
429.883	777.49
430.259	810.49
430.635	791.05
431.011	797.83
431.387	808.45
431.763	829.24
432.138	831.96
432.514	842.58
432.89	821.56
433.265	833.99
433.641	867.89
434.016	844.38
434.392	870.15
434.767	877.83
435.143	875.8
435.518	892.52
435.894	897.04
436.269	913.54
436.644	893.65
437.02	914.44
437.395	911.28
437.77	961.44
438.145	940.43
438.52	968
438.895	950.82
439.271	975.91
439.646	959.41
440.021	995.12
440.395	987.88
440.77	969.81
441.145	1002.12
441.52	1020.88
441.895	1006.64
442.27	1040.31
442.645	1017.04
443.019	1042.35
443.394	1029.92
443.769	1067.43
444.143	1045.74
444.518	1037.6
444.892	1066.98
445.267	1059.75
445.641	1064.94
446.016	1092.51
446.39	1071.05
446.764	1068.33
447.139	1094.1
447.513	1100.42
447.887	1143.13
448.262	1125.96
448.636	1127.09
449.01	1130.48
449.384	1121.67
449.758	1148.11
450.132	1142.91
450.506	1149.69
450.88	1183.58
451.254	1163.02
451.628	1175.22
452.002	1175.45
452.376	1233.3
452.75	1247.54
453.123	1217.26
453.497	1239.4
453.871	1263.58
454.244	1277.14
454.618	1279.18
454.992	1282.57
455.365	1288.89
455.739	1328.44
456.112	1312.85
456.486	1362.56
456.859	1348.33
457.232	1393.52
457.606	1379.29
457.979	1400.53
458.352	1412.28
458.725	1440.08
459.099	1424.03
459.472	1450.24
459.845	1471.03
460.218	1491.15
460.591	1507.19
460.964	1513.29
461.337	1533.86
461.71	1559.17
462.083	1578.15
462.456	1579.51
462.829	1578.38
463.201	1642.56
463.574	1633.52
463.947	1657.92
464.32	1670.13
464.692	1675.55
465.065	1675.55
465.438	1726.4
465.81	1748.32
466.183	1734.08
466.555	1800.97
466.928	1805.04
467.3	1823.34
467.672	1789.9
468.045	1844.36
468.417	1840.29
468.789	1900.63
469.161	1896.79
469.534	1949.21
469.906	1975.65
470.278	2011.13
470.65	2001.42
471.022	2017.46
471.394	2043.68
471.766	2104.69
472.138	2103.11
472.51	2142.43
472.882	2157.8
473.253	2207.06
473.625	2232.6
473.997	2295.65
474.369	2280.51
474.74	2291.58
475.112	2327.51
475.484	2397.56
475.855	2391.69
476.227	2412.7
476.598	2489.31
476.97	2489.09
477.341	2551.91
477.713	2576.32
478.084	2610.21
478.455	2682.53
478.827	2675.52
479.198	2793.03
479.569	2781.51
479.94	2868.96
480.311	2901.96
480.682	2918.68
481.053	2997.32
481.424	3028.73
481.795	3032.12
482.166	3112.8
482.537	3115.29
482.908	3212.46
483.279	3225.11
483.65	3280.48
484.021	3345.79
484.391	3362.96
484.762	3381.27
485.133	3436.18
485.503	3471.21
485.874	3532.45
486.244	3600.02
486.615	3666.01
486.985	3716.4
487.356	3739.45
487.726	3759.11
488.097	3830.52
488.467	3866.23
488.837	3921.59
489.207	3976.96
489.578	4018.31
489.948	4073.23
490.318	4087.46
490.688	4149.38
491.058	4178.08
491.428	4247.46
491.798	4312.99
492.168	4349.38
492.538	4345.31
492.908	4405.42
493.278	4508.47
493.648	4489.71
494.017	4537.62
494.387	4547.11
494.757	4646.32
495.126	4689.71
495.496	4687.22
495.866	4734.45
496.235	4775.35
496.605	4811.96
496.974	4842.25
497.344	4876.37
497.713	4895.13
498.082	4968.8
498.452	4976.93
498.821	5025.97
499.19	5016.03
499.559	5030.04
499.928	5145.29
500.298	5147.1
500.667	5204.72
501.036	5228.22
501.405	5267.32
501.774	5261.67
502.143	5322.68
502.512	5331.27
502.88	5413.53
503.249	5409.01
503.618	5447.2
503.987	5470.7
504.356	5565.84
504.724	5549.35
505.093	5592.06
505.462	5620.98
505.83	5635.67
506.199	5705.27
506.567	5793.63
506.936	5744.37
507.304	5823.46
507.672	5849.22
508.041	5896
508.409	5957.47
508.777	5957.7
509.145	6008.77
509.514	6027.98
509.882	6090.35
510.25	6080.41
510.618	6147.52
510.986	6143.23
511.354	6242.21
511.722	6278.14
512.09	6330.57
512.458	6296.44
512.826	6474.07
513.193	6429.1
513.561	6453.73
513.929	6559.49
514.297	6553.39
514.664	6586.15
515.032	6652.82
515.4	6707.96
515.767	6711.8
516.135	6811.46
516.502	6764.45
516.869	6863.66
517.237	6862.98
517.604	6847.39
517.972	6998.57
518.339	7010.32
518.706	7069.53
519.073	7064.33
519.44	7141.17
519.808	7215.74
520.175	7204.67
520.542	7283.99
520.909	7383.65
521.276	7356.3
521.643	7493.7
522.009	7453.48
522.376	7601.27
522.743	7605.79
523.11	7640.36
523.477	7758.1
523.843	7801.49
524.21	7874.26
524.577	7969.17
524.943	7969.17
525.31	7961.49
525.676	8073.35
526.043	8147.92
526.409	8149.96
526.776	8296.62
527.142	8305.66
527.508	8312.89
527.874	8385.2
528.241	8389.72
528.607	8460.46
528.973	8579.55
529.339	8560.57
529.705	8702.71
530.071	8748.13
530.437	8855.93
530.803	8846.89
531.169	8932.53
531.535	8881.24
531.901	8930.05
532.267	8955.13
532.632	9059.76
532.998	9076.94
533.364	9138.86
533.73	9180.21
534.095	9194.22
534.461	9232.86
534.826	9323.26
535.192	9299.3
535.557	9421.11
535.923	9389.24
536.288	9417.27
536.653	9478.51
537.019	9459.3
537.384	9510.37
537.749	9577.71
538.114	9618.39
538.479	9643.48
538.845	9742.23
539.21	9630.59
539.575	9738.16
539.94	9774.32
540.305	9783.81
540.67	9847.09
541.034	9805.5
541.399	9856.35
541.764	9856.8
542.129	9958.95
542.494	9942.45
542.858	10025.39
543.223	10029.45
543.587	10142.45
543.952	10083.01
544.316	10187.42
544.681	10130.02
545.045	10262.89
545.41	10264.7
545.774	10277.13
546.138	10252.95
546.503	10260.86
546.867	10349.67
547.231	10419.73
547.595	10513.06
547.959	10493.4
548.324	10511.48
548.688	10550.8
549.052	10584.24
549.416	10610.68
549.779	10606.16
550.143	10700.62
550.507	10725.48
550.871	10720.74
551.235	10723.9
551.599	10830.34
551.962	10813.16
552.326	10877.79
552.689	10943.33
553.053	10927.74
553.417	10958.47
553.78	11156.66
554.143	11084.57
554.507	11154.85
554.87	11178.35
555.234	11341.74
555.597	11297.44
555.96	11341.28
556.323	11326.37
556.686	11354.16
557.05	11419.02
557.413	11408.4
557.776	11492.01
558.139	11673.25
558.502	11555.06
558.865	11572.01
559.228	11642.97
559.59	11725.45
559.953	11792.57
560.316	11924.09
560.679	11927.03
561.041	11981.04
561.404	12014.94
561.767	12061.26
562.129	12077.54
562.492	12207.48
562.854	12203.63
563.217	12330.64
563.579	12337.19
563.941	12311.88
564.304	12393.01
564.666	12486.34
565.028	12493.34
565.39	12495.38
565.753	12564.3
566.115	12547.35
566.477	12621.93
566.839	12677.75
567.201	12843.62
567.563	12762.26
567.925	12885.65
568.287	12877.97
568.648	12924.52
569.01	12978.3
569.372	13054.23
569.734	13113.44
570.095	13069.37
570.457	13332.64
570.819	13273.44
571.18	13198.86
571.542	13311.85
571.903	13388.46
572.265	13423.04
572.626	13444.73
572.987	13416.03
573.349	13451.28
573.71	13551.62
574.071	13524.5
574.432	13560.43
574.794	13571.28
575.155	13604.95
575.516	13608.12
575.877	13628.23
576.238	13623.71
576.599	13781.45
576.96	13727.66
577.32	13687.44
577.681	13899.86
578.042	13884.72
578.403	13938.28
578.763	13952.74
579.124	14018.5
579.485	14012.4
579.845	13979.18
580.206	13903.02
580.566	13996.58
580.927	13998.84
581.287	13928.56
581.648	14010.82
582.008	13988.45
582.368	14017.15
582.728	14108.89
583.089	13988.9
583.449	14097.6
583.809	14090.59
584.169	14122
584.529	14118.39
584.889	14141.66
585.249	14088.33
585.609	14042.68
585.969	14104.37
586.329	14049.01
586.688	14197.25
587.048	14135.79
587.408	14049.01
587.768	14117.93
588.127	14093.98
588.487	14037.26
588.846	14143.24
589.206	14049.24
589.565	14006.3
589.925	14117.71
590.284	14021.89
590.643	14067.99
591.003	14091.04
591.362	14133.98
591.721	14155.45
592.08	14119.74
592.44	14266.86
592.799	14224.82
593.158	14178.5
593.517	14236.8
593.876	14221.43
594.235	14198.16
594.593	14226.18
594.952	14081.32
595.311	14138.95
595.67	14206.52
596.029	14297.82
596.387	14142.11
596.746	14280.42
597.104	14260.53
597.463	14237.7
597.822	14181.21
598.18	14098.5
598.538	14212.85
598.897	14246.07
599.255	14176.46
599.613	14425.72
599.972	14326.74
600.33	14331.04
600.688	14261.66
601.046	14314.76
601.404	14388.66
601.762	14368.32
602.12	14449.68
602.478	14414.42
602.836	14381.2
603.194	14226.18
603.552	14419.85
603.91	14269.12
604.268	14526.28
604.625	14364.26
604.983	14492.61
605.341	14351.15
605.698	14441.54
606.056	14414.88
606.413	14434.08
606.771	14449.68
607.128	14500.75
607.485	14383.92
607.843	14456.91
608.2	14539.39
608.557	14604.02
608.914	14597.02
609.272	14609.67
609.629	14650.12
609.986	14625.04
610.343	14481.09
610.7	14770.57
611.057	14631.82
611.414	14739.16
611.771	14682.66
612.127	14693.96
612.484	14673.17
612.841	14722.66
613.198	14759.72
613.554	14728.77
613.911	14820.51
614.267	14742.55
614.624	14829.55
614.98	14761.31
615.337	14825.03
615.693	14795.2
616.05	14852.83
616.406	14930.79
616.762	14815.99
617.118	14876.33
617.475	14856.67
617.831	14827.29
618.187	14923.79
618.543	14950
618.899	15015.31
619.255	14992.71
619.611	14997.91
619.967	14993.84
620.323	15137.79
620.678	14952.71
621.034	14907.97
621.39	14913.62
621.746	14913.39
622.101	15152.26
622.457	14937.12
622.812	14901.42
623.168	14945.93
623.523	15041.98
623.879	14994.75
624.234	14938.48
624.589	15069.55
624.945	15036.55
625.3	15045.59
625.655	15051.47
626.01	15001.75
626.365	15124.46
626.72	15070
627.075	14986.16
627.43	14959.72
627.785	14937.8
628.14	15050.11
628.495	15027.06
628.85	15005.37
629.205	14961.53
629.559	14999.94
629.914	14955.43
630.269	15006.27
630.623	14850.57
630.978	14789.55
631.332	15040.17
631.687	14908.87
632.041	14844.24
632.396	14881.53
632.75	14918.82
633.104	14886.95
633.459	14749.56
633.813	14744.13
634.167	14818.93
634.521	14734.19
634.875	14684.25
635.229	14700.07
635.583	14565.38
635.937	14622.33
636.291	14613.97
636.645	14575.32
636.999	14579.16
637.352	14506.4
637.706	14478.6
638.06	14568.32
638.413	14564.02
638.767	14496.45
639.121	14506.85
639.474	14431.37
639.828	14383.46
640.181	14509.11
640.534	14464.82
640.888	14375.1
641.241	14370.36
641.594	14374.2
641.947	14489.45
642.301	14388.89
642.654	14325.84
643.007	14354.54
643.36	14273.86
643.713	14300.3
644.066	14368.32
644.419	14245.61
644.771	14145.96
645.124	13984.83
645.477	13942.35
645.83	13875.91
646.182	13780.32
646.535	13819.64
646.888	13704.16
647.24	13714.33
647.593	13723.59
647.945	13612.41
648.298	13647.66
648.65	13621.22
649.002	13591.62
649.355	13665.97
649.707	13622.81
650.059	13738.51
650.411	13896.7
650.763	13962.91
651.115	14026.18
651.467	13962.46
651.819	13981.44
652.171	13938.96
652.523	13857.15
652.875	13815.57
653.227	13765.63
653.578	13901.44
653.93	13839.07
654.282	13771.28
654.633	13719.07
654.985	13777.83
655.337	13804.27
655.688	13697.83
656.039	13797.04
656.391	13704.84
656.742	13662.58
657.094	13712.07
657.445	13831.84
657.796	13806.3
658.147	13698.96
658.498	13751.84
658.849	13745.97
659.2	13718.85
659.551	13701
659.902	13757.94
660.253	13729.92
660.604	13647.66
660.955	13660.54
661.306	13635.46
661.656	13548.23
662.007	13599.98
662.358	13694.89
662.708	13591.85
663.059	13508.46
663.409	13527.44
663.76	13689.02
664.11	13605.63
664.461	13617.38
664.811	13588
665.161	13559.08
665.511	13568.12
665.862	13640.88
666.212	13635.91
666.562	13625.74
666.912	13609.25
667.262	13541.68
667.612	13572.41
667.962	13517.27
668.312	13446.54
668.662	13486.99
669.011	13474.56
669.361	13461
669.711	13454.67
670.06	13363.15
670.41	13368.12
670.76	13316.15
671.109	13417.84
671.459	13301.46
671.808	13298.75
672.157	13390.95
672.507	13255.13
672.856	13337.62
673.205	13230.05
673.554	13341.23
673.904	13292.87
674.253	13374
674.602	13286.09
674.951	13088.81
675.3	13093.1
675.649	13302.59
675.998	13320.67
676.346	13249.03
676.695	13275.92
677.044	13224.62
677.393	13285.41
677.741	13218.52
678.09	13170.61
678.438	13140.33
678.787	13193.44
679.135	13180.11
679.484	13042.71
679.832	13083.38
680.181	13077.06
680.529	13099.43
680.877	13014.46
681.225	13082.48
681.573	13087.68
681.922	12972.65
682.27	12938.53
682.618	13038.64
682.966	12950.05
683.314	12933.33
683.661	12994.57
684.009	12982.82
684.357	12803.84
684.705	12836.16
685.053	12875.93
685.4	12851.75
685.748	12776.5
686.095	12742.38
686.443	12569.05
686.79	12635.26
687.138	12687.24
687.485	12621.93
687.832	12623.96
688.18	12649.5
688.527	12478.2
688.874	12488.82
689.221	12538.09
689.568	12446.57
689.915	12446.57
690.262	12442.95
690.609	12372.67
690.956	12404.98
691.303	12330.86
691.65	12159.12
691.997	12272.11
692.344	12205.67
692.69	12213.8
693.037	12185.1
693.383	12118.66
693.73	12146.91
694.077	12100.36
694.423	12118.89
694.769	12038.21
695.116	11988.5
695.462	11986.69
695.808	11919.57
696.155	11973.58
696.501	11805
696.847	11826.92
697.193	11788.73
697.539	11812.01
697.885	11705.79
698.231	11640.26
698.577	11721.84
698.923	11647.72
699.269	11512.8
699.614	11471
699.96	11411.34
700.306	11478.68
700.651	11399.81
700.997	11427.84
701.342	11436.2
701.688	11323.43
702.033	11282.75
702.379	11316.65
702.724	11355.97
703.069	11313.49
703.415	11221.74
703.76	11174.96
704.105	11230.55
704.45	11133.83
704.795	11146.03
705.14	11097.45
705.485	11169.54
705.83	11061.74
706.175	10994.85
706.52	10964.12
706.865	11049.31
707.209	10990.11
707.554	10954.4
707.899	10886.83
708.243	10864.69
708.588	10843.9
708.932	10833.73
709.277	10865.82
709.621	10817
709.966	10772.94
710.31	10778.59
710.654	10671.02
710.998	10713.96
711.342	10710.11
711.687	10670.34
712.031	10596.67
712.375	10552.15
712.719	10520.29
713.063	10482.55
713.407	10548.76
713.75	10442.78
714.094	10449.78
714.438	10371.14
714.782	10442.1
715.125	10343.12
715.469	10347.19
715.812	10273.52
716.156	10232.84
716.499	10192.16
716.843	10315.55
717.186	10237.36
717.53	10258.15
717.873	10238.94
718.216	10257.92
718.559	10169.56
718.902	10189
719.246	10176.79
719.589	10119.39
719.932	10130.69
720.275	10203.23
720.617	10109.9
720.96	10104.03
721.303	10113.07
721.646	10068.77
721.989	9993.97
722.331	10090.92
722.674	9924.37
723.016	10002.56
723.359	9978.61
723.701	10062.22
724.044	9885.95
724.386	9866.07
724.729	9974.54
725.071	9899.06
725.413	9865.84
725.755	9825.62
726.097	9719.18
726.439	9722.12
726.782	9804.37
727.124	9806.41
727.465	9844.83
727.807	9703.13
728.149	9735.9
728.491	9735.45
728.833	9711.27
729.175	9737.71
729.516	9613.19
729.858	9601.22
730.199	9605.06
730.541	9642.35
730.882	9557.15
731.224	9568.22
731.565	9484.61
731.906	9502.69
732.248	9549.24
732.589	9504.04
732.93	9525.51
733.271	9459.98
733.612	9463.82
733.953	9482.8
734.294	9401.45
734.635	9377.95
734.976	9488.45
735.317	9368.91
735.658	9414.1
735.999	9394.67
736.339	9300.21
736.68	9297.95
737.021	9364.61
737.361	9307.66
737.702	9252.98
738.042	9181.11
738.383	9241.68
738.723	9281.45
739.063	9182.7
739.404	9263.82
739.744	9183.15
740.084	9099.53
740.424	9169.36
740.764	9111.96
741.104	9169.14
741.444	9122.81
741.784	9051.4
742.124	9097.73
742.464	9102.92
742.804	9084.17
743.143	9072.87
743.483	9022.02
743.823	9073.32
744.162	9050.27
744.502	9092.98
744.841	9027.9
745.181	9009.37
745.52	9081.91
745.86	9049.82
746.199	8954
746.538	8899.09
746.877	8935.92
747.216	8902.25
747.556	8833.33
747.895	8918.3
748.234	8827.68
748.573	8883.95
748.911	8870.39
749.25	8799.43
749.589	8787.23
749.928	8772.31
750.267	8767.11
750.605	8732.99
750.944	8773.22
751.283	8740.22
751.621	8687.34
751.96	8712.65
752.298	8698.42
752.636	8646.89
752.975	8669.04
753.313	8564.63
753.651	8683.05
753.989	8590.85
754.327	8604.63
754.666	8547.01
755.004	8521.24
755.342	8530.06
755.679	8495.26
756.017	8438.76
756.355	8432.43
756.693	8337.75
757.031	8415.26
757.368	8351.98
757.706	8355.83
758.044	8303.62
758.381	8319.44
758.719	8286.67
759.056	8281.48
759.394	8250.29
759.731	8227.92
760.068	8196.28
