Data from black_metal_pc_casing_FLMS001491_00100.txt Node
Date: Wed Feb 08 14:33:49 GMT 2017
User: dcchb
Spectrometer: FLMS00149
Trigger mode: 0
Integration Time (sec): 2.000000E-2
Scans to average: 10
Electric dark correction enabled: true
Nonlinearity correction enabled: false
Boxcar width: 0
XAxis mode: Wavelengths
Number of Pixels in Spectrum: 2048
>>>>>Begin Spectral Data<<<<<
341.393	-5.3
341.776	-5.3
342.16	-5.3
342.543	-76.03
342.927	-81.23
343.31	-73.09
343.693	-57.27
344.077	-55.24
344.46	-66.99
344.843	-58.63
345.226	-35.58
345.61	-25.86
345.993	-23.38
346.376	-15.01
346.759	25.66
347.142	35.83
347.525	40.35
347.908	62.27
348.291	86
348.674	77.87
349.057	83.06
349.44	149.05
349.823	133.46
350.206	170.97
350.588	193.57
350.971	199.67
351.354	203.96
351.737	219.78
352.119	255.71
352.502	265.2
352.884	279.67
353.267	264.53
353.65	286.9
354.032	277.18
354.414	297.97
354.797	303.17
355.179	316.05
355.562	328.25
355.944	305.88
356.326	312.44
356.709	321.02
357.091	343.62
357.473	330.51
357.855	339.33
358.238	318.31
358.62	328.93
359.002	322.6
359.384	335.71
359.766	349.5
360.148	327.35
360.53	339.55
360.912	309.95
361.294	329.84
361.676	333
362.057	331.87
362.439	337.52
362.821	330.06
363.203	324.19
363.584	349.5
363.966	327.8
364.348	310.63
364.729	315.6
365.111	316.5
365.493	330.29
365.874	321.02
366.256	309.5
366.637	290.74
367.019	313.11
367.4	316.95
367.781	307.24
368.163	320.8
368.544	318.08
368.925	344.75
369.306	335.26
369.688	306.33
370.069	308.59
370.45	340.68
370.831	311.53
371.212	335.71
371.593	309.72
371.974	329.84
372.355	346.33
372.736	312.89
373.117	305.2
373.498	331.42
373.879	305.43
374.26	311.98
374.641	321.25
375.021	328.03
375.402	312.21
375.783	328.93
376.163	329.38
376.544	345.88
376.925	331.19
377.305	328.25
377.686	334.13
378.066	343.17
378.447	341.36
378.827	332.77
379.208	325.77
379.588	347.69
379.968	362.38
380.349	350.63
380.729	349.27
381.109	336.39
381.489	355.6
381.87	340.01
382.25	363.28
382.63	347.69
383.01	364.64
383.39	386.11
383.77	373.22
384.15	356.28
384.53	376.61
384.91	355.6
385.29	372.09
385.67	384.98
386.049	387.46
386.429	393.11
386.809	362.6
387.189	392.89
387.568	381.81
387.948	396.5
388.328	384.07
388.707	396.95
389.087	376.39
389.466	396.73
389.846	361.25
390.225	373.22
390.605	398.53
390.984	397.18
391.363	397.63
391.743	400.79
392.122	397.18
392.501	398.99
392.881	415.48
393.26	411.42
393.639	434.01
394.018	432.88
394.397	434.69
394.776	415.71
395.155	422.49
395.534	420.91
395.913	434.92
396.292	415.94
396.671	443.28
397.05	436.05
397.429	449.15
397.808	448.02
398.186	448.02
398.565	426.33
398.944	443.05
399.323	456.84
399.701	442.15
400.08	463.84
400.458	447.12
400.837	460.68
401.215	460.45
401.594	472.66
401.972	465.88
402.351	478.53
402.729	481.24
403.107	464.97
403.486	473.34
403.864	488.93
404.242	494.8
404.62	493.9
404.999	499.77
405.377	516.95
405.755	488.93
406.133	494.35
406.511	497.06
406.889	518.31
407.267	516.72
407.645	510.17
408.023	500
408.401	544.75
408.779	539.1
409.156	551.98
409.534	534.12
409.912	531.41
410.29	538.19
410.667	562.37
411.045	572.32
411.422	575.03
411.8	551.75
412.178	561.02
412.555	586.78
412.933	572.99
413.31	594.01
413.687	608.02
414.065	613.44
414.442	603.5
414.819	612.54
415.197	622.48
415.574	618.64
415.951	599.43
416.328	619.55
416.705	632.43
417.082	636.49
417.46	656.38
417.837	629.04
418.214	655.48
418.591	667.91
418.967	664.29
419.344	668.36
419.721	665.65
420.098	665.19
420.475	659.54
420.852	669.49
421.228	662.71
421.605	692.54
421.982	688.47
422.358	688.24
422.735	695.7
423.111	720.56
423.488	725.08
423.864	714.91
424.241	748.13
424.617	738.41
424.994	712.65
425.37	720.56
425.746	742.03
426.123	724.4
426.499	754.46
426.875	753.78
427.251	761.69
427.627	796.72
428.003	794.23
428.379	799.2
428.756	785.87
429.132	801.69
429.507	812.54
429.883	835.81
430.259	852.08
430.635	835.59
431.011	832.65
431.387	850.73
431.763	879.43
432.138	881.23
432.514	893.66
432.89	902.48
433.265	889.6
433.641	908.58
434.016	919.88
434.392	928.46
434.767	948.35
435.143	918.97
435.518	961.23
435.894	958.52
436.269	974.34
436.644	994
437.02	988.12
437.395	998.29
437.77	984.73
438.145	1015.47
438.52	1001.46
438.895	1050.04
439.271	1049.14
439.646	1051.85
440.021	1050.04
440.395	1067.9
440.77	1051.85
441.145	1094.34
441.52	1084.17
441.895	1086.2
442.27	1100.44
442.645	1115.58
443.019	1144.05
443.394	1121
443.769	1118.97
444.143	1095.92
444.518	1142.02
444.892	1124.39
445.267	1155.12
445.641	1154.9
446.016	1158.29
446.39	1208
446.764	1169.81
447.139	1166.42
447.513	1177.72
447.887	1166.42
448.262	1197.38
448.636	1198.97
449.01	1245.74
449.384	1236.7
449.758	1242.13
450.132	1265.18
450.506	1286.19
450.88	1261.79
451.254	1276.93
451.628	1262.24
452.002	1290.71
452.376	1339.53
452.75	1293.88
453.123	1339.75
453.497	1351.5
453.871	1347.66
454.244	1382.24
454.618	1380.88
454.992	1401.22
455.365	1387.21
455.739	1438.28
456.112	1426.76
456.486	1451.61
456.859	1490.26
457.232	1495
457.606	1477.6
457.979	1500.43
458.352	1527.77
458.725	1536.58
459.099	1557.37
459.472	1602.34
459.845	1617.26
460.218	1596.92
460.591	1617.03
460.964	1632.17
461.337	1687.09
461.71	1693.87
462.083	1730.25
462.456	1728.9
462.829	1737.48
463.201	1772.96
463.574	1731.16
463.947	1765.5
464.32	1778.84
464.692	1838.5
465.065	1851.83
465.438	1886.63
465.81	1872.39
466.183	1873.3
466.555	1932.96
466.928	1928.89
467.3	1948.55
467.672	1962.11
468.045	2047.76
468.417	2022.9
468.789	2066.29
469.161	2063.8
469.534	2120.98
469.906	2120.75
470.278	2136.12
470.65	2182.44
471.022	2215.44
471.394	2230.35
471.766	2280.75
472.138	2287.52
472.51	2342.66
472.882	2361.87
473.253	2415.43
473.625	2441.42
473.997	2455.66
474.369	2522.32
474.74	2515.54
475.112	2566.39
475.484	2602.77
475.855	2659.27
476.227	2673.96
476.598	2716.67
476.97	2734.29
477.341	2825.59
477.713	2818.58
478.084	2810.67
478.455	2923.44
478.827	2967.28
479.198	3001.86
479.569	3024.91
479.94	3094.51
480.311	3124.79
480.682	3174.51
481.053	3261.28
481.424	3305.8
481.795	3345.8
482.166	3408.63
482.537	3409.53
482.908	3512.8
483.279	3517.32
483.65	3608.62
484.021	3628.51
484.391	3668.73
484.762	3721.61
485.133	3737.88
485.503	3800.03
485.874	3880.03
486.244	3919.57
486.615	3977.65
486.985	4031.21
487.356	4117.53
487.726	4134.03
488.097	4196.85
488.467	4213.35
488.837	4331.76
489.207	4334.48
489.578	4449.5
489.948	4441.59
490.318	4508.03
490.688	4549.84
491.058	4643.39
491.428	4638.88
491.798	4713
492.168	4797.29
492.538	4861.47
492.908	4873.67
493.278	4961.8
493.648	4956.61
494.017	4995.48
494.387	5079.32
494.757	5129.48
495.126	5158.64
495.496	5160.22
495.866	5206.32
496.235	5279.31
496.605	5293.55
496.974	5319.08
497.344	5353.43
497.713	5428.46
498.082	5492.41
498.452	5492.86
498.821	5557.95
499.19	5549.13
499.559	5633.65
499.928	5678.62
500.298	5654.89
500.667	5742.57
501.036	5727.66
501.405	5803.36
501.774	5841.56
502.143	5866.41
502.512	5908.67
502.88	5919.75
503.249	5971.95
503.618	6017.6
503.987	6051.49
504.356	6089.91
504.724	6118.84
505.093	6170.13
505.462	6184.82
505.83	6263.69
506.199	6337.81
506.567	6351.82
506.936	6351.82
507.304	6446.74
507.672	6468.43
508.041	6494.87
508.409	6572.16
508.777	6606.96
509.145	6657.81
509.514	6631.59
509.882	6721.31
510.25	6727.63
510.618	6810.8
510.986	6856.9
511.354	6934.41
511.722	6938.7
512.09	7017.57
512.458	6992.94
512.826	7062.09
513.193	7083.56
513.561	7183.67
513.929	7206.04
514.297	7281.29
514.664	7348.41
515.032	7320.61
515.4	7388.86
515.767	7432.7
516.135	7514.73
516.502	7487.16
516.869	7611
517.237	7616.42
517.604	7622.75
517.972	7751.34
518.339	7789.53
518.706	7849.19
519.073	7942.07
519.44	7988.39
519.808	8034.72
520.175	8023.64
520.542	8127.6
520.909	8207.82
521.276	8216.41
521.643	8344.77
522.009	8356.29
522.376	8399.23
522.743	8456.18
523.11	8481.03
523.477	8680.12
523.843	8660.46
524.21	8730.07
524.577	8861.59
524.943	8900.01
525.31	8974.81
525.676	9048.02
526.043	9047.8
526.409	9122.6
526.776	9237.85
527.142	9273.1
527.508	9349.03
527.874	9403.5
528.241	9391.74
528.607	9469.71
528.973	9539.76
529.339	9559.42
529.705	9658.86
530.071	9721.23
530.437	9774.11
530.803	9860.43
531.169	9850.72
531.535	9833.77
531.901	10012.07
532.267	10029.24
532.632	10049.35
532.998	10172.52
533.364	10139.75
533.73	10270.37
534.095	10294.55
534.461	10308.1
534.826	10387.2
535.192	10456.12
535.557	10528.21
535.923	10503.58
536.288	10516.23
536.653	10591.94
537.019	10665.84
537.384	10658.83
537.749	10719.17
538.114	10674.42
538.479	10760.52
538.845	10834.64
539.21	10863.8
539.575	10876.23
539.94	10968.2
540.305	10944.92
540.67	11014.07
541.034	11066.05
541.399	11071.7
541.764	11152.38
542.129	11102.21
542.494	11266.05
542.858	11197.35
543.223	11303.56
543.587	11340.85
543.952	11307.17
544.316	11298.36
544.681	11358.92
545.045	11469.2
545.41	11589.65
545.774	11508.3
546.138	11573.16
546.503	11640.5
546.867	11699.48
547.231	11723.66
547.595	11760.72
547.959	11811.12
548.324	11729.76
548.688	11886.82
549.052	11885.69
549.416	11867.61
549.779	11989.87
550.143	11996.2
550.507	12023.77
550.871	12080.94
551.235	12120.26
551.599	12223.31
551.962	12237.09
552.326	12273.48
552.689	12294.04
553.053	12295.62
553.417	12361.61
553.78	12482.28
554.143	12475.73
554.507	12562.73
554.87	12665.56
555.234	12763.18
555.597	12628.95
555.96	12739.23
556.323	12795.5
556.686	12824.2
557.05	12911.88
557.413	12954.81
557.776	13026.23
558.139	13102.38
558.502	13136.28
558.865	13114.58
559.228	13205.43
559.59	13292.66
559.953	13287.69
560.316	13404.97
560.679	13414.69
561.041	13496.95
561.404	13582.59
561.767	13634.8
562.129	13705.76
562.492	13801.35
562.854	13791.63
563.217	13842.02
563.579	13897.39
563.941	14047.67
564.304	14075.01
564.666	14154.33
565.028	14120.43
565.39	14196.59
565.753	14313.88
566.115	14312.29
566.477	14482.68
566.839	14392.29
567.201	14579.18
567.563	14497.83
567.925	14613.53
568.287	14646.3
568.648	14660.98
569.01	14741.89
569.372	14910.47
569.734	14836.35
570.095	14940.3
570.457	15018.94
570.819	14991.37
571.18	15028.21
571.542	15165.6
571.903	15186.39
572.265	15254.64
572.626	15249.67
572.987	15310.46
573.349	15337.12
573.71	15410.8
574.071	15363.11
574.432	15481.3
574.794	15602.2
575.155	15626.61
575.516	15497.35
575.877	15634.74
576.238	15688.53
576.599	15713.16
576.96	15681.07
577.32	15713.84
577.681	15719.94
578.042	15767.4
578.403	15856.43
578.763	15928.75
579.124	15938.47
579.485	15946.15
579.845	16006.71
580.206	15993.38
580.566	15978.92
580.927	15967.84
581.287	16092.13
581.648	15998.58
582.008	16119.7
582.368	16073.38
582.728	16198.35
583.089	16068.41
583.449	16102.98
583.809	16130.78
584.169	16176.42
584.529	16107.5
584.889	16214.62
585.249	16073.38
585.609	16095.52
585.969	16243.32
586.329	16099.36
586.688	16175.52
587.048	16188.85
587.408	16105.24
587.768	16031.57
588.127	16297.33
588.487	16136.88
588.846	16319.7
589.206	16040.16
589.565	16172.13
589.925	16299.81
590.284	16180.72
590.643	16223.88
591.003	16318.12
591.362	16226.82
591.721	16255.29
592.08	16303.88
592.44	16302.98
592.799	16316.76
593.158	16312.92
593.517	16269.3
593.876	16257.1
594.235	16246.71
594.593	16374.84
594.952	16361.96
595.311	16214.39
595.67	16345.69
596.029	16416.42
596.387	16391.56
596.746	16473.14
597.104	16289.42
597.463	16381.62
597.822	16411.9
598.18	16318.34
598.538	16343.88
598.897	16452.8
599.255	16513.14
599.613	16605.11
599.972	16412.58
600.33	16579.35
600.688	16455.74
601.046	16553.82
601.404	16605.57
601.762	16564.66
602.12	16593.36
602.478	16719.01
602.836	16646.02
603.194	16512.46
603.552	16615.51
603.91	16545
604.268	16754.49
604.625	16709.29
604.983	16593.14
605.341	16603.08
605.698	16743.87
606.056	16708.84
606.413	16733.47
606.771	16863.19
607.128	16738.67
607.485	16712
607.843	16800.59
608.2	16847.37
608.557	16920.13
608.914	16893.47
609.272	16943.41
609.629	16968.72
609.986	16962.17
610.343	16905.45
610.7	17035.61
611.057	16991.77
611.414	17041.03
611.771	17026.8
612.127	17096.85
612.484	17125.33
612.841	17083.29
613.198	17060.47
613.554	17071.99
613.911	17187.47
614.267	17245.1
614.624	17188.38
614.98	17174.36
615.337	17332.78
615.693	17238.77
616.05	17183.63
616.406	17310.18
616.762	17285.32
617.118	17217.98
617.475	17214.82
617.831	17325.32
618.187	17393.57
618.543	17365.09
618.899	17367.58
619.255	17415.26
619.611	17376.62
619.967	17512.66
620.323	17455.71
620.678	17337.98
621.034	17337.75
621.39	17336.62
621.746	17297.98
622.101	17586.33
622.457	17317.86
622.812	17468.59
623.168	17485.77
623.523	17513.56
623.879	17519.44
624.234	17431.08
624.589	17510.63
624.945	17503.4
625.3	17545.88
625.655	17498.65
626.01	17594.01
626.365	17528.03
626.72	17471.08
627.075	17493.9
627.43	17533
627.785	17370.97
628.14	17559.21
628.495	17618.87
628.85	17497.52
629.205	17426.34
629.559	17514.47
629.914	17368.71
630.269	17353.12
630.623	17368.03
630.978	17285.32
631.332	17436.05
631.687	17494.58
632.041	17321.25
632.396	17371.65
632.75	17236.96
633.104	17302.27
633.459	17264.53
633.813	17280.8
634.167	17283.97
634.521	17228.15
634.875	17315.6
635.229	17138.21
635.583	17106.34
635.937	17201.71
636.291	17168.04
636.645	17208.71
636.999	17123.74
637.352	17130.07
637.706	17059.11
638.06	17184.76
638.413	17032
638.767	17034.03
639.121	17010.53
639.474	16963.3
639.828	16879.46
640.181	16995.61
640.534	16925.33
640.888	16962.84
641.241	16910.87
641.594	16898.67
641.947	16844.2
642.301	16816.63
642.654	16848.5
643.007	16806.24
643.36	16754.71
643.713	16738.22
644.066	16847.14
644.419	16748.84
644.771	16609.18
645.124	16421.84
645.477	16380.71
645.83	16357.66
646.182	16269.08
646.535	16180.27
646.888	16221.85
647.24	16122.64
647.593	16245.58
647.945	16120.83
648.298	16054.39
648.65	16076.77
649.002	16055.98
649.355	16078.35
649.707	16064.11
650.059	16208.29
650.411	16355.86
650.763	16379.36
651.115	16532.57
651.467	16408.74
651.819	16383.2
652.171	16385.68
652.523	16251.23
652.875	16372.58
653.227	16192.02
653.578	16366.93
653.93	16355.86
654.282	16180.72
654.633	16191.11
654.985	16275.86
655.337	16312.69
655.688	16285.12
656.039	16249.64
656.391	16214.16
656.742	16141.4
657.094	16140.72
657.445	16177.78
657.796	16172.81
658.147	16119.48
658.498	16163.54
658.849	16225.01
659.2	16109.99
659.551	16028.86
659.902	16185.01
660.253	16162.64
660.604	16156.31
660.955	16007.16
661.306	16073.38
661.656	16061.63
662.007	16012.36
662.358	16037.67
662.708	15985.7
663.059	16016.43
663.409	15856.43
663.76	15976.2
664.11	15926.04
664.461	16007.84
664.811	15983.44
665.161	16031.57
665.511	15924.91
665.862	16011.91
666.212	15908.18
666.562	16032.47
666.912	15943.66
667.262	15951.35
667.612	15959.71
667.962	15871.57
668.312	15946.37
668.662	15952.02
669.011	15942.98
669.361	15805.59
669.711	15795.64
670.06	15838.81
670.41	15893.04
670.76	15822.08
671.109	15880.39
671.459	15843.33
671.808	15812.14
672.157	15812.59
672.507	15716.78
672.856	15716.1
673.205	15743.67
673.554	15884
673.904	15771.01
674.253	15855.98
674.602	15701.86
674.951	15609.43
675.3	15503
675.649	15630.68
675.998	15685.59
676.346	15743.44
676.695	15725.36
677.044	15545.71
677.393	15591.58
677.741	15695.31
678.09	15521.3
678.438	15513.17
678.787	15551.36
679.135	15594.75
679.484	15423.9
679.832	15541.41
680.181	15363.79
680.529	15414.19
680.877	15276.79
681.225	15394.07
681.573	15512.26
681.922	15372.6
682.27	15326.28
682.618	15237.47
682.966	15324.92
683.314	15333.74
683.661	15185.94
684.009	15186.17
684.357	15207.64
684.705	15135.77
685.053	15143.68
685.4	15091.48
685.748	15035.66
686.095	15019.17
686.443	15039.05
686.79	14962.22
687.138	15038.6
687.485	14999.51
687.832	14897.36
688.18	14904.82
688.527	14832.96
688.874	14906.4
689.221	14852.62
689.568	14810.59
689.915	14741.89
690.262	14654.66
690.609	14650.82
690.956	14608.78
691.303	14605.84
691.65	14566.07
691.997	14469.8
692.344	14467.54
692.69	14428.22
693.037	14450.37
693.383	14337.15
693.73	14419.41
694.077	14305.74
694.423	14334.44
694.769	14164.73
695.116	14238.17
695.462	14195.23
695.808	14097.38
696.155	14244.5
696.501	14011.96
696.847	14003.6
697.193	13916.37
697.539	13945.98
697.885	13872.76
698.231	13839.54
698.577	13772.65
698.923	13821.23
699.269	13728.35
699.614	13774
699.96	13693.33
700.306	13725.42
700.651	13661.69
700.997	13637.96
701.342	13541.69
701.688	13487.23
702.033	13549.15
702.379	13519.09
702.724	13457.63
703.069	13489.04
703.415	13335.82
703.76	13326.33
704.105	13312.55
704.45	13192.77
704.795	13199.33
705.14	13211.53
705.485	13221.7
705.83	13176.73
706.175	13188.71
706.52	13110.74
706.865	13080.91
707.209	12984.64
707.554	12939
707.899	13107.35
708.243	13005.66
708.588	12874.14
708.932	12823.07
709.277	12899.67
709.621	12843.41
709.966	12788.49
710.31	12765.22
710.654	12632.56
710.998	12710.08
711.342	12720.02
711.687	12694.71
712.031	12626.91
712.375	12496.07
712.719	12646.8
713.063	12581.49
713.407	12623.07
713.75	12550.98
714.094	12487.71
714.438	12501.04
714.782	12386.02
715.125	12422.85
715.469	12411.33
715.812	12397.32
716.156	12310.09
716.499	12294.49
716.843	12312.35
717.186	12240.26
717.53	12284.32
717.873	12241.39
718.216	12201.61
718.559	12226.47
718.902	12073.03
719.246	12165
719.589	12063.09
719.932	11978.8
720.275	12101.5
720.617	11971.56
720.96	11966.82
721.303	11998.46
721.646	12018.12
721.989	11867.39
722.331	12025.57
722.674	11976.08
723.016	11872.58
723.359	11899.48
723.701	11923.2
724.044	11784.9
724.386	11756.65
724.729	11812.92
725.071	11825.13
725.413	11760.72
725.755	11778.12
726.097	11671.23
726.439	11666.94
726.782	11688.41
727.124	11732.02
727.465	11700.38
727.807	11535.87
728.149	11560.28
728.491	11568.41
728.833	11597.11
729.175	11548.75
729.516	11503.1
729.858	11521.63
730.199	11501.75
730.541	11471.24
730.882	11498.58
731.224	11487.28
731.565	11399.15
731.906	11456.55
732.248	11359.83
732.589	11357.57
732.93	11278.93
733.271	11420.39
733.612	11337.91
733.953	11382.2
734.294	11337.46
734.635	11315.31
734.976	11307.85
735.317	11240.74
735.658	11157.8
735.999	11210.23
736.339	11119.61
736.68	11287.29
737.021	11242.09
737.361	11169.55
737.702	11115.32
738.042	11182.43
738.383	11074.64
738.723	11105.37
739.063	11064.92
739.404	11135.2
739.744	11078.71
740.084	11045.26
740.424	11044.81
740.764	11018.59
741.104	11024.7
741.444	11003.91
741.784	10894.53
742.124	10946.73
742.464	10972.72
742.804	10903.8
743.143	10906.28
743.483	10896.56
743.823	10867.19
744.162	10817.24
744.502	10841.2
744.841	10784.25
745.181	10851.14
745.52	10810.69
745.86	10765.04
746.199	10744.25
746.538	10775.44
746.877	10657.47
747.216	10696.34
747.556	10624.71
747.895	10682.33
748.234	10611.83
748.573	10620.19
748.911	10617.48
749.25	10593.52
749.589	10563.24
749.928	10516.01
750.267	10572.73
750.605	10548.78
750.944	10465.61
751.283	10514.65
751.621	10491.6
751.96	10315.56
752.298	10263.13
752.636	10358.72
752.975	10261.78
753.313	10295.68
753.651	10392.85
753.989	10298.16
754.327	10299.07
754.666	10238.5
755.004	10212.06
755.342	10165.74
755.679	10152.18
756.017	10172.06
756.355	10163.25
756.693	10090.48
757.031	10135.45
757.368	9998.73
757.706	10063.14
