Data from black_metal_pc_casing_FLMS001491_00066.txt Node
Date: Wed Feb 08 14:33:18 GMT 2017
User: dcchb
Spectrometer: FLMS00149
Trigger mode: 0
Integration Time (sec): 2.000000E-2
Scans to average: 10
Electric dark correction enabled: true
Nonlinearity correction enabled: false
Boxcar width: 0
XAxis mode: Wavelengths
Number of Pixels in Spectrum: 2048
>>>>>Begin Spectral Data<<<<<
341.393	0.23
341.776	0.23
342.16	0.23
342.543	-55.37
342.927	-69.38
343.31	-77.96
343.693	-59.21
344.077	-63.95
344.46	-59.21
344.843	-42.94
345.226	-41.81
345.61	-46.33
345.993	4.75
346.376	-13.11
346.759	24.41
347.142	42.71
347.525	42.48
347.908	36.84
348.291	77.06
348.674	82.94
349.057	93.33
349.44	126.55
349.823	128.13
350.206	140.34
350.588	182.82
350.971	207
351.354	218.53
351.737	236.6
352.119	199.09
352.502	247.23
352.884	265.98
353.267	259.88
353.65	290.16
354.032	287.68
354.414	304.85
354.797	299.43
355.179	298.98
355.562	314.12
355.944	302.36
356.326	309.82
356.709	325.87
357.091	327
357.473	327.68
357.855	318.41
358.238	336.71
358.62	334
359.002	322.93
359.384	334.68
359.766	310.5
360.148	316.38
360.53	301.24
360.912	310.73
361.294	310.5
361.676	316.6
362.057	334.91
362.439	313.66
362.821	312.53
363.203	311.63
363.584	305.53
363.966	322.48
364.348	308.47
364.729	332.65
365.111	288.35
365.493	310.27
365.874	306.21
366.256	324.74
366.637	291.29
367.019	299.2
367.4	299.2
367.781	288.13
368.163	309.14
368.544	290.39
368.925	294.68
369.306	284.06
369.688	303.27
370.069	304.17
370.45	312.99
370.831	304.17
371.212	305.98
371.593	318.41
371.974	303.27
372.355	290.61
372.736	334.91
373.117	321.8
373.498	293.1
373.879	296.49
374.26	309.82
374.641	306.66
375.021	309.14
375.402	313.89
375.783	307.56
376.163	301.46
376.544	296.94
376.925	319.31
377.305	323.38
377.686	323.83
378.066	316.6
378.447	317.73
378.827	335.81
379.208	329.48
379.588	317.73
379.968	335.36
380.349	347.56
380.729	332.19
381.109	333.32
381.489	322.25
381.87	344.62
382.25	338.97
382.63	356.37
383.01	355.24
383.39	335.81
383.77	356.6
384.15	348.47
384.53	353.44
384.91	342.36
385.29	346.66
385.67	346.43
386.049	345.98
386.429	340.33
386.809	337.84
387.189	361.8
387.568	363.61
387.948	352.99
388.328	343.95
388.707	374.68
389.087	362.48
389.466	373.55
389.846	366.09
390.225	371.74
390.605	359.54
390.984	371.74
391.363	360.89
391.743	377.84
392.122	357.73
392.501	378.3
392.881	401.35
393.26	398.41
393.639	383.27
394.018	390.27
394.397	412.64
394.776	399.54
395.155	397.73
395.534	402.25
395.913	404.28
396.292	402.02
396.671	410.61
397.05	423.27
397.429	400.89
397.808	406.54
398.186	400.89
398.565	388.92
398.944	406.32
399.323	407.9
399.701	414.9
400.08	388.01
400.458	410.84
400.837	440.89
401.215	431.63
401.594	411.29
401.972	425.3
402.351	425.98
402.729	417.84
403.107	432.98
403.486	436.82
403.864	446.54
404.242	440.89
404.62	431.85
404.999	448.12
405.377	433.43
405.755	453.1
406.133	474.56
406.511	464.39
406.889	450.38
407.267	463.94
407.645	463.94
408.023	482.47
408.401	477.05
408.779	467.11
409.156	492.42
409.534	488.8
409.912	481.8
410.29	501
410.667	479.31
411.045	466.65
411.422	495.81
411.8	522.02
412.178	510.95
412.555	527.22
412.933	511.17
413.31	532.19
413.687	529.93
414.065	518.86
414.442	518.18
414.819	550.72
415.197	550.49
415.574	532.19
415.951	526.54
416.328	560.44
416.705	540.1
417.082	546.88
417.46	553.21
417.837	561.34
418.214	551.17
418.591	559.08
418.967	570.38
419.344	577.39
419.721	595.92
420.098	582.36
420.475	572.19
420.852	628.01
421.228	600.66
421.605	609.7
421.982	600.21
422.358	590.72
422.735	624.62
423.111	602.47
423.488	631.85
423.864	606.09
424.241	621.68
424.617	630.49
424.994	626.65
425.37	645.86
425.746	643.6
426.123	631.85
426.499	626.2
426.875	660.77
427.251	672.07
427.627	686.54
428.003	665.97
428.379	675.01
428.756	673.65
429.132	696.93
429.507	698.96
429.883	713.65
430.259	706.2
430.635	717.27
431.011	735.8
431.387	757.04
431.763	736.25
432.138	740.77
432.514	755.01
432.89	748.45
433.265	751.39
433.641	776.25
434.016	773.76
434.392	785.29
434.767	803.37
435.143	790.94
435.518	806.31
435.894	811.05
436.269	804.72
436.644	831.39
437.02	843.59
437.395	836.36
437.77	840.66
438.145	858.96
438.52	866.19
438.895	876.59
439.271	884.95
439.646	878.39
440.021	892.18
440.395	893.08
440.77	885.17
441.145	889.92
441.52	906.87
441.895	899.41
442.27	926.53
442.645	904.38
443.019	909.35
443.394	944.61
443.769	930.82
444.143	942.8
444.518	944.38
444.892	924.04
445.267	955.46
445.641	977.15
446.016	968.79
446.39	971.73
446.764	990.26
447.139	979.64
447.513	973.76
447.887	998.39
448.262	1011.27
448.636	998.39
449.01	983.93
449.384	1011.05
449.758	1011.72
450.132	996.81
450.506	1035
450.88	1049.24
451.254	1072.51
451.628	1048.56
452.002	1047.88
452.376	1077.03
452.75	1095.34
453.123	1090.14
453.497	1102.34
453.871	1116.13
454.244	1139.41
454.618	1130.82
454.992	1141.66
455.365	1166.97
455.739	1173.53
456.112	1195
456.486	1184.15
456.859	1188.9
457.232	1226.18
457.606	1221.89
457.979	1232.28
458.352	1235.9
458.725	1258.27
459.099	1270.02
459.472	1311.83
459.845	1298.04
460.218	1305.73
460.591	1323.36
460.964	1340.3
461.337	1368.78
461.71	1366.74
462.083	1401.09
462.456	1389.79
462.829	1383.01
463.201	1432.96
463.574	1422.79
463.947	1437.48
464.32	1446.29
464.692	1475.67
465.065	1491.49
465.438	1504.59
465.81	1502.56
466.183	1518.6
466.555	1557.7
466.928	1581.65
467.3	1581.65
467.672	1606.74
468.045	1624.82
468.417	1630.69
468.789	1648.54
469.161	1662.56
469.534	1696.45
469.906	1701.2
470.278	1752.04
470.65	1708.2
471.022	1757.24
471.394	1790.46
471.766	1812.83
472.138	1840.18
472.51	1870.46
472.882	1847.64
473.253	1921.98
473.625	1906.39
473.997	1949.55
474.369	1952.49
474.74	2001.98
475.112	2019.83
475.484	2063.45
475.855	2061.64
476.227	2093.73
476.598	2171.92
476.97	2171.02
477.341	2191.81
477.713	2228.87
478.084	2244.23
478.455	2290.56
478.827	2337.57
479.198	2360.62
479.569	2380.05
479.94	2434.96
480.311	2472.03
480.682	2489.88
481.053	2556.77
481.424	2593.38
481.795	2587.73
482.166	2655.52
482.537	2677.22
482.908	2720.15
483.279	2777.55
483.65	2814.16
484.021	2890.32
484.391	2908.17
484.762	2924.22
485.133	2933.71
485.503	2961.28
485.874	3026.36
486.244	3044.89
486.615	3103.87
486.985	3153.14
487.356	3210.54
487.726	3231.55
488.097	3257.99
488.467	3269.29
488.837	3357.65
489.207	3371.44
489.578	3459.12
489.948	3470.42
490.318	3506.57
490.688	3489.85
491.058	3584.09
491.428	3619.79
491.798	3646.91
492.168	3707.25
492.538	3723.74
492.908	3747.47
493.278	3853.46
493.648	3831.09
494.017	3881.93
494.387	3908.6
494.757	3932.78
495.126	3973.91
495.496	4028.59
495.866	4050.29
496.235	4080.8
496.605	4088.93
496.974	4117.86
497.344	4179.33
497.713	4183.39
498.082	4253.22
498.452	4322.6
498.821	4292.32
499.19	4278.08
499.559	4375.25
499.928	4419.54
500.298	4397.4
500.667	4441.92
501.036	4422.26
501.405	4495.48
501.774	4539.77
502.143	4576.38
502.512	4609.6
502.88	4641.23
503.249	4586.77
503.618	4635.13
503.987	4676.04
504.356	4675.81
504.724	4693.89
505.093	4739.99
505.462	4755.58
505.83	4762.81
506.199	4867.44
506.567	4894.79
506.936	4928.68
507.304	4972.07
507.672	5009.36
508.041	4996.25
508.409	5054.78
508.777	5097.04
509.145	5154.21
509.514	5094.1
509.882	5165.29
510.25	5216.13
510.618	5232.18
510.986	5294.55
511.354	5315.57
511.722	5338.84
512.09	5381.55
512.458	5372.06
512.826	5479.63
513.193	5489.8
513.561	5482.12
513.929	5542.68
514.297	5604.37
514.664	5607.99
515.032	5605.73
515.4	5688.66
515.767	5707.65
516.135	5776.8
516.502	5739.96
516.869	5869.22
517.237	5870.35
517.604	5820.86
517.972	5951.93
518.339	5981.76
518.706	6019.95
519.073	5989.45
519.44	6081.65
519.808	6164.36
520.175	6103.12
520.542	6289.55
520.909	6223.79
521.276	6269.89
521.643	6337.23
522.009	6411.81
522.376	6403.22
522.743	6461.07
523.11	6535.2
523.477	6635.08
523.843	6611.13
524.21	6691.12
524.577	6715.08
524.943	6766.6
525.31	6728.41
525.676	6823.78
526.043	6876.66
526.409	6949.65
526.776	7007.5
527.142	7016.76
527.508	7061.06
527.874	7109.19
528.241	7233.93
528.607	7230.09
528.973	7260.6
529.339	7287.94
529.705	7340.15
530.071	7398.22
530.437	7442.52
530.803	7442.52
531.169	7482.74
531.535	7542.85
531.901	7505.34
532.267	7613.81
532.632	7647.71
532.998	7762.06
533.364	7685.45
533.73	7727.03
534.095	7865.78
534.461	7849.51
534.826	7880.24
535.192	7954.59
535.557	7961.6
535.923	8016.06
536.288	8024.42
536.653	8101.48
537.019	8041.37
537.384	8165.89
537.749	8139.22
538.114	8206.56
538.479	8177.41
538.845	8215.6
539.21	8216.28
539.575	8223.06
539.94	8325.2
540.305	8382.15
540.67	8359.1
541.034	8414.69
541.399	8437.52
541.764	8427.12
542.129	8463.73
542.494	8508.7
542.858	8583.28
543.223	8526.56
543.587	8610.4
543.952	8548.7
544.316	8627.34
544.681	8674.35
545.045	8696.27
545.41	8760.45
545.774	8723.16
546.138	8742.59
546.503	8820.33
546.867	8804.74
547.231	8889.03
547.595	8918.64
547.959	8887.68
548.324	8926.77
548.688	8952.98
549.052	9024.4
549.416	9028.24
549.779	9066.2
550.143	9060.78
550.507	9150.27
550.871	9116.37
551.235	9169.02
551.599	9246.76
551.962	9284.95
552.326	9296.03
552.689	9388.45
553.053	9323.82
553.417	9374.44
553.78	9476.81
554.143	9411.96
554.507	9433.65
554.87	9532.63
555.234	9735.34
555.597	9555.68
555.96	9585.51
556.323	9662.8
556.686	9602.46
557.05	9667.32
557.413	9803.36
557.776	9770.82
558.139	9810.59
558.502	9916.12
558.865	9921.55
559.228	10012.62
559.59	10041.09
559.953	10053.07
560.316	10130.81
560.679	10100.75
561.041	10217.13
561.404	10251.26
561.767	10309.11
562.129	10285.83
562.492	10414.64
562.854	10375.55
563.217	10434.75
563.579	10497.8
563.941	10514.07
564.304	10498.93
564.666	10598.37
565.028	10625.71
565.39	10681.75
565.753	10713.16
566.115	10817.34
566.477	10817.57
566.839	10828.42
567.201	10893.27
567.563	10935.08
567.925	11018.47
568.287	11006.49
568.648	11061.4
569.01	11181.63
569.372	11228.41
569.734	11116.54
570.095	11247.16
570.457	11287.61
570.819	11260.27
571.18	11325.13
571.542	11395.41
571.903	11333.26
572.265	11456.42
572.626	11497.32
572.987	11451.45
573.349	11573.71
573.71	11588.4
574.071	11603.31
574.432	11650.09
574.794	11744.78
575.155	11715.4
575.516	11752.91
575.877	11848.95
576.238	11726.92
576.599	11802.4
576.96	11845.56
577.32	11866.81
577.681	11868.16
578.042	11876.3
578.403	11964.88
578.763	11933.25
579.124	11926.24
579.485	12032.9
579.845	11962.85
580.206	11959.69
580.566	12032.9
580.927	12079
581.287	12095.73
581.648	11985.9
582.008	12096.86
582.368	12029.06
582.728	12078.33
583.089	12069.29
583.449	12031.55
583.809	12108.83
584.169	12157.19
584.529	12077.65
584.889	12169.85
585.249	12103.86
585.609	12081.72
585.969	12147.93
586.329	12180.92
586.688	12179.57
587.048	12082.17
587.408	12165.33
587.768	12102.05
588.127	12118.1
588.487	12087.82
588.846	12175.5
589.206	12068.84
589.565	12161.49
589.925	12308.6
590.284	12200.13
590.643	12153.13
591.003	12158.32
591.362	12214.59
591.721	12242.62
592.08	12239.9
592.44	12210.3
592.799	12275.38
593.158	12238.77
593.517	12163.75
593.876	12225.44
594.235	12248.49
594.593	12210.98
594.952	12257.98
595.311	12227.7
595.67	12277.87
596.029	12343.86
596.387	12399
596.746	12344.76
597.104	12284.42
597.463	12217.98
597.822	12335.72
598.18	12296.85
598.538	12304.08
598.897	12371.43
599.255	12274.48
599.613	12495.94
599.972	12432.44
600.33	12403.52
600.688	12433.35
601.046	12429.28
601.404	12434.48
601.762	12407.13
602.12	12472.67
602.478	12412.1
602.836	12552.44
603.194	12446.68
603.552	12471.99
603.91	12545.21
604.268	12561.93
604.625	12502.27
604.983	12554.92
605.341	12560.35
605.698	12614.36
606.056	12629.5
606.413	12623.17
606.771	12558.77
607.128	12609.61
607.485	12564.42
607.843	12550.18
608.2	12647.13
608.557	12643.06
608.914	12697.52
609.272	12733
609.629	12690.29
609.986	12795.6
610.343	12681.02
610.7	12847.35
611.057	12699.55
611.414	12758.31
611.771	12798.31
612.127	12887.34
612.484	12857.52
612.841	12804.41
613.198	12823.39
613.554	12913.11
613.911	12980.45
614.267	12933.9
614.624	12865.65
614.98	12971.86
615.337	13041.01
615.693	13008.92
616.05	12912.2
616.406	13035.14
616.762	12981.35
617.118	12945.65
617.475	13052.09
617.831	13093.44
618.187	13047.79
618.543	13007.79
618.899	13141.58
619.255	13042.37
619.611	13052.99
619.967	13038.98
620.323	13130.73
620.678	13036.72
621.034	13127.11
621.39	13079.88
621.746	13049.37
622.101	13154.23
622.457	13018.87
622.812	13143.61
623.168	13164.4
623.523	13140.9
623.879	13189.71
624.234	13053.67
624.589	13106.1
624.945	13139.09
625.3	13113.1
625.655	13121.01
626.01	13133.21
626.365	13159.88
626.72	13137.51
627.075	13083.5
627.43	13108.81
627.785	13082.59
628.14	13172.31
628.495	13124.63
628.85	13028.36
629.205	13104.97
629.559	13121.46
629.914	13044.18
630.269	13047.79
630.623	13009.6
630.978	13018.64
631.332	13101.12
631.687	13089.37
632.041	12955.14
632.396	12969.15
632.75	12975.03
633.104	13036.27
633.459	12940.22
633.813	12861.58
634.167	12888.93
634.521	12909.27
634.875	12935.25
635.229	12931.19
635.583	12819.32
635.937	12804.41
636.291	12748.59
636.645	12890.96
636.999	12802.38
637.352	12904.97
637.706	12676.28
638.06	12867.23
638.413	12707.24
638.767	12676.95
639.121	12822.26
639.474	12632.66
639.828	12685.54
640.181	12692.1
640.534	12728.25
640.888	12594.25
641.241	12593.57
641.594	12626.11
641.947	12660.46
642.301	12544.08
642.654	12580.91
643.007	12646.22
643.36	12537.52
643.713	12491.2
644.066	12589.5
644.419	12498.43
644.771	12384.53
645.124	12283.07
645.477	12245.1
645.83	12234.03
646.182	12177.53
646.535	12105.22
646.888	12150.41
647.24	12115.39
647.593	12053.02
647.945	12081.04
648.298	11997.65
648.65	11977.09
649.002	11949.97
649.355	12017.31
649.707	11973.24
650.059	12065.45
650.411	12234.25
650.763	12320.81
651.115	12372.33
651.467	12337.98
651.819	12304.99
652.171	12226.8
652.523	12230.64
652.875	12273.58
653.227	12119.23
653.578	12279.9
653.93	12238.1
654.282	12191.09
654.633	12136.18
654.985	12198.78
655.337	12144.09
655.688	12145.9
656.039	12266.57
656.391	12171.88
656.742	12161.94
657.094	12087.14
657.445	12187.93
657.796	12121.94
658.147	12022.28
658.498	12079.68
658.849	12038.1
659.2	12071.32
659.551	11961.27
659.902	12068.38
660.253	12088.5
660.604	12113.81
660.955	12026.35
661.306	12044.43
661.656	11995.39
662.007	12001.49
662.358	11993.81
662.708	11976.18
663.059	11977.99
663.409	11913.13
663.76	12003.3
664.11	11971.89
664.461	11934.83
664.811	11955.39
665.161	11943.87
665.511	11948.84
665.862	11891.89
666.212	11892.79
666.562	11957.43
666.912	11970.53
667.262	11928.73
667.612	11944.54
667.962	11978.44
668.312	11888.27
668.662	11924.66
669.011	11874.26
669.361	11864.09
669.711	11816.64
670.06	11865.45
670.41	11869.74
670.76	11813.47
671.109	11817.77
671.459	11861.84
671.808	11756.3
672.157	11863.19
672.507	11711.78
672.856	11703.65
673.205	11754.27
673.554	11778.45
673.904	11733.93
674.253	11714.04
674.602	11767.83
674.951	11552.46
675.3	11540.71
675.649	11755.4
675.998	11758.56
676.346	11644.44
676.695	11753.14
677.044	11603.08
677.393	11652.57
677.741	11659.58
678.09	11616.64
678.438	11698.68
678.787	11654.61
679.135	11635.17
679.484	11613.48
679.832	11667.26
680.181	11594.27
680.529	11595.85
680.877	11573.48
681.225	11515.86
681.573	11679.69
681.922	11479.02
682.27	11460.26
682.618	11583.65
682.966	11449.42
683.314	11476.08
683.661	11375.97
684.009	11437.21
684.357	11352.92
684.705	11337.1
685.053	11369.19
685.4	11323.54
685.748	11248.52
686.095	11261.62
686.443	11205.13
686.79	11264.79
687.138	11259.14
687.485	11175.3
687.832	11208.97
688.18	11219.59
688.527	11072.93
688.874	11086.49
689.221	11088.3
689.568	11033.38
689.915	10992.25
690.262	11050.33
690.609	11000.61
690.956	10996.32
691.303	10937.79
691.65	10861.18
691.997	10817.12
692.344	10835.42
692.69	10770.56
693.037	10832.26
693.383	10772.6
693.73	10768.98
694.077	10707.97
694.423	10704.8
694.769	10663.9
695.116	10626.16
695.462	10658.02
695.808	10611.02
696.155	10604.24
696.501	10604.47
696.847	10539.61
697.193	10450.57
697.539	10467.3
697.885	10401.53
698.231	10353.85
698.577	10354.53
698.923	10383.91
699.269	10311.37
699.614	10282.89
699.96	10276.11
700.306	10345.72
700.651	10294.19
700.997	10239.73
701.342	10173.52
701.688	10143.46
702.033	10051.71
702.379	10095.78
702.724	10103.69
703.069	10093.52
703.415	10003.8
703.76	10076.8
704.105	10015.33
704.45	9986.63
704.795	9992.96
705.14	9817.37
705.485	9834.09
705.83	9857.82
706.175	9856.69
706.52	9786.86
706.865	9809.91
707.209	9748.67
707.554	9715.22
707.899	9765.17
708.243	9691.5
708.588	9693.08
708.932	9641.78
709.277	9622.57
709.621	9604.72
709.966	9571.27
710.31	9613.76
710.654	9553.87
710.998	9541.22
711.342	9535.79
711.687	9487.21
712.031	9464.16
712.375	9384.39
712.719	9383.26
713.063	9435.01
713.407	9459.64
713.75	9368.34
714.094	9427.32
714.438	9408.57
714.782	9350.71
715.125	9262.81
715.469	9346.19
715.812	9217.61
716.156	9233.66
716.499	9248.57
716.843	9329.7
717.186	9235.69
717.53	9169.02
717.873	9233.43
718.216	9149.82
718.559	9166.09
718.902	9119.99
719.246	9079.31
719.589	9050.84
719.932	9045.19
720.275	9076.37
720.617	9051.29
720.96	9016.03
721.303	8968.8
721.646	9007.22
721.989	8960.22
722.331	9004.51
722.674	8943.49
723.016	8976.94
723.359	8960.44
723.701	8978.07
724.044	8860.33
724.386	8859.43
724.729	8894.91
725.071	8881.12
725.413	8869.82
725.755	8833.21
726.097	8821.24
726.439	8760.9
726.782	8732.43
727.124	8764.52
727.465	8744.4
727.807	8724.52
728.149	8705.31
728.491	8711.86
728.833	8719.32
729.175	8674.8
729.516	8622.37
729.858	8595.03
730.199	8618.08
730.541	8567.91
730.882	8566.78
731.224	8633.67
731.565	8588.7
731.906	8534.24
732.248	8551.19
732.589	8469.83
732.93	8454.02
733.271	8464.64
733.612	8460.57
733.953	8464.41
734.294	8538.98
734.635	8403.17
734.976	8453.34
735.317	8429.83
735.658	8441.81
735.999	8369.05
736.339	8451.53
736.68	8431.64
737.021	8370.85
737.361	8361.36
737.702	8371.53
738.042	8371.08
738.383	8348.48
738.723	8349.38
739.063	8201.82
739.404	8280.91
739.744	8294.7
740.084	8335.15
740.424	8267.58
740.764	8160.46
741.104	8260.35
741.444	8167.47
741.784	8245.88
742.124	8210.41
742.464	8176.28
742.804	8184.42
743.143	8121.14
743.483	8177.64
743.823	8124.98
744.162	8121.59
744.502	8104.65
744.841	8028.04
745.181	8083.86
745.52	7991.88
745.86	8019.9
746.199	8007.02
746.538	8033.01
746.877	8060.58
747.216	8054.48
747.556	8014.25
747.895	8006.8
748.234	7960.47
748.573	7936.29
748.911	8024.87
749.25	7926.12
749.589	7946.23
749.928	7908.27
750.267	7907.59
750.605	7882.05
750.944	7887.25
751.283	7812.45
751.621	7843.41
751.96	7834.6
752.298	7787.14
752.636	7789.4
752.975	7711.66
753.313	7742.62
753.651	7778.33
753.989	7729.97
754.327	7712.79
754.666	7701.49
755.004	7708.5
755.342	7662.62
755.679	7701.94
756.017	7595.05
756.355	7658.1
756.693	7607.03
757.031	7599.35
757.368	7596.18
757.706	7519.8
758.044	7516.19
758.381	7568.84
758.719	7487.94
759.056	7452.23
759.394	7466.24
759.731	7425.34
760.068	7393.03
760.405	7400.48
760.743	7341.05
761.08	7330.65
761.417	7327.94
761.754	7339.02
762.091	7290.66
762.428	7233.93
