Data from black_metal_pc_casing_FLMS001491_00055.txt Node
Date: Wed Feb 08 14:33:04 GMT 2017
User: dcchb
Spectrometer: FLMS00149
Trigger mode: 0
Integration Time (sec): 2.000000E-2
Scans to average: 10
Electric dark correction enabled: true
Nonlinearity correction enabled: false
Boxcar width: 0
XAxis mode: Wavelengths
Number of Pixels in Spectrum: 2048
>>>>>Begin Spectral Data<<<<<
341.393	-22.46
341.776	-22.46
342.16	-22.46
342.543	-44.38
342.927	-60.87
343.31	-68.56
343.693	-89.57
344.077	-68.11
344.46	-63.13
344.843	-43.47
345.226	-41.89
345.61	-25.17
345.993	-31.04
346.376	-7.99
346.759	-6.41
347.142	33.13
347.525	48.5
347.908	88.05
348.291	79.69
348.674	103.87
349.057	92.12
349.44	110.65
349.823	136.86
350.206	174.6
350.588	167.59
350.971	199.23
351.354	208.72
351.737	219.57
352.119	229.74
352.502	243.75
352.884	267.7
353.267	282.62
353.65	269.06
354.032	285.78
354.414	295.5
354.797	291.66
355.179	300.92
355.562	311.55
355.944	305.22
356.326	316.97
356.709	310.64
357.091	323.52
357.473	321.04
357.855	319.45
358.238	319.23
358.62	315.84
359.002	324.65
359.384	341.38
359.766	351.09
360.148	338.21
360.53	343.86
360.912	350.19
361.294	332.11
361.676	323.75
362.057	326.46
362.439	316.97
362.821	312.68
363.203	323.3
363.584	313.58
363.966	297.76
364.348	313.35
364.729	319.91
365.111	322.84
365.493	316.74
365.874	317.87
366.256	319.45
366.637	319.45
367.019	328.04
367.4	293.69
367.781	293.47
368.163	336.4
368.544	298.89
368.925	320.81
369.306	342.28
369.688	323.07
370.069	322.17
370.45	317.65
370.831	315.39
371.212	309.51
371.593	320.13
371.974	305.9
372.355	305.67
372.736	323.75
373.117	322.39
373.498	329.4
373.879	298.66
374.26	329.4
374.641	338.44
375.021	327.82
375.402	307.7
375.783	331.88
376.163	314.94
376.544	325.33
376.925	334.82
377.305	335.73
377.686	325.56
378.066	317.65
378.447	336.86
378.827	319.45
379.208	342.73
379.588	321.04
379.968	343.41
380.349	346.8
380.729	348.83
381.109	349.06
381.489	359.23
381.87	358.78
382.25	358.78
382.63	344.31
383.01	325.56
383.39	354.26
383.77	348.61
384.15	351.54
384.53	345.67
384.91	354.48
385.29	347.48
385.67	369.4
386.049	374.59
386.429	337.31
386.809	373.24
387.189	380.02
387.568	366.46
387.948	373.46
388.328	368.95
388.707	344.09
389.087	380.92
389.466	375.05
389.846	374.59
390.225	389.28
390.605	371.88
390.984	401.94
391.363	402.62
391.743	400.13
392.122	378.66
392.501	417.53
392.881	406.01
393.26	403.29
393.639	392
394.018	407.14
394.397	416.18
394.776	385.89
395.155	400.81
395.534	414.14
395.913	403.07
396.292	414.82
396.671	402.62
397.05	420.24
397.429	437.87
397.808	404.42
398.186	436.97
398.565	425.21
398.944	427.25
399.323	422.5
399.701	413.01
400.08	432.9
400.458	420.24
400.837	436.29
401.215	429.96
401.594	425.21
401.972	463.63
402.351	440.13
402.729	465.89
403.107	455.04
403.486	462.95
403.864	447.81
404.242	460.69
404.62	451.2
404.999	460.47
405.377	460.24
405.755	482.84
406.133	465.21
406.511	465.67
406.889	479.22
407.267	488.49
407.645	475.16
408.023	488.26
408.401	477.19
408.779	495.5
409.156	489.39
409.534	522.84
409.912	510.86
410.29	500.69
410.667	504.76
411.045	508.15
411.422	515.83
411.8	519.22
412.178	537.53
412.555	543.63
412.933	544.31
413.31	536.62
413.687	545.21
414.065	549.28
414.442	543.63
414.819	552.44
415.197	574.14
415.574	562.61
415.951	568.26
416.328	575.95
416.705	573.69
417.082	584.53
417.46	595.61
417.837	603.06
418.214	601.26
418.591	589.05
418.967	609.39
419.344	616.62
419.721	610.97
420.098	610.75
420.475	616.62
420.852	606.45
421.228	624.08
421.605	644.19
421.982	650.29
422.358	642.38
422.735	667.47
423.111	637.86
423.488	637.41
423.864	665.43
424.241	654.59
424.617	667.24
424.994	676.06
425.37	679.9
425.746	692.78
426.123	685.32
426.499	707.02
426.875	695.49
427.251	704.76
427.627	730.07
428.003	729.84
428.379	721.03
428.756	737.75
429.132	733.68
429.507	743.4
429.883	723.74
430.259	764.41
430.635	755.6
431.011	743.85
431.387	780.91
431.763	784.75
432.138	783.17
432.514	810.06
432.89	790.63
433.265	816.62
433.641	834.47
434.016	829.27
434.392	830.18
434.767	837.18
435.143	856.62
435.518	832.66
435.894	826.79
436.269	865.2
436.644	863.4
437.02	889.16
437.395	900.23
437.77	899.78
438.145	904.98
438.52	885.09
438.895	919.89
439.271	901.59
439.646	963.96
440.021	946.33
440.395	939.33
440.77	925.09
441.145	945.2
441.52	945.2
441.895	962.83
442.27	976.16
442.645	952.43
443.019	996.73
443.394	946.33
443.769	987.01
444.143	981.36
444.518	1010.74
444.892	984.07
445.267	1007.57
445.641	1015.93
446.016	1021.36
446.39	1043.73
446.764	1024.97
447.139	1031.75
447.513	1052.54
447.887	1029.49
448.262	1050.28
448.636	1064.75
449.01	1063.16
449.384	1064.75
449.758	1082.6
450.132	1103.62
450.506	1111.75
450.88	1097.51
451.254	1080.34
451.628	1105.2
452.002	1138.87
452.376	1149.49
452.75	1135.25
453.123	1147.46
453.497	1177.51
453.871	1179.09
454.244	1177.74
454.618	1198.3
454.992	1221.8
455.365	1208.25
455.739	1254.57
456.112	1281.92
456.486	1276.49
456.859	1254.35
457.232	1300.22
457.606	1283.72
457.979	1326.43
458.352	1337.73
458.725	1329.37
459.099	1359.2
459.472	1425.41
459.845	1400.1
460.218	1391.52
460.591	1414.79
460.964	1408.69
461.337	1455.92
461.71	1452.76
462.083	1488.92
462.456	1497.95
462.829	1496.15
463.201	1485.07
463.574	1509.48
463.947	1563.26
464.32	1564.39
464.692	1568.46
465.065	1603.04
465.438	1585.41
465.81	1650.27
466.183	1631.96
466.555	1648.01
466.928	1700.44
467.3	1648.23
467.672	1722.58
468.045	1737.72
468.417	1739.53
468.789	1761.68
469.161	1775.46
469.534	1792.41
469.906	1811.62
470.278	1858.85
470.65	1887.1
471.022	1882.13
471.394	1894.55
471.766	1932.07
472.138	1929.36
472.51	2011.16
472.882	2012.52
473.253	2054.78
473.625	2077.6
473.997	2118.5
474.369	2130.25
474.74	2117.37
475.112	2169.12
475.484	2171.38
475.855	2221.1
476.227	2254.77
476.598	2325.5
476.97	2322.11
477.341	2368.21
477.713	2420.42
478.084	2400.3
478.455	2455.44
478.827	2525.95
479.198	2547.87
479.569	2590.36
479.94	2627.64
480.311	2644.37
480.682	2694.76
481.053	2742.67
481.424	2819.73
481.795	2836.22
482.166	2843.23
482.537	2936.56
482.908	2930.23
483.279	2950.57
483.65	3043.23
484.021	3063.79
484.391	3073.73
484.762	3142.21
485.133	3113.51
485.503	3184.69
485.874	3278.25
486.244	3268.76
486.615	3367.28
486.985	3362.54
487.356	3460.62
487.726	3445.7
488.097	3513.27
488.467	3502.2
488.837	3614.96
489.207	3590.78
489.578	3676.88
489.948	3765.47
490.318	3775.18
490.688	3819.02
491.058	3931.34
491.428	3904.45
491.798	3929.08
492.168	3992.13
492.538	4006.14
492.908	4075.06
493.278	4122.07
493.648	4134.95
494.017	4235.06
494.387	4190.99
494.757	4240.48
495.126	4290.88
495.496	4330.2
495.866	4285.45
496.235	4327.94
496.605	4437.99
496.974	4454.94
497.344	4474.37
497.713	4510.53
498.082	4493.58
498.452	4546.91
498.821	4597.31
499.19	4595.73
499.559	4696.51
499.928	4727.93
500.298	4711.66
500.667	4761.15
501.036	4776.06
501.405	4842.27
501.774	4858.32
502.143	4857.41
502.512	4904.19
502.88	4944.42
503.249	4940.35
503.618	4990.29
503.987	5005.89
504.356	5043.17
504.724	5040.69
505.093	5087.01
505.462	5147.58
505.83	5183.96
506.199	5239.55
506.567	5296.95
506.936	5283.17
507.304	5349.61
507.672	5382.6
508.041	5453.56
508.409	5402.26
508.777	5491.97
509.145	5466.89
509.514	5548.02
509.882	5529.94
510.25	5522.26
510.618	5648.35
510.986	5655.81
511.354	5663.95
511.722	5735.36
512.09	5785.75
512.458	5823.04
512.826	5868.69
513.193	5894.45
513.561	5898.29
513.929	5939.42
514.297	5994.79
514.664	6030.94
515.032	6053.54
515.4	6125.86
515.767	6118.62
516.135	6157.72
516.502	6195.91
516.869	6285.17
517.237	6259.19
517.604	6307.55
517.972	6367.88
518.339	6392.52
518.706	6423.48
519.073	6418.28
519.44	6570.59
519.808	6623.92
520.175	6629.8
520.542	6713.19
520.909	6729.46
521.276	6719.29
521.643	6843.13
522.009	6806.52
522.376	6900.3
522.743	6930.35
523.11	7045.15
523.477	7114.08
523.843	7025.95
524.21	7196.11
524.577	7196.79
524.943	7266.16
525.31	7321.76
525.676	7388.87
526.043	7478.81
526.409	7423.67
526.776	7524.24
527.142	7610.11
527.508	7678.58
527.874	7677.91
528.241	7759.94
528.607	7785.02
528.973	7862.76
529.339	7841.74
529.705	7923.77
530.071	8006.94
530.437	7976.2
530.803	8101.17
531.169	8092.13
531.535	8099.82
531.901	8144.33
532.267	8247.16
532.632	8258.46
532.998	8283.09
533.364	8341.16
533.73	8384.1
534.095	8427.72
534.461	8427.72
534.826	8535.28
535.192	8542.52
535.557	8629.52
535.923	8624.55
536.288	8641.04
536.653	8703.42
537.019	8672.46
537.384	8758.33
537.749	8813.92
538.114	8810.31
538.479	8799.68
538.845	8890.08
539.21	8876.97
539.575	8939.79
539.94	8861.6
540.305	9018.66
540.67	9032.67
541.034	9067.47
541.399	9032.67
541.764	9169.17
542.129	9170.97
542.494	9178.88
542.858	9194.25
543.223	9216.62
543.587	9320.8
543.952	9251.2
544.316	9339.56
544.681	9375.49
545.045	9368.93
545.41	9391.76
545.774	9462.27
546.138	9421.81
546.503	9478.08
546.867	9542.72
547.231	9549.49
547.595	9552.43
547.959	9648.7
548.324	9723.5
548.688	9663.84
549.052	9745.2
549.416	9783.39
549.779	9806.89
550.143	9835.81
550.507	9893.89
550.871	9866.32
551.235	9913.1
551.599	10026.54
551.962	10024.28
552.326	10040.56
552.689	10099.31
553.053	10035.81
553.417	10128.46
553.78	10259.31
554.143	10187.9
554.507	10318.06
554.87	10293.66
555.234	10380.66
555.597	10358.51
555.96	10433.09
556.323	10408
556.686	10448.91
557.05	10586.76
557.413	10570.48
557.776	10598.96
558.139	10693.87
558.502	10766.19
558.865	10742.68
559.228	10829.24
559.59	10876.01
559.953	10899.52
560.316	11026.29
560.679	10997.37
561.041	11124.14
561.404	11107.87
561.767	11177.7
562.129	11248.89
562.492	11240.75
562.854	11294.31
563.217	11344.7
563.579	11354.64
563.941	11427.41
564.304	11408.88
564.666	11507.18
565.028	11589.89
565.39	11554.41
565.753	11679.83
566.115	11776.1
566.477	11822.66
566.839	11738.59
567.201	11862.65
567.563	11852.03
567.925	11918.92
568.287	11918.92
568.648	12032.14
569.01	12057.68
569.372	12165.02
569.734	12124.12
570.095	12259.71
570.457	12280.04
570.819	12283.66
571.18	12279.59
571.542	12350.55
571.903	12278.91
572.265	12469.42
572.626	12418.57
572.987	12451.57
573.349	12580.15
573.71	12577.44
574.071	12573.82
574.432	12655.85
574.794	12738.79
575.155	12747.6
575.516	12606.36
575.877	12730.2
576.238	12743.53
576.599	12848.84
576.96	12807.94
577.32	12859.69
577.681	13004.32
578.042	12929.52
578.403	12998.44
578.763	12974.72
579.124	12953.47
579.485	12945.79
579.845	13075.28
580.206	13065.56
580.566	13016.52
580.927	13048.84
581.287	13136.52
581.648	13084.77
582.008	13096.07
582.368	13121.38
582.728	13160.47
583.089	13148.5
583.449	13149.85
583.809	13196.63
584.169	13179.46
584.529	13164.31
584.889	13212.9
585.249	13179
585.609	13192.56
585.969	13259
586.329	13218.78
586.688	13281.37
587.048	13197.08
587.408	13182.39
587.768	13134.49
588.127	13157.31
588.487	13240.25
588.846	13315.72
589.206	13213.35
589.565	13175.84
589.925	13238.44
590.284	13208.61
590.643	13174.26
591.003	13260.36
591.362	13293.35
591.721	13281.15
592.08	13332.45
592.44	13250.41
592.799	13287.02
593.158	13272.11
593.517	13274.14
593.876	13333.12
594.235	13273.92
594.593	13293.58
594.952	13353.46
595.311	13335.61
595.67	13362.95
596.029	13462.39
596.387	13447.47
596.746	13411.31
597.104	13386
597.463	13451.31
597.822	13463.29
598.18	13329.73
598.538	13307.59
598.897	13430.97
599.255	13307.59
599.613	13605.43
599.972	13429.17
600.33	13481.37
600.688	13429.84
601.046	13589.16
601.404	13607.24
601.762	13482.72
602.12	13561.37
602.478	13594.81
602.836	13603.4
603.194	13500.13
603.552	13577.41
603.91	13540.58
604.268	13609.95
604.625	13501.26
604.983	13695.15
605.341	13488.83
605.698	13719.1
606.056	13623.96
606.413	13638.2
606.771	13652.44
607.128	13710.97
607.485	13646.79
607.843	13671.65
608.2	13760.91
608.557	13859.89
608.914	13781.02
609.272	13872.09
609.629	13745.32
609.986	13893.34
610.343	13727.92
610.7	13873.22
611.057	13888.82
611.414	13863.05
611.771	13877.74
612.127	13902.15
612.484	13804.75
612.841	14017.4
613.198	14011.52
613.554	13994.8
613.911	13968.81
614.267	14023.95
614.624	13957.51
614.98	14036.61
615.337	14063.95
615.693	14035.25
616.05	14059.66
616.406	14170.84
616.762	14061.69
617.118	14063.5
617.475	13998.64
617.831	14033.9
618.187	14082.03
618.543	14065.76
618.899	14139.43
619.255	14134.01
619.611	14145.76
619.967	14157.74
620.323	14287.68
620.678	14240.22
621.034	14150.73
621.39	14183.5
621.746	14169.94
622.101	14333.55
622.457	14174.46
622.812	14147.57
623.168	14343.49
623.523	14170.62
623.879	14289.48
624.234	14044.74
624.589	14283.38
624.945	14256.72
625.3	14222.59
625.655	14324.96
626.01	14209.03
626.365	14207.45
626.72	14213.78
627.075	14184.63
627.43	14262.37
627.785	14214.23
628.14	14277.28
628.495	14224.4
628.85	14184.4
629.205	14136.94
629.559	14208.36
629.914	14218.75
630.269	14174.23
630.623	14173.55
630.978	14148.92
631.332	14144.63
631.687	14251.97
632.041	14143.05
632.396	14120.22
632.75	14087.23
633.104	14159.54
633.459	14130.84
633.813	14064.63
634.167	14096.27
634.521	14067.12
634.875	14054.46
635.229	14048.81
635.583	13977.63
635.937	13938.31
636.291	13945.09
636.645	13993.45
636.999	13939.44
637.352	13879.32
637.706	13830.74
638.06	13877.52
638.413	13868.25
638.767	13770.85
639.121	13862.15
639.474	13776.73
639.828	13784.19
640.181	13788.71
640.534	13857.18
640.888	13684.53
641.241	13714.81
641.594	13666.67
641.947	13726.33
642.301	13704.19
642.654	13689.95
643.007	13709.61
643.36	13662.61
643.713	13601.59
644.066	13698.54
644.419	13552.33
644.771	13533.12
645.124	13424.65
645.477	13290.19
645.83	13302.84
646.182	13268.27
646.535	13188.27
646.888	13185.33
647.24	13081.61
647.593	13195.5
647.945	13179.68
648.298	13132.9
648.65	13141.72
649.002	13044.54
649.355	13150.76
649.707	13023.3
650.059	13132.23
650.411	13318.44
650.763	13268.49
651.115	13358.89
651.467	13331.09
651.819	13274.59
652.171	13285.67
652.523	13324.31
652.875	13312.79
653.227	13268.04
653.578	13348.72
653.93	13295.16
654.282	13241.15
654.633	13145.56
654.985	13224.2
655.337	13280.7
655.688	13213.58
656.039	13261.04
656.391	13125.67
656.742	13143.3
657.094	13205.44
657.445	13174.03
657.796	13145.11
658.147	13154.6
658.498	13144.43
658.849	13110.08
659.2	13158.21
659.551	13056.75
659.902	13126.58
660.253	13024.43
660.604	13109.63
660.955	13050.19
661.306	13064.2
661.656	13085.45
662.007	13079.8
662.358	13106.46
662.708	13066.01
663.059	13077.09
663.409	13043.19
663.76	13058.55
664.11	13016.3
664.461	12997.09
664.811	13090.87
665.161	12988.27
665.511	12984.21
665.862	12951.89
666.212	13022.85
666.562	13030.53
666.912	12897.43
667.262	12942.17
667.612	12887.26
667.962	13000.93
668.312	12922.74
668.662	13038.89
669.011	12860.37
669.361	13007.03
669.711	12924.32
670.06	12881.84
670.41	12930.87
670.76	12845.45
671.109	12931.78
671.459	12936.98
671.808	12905.79
672.157	12928.16
672.507	12850.65
672.856	12864.44
673.205	12786.92
673.554	12859.69
673.904	12814.49
674.253	12853.36
674.602	12811.78
674.951	12546.93
675.3	12525.91
675.649	12702.63
675.998	12793.93
676.346	12762.52
676.695	12721.61
677.044	12608.4
677.393	12787.38
677.741	12758.9
678.09	12646.36
678.438	12658.11
678.787	12705.12
679.135	12721.84
679.484	12561.84
679.832	12617.66
680.181	12530.43
680.529	12579.92
680.877	12555.07
681.225	12529.98
681.573	12564.56
681.922	12462.19
682.27	12472.58
682.618	12526.82
682.966	12417.22
683.314	12471.45
683.661	12441.17
684.009	12391
684.357	12378.57
684.705	12368.86
685.053	12390.78
685.4	12353.49
685.748	12228.97
686.095	12288.18
686.443	12233.04
686.79	12260.61
687.138	12223.1
687.485	12142.87
687.832	12124.34
688.18	12193.27
688.527	12044.8
688.874	12040.95
689.221	12105.13
689.568	12047.96
689.915	11954.63
690.262	11992.37
690.609	12043.89
690.956	11928.64
691.303	11887.06
691.65	11885.03
691.997	11842.77
692.344	11842.09
692.69	11786.72
693.037	11746.95
693.383	11703.11
693.73	11658.59
694.077	11656.56
694.423	11687.52
694.769	11610.68
695.116	11601.42
695.462	11577.92
695.808	11541.53
696.155	11528.43
696.501	11469.44
696.847	11434.87
697.193	11438.94
697.539	11384.25
697.885	11285.95
698.231	11256.34
698.577	11252.95
698.923	11262.22
699.269	11261.09
699.614	11221.54
699.96	11152.16
700.306	11198.26
700.651	11143.35
700.997	11078.95
701.342	11022.9
701.688	11001.89
702.033	11028.78
702.379	10956.24
702.724	10908.78
703.069	11031.04
703.415	10798.95
703.76	10878.27
704.105	10846.41
704.45	10802.57
704.795	10734.32
705.14	10694.32
705.485	10641.9
705.83	10711.27
706.175	10673.08
706.52	10665.4
706.865	10637.38
707.209	10562.8
707.554	10512.18
707.899	10544.95
708.243	10559.41
708.588	10531.39
708.932	10433.77
709.277	10489.36
709.621	10451.39
709.966	10387.89
710.31	10477.61
710.654	10300.44
710.998	10358.74
711.342	10326.42
711.687	10353.99
712.031	10351.96
712.375	10243.71
712.719	10251.85
713.063	10229.7
713.407	10221.79
713.75	10195.13
714.094	10179.31
714.438	10145.64
714.782	10196.94
715.125	10091.63
715.469	10169.59
715.812	10094.57
716.156	10080.55
716.499	10041.46
716.843	10056.83
717.186	9969.14
717.53	10065.19
717.873	9996.71
718.216	9956.94
718.559	9932.31
718.902	9868.58
719.246	9861.8
719.589	9852.09
719.932	9755.82
720.275	9844.4
720.617	9805.76
720.96	9787.68
721.303	9736.16
721.646	9778.64
721.989	9739.77
722.331	9752.65
722.674	9731.41
723.016	9706.55
723.359	9708.59
723.701	9685.54
724.044	9629.04
724.386	9558.53
724.729	9634.46
725.071	9667.46
725.413	9530.29
725.755	9607.12
726.097	9535.26
726.439	9540.91
726.782	9541.36
727.124	9542.72
727.465	9460.46
727.807	9516.95
728.149	9513.79
728.491	9437.86
728.833	9462.27
729.175	9460.23
729.516	9437.18
729.858	9380.01
730.199	9415.26
730.541	9356.51
730.882	9392.21
731.224	9387.69
731.565	9283.29
731.906	9322.38
732.248	9248.26
732.589	9277.19
732.93	9254.36
733.271	9197.87
733.612	9230.86
733.953	9187.92
734.294	9196.51
734.635	9238.54
734.976	9214.81
735.317	9149.73
735.658	9196.74
735.999	9145.21
736.339	9125.78
736.68	9078.09
737.021	9103.86
737.361	9051.65
737.702	9161.26
738.042	9126.45
738.383	9062.5
738.723	9040.36
739.063	9035.38
739.404	9035.61
739.744	8967.82
740.084	8952
740.424	8974.59
740.764	8975.05
741.104	8968.27
741.444	8921.04
741.784	8928.72
742.124	8923.75
742.464	8895.05
742.804	8867.93
743.143	8873.81
743.483	8846.91
743.823	8845.56
744.162	8821.38
744.502	8777.99
744.841	8760.14
745.181	8839.68
745.52	8821.15
745.86	8790.42
746.199	8707.03
746.538	8719.23
746.877	8722.85
747.216	8759.01
747.556	8700.7
747.895	8752
748.234	8595.17
748.573	8613.25
748.911	8638.33
749.25	8603.98
749.589	8591.78
749.928	8608.95
750.267	8643.76
750.605	8570.99
750.944	8532.12
751.283	8551.1
751.621	8563.08
751.96	8500.48
752.298	8506.13
752.636	8487.83
752.975	8456.19
753.313	8387.72
753.651	8433.59
753.989	8400.15
754.327	8377.55
754.666	8292.8
755.004	8327.15
755.342	8302.97
755.679	8323.76
756.017	8235.63
756.355	8259.59
756.693	8270.88
757.031	8265.46
757.368	8188.85
757.706	8184.78
758.044	8153.6
758.381	8214.61
758.719	8135.07
759.056	8133.49
759.394	8127.84
759.731	8067.05
760.068	8031.79
760.405	8032.92
