Data from black_plastic_tray_FLMS001491_063.txt Node
Date: Tue Feb 07 10:40:21 GMT 2017
User: dcchb
Spectrometer: FLMS00149
Trigger mode: 0
Integration Time (sec): 2.000000E-2
Scans to average: 10
Electric dark correction enabled: true
Nonlinearity correction enabled: false
Boxcar width: 0
XAxis mode: Wavelengths
Number of Pixels in Spectrum: 2048
>>>>>Begin Spectral Data<<<<<
341.393	-17.88
341.776	-17.88
342.16	-17.88
342.543	-70.53
342.927	-56.52
343.31	-58.33
343.693	-63.76
344.077	-62.17
344.46	-56.75
344.843	-52.91
345.226	-41.61
345.61	-45.22
345.993	-14.94
346.376	-12.23
346.759	11.27
347.142	18.05
347.525	64.15
347.908	51.27
348.291	83.59
348.674	75.68
349.057	103.92
349.44	111.38
349.823	153.41
350.206	177.82
350.588	178.05
350.971	208.78
351.354	208.1
351.737	223.92
352.119	247.87
352.502	238.61
352.884	267.99
353.267	259.63
353.65	271.6
354.032	301.88
354.414	280.87
354.797	274.54
355.179	291.72
355.562	319.29
355.944	302.56
356.326	321.32
356.709	317.93
357.091	312.73
357.473	312.73
357.855	319.51
358.238	323.81
358.62	329
359.002	333.97
359.384	328.1
359.766	334.2
360.148	325.39
360.53	335.78
360.912	322.68
361.294	311.38
361.676	312.05
362.057	322.45
362.439	319.74
362.821	290.36
363.203	334.88
363.584	291.49
363.966	297.14
364.348	293.07
364.729	321.32
365.111	307.99
365.493	306.86
365.874	308.89
366.256	294.2
366.637	286.97
367.019	297.14
367.4	307.08
367.781	298.27
368.163	292.39
368.544	311.6
368.925	284.03
369.306	295.11
369.688	280.87
370.069	281.55
370.45	297.82
370.831	324.93
371.212	281.77
371.593	299.62
371.974	317.7
372.355	320.64
372.736	310.02
373.117	307.99
373.498	303.47
373.879	302.34
374.26	314.99
374.641	295.11
375.021	303.92
375.402	291.72
375.783	334.43
376.163	307.08
376.544	331.71
376.925	307.08
377.305	316.35
377.686	330.58
378.066	306.18
378.447	344.82
378.827	314.77
379.208	319.96
379.588	318.16
379.968	318.83
380.349	333.75
380.729	330.58
381.109	298.49
381.489	338.04
381.87	315.67
382.25	340.53
382.63	336.69
383.01	330.36
383.39	323.58
383.77	337.59
384.15	347.31
384.53	322
384.91	329
385.29	356.12
385.67	338.49
386.049	346.18
386.429	354.99
386.809	344.14
387.189	358.61
387.568	340.75
387.948	359.96
388.328	350.92
388.707	361.09
389.087	370.13
389.466	363.13
389.846	357.93
390.225	373.52
390.605	377.59
390.984	345.95
391.363	369.23
391.743	368.78
392.122	371.71
392.501	389.57
392.881	382.33
393.26	358.61
393.639	393.63
394.018	396.8
394.397	375.78
394.776	400.41
395.155	390.92
395.534	379.62
395.913	387.31
396.292	393.86
396.671	400.19
397.05	408.77
397.429	400.87
397.808	398.38
398.186	390.7
398.565	409
398.944	410.13
399.323	407.19
399.701	427.98
400.08	397.7
400.458	414.2
400.837	415.55
401.215	408.32
401.594	400.64
401.972	402.45
402.351	427.31
402.729	441.32
403.107	432.73
403.486	443.12
403.864	437.02
404.242	445.84
404.62	427.98
404.999	430.69
405.377	443.35
405.755	460.52
406.133	439.96
406.511	472.95
406.889	462.11
407.267	443.58
407.645	449.68
408.023	451.26
408.401	471.37
408.779	467.3
409.156	489.45
409.534	479.06
409.912	494.2
410.29	496.46
410.667	485.61
411.045	490.13
411.422	487.42
411.8	491.94
412.178	492.16
412.555	508.21
412.933	491.26
413.31	504.59
413.687	530.58
414.065	523.57
414.442	545.49
414.819	530.13
415.197	543.69
415.574	557.92
415.951	519.28
416.328	566.51
416.705	541.43
417.082	560.18
417.46	563.12
417.837	567.41
418.214	560.41
418.591	540.52
418.967	553.63
419.344	566.51
419.721	580.52
420.098	574.65
420.475	601.99
420.852	587.3
421.228	605.61
421.605	591.59
421.982	589.79
422.358	576.23
422.735	624.59
423.111	587.3
423.488	611.03
423.864	605.15
424.241	627.98
424.617	611.03
424.994	627.75
425.37	651.25
425.746	635.89
426.123	636.34
426.499	641.76
426.875	651.03
427.251	671.14
427.627	671.14
428.003	673.85
428.379	693.29
428.756	680.18
429.132	693.06
429.507	693.29
429.883	688.54
430.259	675.21
430.635	714.76
431.011	712.95
431.387	733.96
431.763	745.49
432.138	733.74
432.514	731.93
432.89	741.42
433.265	786.17
433.641	777.8
434.016	807.86
434.392	776.22
434.767	778.48
435.143	771.93
435.518	785.71
435.894	818.71
436.269	824.81
436.644	824.58
437.02	812.83
437.395	811.25
437.77	824.13
438.145	840.18
438.52	860.97
438.895	874.07
439.271	853.51
439.646	862.55
440.021	869.33
440.395	896.45
440.77	863.68
441.145	905.03
441.52	918.14
441.895	884.02
442.27	899.61
442.645	920.4
443.019	894.86
443.394	905.26
443.769	926.28
444.143	914.52
444.518	944.35
444.892	930.79
445.267	948.87
445.641	955.2
446.016	957.91
446.39	982.09
446.764	952.49
447.139	946.84
447.513	977.57
447.887	982.54
448.262	965.82
448.636	990.91
449.01	1000.17
449.384	999.04
449.758	1000.85
450.132	1043.79
450.506	1004.92
450.88	1046.05
451.254	1040.17
451.628	1055.31
452.002	1073.62
452.376	1084.24
452.75	1073.84
453.123	1084.91
453.497	1122.88
453.871	1078.14
454.244	1097.12
454.618	1125.37
454.992	1144.57
455.365	1139.83
455.739	1151.35
456.112	1173.73
456.486	1180.73
456.859	1183.22
457.232	1221.41
457.606	1236.1
457.979	1222.76
458.352	1238.36
458.725	1248.53
459.099	1277.9
459.472	1258.47
459.845	1298.47
460.218	1328.07
460.591	1328.75
460.964	1322.65
461.337	1359.71
461.71	1352.25
462.083	1401.97
462.456	1374.62
462.829	1383.44
463.201	1422.08
463.574	1429.54
463.947	1450.33
464.32	1451.68
464.692	1472.02
465.065	1462.53
465.438	1497.33
465.81	1538.46
466.183	1526.71
466.555	1539.82
466.928	1555.64
467.3	1585.69
467.672	1577.33
468.045	1610.32
468.417	1620.49
468.789	1627.95
469.161	1667.72
469.534	1723.54
469.906	1703.2
470.278	1721.51
470.65	1719.47
471.022	1750.66
471.394	1787.04
471.766	1826.36
472.138	1806.7
472.51	1856.19
472.882	1869.08
473.253	1892.13
473.625	1941.39
473.997	1971.67
474.369	1946.81
474.74	1978.9
475.112	2013.7
475.484	2046.02
475.855	2077.43
476.227	2105
476.598	2148.84
476.97	2177.32
477.341	2216.18
477.713	2199.91
478.084	2258.9
478.455	2314.71
478.827	2315.62
479.198	2384.77
479.569	2359.46
479.94	2419.34
480.311	2443.07
480.682	2494.6
481.053	2560.81
481.424	2601.26
481.795	2616.4
482.166	2646
482.537	2674.93
482.908	2779.33
483.279	2767.58
483.65	2809.84
484.021	2867.47
484.391	2918.09
484.762	2900.69
485.133	2937.97
485.503	2949.27
485.874	3021.14
486.244	3078.31
486.615	3137.74
486.985	3155.37
487.356	3162.37
487.726	3210.96
488.097	3316.95
488.467	3312.65
488.837	3351.52
489.207	3392.65
489.578	3455.93
489.948	3479.2
490.318	3507.22
490.688	3521.01
491.058	3604.4
491.428	3624.51
491.798	3694.79
492.168	3702.25
492.538	3752.87
492.908	3831.51
493.278	3817.95
493.648	3822.92
494.017	3924.84
494.387	3901.79
494.757	3951.28
495.126	3999.64
495.496	4038.51
495.866	4041.67
496.235	4111.5
496.605	4110.6
496.974	4078.28
497.344	4184.72
497.713	4208.9
498.082	4201.9
498.452	4211.84
498.821	4231.95
499.19	4264.94
499.559	4397.6
499.928	4376.35
500.298	4417.03
500.667	4420.42
501.036	4426.97
501.405	4426.3
501.774	4473.3
502.143	4525.95
502.512	4557.14
502.88	4607.53
503.249	4568.89
503.618	4643.47
503.987	4593.07
504.356	4698.15
504.724	4684.14
505.093	4710.13
505.462	4700.64
505.83	4742.45
506.199	4807.08
506.567	4914.42
506.936	4906.28
507.304	4917.36
507.672	4966.39
508.041	4985.6
508.409	5009.56
508.777	5015.43
509.145	5084.36
509.514	5091.36
509.882	5151.7
510.25	5147.63
510.618	5193.96
510.986	5213.62
511.354	5238.48
511.722	5314.41
512.09	5342.43
512.458	5380.4
512.826	5444.57
513.193	5449.09
513.561	5471.47
513.929	5536.32
514.297	5551.46
514.664	5554.85
515.032	5605.7
515.4	5645.7
515.767	5688.18
516.135	5769.76
516.502	5694.51
516.869	5801.4
517.237	5862.87
517.604	5817.45
517.972	5944.67
518.339	5994.16
518.706	5985.58
519.073	6025.8
519.44	6120.71
519.808	6139.92
520.175	6144.67
520.542	6224.21
520.909	6305.12
521.276	6249.52
521.643	6370.88
522.009	6351.22
522.376	6411.55
522.743	6455.85
523.11	6547.14
523.477	6577.43
523.843	6601.15
524.21	6708.27
524.577	6711.89
524.943	6747.36
525.31	6736.29
525.676	6859.68
526.043	6895.84
526.409	6950.3
526.776	7013.35
527.142	7070.07
527.508	7073.91
527.874	7121.14
528.241	7114.59
528.607	7155.26
528.973	7261.25
529.339	7214.47
529.705	7355.71
530.071	7313.45
530.437	7408.14
530.803	7485.65
531.169	7531.53
531.535	7548.93
531.901	7595.7
532.267	7581.24
532.632	7644.97
532.998	7660.79
533.364	7693.1
533.73	7703.5
534.095	7807.22
534.461	7852.42
534.826	7825.53
535.192	7869.6
535.557	7918.86
535.923	7900.78
536.288	8004.73
536.653	7965.64
537.019	7998.18
537.384	8053.77
537.749	8047.22
538.114	8115.01
538.479	8144.39
538.845	8143.94
539.21	8238.4
539.575	8184.62
539.94	8207.21
540.305	8253.54
540.67	8312.07
541.034	8287.44
541.399	8397.04
541.764	8430.94
542.129	8446.08
542.494	8444.5
542.858	8391.39
543.223	8479.97
543.587	8516.13
543.952	8545.28
544.316	8592.06
544.681	8585.06
545.045	8634.77
545.41	8680.42
545.774	8699.4
546.138	8766.29
546.503	8776.69
546.867	8735.34
547.231	8811.27
547.595	8792.28
547.959	8863.69
548.324	8887.87
548.688	8940.98
549.052	8989.11
549.416	8962
549.779	8954.54
550.143	8935.56
550.507	9043.58
550.871	9073.18
551.235	9114.99
551.599	9189.33
551.962	9277.02
552.326	9252.84
552.689	9265.26
553.053	9277.24
553.417	9330.35
553.78	9453.51
554.143	9454.41
554.507	9428.65
554.87	9513.39
555.234	9633.16
555.597	9567.18
555.96	9659.6
556.323	9698.7
556.686	9629.32
557.05	9758.81
557.413	9837.23
557.776	9759.04
558.139	9852.82
558.502	9839.71
558.865	9888.98
559.228	9984.12
559.59	9989.77
559.953	10038.8
560.316	10158.12
560.679	10114.28
561.041	10201.74
561.404	10185.92
561.767	10275.41
562.129	10222.3
562.492	10359.93
562.854	10413.71
563.217	10345.46
563.579	10401.96
563.941	10471.11
564.304	10584.33
564.666	10565.12
565.028	10599.47
565.39	10620.71
565.753	10646.25
566.115	10747.94
566.477	10734.6
566.839	10816.86
567.201	10766.69
567.563	10850.53
567.925	10902.28
568.287	10898.44
568.648	10994.03
569.01	11001.26
569.372	11076.29
569.734	11004.88
570.095	11131.43
570.457	11197.19
570.819	11175.5
571.18	11193.8
571.542	11373.91
571.903	11321.03
572.265	11314.48
572.626	11291.65
572.987	11369.39
573.349	11455.04
573.71	11417.98
574.071	11463.17
574.432	11463.85
574.794	11595.6
575.155	11528.71
575.516	11480.8
575.877	11611.64
576.238	11555.37
576.599	11665.2
576.96	11652.77
577.32	11645.32
577.681	11665.43
578.042	11743.17
578.403	11694.58
578.763	11730.74
579.124	11787.91
579.485	11840.34
579.845	11875.59
580.206	11800.11
580.566	11828.59
580.927	11761.24
581.287	11835.82
581.648	11841.92
582.008	11856.38
582.368	11835.59
582.728	11880.56
583.089	11855.71
583.449	11808.93
583.809	11852.77
584.169	11954.23
584.529	11988.58
584.889	11977.74
585.249	11902.71
585.609	11845.99
585.969	11919.88
586.329	11894.12
586.688	11966.21
587.048	11906.78
587.408	11882.15
587.768	11955.36
588.127	11905.42
588.487	11902.71
588.846	12017.51
589.206	11963.27
589.565	11867.23
589.925	11917.85
590.284	11968.92
590.643	11987.91
591.003	12033.1
591.362	12087.56
591.721	12015.02
592.08	12074.91
592.44	12138.41
592.799	12071.97
593.158	12103.38
593.517	12090.5
593.876	12132.31
594.235	12184.28
594.593	12150.84
594.952	12152.65
595.311	12136.15
595.67	12064.06
596.029	12187
596.387	12182.7
596.746	12123.04
597.104	12101.12
597.463	12153.32
597.822	12127.56
598.18	12149.71
598.538	12187.45
598.897	12149.48
599.255	12108.13
599.613	12249.82
599.972	12118.07
600.33	12206.2
600.688	12148.13
601.046	12181.57
601.404	12268.8
601.762	12237.84
602.12	12312.64
602.478	12305.18
602.836	12342.47
603.194	12241.01
603.552	12292.3
603.91	12212.31
604.268	12370.95
604.625	12320.55
604.983	12313.09
605.341	12294.11
605.698	12395.8
606.056	12391.96
606.413	12343.15
606.771	12382.02
607.128	12405.3
607.485	12284.17
607.843	12297.05
608.2	12322.13
608.557	12401.23
608.914	12321
609.272	12490.49
609.629	12448.01
609.986	12454.56
610.343	12332.3
610.7	12499.08
611.057	12452.07
611.414	12427.67
611.771	12478.97
612.127	12477.38
612.484	12490.94
612.841	12532.75
613.198	12585.18
613.554	12535.24
613.911	12591.28
614.267	12634.67
614.624	12500.89
614.98	12616.59
615.337	12636.48
615.693	12586.08
616.05	12586.08
616.406	12671.95
616.762	12618.62
617.118	12617.95
617.475	12613.88
617.831	12686.19
618.187	12695.01
618.543	12657.94
618.899	12780.65
619.255	12724.38
619.611	12711.5
619.967	12742.01
620.323	12750.14
620.678	12690.03
621.034	12669.92
621.39	12719.86
621.746	12655.01
622.101	12891.38
622.457	12759.18
622.812	12748.79
623.168	12819.3
623.523	12685.74
623.879	12803.7
624.234	12712.86
624.589	12808.9
624.945	12814.1
625.3	12782.91
625.655	12749.92
626.01	12742.24
626.365	12762.57
626.72	12759.64
627.075	12659.3
627.43	12717.83
627.785	12672.63
628.14	12728
628.495	12755.34
628.85	12612.07
629.205	12643.93
629.559	12785.62
629.914	12670.15
630.269	12620.88
630.623	12557.38
630.978	12561.45
631.332	12672.18
631.687	12716.93
632.041	12618.85
632.396	12642.8
632.75	12590.15
633.104	12643.48
633.459	12587.66
633.813	12614.1
634.167	12518.74
634.521	12495.01
634.875	12474.67
635.229	12472.19
635.583	12424.96
635.937	12402.58
636.291	12426.54
636.645	12390.38
636.999	12331.62
637.352	12381.34
637.706	12266.32
638.06	12388.12
638.413	12305.86
638.767	12317.84
639.121	12337.73
639.474	12289.59
639.828	12220.89
640.181	12221.35
640.534	12259.08
640.888	12244.62
641.241	12155.81
641.594	12168.01
641.947	12210.95
642.301	12147.22
642.654	12131.18
643.007	12187.45
643.36	12128.24
643.713	12123.95
644.066	12100.22
644.419	12050.28
644.771	12073.1
645.124	11906.33
645.477	11911.97
645.83	11834.01
646.182	11630.63
646.535	11655.94
646.888	11678.31
647.24	11542.95
647.593	11735.26
647.945	11660.68
648.298	11645.32
648.65	11610.97
649.002	11535.26
649.355	11638.54
649.707	11598.76
650.059	11615.26
650.411	11784.07
650.763	11856.16
651.115	11962.37
651.467	11896.83
651.819	11900
652.171	11843.28
652.523	11868.13
652.875	11792.43
653.227	11814.12
653.578	11741.81
653.93	11735.93
654.282	11770.06
654.633	11709.95
654.985	11714.69
655.337	11710.4
655.688	11728.7
656.039	11658.42
656.391	11623.39
656.742	11602.38
657.094	11597.63
657.445	11645.09
657.796	11680.34
658.147	11629.27
658.498	11583.4
658.849	11644.64
659.2	11581.14
659.551	11681.7
659.902	11664.3
660.253	11599.67
660.604	11598.99
660.955	11518.31
661.306	11581.14
661.656	11489.61
662.007	11525.09
662.358	11539.1
662.708	11555.6
663.059	11537.97
663.409	11381.37
663.76	11475.83
664.11	11561.7
664.461	11536.39
664.811	11565.77
665.161	11492.78
665.511	11466.34
665.862	11500.01
666.212	11540.46
666.562	11493.68
666.912	11428.82
667.262	11452.33
667.612	11404.87
667.962	11359.45
668.312	11408.26
668.662	11421.82
669.011	11344.53
669.361	11300.69
669.711	11321.48
670.06	11283.97
670.41	11226.12
670.76	11273.8
671.109	11330.52
671.459	11223.18
671.808	11339.79
672.157	11258.21
672.507	11209.39
672.856	11175.27
673.205	11202.62
673.554	11276.96
673.904	11180.24
674.253	11238.55
674.602	11199.23
674.951	11100.92
675.3	10986.8
675.649	11154.03
675.998	11118.32
676.346	11183.86
676.695	11272.22
677.044	11196.74
677.393	11104.54
677.741	11180.02
678.09	11161.94
678.438	11045.56
678.787	11027.7
679.135	11181.15
679.484	11023.64
679.832	10965.33
680.181	11010.76
680.529	11048.95
680.877	11022.73
681.225	11016.63
681.573	11025.9
681.922	11001.72
682.27	10936.86
682.618	10845.34
682.966	10921.49
683.314	10964.88
683.661	10937.99
684.009	10903.87
684.357	10843.98
684.705	10842.17
685.053	10849.86
685.4	10834.72
685.748	10789.52
686.095	10742.74
686.443	10725.79
686.79	10686.24
687.138	10669.97
687.485	10670.2
687.832	10671.1
688.18	10639.92
688.527	10614.61
688.874	10573.03
689.221	10575.29
689.568	10561.5
689.915	10562.86
690.262	10480.6
690.609	10533.48
690.956	10451
691.303	10424.78
691.65	10426.59
691.997	10359.47
692.344	10351.56
692.69	10337.33
693.037	10334.16
693.383	10328.29
693.73	10307.27
694.077	10259.36
694.423	10196.31
694.769	10205.13
695.116	10197.9
695.462	10161.51
695.808	10066.6
696.155	10110.67
696.501	10127.84
696.847	10093.49
697.193	9979.82
697.539	10012.82
697.885	9940.95
698.231	9936.21
698.577	9949.09
698.923	9967.17
699.269	9830.67
699.614	9828.87
699.96	9783.9
700.306	9815.76
700.651	9802.43
700.997	9652.15
701.342	9690.56
701.688	9696.44
702.033	9596.78
702.379	9638.81
702.724	9651.47
703.069	9698.93
703.415	9521.08
703.76	9639.27
704.105	9556.33
704.45	9592.04
704.795	9491.7
705.14	9389.56
705.485	9474.98
705.83	9349.33
706.175	9402.89
706.52	9321.99
706.865	9267.98
707.209	9298.94
707.554	9278.82
707.899	9302.55
708.243	9261.2
708.588	9243.57
708.932	9198.6
709.277	9174.87
709.621	9205.61
709.966	9151.82
710.31	9190.69
710.654	9079.28
710.998	9133.29
711.342	9132.16
711.687	9043.8
712.031	8942.34
712.375	9044.71
712.719	9020.53
713.063	8931.49
713.407	8992.05
713.75	8878.83
714.094	8885.16
714.438	8818.04
714.782	8862.79
715.125	8789.8
715.469	8844.94
715.812	8813.75
716.156	8742.11
716.499	8694.66
716.843	8728.56
717.186	8668.44
717.53	8742.79
717.873	8725.39
718.216	8688.1
718.559	8656.24
718.902	8595.45
719.246	8640.2
719.589	8629.35
719.932	8586.86
720.275	8520.43
720.617	8573.08
720.96	8491.05
721.303	8566.98
721.646	8528.11
721.989	8477.71
722.331	8416.47
722.674	8485.85
723.016	8454.44
723.359	8415.57
723.701	8369.02
724.044	8328.79
724.386	8327.44
724.729	8362.01
725.071	8290.83
725.413	8332.18
725.755	8276.82
726.097	8213.54
726.439	8220.77
726.782	8206.99
727.124	8286.76
727.465	8224.16
727.807	8235.01
728.149	8209.47
728.491	8222.81
728.833	8190.72
729.175	8229.81
729.516	8119.08
729.858	8113.88
730.199	8155.24
730.541	8152.53
730.882	8157.72
731.224	8113.2
731.565	8050.16
731.906	8096.71
732.248	8097.39
732.589	8028.46
732.93	7969.03
733.271	7983.49
733.612	8009.93
733.953	8049.03
734.294	8036.37
734.635	7998.18
734.976	8044.05
735.317	7936.26
735.658	7958.86
735.999	7999.54
736.339	7918.63
736.68	7944.4
737.021	7875.02
737.361	7787.56
737.702	7884.28
738.042	7863.49
738.383	7818.75
738.723	7813.78
739.063	7791.41
739.404	7764.51
739.744	7743.27
740.084	7749.15
740.424	7747.56
740.764	7771.74
741.104	7806.09
741.444	7747.79
741.784	7690.39
742.124	7731.52
742.464	7692.2
742.804	7719.99
743.143	7656.49
743.483	7670.28
743.823	7629.83
744.162	7717.96
744.502	7697.4
744.841	7631.64
745.181	7652.43
745.52	7614.23
745.86	7648.81
746.199	7581.92
746.538	7607
746.877	7524.52
747.216	7563.84
747.556	7517.97
747.895	7524.75
748.234	7487.01
748.573	7518.19
748.911	7453.79
749.25	7474.35
749.589	7459.44
749.928	7442.26
750.267	7454.24
750.605	7424.64
750.944	7427.57
751.283	7451.08
751.621	7420.12
751.96	7365.43
752.298	7313.9
752.636	7304.41
752.975	7278.2
753.313	7277.29
753.651	7335.15
753.989	7265.09
754.327	7206.34
754.666	7236.62
755.004	7240.69
755.342	7273.9
755.679	7220.8
756.017	7158.2
756.355	7171.53
756.693	7057.64
757.031	7124.98
757.368	7138.77
757.706	7162.72
758.044	7058.09
758.381	7021.26
758.719	7045.89
759.056	7125.89
759.394	6952.11
759.731	6939
760.068	7018.32
760.405	6940.13
760.743	6886.34
761.08	6913.46
761.417	6855.61
761.754	6841.15
762.091	6856.97
762.428	6867.36
762.765	6741.49
763.102	6849.74
