Data from black_plastic_tray_FLMS001491_075.txt Node
Date: Tue Feb 07 10:40:35 GMT 2017
User: dcchb
Spectrometer: FLMS00149
Trigger mode: 0
Integration Time (sec): 2.000000E-2
Scans to average: 10
Electric dark correction enabled: true
Nonlinearity correction enabled: false
Boxcar width: 0
XAxis mode: Wavelengths
Number of Pixels in Spectrum: 2048
>>>>>Begin Spectral Data<<<<<
341.393	-23.93
341.776	-23.93
342.16	-23.93
342.543	-56.24
342.927	-50.14
343.31	-54.43
343.693	-79.29
344.077	-58.73
344.46	-65.73
344.843	-44.94
345.226	-27.54
345.61	-15.11
345.993	-33.19
346.376	3.42
346.759	-0.2
347.142	23.98
347.525	29.86
347.908	45.68
348.291	77.31
348.674	89.29
349.057	109.63
349.44	127.48
349.823	139.46
350.206	149.18
350.588	190.31
350.971	198.67
351.354	198.67
351.737	231.43
352.119	274.37
352.502	263.07
352.884	281.6
353.267	253.13
353.65	292
354.032	299.23
354.414	295.61
354.797	302.62
355.179	307.36
355.562	311.21
355.944	309.4
356.326	307.14
356.709	316.86
357.091	310.3
357.473	337.42
357.855	325.9
358.238	328.16
358.62	327.03
359.002	312.79
359.384	349.85
359.766	350.08
360.148	324.09
360.53	323.41
360.912	333.8
361.294	322.28
361.676	334.48
362.057	322.28
362.439	324.54
362.821	329.51
363.203	322.51
363.584	295.16
363.966	306.69
364.348	334.03
364.729	343.3
365.111	322.05
365.493	332.67
365.874	313.24
366.256	320.47
366.637	312.56
367.019	319.57
367.4	309.17
367.781	312.34
368.163	327.7
368.544	316.86
368.925	326.57
369.306	320.47
369.688	303.75
370.069	307.59
370.45	326.12
370.831	289.74
371.212	328.16
371.593	313.01
371.974	299.23
372.355	308.04
372.736	322.96
373.117	305.33
373.498	334.03
373.879	314.14
374.26	310.3
374.641	319.79
375.021	322.05
375.402	323.18
375.783	320.47
376.163	315.73
376.544	323.18
376.925	341.26
377.305	345.1
377.686	335.84
378.066	336.29
378.447	350.75
378.827	346.01
379.208	330.87
379.588	333.35
379.968	365.22
380.349	327.25
380.729	346.91
381.109	340.36
381.489	355.05
381.87	341.04
382.25	355.05
382.63	334.93
383.01	362.28
383.39	373.58
383.77	375.39
384.15	342.39
384.53	349.85
384.91	368.83
385.29	337.65
385.67	348.95
386.049	384.65
386.429	388.72
386.809	398.44
387.189	391.2
387.568	385.1
387.948	383.97
388.328	389.85
388.707	376.06
389.087	386.46
389.466	378.78
389.846	373.58
390.225	395.5
390.605	399.79
390.984	404.31
391.363	391.88
391.743	391.43
392.122	396.18
392.501	409.96
392.881	379.91
393.26	432.79
393.639	419.23
394.018	416.29
394.397	398.66
394.776	403.63
395.155	419.23
395.534	408.83
395.913	411.32
396.292	431.66
396.671	437.08
397.05	415.38
397.429	421.49
397.808	419.23
398.186	432.33
398.565	427.14
398.944	426.91
399.323	443.41
399.701	442.05
400.08	443.18
400.458	447.93
400.837	450.19
401.215	460.36
401.594	478.66
401.972	465.78
402.351	453.58
402.729	450.86
403.107	449.06
403.486	466.68
403.864	474.37
404.242	488.6
404.62	495.16
404.999	480.69
405.377	494.03
405.755	503.74
406.133	500.58
406.511	509.62
406.889	493.8
407.267	500.35
407.645	515.49
408.023	519.79
408.401	499
408.779	549.17
409.156	519.79
409.534	523.4
409.912	535.16
410.29	532.67
410.667	549.17
411.045	546.68
411.422	555.49
411.8	564.53
412.178	547.81
412.555	588.26
412.933	569.96
413.31	586.23
413.687	566.79
414.065	591.2
414.442	600.24
414.819	604.98
415.197	575.38
415.574	617.19
415.951	615.15
416.328	612.67
416.705	610.18
417.082	616.28
417.46	615.61
417.837	639.11
418.214	631.88
418.591	643.85
418.967	644.98
419.344	644.31
419.721	634.81
420.098	636.85
420.475	670.52
420.852	677.75
421.228	695.6
421.605	687.92
421.982	682.27
422.358	677.07
422.735	711.42
423.111	713.91
423.488	675.26
423.864	674.59
424.241	723.4
424.617	700.35
424.994	707.13
425.37	716.17
425.746	740.57
426.123	736.28
426.499	752.32
426.875	759.1
427.251	762.49
427.627	784.41
428.003	790.06
428.379	795.04
428.756	793.23
429.132	804.53
429.507	800.91
429.883	811.53
430.259	817.18
430.635	811.76
431.011	856.5
431.387	823.51
431.763	884.98
432.138	859.44
432.514	858.76
432.89	888.82
433.265	905.32
433.641	906.22
434.016	898.08
434.392	938.99
434.767	963.17
435.143	940.12
435.518	929.72
435.894	944.64
436.269	943.51
436.644	973.56
437.02	993.22
437.395	981.7
437.77	999.32
438.145	1007.69
438.52	1039.1
438.895	1032.77
439.271	1005.88
439.646	1009.72
440.021	1040.45
440.395	1033.9
440.77	1040.45
441.145	1034.8
441.52	1055.14
441.895	1061.24
442.27	1073.67
442.645	1107.12
443.019	1093.33
443.394	1105.08
443.769	1124.29
444.143	1109.6
444.518	1117.51
444.892	1123.61
445.267	1137.85
445.641	1158.64
446.016	1158.42
446.39	1131.3
446.764	1142.6
447.139	1147.12
447.513	1170.17
447.887	1176.04
448.262	1160.22
448.636	1190.96
449.01	1204.06
449.384	1210.17
449.758	1238.87
450.132	1226.66
450.506	1241.13
450.88	1245.65
451.254	1237.96
451.628	1266.66
452.002	1249.26
452.376	1300.33
452.75	1282.48
453.123	1298.3
453.497	1295.59
453.871	1298.98
454.244	1353.21
454.618	1367.9
454.992	1395.47
455.365	1384.85
455.739	1397.96
456.112	1421.01
456.486	1446.32
456.859	1425.53
457.232	1452.19
457.606	1485.86
457.979	1501.91
458.352	1519.54
458.725	1519.76
459.099	1545.3
459.472	1559.31
459.845	1552.76
460.218	1591.85
460.591	1624.84
460.964	1611.29
461.337	1621
461.71	1640.89
462.083	1655.8
462.456	1695.58
462.829	1722.47
463.201	1725.86
463.574	1698.06
463.947	1766.99
464.32	1771.96
464.692	1777.61
465.065	1788.91
465.438	1844.05
465.81	1834.33
466.183	1897.83
466.555	1923.14
466.928	1924.95
467.3	1925.4
467.672	1961.11
468.045	2019.86
468.417	2010.82
468.789	2033.87
469.161	2062.12
469.534	2077.94
469.906	2120.88
470.278	2104.61
470.65	2148.22
471.022	2195.9
471.394	2154.55
471.766	2241.55
472.138	2239.29
472.51	2304.6
472.882	2298.27
473.253	2348.22
473.625	2413.75
473.997	2453.98
474.369	2486.29
474.74	2492.62
475.112	2502.34
475.484	2524.71
475.855	2576.23
476.227	2583.92
476.598	2646.29
476.97	2705.95
477.341	2755.44
477.713	2787.53
478.084	2811.93
478.455	2853.74
478.827	2895.09
479.198	2977.58
479.569	2973.74
479.94	3051.47
480.311	3024.13
480.682	3121.75
481.053	3203.33
481.424	3273.61
481.795	3254.86
482.166	3343.44
482.537	3394.06
482.908	3453.72
483.279	3507.28
483.65	3537.11
484.021	3608.07
484.391	3629.09
484.762	3673.15
485.133	3694.85
485.503	3753.83
485.874	3862.3
486.244	3884.45
486.615	3908.4
486.985	3941.62
487.356	4060.26
487.726	4043.54
488.097	4163.08
488.467	4117.89
488.837	4241.95
489.207	4262.97
489.578	4307.71
489.948	4373.92
490.318	4446.47
490.688	4453.47
491.058	4496.63
491.428	4601.26
491.798	4613.01
492.168	4688.94
492.538	4739.11
492.908	4804.87
493.278	4868.15
493.648	4866.34
494.017	4897.3
494.387	4936.17
494.757	5009.61
495.126	5068.6
495.496	5054.81
495.866	5075.15
496.235	5173.23
496.605	5200.12
496.974	5230.63
497.344	5317.4
497.713	5317.85
498.082	5377.97
498.452	5439.89
498.821	5458.64
499.19	5450.96
499.559	5491.64
499.928	5530.73
500.298	5544.52
500.667	5639.65
501.036	5664.29
501.405	5712.19
501.774	5704.96
502.143	5772.76
502.512	5766.43
502.88	5839.42
503.249	5849.37
503.618	5884.39
503.987	5923.49
504.356	5950.38
504.724	5988.35
505.093	6003.94
505.462	6062.24
505.83	6142.92
506.199	6190.15
506.567	6251.62
506.936	6212.97
507.304	6316.47
507.672	6316.02
508.041	6348.56
508.409	6468.56
508.777	6464.27
509.145	6468.33
509.514	6509.69
509.882	6605.73
510.25	6588.78
510.618	6594.21
510.986	6660.87
511.354	6716.01
511.722	6764.6
512.09	6906.51
512.458	6814.99
512.826	6920.98
513.193	7002.78
513.561	7043.23
513.929	7030.35
514.297	7126.62
514.664	7222.44
515.032	7247.3
515.4	7238.03
515.767	7294.98
516.135	7342.66
516.502	7277.35
516.869	7430.34
517.237	7440.28
517.604	7460.62
517.972	7604.8
518.339	7649.32
518.706	7666.72
519.073	7724.12
519.44	7751.46
519.808	7889.54
520.175	7868.07
520.542	7984.9
520.909	8044.56
521.276	8026.48
521.643	8106.03
522.009	8125.46
522.376	8221.73
522.743	8227.38
523.11	8338.34
523.477	8419.47
523.843	8434.83
524.21	8545.34
524.577	8605.45
524.943	8655.85
525.31	8670.53
525.676	8770.19
526.043	8881.15
526.409	8854.26
526.776	8946.69
527.142	8978.32
527.508	9060.58
527.874	9121.14
528.241	9174.25
528.607	9224.42
528.973	9352.1
529.339	9293.12
529.705	9431.19
530.071	9544.64
530.437	9565.43
530.803	9549.83
531.169	9634.13
531.535	9675.03
531.901	9646.78
532.267	9734.91
532.632	9836.83
532.998	9835.7
533.364	9923.84
533.73	9905.53
534.095	10033.44
534.461	10063.27
534.826	10091.29
535.192	10101.01
535.557	10248.57
535.923	10228.01
536.288	10319.98
536.653	10329.47
537.019	10310.72
537.384	10332.86
537.749	10446.53
538.114	10437.27
538.479	10526.53
538.845	10667.09
539.21	10611.73
539.575	10624.61
539.94	10633.19
540.305	10708.45
540.67	10662.35
541.034	10743.25
541.399	10742.34
541.764	10782.12
542.129	10809.46
542.494	10888.56
542.858	10929.91
543.223	10997.93
543.587	10967.88
543.952	10993.86
544.316	11099.17
544.681	11013.98
545.045	11133.75
545.41	11198.15
545.774	11276.57
546.138	11153.63
546.503	11283.12
546.867	11315.44
547.231	11410.8
547.595	11484.02
547.959	11433.4
548.324	11471.82
548.688	11378.03
549.052	11565.15
549.416	11541.87
549.779	11599.27
550.143	11589.55
550.507	11754.97
550.871	11727.18
551.235	11725.37
551.599	11803.79
551.962	11894.18
552.326	11851.02
552.689	12005.59
553.053	11960.62
553.417	11950
553.78	12217.56
554.143	12149.31
554.507	12157.45
554.87	12194.51
555.234	12436.76
555.597	12337.56
555.96	12385.24
556.323	12437.67
556.686	12408.97
557.05	12516.99
557.413	12523.54
557.776	12603.76
558.139	12672.69
558.502	12701.39
558.865	12786.13
559.228	12913.36
559.59	12931.67
559.953	12922.85
560.316	13020.7
560.679	13067.48
561.041	13031.55
561.404	13148.61
561.767	13208.72
562.129	13206.69
562.492	13338.89
562.854	13330.3
563.217	13412.56
563.579	13469.73
563.941	13567.58
564.304	13573.46
564.666	13688.26
565.028	13639.67
565.39	13732.55
565.753	13828.37
566.115	13838.99
566.477	14002.15
566.839	13933
567.201	13999.43
567.563	14016.16
567.925	14145.87
568.287	14147.23
568.648	14069.49
569.01	14284.17
569.372	14351.29
569.734	14302.25
570.095	14462.25
570.457	14561.91
570.819	14609.36
571.18	14553.09
571.542	14643.03
571.903	14619.76
572.265	14779.3
572.626	14742.47
572.987	14781.79
573.349	14838.51
573.71	14905.85
574.071	14881.9
574.432	14839.19
574.794	15025.4
575.155	15078.05
575.516	14880.99
575.877	15026.53
576.238	15040.99
576.599	15170.25
576.96	15130.93
577.32	15165.05
577.681	15203.24
578.042	15231.72
578.403	15300.42
578.763	15395.1
579.124	15353.75
579.485	15438.94
579.845	15442.33
580.206	15283.47
580.566	15365.95
580.927	15367.99
581.287	15374.54
581.648	15388.32
582.008	15477.81
582.368	15446.63
582.728	15456.57
583.089	15414.31
583.449	15539.73
583.809	15484.14
584.169	15553.97
584.529	15497.93
584.889	15672.84
585.249	15596.68
585.609	15436.01
585.969	15513.74
586.329	15522.56
586.688	15534.76
587.048	15572.95
587.408	15571.82
587.768	15511.71
588.127	15612.05
588.487	15453.86
588.846	15573.18
589.206	15460.19
589.565	15452.5
589.925	15507.87
590.284	15553.29
590.643	15553.97
591.003	15499.06
591.362	15523.24
591.721	15610.01
592.08	15533.63
592.44	15631.48
592.799	15705.6
593.158	15651.37
593.517	15677.36
593.876	15779.5
594.235	15651.14
594.593	15725.94
594.952	15715.77
595.311	15647.53
595.67	15662.89
596.029	15755.77
596.387	15715.32
596.746	15809.78
597.104	15736.11
597.463	15693.17
597.822	15733.63
598.18	15683.23
598.538	15636.45
598.897	15792.83
599.255	15648.66
599.613	15889.78
599.972	15843.45
600.33	15786.05
600.688	15791.48
601.046	15802.78
601.404	15920.74
601.762	15748.54
602.12	15955.99
602.478	15917.12
602.836	15973.39
603.194	15837.35
603.552	15806.39
603.91	15876.45
604.268	15958.03
604.625	15938.59
604.983	15915.77
605.341	15846.39
605.698	15956.9
606.056	15956.67
606.413	15968.2
606.771	15988.76
607.128	16025.6
607.485	15990.34
607.843	15977.91
608.2	16070.11
608.557	16187.85
608.914	16067.4
609.272	16143.33
609.629	16215.2
609.986	16269.43
610.343	16066.05
610.7	16260.62
611.057	16149.89
611.414	16177.68
611.771	16271.46
612.127	16330.45
612.484	16294.06
612.841	16343.1
613.198	16291.58
613.554	16353.27
613.911	16351.01
614.267	16395.76
614.624	16384.91
614.98	16339.26
615.337	16403.21
615.693	16381.52
616.05	16384.91
616.406	16462.42
616.762	16429.43
617.118	16478.24
617.475	16378.13
617.831	16624.22
618.187	16559.14
618.543	16496.09
618.899	16569.31
619.255	16577.22
619.611	16686.6
619.967	16655.64
620.323	16765.01
620.678	16560.72
621.034	16557.78
621.39	16522.08
621.746	16509.65
622.101	16745.58
622.457	16590.78
622.812	16625.13
623.168	16632.13
623.523	16665.13
623.879	16710.1
624.234	16551.91
624.589	16618.35
624.945	16683.66
625.3	16611.79
625.655	16663.09
626.01	16741.28
626.365	16696.99
626.72	16643.88
627.075	16700.15
627.43	16593.26
627.785	16591.23
628.14	16640.27
628.495	16647.95
628.85	16681.85
629.205	16607.73
629.559	16602.98
629.914	16606.37
630.269	16520.72
630.623	16559.82
630.978	16453.83
631.332	16588.74
631.687	16593.94
632.041	16534.96
632.396	16580.16
632.75	16479.37
633.104	16521.85
633.459	16388.75
633.813	16505.13
634.167	16357.34
634.521	16358.24
634.875	16325.02
635.229	16365.47
635.583	16207.74
635.937	16210
636.291	16143.78
636.645	16238.92
636.999	16117.12
637.352	16068.53
637.706	16050.68
638.06	16073.5
638.413	16002.09
638.767	16048.19
639.121	16065.82
639.474	16066.27
639.828	16083.9
640.181	16092.71
640.534	15986.27
640.888	15981.08
641.241	15891.36
641.594	15906.95
641.947	15923.68
642.301	15906.28
642.654	15866.96
643.007	15811.14
643.36	15801.65
643.713	15763.91
644.066	15785.15
644.419	15818.82
644.771	15649.56
645.124	15626.51
645.477	15570.47
645.83	15400.53
646.182	15323.02
646.535	15284.82
646.888	15321.66
647.24	15195.11
647.593	15281.89
647.945	15277.14
648.298	15121.89
648.65	15037.15
649.002	15085.06
649.355	15188.1
649.707	15078.95
650.059	15145.39
650.411	15315.11
650.763	15456.35
651.115	15593.52
651.467	15509.68
651.819	15458.38
652.171	15456.35
652.523	15426.06
652.875	15405.27
653.227	15422.22
653.578	15491.15
653.93	15403.24
654.282	15384.48
654.633	15316.91
654.985	15429.23
655.337	15477.81
655.688	15403.24
656.039	15323.92
656.391	15197.14
656.742	15234.88
657.094	15207.54
657.445	15268.1
657.796	15266.29
658.147	15165.73
658.498	15260.19
658.849	15320.53
659.2	15257.25
659.551	15191.72
659.902	15189.91
660.253	15153.08
660.604	15220.19
660.955	15126.64
661.306	15137.71
661.656	15053.42
662.007	15097.71
662.358	15156.47
662.708	15110.82
663.059	15014.55
663.409	14863.82
663.76	15025.62
664.11	15009.8
664.461	15082.8
664.811	15101.78
665.161	15002.57
665.511	14982.46
665.862	14920.99
666.212	14963.93
666.562	14991.27
666.912	15027.66
667.262	14989.69
667.612	14959.18
667.962	15039.41
668.312	14911.27
668.662	14909.92
669.011	14942.91
669.361	14889.58
669.711	14866.53
670.06	14840.99
670.41	14771.62
670.76	14692.07
671.109	14904.27
671.459	14856.81
671.808	14835.57
672.157	14826.53
672.507	14862.24
672.856	14732.75
673.205	14781.11
673.554	14765.29
673.904	14709.47
674.253	14816.14
674.602	14702.47
674.951	14536.6
675.3	14419.99
675.649	14521.23
675.998	14697.72
676.346	14718.29
676.695	14761.45
677.044	14646.42
677.393	14692.52
677.741	14672.41
678.09	14660.89
678.438	14485.98
678.787	14548.35
679.135	14660.21
679.484	14397.16
679.832	14570.49
680.181	14505.41
680.529	14558.52
680.877	14478.52
681.225	14430.61
681.573	14568.01
681.922	14471.74
682.27	14340.89
682.618	14402.14
682.966	14351.97
683.314	14426.77
683.661	14317.17
684.009	14227
684.357	14223.61
684.705	14187.9
685.053	14263.16
685.4	14299.77
685.748	14221.12
686.095	14085.99
686.443	14078.98
686.79	14008.02
687.138	14115.14
687.485	14042.6
687.832	14057.74
688.18	13984.29
688.527	13970.51
688.874	13884.18
689.221	13904.75
689.568	13818.87
689.915	13804.19
690.262	13877.18
690.609	13782.72
690.956	13705.88
691.303	13602.38
691.65	13580.91
691.997	13529.39
692.344	13544.08
692.69	13466.79
693.037	13411.43
693.383	13396.96
693.73	13528.71
694.077	13409.17
694.423	13491.88
694.769	13410.98
695.116	13387.47
695.462	13337.08
695.808	13272.22
696.155	13319.68
696.501	13211.88
696.847	13235.84
697.193	13105.9
697.539	13162.62
697.885	13063.19
698.231	12970.99
698.577	12960.82
698.923	12984.09
699.269	12893.02
699.614	12836.53
699.96	12806.92
700.306	12923.76
700.651	12741.84
700.997	12730.31
701.342	12715.17
701.688	12589.53
702.033	12586.36
702.379	12631.33
702.724	12632.01
703.069	12595.18
703.415	12549.3
703.76	12524.9
704.105	12503.65
704.45	12531
704.795	12394.73
705.14	12428.63
705.485	12318.35
705.83	12315.86
706.175	12304.56
706.52	12318.8
706.865	12233.6
707.209	12220.27
707.554	12174.17
707.899	12157.9
708.243	12113.38
708.588	12172.14
708.932	12027.51
709.277	12019.6
709.621	12063.21
709.966	11922.65
710.31	11994.29
710.654	11883.78
710.998	11946.61
711.342	11878.13
711.687	11896.44
712.031	11857.12
712.375	11736.67
712.719	11788.64
713.063	11719.27
713.407	11717.91
713.75	11735.99
714.094	11630.91
714.438	11684.69
714.782	11571.48
715.125	11562.66
715.469	11629.78
715.812	11558.82
716.156	11419.61
716.499	11434.08
716.843	11400.18
717.186	11441.08
717.53	11481.76
717.873	11459.61
718.216	11429.33
718.559	11396.34
718.902	11379.62
719.246	11315.89
719.589	11346.62
719.932	11227.76
720.275	11323.35
720.617	11266.62
720.96	11255.1
721.303	11194.08
721.646	11191.37
721.989	11120.87
722.331	11133.75
722.674	11185.27
723.016	11128.1
723.359	11092.17
723.701	11147.53
724.044	11114.31
724.386	11064.6
724.729	11122.67
725.071	10990.25
725.413	11067.08
725.755	11003.58
726.097	10881.55
726.439	10854.88
726.782	10938.05
727.124	10950.25
727.465	10836.81
727.807	10911.61
728.149	10876.13
728.491	10820.76
728.833	10848.1
729.175	10766.98
729.516	10746.86
729.858	10739.86
730.199	10731.72
730.541	10773.53
730.882	10728.33
731.224	10650.37
731.565	10666.19
731.906	10604.5
732.248	10658.73
732.589	10575.34
732.93	10522.01
733.271	10541.45
733.612	10489.02
733.953	10509.36
734.294	10471.17
734.635	10490.6
734.976	10533.08
735.317	10413.99
735.658	10511.39
735.999	10504.38
736.339	10404.5
736.68	10459.64
737.021	10390.94
737.361	10225.52
737.702	10393.88
738.042	10365.86
738.383	10307.78
738.723	10371.28
739.063	10326.76
739.404	10355.46
739.744	10364.73
740.084	10255.13
740.424	10281.11
740.764	10213.32
741.104	10263.71
741.444	10172.42
741.784	10112.53
742.124	10162.25
742.464	10122.02
742.804	10114.79
743.143	10111.4
743.483	10122.47
743.823	10060.33
744.162	10015.36
744.502	10058.52
744.841	10042.7
745.181	10127.9
745.52	10003.61
745.86	10037.28
746.199	10033.66
746.538	9957.96
746.877	9970.16
747.216	9905.08
747.556	9914.12
747.895	9954.34
748.234	9900.33
748.573	9875.47
748.911	9833.22
749.25	9849.71
749.589	9808.36
749.928	9832.31
750.267	9841.13
750.605	9766.78
750.944	9738.53
751.283	9735.14
751.621	9770.39
751.96	9657.85
752.298	9719.55
752.636	9644.97
752.975	9656.95
753.313	9581.25
753.651	9708.02
753.989	9563.62
754.327	9546.22
754.666	9476.16
755.004	9489.04
755.342	9494.92
755.679	9425.09
756.017	9289.95
756.355	9416.28
756.693	9287.92
757.031	9390.74
757.368	9292.44
