Data from black_plastic_tray_FLMS001491_099.txt Node
Date: Tue Feb 07 10:41:03 GMT 2017
User: dcchb
Spectrometer: FLMS00149
Trigger mode: 0
Integration Time (sec): 2.000000E-2
Scans to average: 10
Electric dark correction enabled: true
Nonlinearity correction enabled: false
Boxcar width: 0
XAxis mode: Wavelengths
Number of Pixels in Spectrum: 2048
>>>>>Begin Spectral Data<<<<<
341.393	-12.25
341.776	-12.25
342.16	-12.25
342.543	-61.06
342.927	-78.68
343.31	-54.5
343.693	-70.1
344.077	-64.67
344.46	-52.02
344.843	-47.05
345.226	-38.23
345.61	-23.77
345.993	-34.84
346.376	0.41
346.759	4.25
347.142	37.24
347.525	42.89
347.908	35.21
348.291	74.31
348.674	89.22
349.057	101.65
349.44	110.69
349.823	133.51
350.206	143
350.588	158.15
350.971	179.61
351.354	217.58
351.737	220.97
352.119	229.78
352.502	240.18
352.884	241.76
353.267	265.49
353.65	270.68
354.032	281.53
354.414	313.85
354.797	270.23
355.179	289.89
355.562	303.23
355.944	289.89
356.326	324.92
356.709	316.11
357.091	296.45
357.473	310.68
357.855	323.11
358.238	291.7
358.62	326.73
359.002	283.11
359.384	332.83
359.766	332.38
360.148	317.01
360.53	325.15
360.912	320.18
361.294	291.7
361.676	314.3
362.057	312.72
362.439	306.16
362.821	294.87
363.203	297.12
363.584	296.45
363.966	314.07
364.348	303.68
364.729	287.41
365.111	309.1
365.493	292.83
365.874	300.51
366.256	292.83
366.637	300.97
367.019	294.19
367.4	307.29
367.781	287.18
368.163	289.67
368.544	282.66
368.925	299.84
369.306	315.2
369.688	297.12
370.069	302.55
370.45	277.46
370.831	307.52
371.212	283.11
371.593	307.75
371.974	288.76
372.355	298.25
372.736	287.41
373.117	283.11
373.498	302.55
373.879	298.03
374.26	301.19
374.641	310.23
375.021	291.7
375.402	286.73
375.783	301.64
376.163	298.25
376.544	313.85
376.925	305.94
377.305	314.3
377.686	298.71
378.066	314.3
378.447	297.58
378.827	301.42
379.208	326.95
379.588	335.54
379.968	292.61
380.349	334.41
380.729	302.32
381.109	285.37
381.489	316.33
381.87	333.06
382.25	320.4
382.63	320.63
383.01	335.99
383.39	340.06
383.77	335.09
384.15	328.76
384.53	330.8
384.91	333.28
385.29	322.21
385.67	329.44
386.049	341.64
386.429	343.9
386.809	334.64
387.189	337.8
387.568	322.44
387.948	355.88
388.328	347.07
388.707	336.67
389.087	334.86
389.466	338.71
389.846	340.06
390.225	336.45
390.605	356.56
390.984	352.04
391.363	367.86
391.743	378.7
392.122	342.32
392.501	354.52
392.881	375.54
393.26	359.95
393.639	382.77
394.018	376.67
394.397	356.11
394.776	336.45
395.155	365.6
395.534	371.02
395.913	375.99
396.292	340.51
396.671	364.24
397.05	359.27
397.429	347.07
397.808	359.27
398.186	382.32
398.565	399.5
398.944	371.47
399.323	381.42
399.701	375.99
400.08	370.8
400.458	370.57
400.837	391.36
401.215	387.07
401.594	391.13
401.972	364.69
402.351	380.51
402.729	402.66
403.107	399.5
403.486	399.5
403.864	413.28
404.242	420.29
404.62	421.64
404.999	412.38
405.377	400.17
405.755	398.14
406.133	397.01
406.511	404.24
406.889	425.48
407.267	405.6
407.645	427.29
408.023	432.26
408.401	421.64
408.779	430
409.156	434.07
409.534	440.4
409.912	447.4
410.29	425.03
410.667	443.79
411.045	461.41
411.422	451.7
411.8	433.17
412.178	422.55
412.555	455.31
412.933	468.87
413.31	448.08
413.687	454.18
414.065	478.36
414.442	462.54
414.819	465.71
415.197	475.43
415.574	489.21
415.951	481.53
416.328	482.43
416.705	494.41
417.082	487.85
417.46	484.69
417.837	488.98
418.214	495.31
418.591	495.99
418.967	484.01
419.344	482.88
419.721	506.38
420.098	509.77
420.475	480.62
420.852	507.29
421.228	528.53
421.605	540.96
421.982	539.15
422.358	502.77
422.735	539.38
423.111	524.69
423.488	521.98
423.864	528.98
424.241	561.07
424.617	537.8
424.994	554.97
425.37	551.58
425.746	567.4
426.123	547.97
426.499	556.33
426.875	559.72
427.251	583.67
427.627	570.34
428.003	571.47
428.379	580.51
428.756	589.55
429.132	598.59
429.507	590.68
429.883	591.13
430.259	598.36
430.635	620.28
431.011	616.89
431.387	597.68
431.763	620.05
432.138	629.77
432.514	656.66
432.89	633.84
433.265	649.88
433.641	641.07
434.016	659.83
434.392	659.38
434.767	664.35
435.143	663.22
435.518	668.64
435.894	697.11
436.269	679.94
436.644	695.31
437.02	700.05
437.395	722.88
437.77	702.76
438.145	717.23
438.52	724.01
438.895	729.88
439.271	721.07
439.646	747.51
440.021	719.49
440.395	743.89
440.77	737.57
441.145	740.73
441.52	752.48
441.895	753.84
442.27	764.23
442.645	762.2
443.019	775.98
443.394	773.72
443.769	764.68
444.143	747.06
444.518	816.89
444.892	783.89
445.267	781.41
445.641	804.23
446.016	807.62
446.39	816.43
446.764	810.33
447.139	803.78
447.513	819.82
447.887	834.96
448.262	837.68
448.636	825.25
449.01	851.23
449.384	816.43
449.758	844.91
450.132	848.97
450.506	845.81
450.88	834.74
451.254	852.59
451.628	857.11
452.002	884
452.376	892.82
452.75	890.78
453.123	906.6
453.497	920.84
453.871	907.73
454.244	890.33
454.618	922.42
454.992	934.17
455.365	922.42
455.739	948.18
456.112	965.36
456.486	993.6
456.859	977.33
457.232	977.79
457.606	1019.82
457.979	1004.23
458.352	1028.41
458.725	1045.58
459.099	1046.71
459.472	1057.78
459.845	1046.94
460.218	1061.85
460.591	1095.3
460.964	1093.26
461.337	1111.57
461.71	1106.6
462.083	1127.61
462.456	1127.84
462.829	1116.31
463.201	1148.85
463.574	1169.87
463.947	1158.57
464.32	1182.53
464.692	1195.86
465.065	1227.5
465.438	1227.95
465.81	1234.5
466.183	1228.85
466.555	1237.67
466.928	1280.6
467.3	1272.92
467.672	1282.86
468.045	1304.1
468.417	1324.67
468.789	1311.34
469.161	1331.9
469.534	1355.63
469.906	1387.27
470.278	1385.91
470.65	1411.67
471.022	1433.59
471.394	1437.43
471.766	1452.35
472.138	1500.48
472.51	1509.52
472.882	1521.27
473.253	1511.78
473.625	1523.08
473.997	1590.42
474.369	1596.98
474.74	1586.81
475.112	1630.88
475.484	1644.66
475.855	1680.14
476.227	1690.53
476.598	1700.7
476.97	1733.92
477.341	1772.57
477.713	1782.51
478.084	1769.18
478.455	1840.36
478.827	1869.51
479.198	1889.63
479.569	1906.12
479.94	1959.45
480.311	1955.39
480.682	2027.02
481.053	2041.03
481.424	2075.61
481.795	2055.27
482.166	2108.6
482.537	2114.7
482.908	2172.33
483.279	2200.13
483.65	2199.67
484.021	2269.28
484.391	2317.41
484.762	2311.54
485.133	2345.43
485.503	2327.58
485.874	2436.28
486.244	2423.17
486.615	2444.41
486.985	2497.97
487.356	2522.38
487.726	2541.81
488.097	2566.9
488.467	2569.83
488.837	2638.98
489.207	2670.62
489.578	2733.67
489.948	2717.17
490.318	2759.66
490.688	2783.16
491.058	2832.2
491.428	2832.43
491.798	2881.01
492.168	2935.93
492.538	2911.07
492.908	2951.29
493.278	3029.48
493.648	2983.83
494.017	3046.43
494.387	3042.82
494.757	3103.15
495.126	3168.69
495.496	3132.08
495.866	3146.09
496.235	3206.65
496.605	3254.79
496.974	3238.06
497.344	3264.05
497.713	3251.4
498.082	3318.06
498.452	3351.96
498.821	3339.53
499.19	3378.4
499.559	3449.58
499.928	3440.32
500.298	3458.85
500.667	3490.26
501.036	3471.05
501.405	3519.64
501.774	3494.78
502.143	3573.65
502.512	3575.91
502.88	3552.63
503.249	3568.23
503.618	3640.54
503.987	3673.31
504.356	3659.3
504.724	3699.3
505.093	3697.49
505.462	3766.41
505.83	3761.67
506.199	3807.09
506.567	3844.38
506.936	3859.97
507.304	3902.68
507.672	3952.17
508.041	3897.48
508.409	3945.39
508.777	3993.75
509.145	4024.94
509.514	4022
509.882	4060.19
510.25	4010.47
510.618	4109.23
510.986	4088.21
511.354	4174.54
511.722	4178.6
512.09	4190.81
512.458	4232.16
512.826	4230.58
513.193	4267.87
513.561	4303.8
513.929	4360.29
514.297	4349.22
514.664	4364.14
515.032	4377.7
515.4	4450.91
515.767	4440.52
516.135	4527.52
516.502	4501.53
516.869	4535.21
517.237	4581.76
517.604	4580.63
517.972	4619.72
518.339	4652.26
518.706	4668.54
519.073	4697.91
519.44	4732.71
519.808	4728.87
520.175	4794.18
520.542	4850
520.909	4880.51
521.276	4880.28
521.643	4939.94
522.009	4961.86
522.376	4971.35
522.743	5030.33
523.11	5066.94
523.477	5115.98
523.843	5116.89
524.21	5204.79
524.577	5228.52
524.943	5284.79
525.31	5275.98
525.676	5354.17
526.043	5355.07
526.409	5365.01
526.776	5482.3
527.142	5456.76
527.508	5518.68
527.874	5571.79
528.241	5604.1
528.607	5624.22
528.973	5668.51
529.339	5659.02
529.705	5700.37
530.071	5781.27
530.437	5791.9
530.803	5793.93
531.169	5876.87
531.535	5880.25
531.901	5888.16
532.267	5874.38
532.632	5981.04
532.998	5967.26
533.364	5997.09
533.73	6014.04
534.095	6020.14
534.461	6079.12
534.826	6145.78
535.192	6146.46
535.557	6226.91
535.923	6209.74
536.288	6194.37
536.653	6281.83
537.019	6227.36
537.384	6324.76
537.749	6321.15
538.114	6330.19
538.479	6328.15
538.845	6408.15
539.21	6373.58
539.575	6463.52
539.94	6455.83
540.305	6471.65
540.67	6500.8
541.034	6447.02
541.399	6574.25
541.764	6525.66
542.129	6604.3
542.494	6567.02
542.858	6550.29
543.223	6629.39
543.587	6599.33
543.952	6692.21
544.316	6717.3
544.681	6702.61
545.045	6739.89
545.41	6764.07
545.774	6798.2
546.138	6807.46
546.503	6802.49
546.867	6846.78
547.231	6882.26
547.595	6947.12
547.959	6932.2
548.324	6956.84
548.688	6945.31
549.052	6998.19
549.416	7085.65
549.779	7031.86
550.143	7047.23
550.507	7104.63
550.871	7141.92
551.235	7132.43
551.599	7197.96
551.962	7138.98
552.326	7242.71
552.689	7290.16
553.053	7272.53
553.417	7321.8
553.78	7323.61
554.143	7335.81
554.507	7409.71
554.87	7375.58
555.234	7478.18
555.597	7479.31
555.96	7504.17
556.323	7536.71
556.686	7530.83
557.05	7556.14
557.413	7619.42
557.776	7571.28
558.139	7693.31
558.502	7739.64
558.865	7787.32
559.228	7761.56
559.59	7850.6
559.953	7881.33
560.316	7892.86
560.679	7856.7
561.041	7943.25
561.404	7954.78
561.767	8005.85
562.129	7959.3
562.492	8103.7
562.854	8111.16
563.217	8090.37
563.579	8139.18
563.941	8178.27
564.304	8224.83
564.666	8288.78
565.028	8316.35
565.39	8288.78
565.753	8386.63
566.115	8375.33
566.477	8402.67
566.839	8402.67
567.201	8500.75
567.563	8474.31
567.925	8591.6
568.287	8594.08
568.648	8634.31
569.01	8663.01
569.372	8701.42
569.734	8672.05
570.095	8729.67
570.457	8751.82
570.819	8845.15
571.18	8761.99
571.542	8815.55
571.903	8807.86
572.265	8839.5
572.626	8908.88
572.987	8849.44
573.349	8977.35
573.71	9046.05
574.071	9069.55
574.432	9002.88
574.794	9056.89
575.155	9100.28
575.516	9049.66
575.877	9121.3
576.238	9215.53
576.599	9157
576.96	9180.06
577.32	9224.57
577.681	9211.01
578.042	9274.29
578.403	9187.06
578.763	9301.63
579.124	9333.5
579.485	9307.06
579.845	9268.41
580.206	9309.54
580.566	9400.84
580.927	9326.94
581.287	9337.79
581.648	9343.44
582.008	9434.51
582.368	9367.39
582.728	9420.5
583.089	9375.76
583.449	9402.2
583.809	9390.45
584.169	9393.38
584.529	9371.91
584.889	9475.64
585.249	9414.63
585.609	9413.5
585.969	9441.07
586.329	9444.46
586.688	9428.86
587.048	9489.65
587.408	9423.89
587.768	9420.27
588.127	9382.08
588.487	9417.56
588.846	9480.39
589.206	9388.64
589.565	9382.54
589.925	9472.02
590.284	9398.13
590.643	9421.63
591.003	9453.04
591.362	9486.04
591.721	9524.23
592.08	9497.79
592.44	9506.83
592.799	9476.32
593.158	9491.91
593.517	9521.74
593.876	9545.47
594.235	9495.08
594.593	9504.57
594.952	9528.75
595.311	9507.5
595.67	9487.39
596.029	9572.36
596.387	9561.97
596.746	9560.16
597.104	9533.27
597.463	9544.57
597.822	9512.02
598.18	9606.71
598.538	9582.08
598.897	9622.98
599.255	9510.67
599.613	9629.31
599.972	9574.62
600.33	9600.38
600.688	9577.78
601.046	9637.44
601.404	9645.13
601.762	9663.66
602.12	9640.61
602.478	9653.26
602.836	9705.24
603.194	9692.36
603.552	9613.04
603.91	9637.22
604.268	9734.84
604.625	9698.01
604.983	9713.15
605.341	9689.19
605.698	9635.86
606.056	9727.61
606.413	9703.43
606.771	9798.57
607.128	9838.79
607.485	9705.01
607.843	9730.55
608.2	9800.38
608.557	9773.49
608.914	9755.86
609.272	9863.43
609.629	9857.55
609.986	9865.23
610.343	9778.91
610.7	9882.41
611.057	9911.56
611.414	9943.42
611.771	9901.17
612.127	9958.34
612.484	9975.97
612.841	10007.15
613.198	9974.61
613.554	9937.32
613.911	10029.75
614.267	9996.98
614.624	9920.37
614.98	9973.71
615.337	10009.19
615.693	10020.03
616.05	9988.17
616.406	10089.18
616.762	9994.05
617.118	10010.99
617.475	10018.45
617.831	10060.48
618.187	10008.51
618.543	10037.43
618.899	10152.46
619.255	10145.45
619.611	10063.87
619.967	10089.64
620.323	10218.22
620.678	10139.35
621.034	10022.52
621.39	10162.85
621.746	10048.28
622.101	10175.06
622.457	10152.01
622.812	10064.55
623.168	10170.31
623.523	10201.27
623.879	10155.85
624.234	10088.51
624.589	10222.06
624.945	10247.82
625.3	10239.24
625.655	10207.82
626.01	10139.8
626.365	10188.84
626.72	10181.38
627.075	10209.18
627.43	10151.1
627.785	10161.27
628.14	10186.13
628.495	10219.58
628.85	10210.31
629.205	10094.61
629.559	10248.28
629.914	10087.83
630.269	10175.74
630.623	10089.86
630.978	10115.85
631.332	10106.58
631.687	10126.92
632.041	10036.08
632.396	10124.21
632.75	10059.81
633.104	10071.11
633.459	10044.44
633.813	10046.47
634.167	9962.18
634.521	9960.37
634.875	9996.98
635.229	10033.14
635.583	9922.86
635.937	9819.59
636.291	9886.25
636.645	9882.64
636.999	9883.54
637.352	9932.8
637.706	9856.65
638.06	9819.36
638.413	9860.49
638.767	9827.72
639.121	9858.91
639.474	9797.44
639.828	9756.09
640.181	9779.36
640.534	9817.1
640.888	9736.65
641.241	9671.57
641.594	9690.1
641.947	9767.16
642.301	9729.19
642.654	9713.15
643.007	9724.22
643.36	9636.09
643.713	9674.28
644.066	9679.48
644.419	9641.06
644.771	9596.99
645.124	9474.74
645.477	9492.59
645.83	9441.29
646.182	9407.85
646.535	9341.86
646.888	9409.43
647.24	9302.31
647.593	9446.94
647.945	9376.66
648.298	9248.08
648.65	9288.53
649.002	9279.71
649.355	9307.51
649.707	9331.24
650.059	9326.72
650.411	9430.9
650.763	9406.94
651.115	9539.37
651.467	9470.22
651.819	9449.88
652.171	9481.06
652.523	9467.05
652.875	9417.79
653.227	9473.61
653.578	9516.54
653.93	9463.89
654.282	9388.19
654.633	9375.98
654.985	9379.6
655.337	9389.09
655.688	9370.56
656.039	9405.13
656.391	9352.03
656.742	9365.14
657.094	9291.92
657.445	9409.43
657.796	9355.42
658.147	9383.89
658.498	9323.1
658.849	9369.2
659.2	9406.04
659.551	9290.33
659.902	9299.37
660.253	9309.77
660.604	9302.09
660.955	9256.21
661.306	9310
661.656	9315.64
662.007	9277.23
662.358	9223.9
662.708	9234.52
663.059	9291.69
663.409	9211.69
663.76	9206.04
664.11	9284.46
664.461	9309.77
664.811	9305.48
665.161	9243.78
665.511	9212.37
665.862	9286.49
666.212	9249.21
666.562	9256.66
666.912	9265.02
667.262	9187.06
667.612	9251.69
667.962	9229.32
668.312	9158.81
668.662	9193.84
669.011	9189.77
669.361	9139.83
669.711	9139.15
670.06	9145.93
670.41	9079.49
670.76	9117.23
671.109	9176.89
671.459	9112.26
671.808	9150.23
672.157	9116.78
672.507	9052.15
672.856	9099.15
673.205	9054.63
673.554	9170.56
673.904	9076.56
674.253	9105.03
674.602	9097.57
674.951	8971.47
675.3	8933.28
675.649	8974.86
675.998	9040.62
676.346	9105.93
676.695	9023.45
677.044	8995.65
677.393	9006.95
677.741	8985.71
678.09	9000.85
678.438	8964.24
678.787	9039.72
679.135	8998.59
679.484	8994.75
679.832	8954.07
680.181	8856
680.529	9016.9
680.877	8995.88
681.225	8924.69
681.573	8921.53
681.922	8866.17
682.27	8902.77
682.618	8901.87
682.966	8880.85
683.314	8891.48
683.661	8861.87
684.009	8785.04
684.357	8793.4
684.705	8822.78
685.053	8810.35
685.4	8830.91
685.748	8694.87
686.095	8693.06
686.443	8695.32
686.79	8630.01
687.138	8679.96
687.485	8673.63
687.832	8650.58
688.18	8653.97
688.527	8582.33
688.874	8565.38
689.221	8536
689.568	8562.67
689.915	8569.68
690.262	8553.86
690.609	8443.58
690.956	8393.18
691.303	8452.62
691.65	8441.09
691.997	8352.51
692.344	8352.73
692.69	8357.48
693.037	8388.66
693.383	8340.76
693.73	8397.48
694.077	8309.12
694.423	8322
694.769	8310.93
695.116	8240.42
695.462	8281.32
695.808	8167.43
696.155	8163.13
696.501	8132.63
696.847	8086.3
697.193	8103.7
697.539	8127.65
697.885	8050.37
698.231	8037.26
698.577	8049.92
698.923	8036.58
699.269	7924.27
699.614	7890.6
699.96	7882.91
700.306	7919.52
700.651	7921.33
700.997	7859.19
701.342	7871.84
701.688	7860.77
702.033	7897.6
702.379	7842.01
702.724	7862.12
703.069	7830.94
703.415	7698.29
703.76	7732.86
704.105	7741.45
704.45	7738.51
704.795	7705.97
705.14	7737.83
705.485	7649.47
705.83	7598.63
706.175	7646.54
706.52	7633.2
706.865	7581.91
707.209	7602.92
707.554	7541.68
707.899	7586.65
708.243	7575.58
708.588	7490.38
708.932	7505.3
709.277	7505.52
709.621	7430.04
709.966	7415.13
710.31	7425.98
710.654	7381.91
710.998	7315.7
711.342	7337.84
711.687	7317.05
712.031	7362.7
712.375	7319.09
712.719	7361.35
713.063	7256.49
713.407	7299.2
713.75	7256.94
714.094	7299.88
714.438	7197.28
714.782	7224.17
715.125	7165.42
715.469	7225.08
715.812	7163.61
716.156	7165.42
716.499	7105.53
716.843	7149.37
717.186	7126.55
717.53	7113.44
717.873	7124.97
718.216	7116.61
718.559	7055.37
718.902	7051.3
719.246	7056.95
719.589	6988.02
719.932	6975.59
720.275	6990.73
720.617	6993.45
720.96	6976.72
721.303	6968.59
721.646	6929.27
721.989	6864.41
722.331	6927.69
722.674	6875.71
723.016	6906.89
723.359	6925.65
723.701	6902.15
724.044	6858.08
724.386	6844.98
724.729	6795.49
725.071	6846.78
725.413	6803.17
725.755	6866.44
726.097	6793
726.439	6733.11
726.782	6742.61
727.124	6816.28
727.465	6743.74
727.807	6718.88
728.149	6704.19
728.491	6687.69
728.833	6746.67
729.175	6720.01
729.516	6699.89
729.858	6715.71
730.199	6690.86
730.541	6695.15
730.882	6684.08
731.224	6623.96
731.565	6668.93
731.906	6640.24
732.248	6632.78
732.589	6579.45
732.93	6583.29
733.271	6548.71
733.612	6605.66
733.953	6563.17
734.294	6547.81
734.635	6538.54
734.976	6537.19
735.317	6529.96
735.658	6482.73
735.999	6531.99
736.339	6535.83
736.68	6520.24
737.021	6462.84
737.361	6440.47
737.702	6424.2
738.042	6467.13
738.383	6452.9
738.723	6457.87
739.063	6447.02
739.404	6390.98
739.744	6422.39
740.084	6385.1
740.424	6364.31
740.764	6379.68
741.104	6413.57
741.444	6375.84
741.784	6311.88
742.124	6364.54
742.464	6304.88
742.804	6286.8
743.143	6275.5
743.483	6290.87
743.823	6285.22
744.162	6281.15
744.502	6312.79
744.841	6278.89
745.181	6264.2
745.52	6256.52
745.86	6280.02
746.199	6271.43
746.538	6191.43
746.877	6272.11
747.216	6232.56
747.556	6212
747.895	6201.6
748.234	6125.45
748.573	6138.33
748.911	6168.83
749.25	6155.95
749.589	6097.42
749.928	6138.33
750.267	6166.58
750.605	6127.93
750.944	6138.33
751.283	6070.76
751.621	6087.03
751.96	6070.31
752.298	6049.29
752.636	6045.9
752.975	6064.88
753.313	6019.69
753.651	6029.4
753.989	5979.24
754.327	5976.3
754.666	5919.12
755.004	5958.22
755.342	5900.14
755.679	5924.1
756.017	5958.9
756.355	5851.1
756.693	5843.87
757.031	5885.9
757.368	5826.25
757.706	5823.08
758.044	5828.96
758.381	5839.58
758.719	5757.77
759.056	5800.48
759.394	5747.15
759.731	5725
760.068	5721.62
760.405	5712.58
760.743	5701.95
761.08	5685.23
761.417	5653.59
761.754	5652.92
762.091	5623.99
762.428	5645.46
762.765	5657.66
763.102	5645.23
763.438	5579.02
763.775	5607.95
764.112	5569.98
764.449	5579.02
764.785	5505.12
765.122	5504.67
765.458	5496.99
765.795	5422.64
766.131	5493.15
766.467	5464.9
766.804	5456.99
767.14	5428.52
767.476	5376.09
767.812	5390.1
768.148	5409.76
768.485	5312.36
768.821	5354.39
769.157	5302.87
769.492	5276.2
769.828	5276.88
