Data from black_metal_pc_casing_FLMS001491_00017.txt Node
Date: Wed Feb 08 14:32:03 GMT 2017
User: dcchb
Spectrometer: FLMS00149
Trigger mode: 0
Integration Time (sec): 2.000000E-2
Scans to average: 10
Electric dark correction enabled: true
Nonlinearity correction enabled: false
Boxcar width: 0
XAxis mode: Wavelengths
Number of Pixels in Spectrum: 2048
>>>>>Begin Spectral Data<<<<<
341.393	-19.67
341.776	-19.67
342.16	-19.67
342.543	-50.63
342.927	-66.45
343.31	-71.65
343.693	-62.16
344.077	-54.25
344.46	-62.61
344.843	-67.58
345.226	-36.4
345.61	-31.88
345.993	-12.22
346.376	-16.96
346.759	18.06
347.142	23.94
347.525	33.88
347.908	45.41
348.291	87.89
348.674	97.16
349.057	109.36
349.44	104.84
349.823	129.25
350.206	167.44
350.588	173.77
350.971	196.36
351.354	204.5
351.737	213.54
352.119	241.11
352.502	222.35
352.884	242.24
353.267	272.97
353.65	272.3
354.032	280.2
354.414	272.75
354.797	305.51
355.179	285.85
355.562	299.64
355.944	306.19
356.326	319.3
356.709	333.31
357.091	327.66
357.473	312.07
357.855	309.81
358.238	324.95
358.62	341.9
359.002	324.27
359.384	319.75
359.766	327.21
360.148	335.34
360.53	333.54
360.912	314.33
361.294	333.31
361.676	333.76
362.057	319.3
362.439	309.58
362.821	319.75
363.203	310.26
363.584	342.35
363.966	312.52
364.348	309.81
364.729	304.61
365.111	316.59
365.493	330.15
365.874	309.58
366.256	300.99
366.637	315.46
367.019	296.02
367.4	282.46
367.781	308.45
368.163	298.06
368.544	295.35
368.925	285.4
369.306	303.93
369.688	299.41
370.069	305.29
370.45	288.34
370.831	292.18
371.212	305.06
371.593	287.44
371.974	301.67
372.355	313.2
372.736	310.49
373.117	303.93
373.498	312.75
373.879	277.94
374.26	298.74
374.641	294.89
375.021	299.41
375.402	297.83
375.783	283.37
376.163	322.92
376.544	326.08
376.925	323.37
377.305	310.94
377.686	327.21
378.066	314.1
378.447	311.84
378.827	342.8
379.208	319.98
379.588	306.64
379.968	324.05
380.349	323.14
380.729	320.88
381.109	338.06
381.489	320.43
381.87	333.08
382.25	320.43
382.63	347.32
383.01	344.16
383.39	319.3
383.77	343.48
384.15	320.66
384.53	328.56
384.91	323.82
385.29	326.98
385.67	327.89
386.049	362.24
386.429	341.45
386.809	348.9
387.189	328.34
387.568	350.71
387.948	351.84
388.328	341.9
388.707	345.74
389.087	369.02
389.466	353.42
389.846	355.68
390.225	363.82
390.605	370.15
390.984	359.07
391.363	343.71
391.743	376.7
392.122	347.32
392.501	376.93
392.881	376.25
393.26	385.74
393.639	373.31
394.018	380.77
394.397	384.61
394.776	344.84
395.155	384.38
395.534	371.5
395.913	401.56
396.292	375.8
396.671	371.05
397.05	373.31
397.429	405.4
397.808	367.21
398.186	389.13
398.565	387.55
398.944	376.47
399.323	402.01
399.701	385.29
400.08	375.8
400.458	393.2
400.837	408.79
401.215	412.18
401.594	424.83
401.972	414.89
402.351	409.92
402.729	400.2
403.107	412.18
403.486	403.14
403.864	410.37
404.242	409.24
404.62	415.34
404.999	423.93
405.377	418.28
405.755	416.47
406.133	424.16
406.511	420.31
406.889	434.1
407.267	429.13
407.645	449.47
408.023	430.26
408.401	425.06
408.779	438.62
409.156	442.01
409.534	443.14
409.912	447.88
410.29	432.29
410.667	440.2
411.045	468.9
411.422	475
411.8	457.83
412.178	471.16
412.555	485.17
412.933	479.07
413.31	479.52
413.687	485.85
414.065	468
414.442	512.29
414.819	483.36
415.197	486.75
415.574	498.96
415.951	489.69
416.328	507.32
416.705	508.45
417.082	501.22
417.46	498.05
417.837	520.65
418.214	503.25
418.591	498.73
418.967	538.95
419.344	539.86
419.721	524.94
420.098	538.73
420.475	538.28
420.852	548.9
421.228	547.32
421.605	537.6
421.982	543.93
422.358	558.84
422.735	573.76
423.111	547.99
423.488	557.94
423.864	554.77
424.241	590.25
424.617	555.68
424.994	559.52
425.37	554.32
425.746	573.76
426.123	589.8
426.499	566.52
426.875	595.45
427.251	595
427.627	606.07
428.003	611.95
428.379	595.45
428.756	604.49
429.132	621.44
429.507	606.98
429.883	618.5
430.259	630.03
430.635	646.97
431.011	649.46
431.387	652.62
431.763	648.56
432.138	628.67
432.514	651.04
432.89	656.24
433.265	681.78
433.641	684.04
434.016	676.13
434.392	667.54
434.767	690.14
435.143	707.76
435.518	708.44
435.894	714.32
436.269	708.89
436.644	732.62
437.02	738.27
437.395	730.36
437.77	712.51
438.145	753.41
438.52	757.93
438.895	733.75
439.271	744.15
439.646	757.48
440.021	763.13
440.395	752.51
440.77	773.52
441.145	785.05
441.52	750.47
441.895	772.85
442.27	781.43
442.645	779.85
443.019	790.25
443.394	786.41
443.769	797.03
444.143	797.48
444.518	816.46
444.892	823.69
445.267	799.96
445.641	823.69
446.016	835.9
446.39	838.61
446.764	825.27
447.139	844.71
447.513	857.59
447.887	856.46
448.262	843.35
448.636	861.66
449.01	860.3
449.384	861.21
449.758	868.44
450.132	891.04
450.506	900.75
450.88	899.85
451.254	877.93
451.628	899.85
452.002	898.95
452.376	938.27
452.75	929
453.123	917.48
453.497	938.94
453.871	945.95
454.244	950.02
454.618	955.67
454.992	955.21
455.365	970.58
455.739	972.16
456.112	1012.39
456.486	998.38
456.859	978.49
457.232	1012.61
457.606	1009.45
457.979	1047.64
458.352	1059.39
458.725	1065.04
459.099	1053.74
459.472	1062.56
459.845	1077.92
460.218	1085.16
460.591	1130.13
460.964	1101.2
461.337	1162.89
461.71	1136
462.083	1137.81
462.456	1159.28
462.829	1150.69
463.201	1172.16
463.574	1194.76
463.947	1184.81
464.32	1211.48
464.692	1244.92
465.065	1232.95
465.438	1271.14
465.81	1246.73
466.183	1256.45
466.555	1279.73
466.928	1292.61
467.3	1285.15
467.672	1303.45
468.045	1337.13
468.417	1339.84
468.789	1338.93
469.161	1362.44
469.534	1397.46
469.906	1426.39
470.278	1414.19
470.65	1417.35
471.022	1445.6
471.394	1489.66
471.766	1483.56
472.138	1498.03
472.51	1519.04
472.882	1568.31
473.253	1578.02
473.625	1580.06
473.997	1602.2
474.369	1623.45
474.74	1629.77
475.112	1644.01
475.484	1668.87
475.855	1725.82
476.227	1723.1
476.598	1757.68
476.97	1765.59
477.341	1787.96
477.713	1799.49
478.084	1836.1
478.455	1879.03
478.827	1887.85
479.198	1930.56
479.569	1953.38
479.94	2001.06
480.311	2002.65
480.682	2064.56
481.053	2078.8
481.424	2116.99
481.795	2145.47
482.166	2135.97
482.537	2161.06
482.908	2210.55
483.279	2211.23
483.65	2282.64
484.021	2298.91
484.391	2319.47
484.762	2350.88
485.133	2357.44
485.503	2416.42
485.874	2457.1
486.244	2435.63
486.615	2518.56
486.985	2554.27
487.356	2590.2
487.726	2618
488.097	2627.94
488.467	2676.3
488.837	2686.02
489.207	2765.11
489.578	2784.09
489.948	2823.87
490.318	2817.31
490.688	2845.33
491.058	2864.09
491.428	2906.35
491.798	2927.82
492.168	2998.55
492.538	3016.63
492.908	3030.41
493.278	3046.01
493.648	3068.15
494.017	3092.33
494.387	3132.56
494.757	3148.38
495.126	3218.88
495.496	3237.41
495.866	3248.26
496.235	3286.23
496.605	3290.97
496.974	3311.31
497.344	3307.24
497.713	3360.58
498.082	3357.19
498.452	3369.61
498.821	3412.55
499.19	3467.92
499.559	3479.22
499.928	3471.31
500.298	3536.84
500.667	3544.75
501.036	3541.59
501.405	3548.37
501.774	3565.99
502.143	3624.75
502.512	3677.4
502.88	3696.39
503.249	3691.19
503.618	3724.63
503.987	3714.24
504.356	3744.52
504.724	3770.06
505.093	3775.93
505.462	3808.47
505.83	3849.38
506.199	3858.19
506.567	3878.75
506.936	3915.36
507.304	3906.32
507.672	3992.88
508.041	4000.78
508.409	4019.09
508.777	4062.7
509.145	4087.79
509.514	4050.27
509.882	4139.09
510.25	4146.32
510.618	4131.63
510.986	4180.89
511.354	4218.63
511.722	4217.5
512.09	4297.95
512.458	4279.65
512.826	4309.7
513.193	4351.28
513.561	4354.9
513.929	4399.19
514.297	4477.16
514.664	4490.94
515.032	4466.76
515.4	4582.69
515.767	4570.49
516.135	4539.53
516.502	4547.89
516.869	4638.73
517.237	4688
517.604	4633.99
517.972	4678.28
518.339	4716.47
518.706	4771.39
519.073	4786.53
519.44	4809.8
519.808	4849.12
520.175	4903.36
520.542	4884.83
520.909	4955.79
521.276	4935.45
521.643	5054.99
522.009	5102.22
522.376	5066.29
522.743	5113.52
523.11	5170.7
523.477	5158.49
523.843	5259.06
524.21	5294.76
524.577	5322.78
524.943	5354.42
525.31	5368.66
525.676	5431.48
526.043	5462.22
526.409	5476.9
526.776	5597.58
527.142	5565.72
527.508	5558.94
527.874	5640.97
528.241	5692.72
528.607	5719.61
528.973	5757.57
529.339	5685.71
529.705	5833.73
530.071	5880.06
530.437	5862.2
530.803	5901.07
531.169	5984.69
531.535	5982.2
531.901	5973.61
532.267	5984.24
532.632	6026.72
532.998	6082.99
533.364	6087.74
533.73	6160.5
534.095	6229.65
534.461	6227.39
534.826	6235.53
535.192	6223.1
535.557	6317.33
535.923	6270.1
536.288	6361.4
536.653	6364.34
537.019	6332.02
537.384	6374.28
537.749	6384.22
538.114	6414.28
538.479	6419.03
538.845	6544.45
539.21	6459.25
539.575	6509.42
539.94	6516.65
540.305	6578.8
540.67	6600.72
541.034	6617.66
541.399	6643.43
541.764	6639.36
542.129	6645.46
542.494	6718.91
542.858	6727.94
543.223	6748.51
543.587	6795.74
543.952	6846.13
544.316	6789.86
544.681	6873.93
545.045	6832.8
545.41	6815.4
545.774	6891.1
546.138	6906.02
546.503	6978.79
546.867	6972.23
547.231	7001.16
547.595	7046.13
547.959	7007.49
548.324	7024.21
548.688	7103.53
549.052	7102.85
549.416	7118.44
549.779	7136.3
550.143	7203.64
550.507	7179.46
550.871	7216.52
551.235	7244.99
551.599	7296.97
551.962	7297.2
552.326	7332
552.689	7369.74
553.053	7390.75
553.417	7398.44
553.78	7506.68
554.143	7433.01
554.507	7491.99
554.87	7508.26
555.234	7584.19
555.597	7582.16
555.96	7602.05
556.323	7665.32
556.686	7574.02
557.05	7581.71
557.413	7698.09
557.776	7703.96
558.139	7739.44
558.502	7813.57
558.865	7850.85
559.228	7858.08
559.59	7908.93
559.953	7985.09
560.316	7956.61
560.679	7966.33
561.041	8035.48
561.404	8033.22
561.767	8186.89
562.129	8107.57
562.492	8227.57
562.854	8241.35
563.217	8209.26
563.579	8262.59
563.941	8310.05
564.304	8293.33
564.666	8426.43
565.028	8400.67
565.39	8465.98
565.753	8480.44
566.115	8512.3
566.477	8537.39
566.839	8584.62
567.201	8606.54
567.563	8666.42
567.925	8650.61
568.287	8624.39
568.648	8719.76
569.01	8800.43
569.372	8785.97
569.734	8783.03
570.095	8903.93
570.457	8916.36
570.819	8886.31
571.18	8953.87
571.542	8979.86
571.903	9027.09
572.265	9017.6
572.626	9028.22
572.987	9026.42
573.349	9161.33
573.71	9107.32
574.071	9106.64
574.432	9181.21
574.794	9262.34
575.155	9270.93
575.516	9255.11
575.877	9219.18
576.238	9262.79
576.599	9295.56
576.96	9393.41
577.32	9371.26
577.681	9374.65
578.042	9403.58
578.403	9405.16
578.763	9371.72
579.124	9395.67
579.485	9448.55
579.845	9470.7
580.206	9460.98
580.566	9385.95
580.927	9488.78
581.287	9504.37
581.648	9461.43
582.008	9536.23
582.368	9444.71
582.728	9516.57
583.089	9539.4
583.449	9477.02
583.809	9574.65
584.169	9561.32
584.529	9509.57
584.889	9627.08
585.249	9494.43
585.609	9549.11
585.969	9626.17
586.329	9555.44
586.688	9620.75
587.048	9583.24
587.408	9537.36
587.768	9562.22
588.127	9571.49
588.487	9479.28
588.846	9580.75
589.206	9542.33
589.565	9535.1
589.925	9595.21
590.284	9532.39
590.643	9597.93
591.003	9657.59
591.362	9599.96
591.721	9614.87
592.08	9649.22
592.44	9556.34
592.799	9653.07
593.158	9586.63
593.517	9627.98
593.876	9633.63
594.235	9604.71
594.593	9588.21
594.952	9734.87
595.311	9652.61
595.67	9690.8
596.029	9778.71
596.387	9732.39
596.746	9754.76
597.104	9683.12
597.463	9759.05
597.822	9701.88
598.18	9736.68
598.538	9697.81
598.897	9728.54
599.255	9659.62
599.613	9840.86
599.972	9773.06
600.33	9717.47
600.688	9718.37
601.046	9801.54
601.404	9834.53
601.762	9784.14
602.12	9845.15
602.478	9857.81
602.836	9825.26
603.194	9815.77
603.552	9819.39
603.91	9841.08
604.268	9825.94
604.625	9778.49
604.983	9850.35
605.341	9829.78
605.698	9935.09
606.056	9871.59
606.413	9897.35
606.771	9906.17
607.128	9912.72
607.485	9915.43
607.843	9891.48
608.2	9931.02
608.557	9937.35
608.914	9922.89
609.272	10014.64
609.629	9980.97
609.986	10000.4
610.343	10009.89
610.7	10072.49
611.057	10015.09
611.414	10033.17
611.771	9978.93
612.127	10060.06
612.484	10074.98
612.841	10113.39
613.198	10087.18
613.554	10057.35
613.911	10163.33
614.267	10142.77
614.624	10092.38
614.98	10214.41
615.337	10172.83
615.693	10182.54
616.05	10175.76
616.406	10269.32
616.762	10157.68
617.118	10195.42
617.475	10148.65
617.831	10272.03
618.187	10215.08
618.543	10262.99
618.899	10234.07
619.255	10276.1
619.611	10301.18
619.967	10230
620.323	10347.51
620.678	10225.48
621.034	10316.55
621.39	10355.87
621.746	10281.98
622.101	10332.82
622.457	10282.88
622.812	10274.07
623.168	10332.14
623.523	10277.46
623.879	10314.97
624.234	10295.08
624.589	10327.85
624.945	10335.76
625.3	10268.64
625.655	10287.62
626.01	10291.47
626.365	10307.96
626.72	10301.18
627.075	10271.35
627.43	10335.76
627.785	10265.93
628.14	10344.12
628.495	10308.19
628.85	10304.57
629.205	10206.5
629.559	10309.77
629.914	10248.76
630.269	10262.54
630.623	10259.83
630.978	10255.31
631.332	10345.02
631.687	10272.94
632.041	10251.92
632.396	10241.75
632.75	10199.49
633.104	10280.17
633.459	10172.83
633.813	10200.85
634.167	10182.32
634.521	10174.18
634.875	10187.51
635.229	10120.17
635.583	10145.26
635.937	10188.64
636.291	10073.85
636.645	10120.17
636.999	10070.46
637.352	10097.12
637.706	9972.83
638.06	10053.96
638.413	10036.11
638.767	10106.61
639.121	10046.05
639.474	9971.7
639.828	10021.64
640.181	9981.87
640.534	9983.68
640.888	9933.06
641.241	9973.28
641.594	10025.03
641.947	9980.51
642.301	9948.2
642.654	9918.14
643.007	9911.36
643.36	9898.48
643.713	9877.47
644.066	9862.1
644.419	9851.25
644.771	9736.9
645.124	9709.34
645.477	9668.88
645.83	9648.32
646.182	9564.03
646.535	9582.56
646.888	9582.33
647.24	9460.3
647.593	9570.81
647.945	9493.52
648.298	9512.28
648.65	9451.04
649.002	9401.32
649.355	9442.22
649.707	9484.93
650.059	9454.88
650.411	9581.88
650.763	9643.12
651.115	9683.8
651.467	9677.02
651.819	9644.48
652.171	9639.28
652.523	9601.99
652.875	9621.88
653.227	9599.06
653.578	9628.66
653.93	9547.08
654.282	9524.71
654.633	9542.33
654.985	9590.02
655.337	9602.45
655.688	9571.03
656.039	9592.95
656.391	9494.43
656.742	9492.62
657.094	9582.56
657.445	9566.29
657.796	9514.09
658.147	9499.4
658.498	9527.42
658.849	9519.96
659.2	9536.68
659.551	9478.61
659.902	9479.74
660.253	9531.94
660.604	9451.94
660.955	9484.03
661.306	9444.26
661.656	9507.76
662.007	9502.33
662.358	9473.18
662.708	9443.35
663.059	9423.01
663.409	9393.86
663.76	9470.25
664.11	9455.56
664.461	9492.84
664.811	9456.91
665.161	9430.7
665.511	9387.99
665.862	9491.26
666.212	9413.07
666.562	9428.44
666.912	9433.64
667.262	9434.77
667.612	9442.9
667.962	9386.63
668.312	9364.71
668.662	9350.93
669.011	9370.13
669.361	9399.74
669.711	9402.45
670.06	9380.53
670.41	9425.5
670.76	9361.32
671.109	9331.49
671.459	9342.34
671.808	9399.51
672.157	9382.79
672.507	9255.56
672.856	9316.8
673.205	9296.46
673.554	9352.51
673.904	9293.75
674.253	9331.04
674.602	9287.65
674.951	9182.12
675.3	9122.01
675.649	9255.34
675.998	9247.65
676.346	9207.2
676.695	9272.74
677.044	9185.06
677.393	9282
677.741	9209.24
678.09	9242.23
678.438	9185.73
678.787	9228.44
679.135	9188.9
679.484	9130.82
679.832	9146.19
680.181	9141.44
680.529	9182.57
680.877	9109.8
681.225	9100.54
681.573	9140.99
681.922	9042.23
682.27	9116.36
682.618	9053.31
682.966	9044.49
683.314	9054.44
683.661	9055.57
684.009	8998.39
684.357	8936.02
684.705	8962.24
685.053	8951.84
685.4	8950.94
685.748	8864.16
686.095	8853.09
686.443	8861.45
686.79	8850.37
687.138	8880.88
687.485	8806.08
687.832	8784.84
688.18	8823.48
688.527	8795.46
688.874	8761.11
689.221	8711.17
689.568	8708.23
689.915	8713.43
690.262	8701.68
690.609	8662.36
690.956	8663.71
691.303	8620.78
691.65	8565.18
691.997	8661
692.344	8533.32
692.69	8601.34
693.037	8566.54
693.383	8479.76
693.73	8531.06
694.077	8421.46
694.423	8362.03
694.769	8474.57
695.116	8379.65
695.462	8419.2
695.808	8295.36
696.155	8408.13
696.501	8305.53
696.847	8364.29
697.193	8314.34
697.539	8335.36
697.885	8236.61
698.231	8233.22
698.577	8181.01
698.923	8206.32
699.269	8075.25
699.614	8161.13
699.96	8145.53
700.306	8078.42
700.651	8105.54
700.997	8049.27
701.342	8006.78
701.688	8043.16
702.033	8025.31
702.379	7993.9
702.724	8015.82
703.069	7964.75
703.415	7892.89
703.76	7903.51
704.105	7949.38
704.45	7874.81
704.795	7807.46
705.14	7843.4
705.485	7769.05
705.83	7806.11
706.175	7782.61
706.52	7729.95
706.865	7728.82
707.209	7718.65
707.554	7751.42
707.899	7703.29
708.243	7653.57
708.588	7611.54
708.932	7616.28
709.277	7620.58
709.621	7686.11
709.966	7526.79
710.31	7588.26
710.654	7544.65
710.998	7571.09
711.342	7512.78
711.687	7527.92
712.031	7407.25
712.375	7502.39
712.719	7475.72
713.063	7464.65
713.407	7486.34
713.75	7391.2
714.094	7405.67
714.438	7393.24
714.782	7355.95
715.125	7332
715.469	7330.64
715.812	7274.82
716.156	7281.38
716.499	7256.52
716.843	7286.57
717.186	7274.37
717.53	7259
717.873	7264.65
718.216	7230.98
718.559	7158.67
718.902	7160.93
719.246	7186.69
719.589	7146.69
719.932	7093.58
720.275	7126.35
720.617	7161.38
720.96	7094.26
721.303	7168.16
721.646	7126.8
721.989	7067.37
722.331	7108.05
722.674	7052.91
723.016	7095.62
723.359	7065.34
723.701	7069.63
724.044	6943.08
724.386	6949.86
724.729	7061.72
725.071	7048.16
725.413	7049.07
725.755	6996.41
726.097	6956.19
726.439	6950.09
726.782	6955.74
727.124	6975.85
727.465	6891.56
727.807	6899.47
728.149	6900.37
728.491	6884.55
728.833	6865.12
729.175	6831.67
729.516	6833.03
729.858	6842.29
730.199	6819.92
730.541	6854.72
730.882	6837.55
731.224	6830.09
731.565	6808.62
731.906	6757.1
732.248	6787.83
732.589	6759.81
732.93	6709.19
733.271	6735.4
733.612	6715.97
733.953	6768.62
734.294	6687.27
734.635	6660.38
734.976	6704.67
735.317	6664.9
735.658	6611.79
735.999	6673.48
736.339	6661.05
736.68	6639.36
737.021	6600.04
737.361	6602.52
737.702	6622.18
738.042	6597.78
738.383	6602.07
738.723	6603.43
739.063	6619.47
739.404	6625.35
739.744	6542.86
740.084	6572.02
740.424	6518.68
740.764	6509.19
741.104	6529.08
741.444	6550.55
741.784	6466.03
742.124	6534.05
742.464	6536.09
742.804	6492.24
743.143	6515.29
743.483	6480.27
743.823	6409.53
744.162	6404.34
744.502	6420.38
744.841	6409.08
745.181	6391.68
745.52	6413.83
745.86	6374.96
746.199	6355.3
746.538	6382.19
746.877	6439.36
747.216	6354.17
747.556	6306.71
747.895	6313.49
748.234	6367.05
748.573	6341.97
748.911	6292.93
749.25	6264
749.589	6259.26
749.928	6310.78
750.267	6267.84
750.605	6222.42
750.944	6253.61
751.283	6256.54
751.621	6211.12
751.96	6193.04
752.298	6119.6
752.636	6171.58
752.975	6130.22
753.313	6165.02
753.651	6134.74
753.989	6101.97
754.327	6092.71
754.666	6051.13
755.004	6115.98
755.342	6099.94
755.679	6024.46
756.017	6011.58
756.355	6035.76
756.693	6004.8
757.031	6037.79
757.368	5983.33
757.706	5997.34
758.044	5945.82
758.381	5923.67
758.719	5926.16
759.056	5927.51
759.394	5941.52
759.731	5828.08
760.068	5871.7
760.405	5787.86
760.743	5798.48
761.08	5833.73
761.417	5802.09
761.754	5779.27
762.091	5793.73
762.428	5732.26
762.765	5740.85
763.102	5724.58
763.438	5730.46
763.775	5705.6
764.112	5669.22
764.449	5722.32
764.785	5648.2
765.122	5636.67
765.458	5627.18
765.795	5596.67
766.131	5573.85
766.467	5617.69
766.804	5515.1
767.14	5530.69
767.476	5472.61
767.812	5509.45
768.148	5518.26
768.485	5447.98
768.821	5427.87
