Data from black_metal_pc_casing_FLMS001491_00019.txt Node
Date: Wed Feb 08 14:32:03 GMT 2017
User: dcchb
Spectrometer: FLMS00149
Trigger mode: 0
Integration Time (sec): 2.000000E-2
Scans to average: 10
Electric dark correction enabled: true
Nonlinearity correction enabled: false
Boxcar width: 0
XAxis mode: Wavelengths
Number of Pixels in Spectrum: 2048
>>>>>Begin Spectral Data<<<<<
341.393	-15.9
341.776	-15.9
342.16	-15.9
342.543	-66.52
342.927	-53.42
343.31	-51.83
343.693	-86.18
344.077	-64.72
344.46	-80.76
344.843	-47.77
345.226	-38.28
345.61	-29.69
345.993	-19.29
346.376	5.11
346.759	19.8
347.142	20.03
347.525	39.91
347.908	65.68
348.291	75.17
348.674	81.72
349.057	111.1
349.44	109.29
349.823	139.12
350.206	154.94
350.588	177.09
350.971	206.01
351.354	217.54
351.737	230.19
352.119	249.63
352.502	236.75
352.884	264.32
353.267	252.56
353.65	277.65
354.032	290.98
354.414	294.6
354.797	292.34
355.179	310.64
355.562	309.06
355.944	323.07
356.326	326.46
356.709	306.8
357.091	334.14
357.473	329.62
357.855	315.61
358.238	304.54
358.62	316.74
359.002	317.65
359.384	352.45
359.766	321.94
360.148	337.76
360.53	329.17
360.912	329.17
361.294	340.47
361.676	331.43
362.057	312
362.439	310.42
362.821	332.11
363.203	311.55
363.584	312.45
363.966	331.66
364.348	316.74
364.729	319.45
365.111	288.27
365.493	299.34
365.874	282.39
366.256	321.49
366.637	313.35
367.019	302.51
367.4	296.18
367.781	304.99
368.163	292.11
368.544	297.99
368.925	295.73
369.306	310.87
369.688	300.47
370.069	302.73
370.45	310.87
370.831	304.77
371.212	312.45
371.593	293.24
371.974	319.23
372.355	307.7
372.736	318.32
373.117	319.23
373.498	307.7
373.879	275.84
374.26	315.84
374.641	310.19
375.021	317.65
375.402	308.38
375.783	330.75
376.163	300.25
376.544	297.76
376.925	313.13
377.305	313.35
377.686	332.79
378.066	307.48
378.447	319.68
378.827	333.01
379.208	342.28
379.588	316.52
379.968	353.8
380.349	346.12
380.729	305.22
381.109	320.58
381.489	320.36
381.87	334.37
382.25	338.44
382.63	340.92
383.01	306.12
383.39	306.57
383.77	346.8
384.15	328.72
384.53	326.01
384.91	341.38
385.29	348.38
385.67	333.01
386.049	361.71
386.429	343.64
386.809	353.8
387.189	367.14
387.568	358.78
387.948	329.85
388.328	351.54
388.707	353.13
389.087	351.09
389.466	357.19
389.846	364.2
390.225	358.55
390.605	387.93
390.984	376.18
391.363	361.26
391.743	377.53
392.122	367.36
392.501	360.13
392.881	387.25
393.26	382.28
393.639	369.4
394.018	368.49
394.397	386.35
394.776	388.83
395.155	373.24
395.534	371.88
395.913	408.72
396.292	359.68
396.671	371.66
397.05	392.9
397.429	379.11
397.808	374.37
398.186	389.74
398.565	411.43
398.944	383.63
399.323	407.36
399.701	399.45
400.08	410.75
400.458	394.26
400.837	386.57
401.215	401.03
401.594	395.84
401.972	399.68
402.351	396.06
402.729	404.88
403.107	427.47
403.486	405.1
403.864	395.84
404.242	384.54
404.62	407.59
404.999	410.07
405.377	423.86
405.755	416.18
406.133	432.45
406.511	444.65
406.889	433.58
407.267	432.22
407.645	451.88
408.023	461.6
408.401	428.38
408.779	447.36
409.156	455.27
409.534	435.84
409.912	444.42
410.29	445.55
410.667	450.07
411.045	466.8
411.422	450.75
411.8	452.33
412.178	472.67
412.555	488.94
412.933	462.95
413.31	491.88
413.687	501.6
414.065	471.77
414.442	509.96
414.819	479.45
415.197	490.07
415.574	486.46
415.951	488.94
416.328	520.58
416.705	497.3
417.082	493.46
417.46	512.44
417.837	504.53
418.214	514.48
418.591	513.57
418.967	537.08
419.344	514.48
419.721	540.24
420.098	522.84
420.475	540.01
420.852	553.35
421.228	544.31
421.605	553.35
421.982	548.6
422.358	544.31
422.735	541.82
423.111	563.06
423.488	558.32
423.864	546.34
424.241	557.19
424.617	584.08
424.994	584.76
425.37	573.91
425.746	558.54
426.123	581.14
426.499	577.3
426.875	588.15
427.251	568.04
427.627	583.4
428.003	610.07
428.379	618.43
428.756	596.28
429.132	602.84
429.507	612.55
429.883	626.11
430.259	631.09
430.635	629.5
431.011	653.23
431.387	662.04
431.763	653.91
432.138	658.43
432.514	643.06
432.89	668.37
433.265	686
433.641	679.22
434.016	679.9
434.392	671.08
434.767	695.26
435.143	699.33
435.518	704.98
435.894	707.47
436.269	707.02
436.644	718.31
437.02	736.85
437.395	747.01
437.77	738.43
438.145	749.27
438.52	730.97
438.895	752.66
439.271	735.72
439.646	766.67
440.021	796.28
440.395	776.62
440.77	761.48
441.145	763.74
441.52	790.85
441.895	786.34
442.27	801.02
442.645	790.85
443.019	793.34
443.394	804.41
443.769	806.22
444.143	819.33
444.518	812.55
444.892	803.74
445.267	828.82
445.641	833.57
446.016	838.99
446.39	852.55
446.764	848.48
447.139	861.59
447.513	833.79
447.887	831.53
448.262	843.51
448.636	869.72
449.01	865.2
449.384	894.81
449.758	846.22
450.132	877.63
450.506	876.95
450.88	877.18
451.254	888.25
451.628	900.46
452.002	910.63
452.376	908.59
452.75	928.7
453.123	926.22
453.497	942.26
453.871	946.11
454.244	942.26
454.618	978.65
454.992	964.86
455.365	978.87
455.739	985.43
456.112	998.08
456.486	1001.02
456.859	1028.36
457.232	1028.36
457.606	1035.14
457.979	1045.76
458.352	1048.25
458.725	1087.57
459.099	1079.43
459.472	1088.93
459.845	1092.77
460.218	1078.3
460.591	1112.2
460.964	1134.12
461.337	1133.67
461.71	1149.49
462.083	1160.79
462.456	1154.46
462.829	1157.17
463.201	1200.11
463.574	1170.51
463.947	1208.92
464.32	1213.67
464.692	1222.03
465.065	1217.06
465.438	1245.98
465.81	1252.54
466.183	1264.74
466.555	1297.06
466.928	1288.47
467.3	1333.44
467.672	1316.94
468.045	1340.67
468.417	1340.22
468.789	1339.32
469.161	1378.64
469.534	1389.03
469.906	1427
470.278	1424.96
470.65	1420.44
471.022	1486.43
471.394	1473.32
471.766	1513.32
472.138	1506.09
472.51	1537.5
472.882	1564.62
473.253	1584.05
473.625	1568.46
473.997	1610.04
474.369	1639.42
474.74	1652.75
475.112	1671.96
475.484	1675.8
475.855	1747.21
476.227	1681.9
476.598	1773.88
476.97	1773.2
477.341	1798.29
477.713	1827.66
478.084	1841.22
478.455	1870.37
478.827	1866.31
479.198	1948.56
479.569	1963.71
479.94	1997.38
480.311	2013.65
480.682	2057.71
481.053	2070.14
481.424	2124.38
481.795	2139.75
482.166	2146.07
482.537	2184.49
482.908	2229.69
483.279	2257.03
483.65	2277.6
484.021	2330.25
484.391	2363.69
484.762	2345.62
485.133	2363.92
485.503	2406.86
485.874	2455.9
486.244	2483.24
486.615	2516.23
486.985	2494.99
487.356	2562.79
487.726	2603.46
488.097	2666.96
488.467	2666.06
488.837	2714.42
489.207	2746.96
489.578	2768.2
489.948	2776.11
490.318	2828.32
490.688	2816.56
491.058	2851.82
491.428	2915.77
491.798	2940.85
492.168	3016.56
492.538	3011.81
492.908	2999.38
493.278	3055.43
493.648	3062.21
494.017	3120.29
494.387	3120.29
494.757	3149.21
495.126	3179.72
495.496	3222.43
495.866	3258.59
496.235	3242.99
496.605	3283.67
496.974	3296.33
497.344	3340.84
497.713	3341.3
498.082	3344.23
498.452	3425.81
498.821	3415.42
499.19	3448.64
499.559	3465.36
499.928	3474.17
500.298	3533.16
500.667	3509.65
501.036	3516.43
501.405	3598.46
501.774	3592.82
502.143	3647.5
502.512	3649.76
502.88	3642.08
503.249	3660.61
503.618	3719.14
503.987	3747.16
504.356	3749.87
504.724	3740.16
505.093	3795.3
505.462	3832.36
505.83	3836.42
506.199	3893.15
506.567	3887.27
506.936	3905.8
507.304	3964.56
507.672	3932.24
508.041	3994.84
508.409	4037.78
508.777	4053.14
509.145	4062.86
509.514	4084.1
509.882	4114.16
510.25	4117.77
510.618	4179.47
510.986	4183.31
511.354	4223.08
511.722	4257.2
512.09	4301.95
512.458	4273.48
512.826	4309.63
513.193	4356.64
513.561	4368.39
513.929	4322.97
514.297	4418.56
514.664	4497.65
515.032	4458.78
515.4	4529.97
515.767	4523.41
516.135	4589.17
516.502	4608.16
516.869	4635.05
517.237	4617.42
517.604	4649.06
517.972	4655.16
518.339	4762.5
518.706	4772.67
519.073	4774.03
519.44	4826.91
519.808	4859.9
520.175	4899.9
520.542	4887.7
520.909	4943.06
521.276	4932.67
521.643	4993.23
522.009	5064.41
522.376	5066.45
522.743	5133.79
523.11	5171.53
523.477	5241.13
523.843	5229.16
524.21	5275.48
524.577	5363.39
524.943	5346.22
525.31	5386.67
525.676	5446.78
526.043	5420.11
526.409	5472.77
526.776	5512.76
527.142	5551.41
527.508	5593.67
527.874	5676.6
528.241	5674.57
528.607	5667.79
528.973	5756.15
529.339	5747.33
529.705	5849.03
530.071	5845.41
530.437	5869.59
530.803	5929.7
531.169	5914.34
531.535	5951.62
531.901	5969.02
532.267	6061.68
532.632	5996.37
532.998	6072.52
533.364	6092.86
533.73	6180.32
534.095	6125.18
534.461	6193.88
534.826	6194.1
535.192	6253.99
535.557	6364.27
535.923	6317.72
536.288	6351.16
536.653	6356.81
537.019	6326.08
537.384	6384.83
537.749	6402.91
538.114	6417.15
538.479	6489.46
538.845	6469.58
539.21	6498.5
539.575	6498.95
539.94	6552.51
540.305	6520.42
540.67	6592.74
541.034	6599.97
541.399	6635.22
541.764	6633.41
542.129	6664.82
542.494	6718.61
542.858	6728.55
543.223	6726.07
543.587	6759.51
543.952	6816.69
544.316	6802
544.681	6818.49
545.045	6891.26
545.41	6903.91
545.774	6873.41
546.138	6883.58
546.503	6914.31
546.867	6930.13
547.231	6985.04
547.595	7009
547.959	7016.91
548.324	7069.33
548.688	7063.91
549.052	7101.65
549.416	7133.29
549.779	7157.69
550.143	7190.01
550.507	7244.7
550.871	7223.91
551.235	7228.43
551.599	7290.35
551.962	7325.37
552.326	7279.27
552.689	7352.72
553.053	7315.43
553.417	7368.08
553.78	7504.12
554.143	7453.73
554.507	7502.99
554.87	7466.16
555.234	7565.59
555.597	7524.01
555.96	7553.61
556.323	7575.54
556.686	7612.6
557.05	7679.49
557.413	7699.83
557.776	7680.84
558.139	7784.34
558.502	7715.19
558.865	7829.99
559.228	7879.03
559.59	7926.03
559.953	7954.73
560.316	7990.89
560.679	7948.63
561.041	8047.16
561.404	8027.05
561.767	8147.5
562.129	8130.32
562.492	8203.32
562.854	8194.5
563.217	8185.24
563.579	8290.54
563.941	8328.96
564.304	8349.07
564.666	8340.03
565.028	8404.44
565.39	8456.64
565.753	8467.04
566.115	8558.33
566.477	8562.85
566.839	8620.25
567.201	8566.7
567.563	8653.02
567.925	8710.65
568.287	8782.28
568.648	8652.34
569.01	8775.5
569.372	8823.19
569.734	8825.45
570.095	8868.83
570.457	8924.43
570.819	8980.02
571.18	8963.52
571.542	9038.32
571.903	9008.27
572.265	9033.58
572.626	9032.67
572.987	9056.85
573.349	9062.28
573.71	9132.33
574.071	9156.96
574.432	9141.37
574.794	9224.53
575.155	9272.21
575.516	9230.63
575.877	9316.28
576.238	9253.46
576.599	9367.13
576.96	9339.56
577.32	9359.44
577.681	9329.84
578.042	9356.28
578.403	9375.04
578.763	9369.61
579.124	9453.45
579.485	9400.8
579.845	9453.9
580.206	9440.57
580.566	9490.06
580.927	9472.89
581.287	9433.57
581.648	9497.74
582.008	9542.49
582.368	9508.82
582.728	9554.92
583.089	9552.21
583.449	9526.22
583.809	9559.89
584.169	9540.23
584.529	9515.15
584.889	9662.71
585.249	9570.06
585.609	9507.24
585.969	9570.74
586.329	9542.94
586.688	9582.94
587.048	9596.95
587.408	9626.33
587.768	9505.88
588.127	9580
588.487	9526.22
588.846	9618.19
589.206	9537.52
589.565	9558.53
589.925	9568.93
590.284	9605.76
590.643	9592.21
591.003	9572.77
591.362	9645.09
591.721	9552.21
592.08	9644.18
592.44	9617.97
592.799	9622.94
593.158	9563.51
593.517	9593.56
593.876	9671.3
594.235	9670.17
594.593	9656.84
594.952	9621.36
595.311	9604.86
595.67	9604.86
596.029	9705.65
596.387	9721.92
596.746	9747.23
597.104	9720.79
597.463	9634.69
597.822	9716.72
598.18	9672.43
598.538	9697.51
598.897	9700.68
599.255	9664.29
599.613	9809.6
599.972	9700.45
600.33	9685.54
600.688	9642.37
601.046	9763.05
601.404	9841.01
601.762	9836.04
602.12	9814.8
602.478	9816.15
602.836	9836.72
603.194	9813.22
603.552	9753.33
603.91	9810.5
604.268	9851.41
604.625	9778.64
604.983	9888.69
605.341	9798.53
605.698	9889.15
606.056	9917.85
606.413	9861.8
606.771	9940.67
607.128	9930.5
607.485	9909.71
607.843	9939.31
608.2	9942.25
608.557	9951.74
608.914	9964.62
609.272	10034.45
609.629	10021.12
609.986	10068.13
610.343	9961.24
610.7	10119.2
611.057	10084.4
611.414	10021.8
611.771	10043.49
612.127	10047.33
612.484	10107.22
612.841	10101.34
613.198	10036.26
613.554	10120.1
613.911	10091.18
614.267	10161.91
614.624	10144.73
614.98	10133.43
615.337	10160.55
615.693	10191.74
616.05	10177.27
616.406	10223.83
616.762	10126.65
617.118	10161.46
617.475	10179.76
617.831	10245.97
618.187	10172.76
618.543	10227.44
618.899	10340.89
619.255	10288.01
619.611	10293.2
619.967	10284.39
620.323	10334.11
620.678	10317.38
621.034	10328.91
621.39	10326.65
621.746	10243.94
622.101	10435.35
622.457	10281.9
622.812	10287.78
623.168	10308.34
623.523	10306.08
623.879	10357.16
624.234	10255.92
624.589	10341.34
624.945	10307.44
625.3	10341.56
625.655	10407.78
626.01	10314.22
626.365	10295.92
626.72	10344.05
627.075	10358.96
627.43	10274.22
627.785	10269.48
628.14	10333.65
628.495	10387.21
628.85	10331.62
629.205	10260.66
629.559	10365.97
629.914	10213.21
630.269	10256.37
630.623	10268.12
630.978	10214.79
631.332	10292.75
631.687	10301.34
632.041	10253.66
632.396	10272.64
632.75	10246.43
633.104	10219.08
633.459	10182.7
633.813	10128.91
634.167	10194.45
634.521	10141.57
634.875	10135.69
635.229	10183.6
635.583	10169.14
635.937	10100.89
636.291	10104.06
636.645	10183.38
636.999	10063.15
637.352	10146.99
637.706	9937.73
638.06	10073.1
638.413	9990.84
638.767	10006.66
639.121	9997.17
639.474	9923.95
639.828	9970.73
640.181	9993.1
640.534	10007.56
640.888	10005.75
641.241	9946.77
641.594	10023.61
641.947	9968.24
642.301	9953.1
642.654	9995.13
643.007	9916.94
643.36	9911.97
643.713	9868.13
644.066	9941.8
644.419	9788.81
644.771	9782.48
645.124	9692.32
645.477	9662.71
645.83	9535.48
646.182	9601.24
646.535	9592.66
646.888	9586.1
647.24	9468.59
647.593	9555.6
647.945	9528.7
648.298	9500.23
648.65	9414.58
649.002	9465.2
649.355	9495.94
649.707	9512.43
650.059	9398.09
650.411	9598.76
650.763	9671.3
651.115	9675.14
651.467	9657.06
651.819	9633.56
652.171	9617.06
652.523	9619.32
652.875	9587.46
653.227	9581.13
653.578	9641.47
653.93	9542.94
654.282	9545.88
654.633	9508.82
654.985	9582.26
655.337	9513.34
655.688	9580.68
656.039	9652.54
656.391	9536.39
656.742	9487.35
657.094	9480.57
657.445	9582.26
657.796	9595.37
658.147	9483.73
658.498	9494.58
658.849	9561.25
659.2	9544.52
659.551	9504.07
659.902	9485.99
660.253	9509.95
660.604	9512.89
660.955	9438.99
661.306	9473.56
661.656	9502.26
662.007	9417.97
662.358	9440.8
662.708	9433.34
663.059	9480.34
663.409	9361.03
663.76	9557.86
664.11	9439.67
664.461	9489.16
664.811	9485.54
665.161	9448.93
665.511	9455.94
665.862	9408.93
666.212	9446.45
666.562	9441.7
666.912	9419.55
667.262	9422.49
667.612	9377.07
667.962	9456.62
668.312	9354.47
668.662	9412.1
669.011	9443.06
669.361	9385.21
669.711	9333.68
670.06	9355.38
670.41	9310.18
670.76	9313.57
671.109	9372.1
671.459	9269.5
671.808	9332.55
672.157	9386.56
672.507	9306.34
672.856	9299.78
673.205	9319.67
673.554	9359.9
673.904	9264.98
674.253	9341.82
674.602	9284.42
674.951	9164.42
675.3	9132.78
675.649	9295.49
675.998	9237.86
676.346	9212.55
676.695	9269.28
677.044	9246.23
677.393	9248.71
677.741	9168.94
678.09	9179.33
678.438	9180.46
678.787	9175.72
679.135	9221.82
679.484	9088.94
679.832	9196.96
680.181	9099.11
680.529	9167.36
680.877	9092.56
681.225	9134.36
681.573	9160.8
681.922	9078.09
682.27	9035.16
682.618	9071.54
682.966	9065.67
683.314	9086.91
683.661	9074.25
684.009	8987.48
684.357	8978.21
684.705	8927.82
685.053	8989.51
685.4	8968.72
685.748	8919.91
686.095	8865.22
686.443	8909.96
686.79	8884.65
687.138	8872.68
687.485	8841.26
687.832	8909.74
688.18	8854.6
688.527	8771.66
688.874	8787.03
689.221	8766.46
689.568	8710.19
689.915	8670.65
690.262	8690.08
690.609	8717.2
690.956	8664.32
691.303	8641.95
691.65	8636.98
691.997	8632.23
692.344	8510.88
692.69	8572.12
693.037	8564.66
693.383	8470.43
693.73	8506.81
694.077	8503.65
694.423	8447.6
694.769	8472.69
695.116	8374.84
695.462	8396.76
695.808	8361.73
696.155	8358.57
696.501	8315.85
696.847	8302.97
697.193	8209.42
697.539	8244.44
697.885	8252.35
698.231	8225.91
698.577	8268.17
698.923	8191.11
699.269	8196.08
699.614	8135.75
699.96	8141.62
700.306	8148.63
700.651	8149.53
700.997	8051.45
701.342	8007.16
701.688	7959.93
702.033	7980.04
702.379	7983.66
702.724	7947.73
703.069	7957.45
703.415	7892.82
703.76	7915.19
704.105	7920.61
704.45	7873.15
704.795	7814.85
705.14	7813.95
705.485	7721.29
705.83	7805.13
706.175	7731.46
706.52	7736.89
706.865	7711.8
707.209	7688.75
707.554	7725.59
707.899	7637.23
708.243	7653.73
708.588	7679.49
708.932	7609.66
709.277	7655.08
709.621	7595.65
709.966	7559.94
710.31	7570.34
710.654	7537.8
710.998	7497.12
711.342	7529.21
711.687	7485.59
712.031	7435.43
712.375	7460.06
712.719	7467.29
713.063	7404.92
713.407	7473.39
713.75	7443.11
714.094	7383
714.438	7379.38
714.782	7370.79
715.125	7315.88
715.469	7391.81
715.812	7331.47
716.156	7319.04
716.499	7355.65
716.843	7279.27
717.186	7294.41
717.53	7298.71
717.873	7264.13
718.216	7279.72
718.559	7203.34
718.902	7182.55
719.246	7198.14
719.589	7150.24
719.932	7189.78
720.275	7143
720.617	7128.54
720.96	7133.06
721.303	7112.27
721.646	7147.98
721.989	7117.02
722.331	7116.11
722.674	7087.41
723.016	7086.96
723.359	7048.32
723.701	7058.71
724.044	6976
724.386	6966.74
724.729	7001.54
725.071	6955.21
725.413	6992.5
725.755	6949.11
726.097	6921.32
726.439	6899.39
726.782	6926.96
727.124	6979.39
727.465	6922.22
727.807	6875.21
728.149	6894.2
728.491	6898.94
728.833	6874.31
729.175	6838.61
729.516	6856.01
729.858	6797.25
730.199	6863.92
730.541	6860.98
730.882	6805.16
731.224	6792.28
731.565	6802.67
731.906	6752.51
732.248	6731.72
732.589	6746.4
732.93	6689.46
733.271	6722.45
733.612	6750.02
733.953	6766.74
734.294	6653.3
734.635	6707.31
734.976	6699.17
735.317	6639.51
735.658	6668.89
735.999	6668.44
736.339	6665.05
736.68	6692.62
737.021	6595
737.361	6577.14
737.702	6621.21
738.042	6591.38
738.383	6584.83
738.723	6553.64
739.063	6547.99
739.404	6569.46
739.744	6513.64
740.084	6503.02
740.424	6577.6
740.764	6517.48
741.104	6558.39
741.444	6491.5
741.784	6498.73
742.124	6473.64
742.464	6497.15
742.804	6453.3
743.143	6498.73
743.483	6492.85
743.823	6416.24
744.162	6456.02
744.502	6411.72
744.841	6390.93
745.181	6431.84
745.52	6384.38
745.86	6403.36
746.199	6372.86
746.538	6371.73
746.877	6374.89
747.216	6385.06
747.556	6349.8
747.895	6355.91
748.234	6321.78
748.573	6326.3
748.911	6327.66
749.25	6305.96
749.589	6280.65
749.928	6199.3
750.267	6239.07
750.605	6262.58
750.944	6219.19
751.283	6237.04
751.621	6214.22
751.96	6177.15
752.298	6161.56
752.636	6141.45
752.975	6098.96
753.313	6074.56
753.651	6121.11
753.989	6087.89
754.327	6141.22
754.666	6051.28
755.004	6122.47
755.342	6094.67
755.679	6051.73
756.017	6003.83
756.355	5995.46
756.693	6047.21
757.031	6023.26
757.368	5981.23
757.706	5969.02
758.044	5952.75
758.381	5970.38
758.719	5962.47
759.056	5898.07
759.394	5942.81
759.731	5852.42
760.068	5873.21
760.405	5834.34
760.743	5878.86
761.08	5826.2
761.417	5800.67
761.754	5783.04
762.091	5737.84
762.428	5764.06
762.765	5716.83
763.102	5776.94
763.438	5680.44
763.775	5707.56
764.112	5693.78
764.449	5718.63
764.785	5665.53
765.122	5603.38
765.458	5655.36
765.795	5608.81
766.131	5567.9
766.467	5544.18
766.804	5549.6
767.14	5540.33
767.476	5563.61
767.812	5432.99
768.148	5477.51
768.485	5454.69
768.821	5433.22
