Data from black_plastic_tray_FLMS001491_016.txt Node
Date: Tue Feb 07 10:39:22 GMT 2017
User: dcchb
Spectrometer: FLMS00149
Trigger mode: 0
Integration Time (sec): 2.000000E-2
Scans to average: 10
Electric dark correction enabled: true
Nonlinearity correction enabled: false
Boxcar width: 0
XAxis mode: Wavelengths
Number of Pixels in Spectrum: 2048
>>>>>Begin Spectral Data<<<<<
341.393	-19.56
341.776	-19.56
342.16	-19.56
342.543	-64.31
342.927	-69.5
343.31	-67.7
343.693	-71.76
344.077	-62.95
344.46	-62.27
344.843	-54.81
345.226	-42.16
345.61	-20.24
345.993	-9.39
346.376	-13.23
346.759	13.43
347.142	15.92
347.525	55.46
347.908	56.37
348.291	82.58
348.674	78.51
349.057	102.24
349.44	139.3
349.823	124.84
350.206	147.89
350.588	163.48
350.971	191.05
351.354	189.92
351.737	224.27
352.119	240.09
352.502	241
352.884	254.33
353.267	239.19
353.65	263.37
354.032	270.6
354.414	270.83
354.797	298.62
355.179	297.04
355.562	308.57
355.944	305.4
356.326	325.29
356.709	309.24
357.091	315.34
357.473	335.46
357.855	313.31
358.238	300.2
358.62	305.85
359.002	295.23
359.384	319.19
359.766	312.63
360.148	302.46
360.53	300.66
360.912	292.75
361.294	299.75
361.676	318.96
362.057	326.42
362.439	315.34
362.821	295.91
363.203	300.43
363.584	289.81
363.966	294.33
364.348	296.36
364.729	299.75
365.111	306.08
365.493	301.79
365.874	311.05
366.256	302.69
366.637	294.78
367.019	280.77
367.4	294.1
367.781	293.2
368.163	295.01
368.544	297.72
368.925	320.77
369.306	302.69
369.688	296.81
370.069	295.23
370.45	280.32
370.831	298.85
371.212	285.97
371.593	291.16
371.974	303.37
372.355	306.53
372.736	285.06
373.117	273.31
373.498	298.62
373.879	296.36
374.26	290.03
374.641	288
375.021	292.97
375.402	306.76
375.783	287.32
376.163	312.41
376.544	315.57
376.925	320.32
377.305	304.95
377.686	318.96
378.066	308.11
378.447	332.29
378.827	312.41
379.208	322.35
379.588	326.87
379.968	309.02
380.349	320.77
380.729	304.72
381.109	303.37
381.489	328.23
381.87	325.51
382.25	328.45
382.63	337.94
383.01	327.77
383.39	313.76
383.77	314.89
384.15	323.25
384.53	332.52
384.91	333.65
385.29	331.16
385.67	354.44
386.049	349.47
386.429	313.99
386.809	336.36
387.189	319.64
387.568	334.1
387.948	342.46
388.328	340.43
388.707	353.99
389.087	343.82
389.466	339.52
389.846	347.66
390.225	356.93
390.605	369.81
390.984	354.44
391.363	349.69
391.743	343.14
392.122	350.6
392.501	352.86
392.881	359.41
393.26	374.78
393.639	358.51
394.018	358.06
394.397	365.06
394.776	380.88
395.155	364.16
395.534	373.2
395.913	369.81
396.292	365.74
396.671	380.43
397.05	377.72
397.429	365.06
397.808	360.99
398.186	368.68
398.565	393.08
398.944	370.03
399.323	385.4
399.701	395.79
400.08	393.53
400.458	383.82
400.837	392.63
401.215	388.56
401.594	383.82
401.972	380.2
402.351	389.92
402.729	407.77
403.107	410.94
403.486	408.22
403.864	402.12
404.242	382.91
404.62	394.21
404.999	415.68
405.377	410.48
405.755	408.68
406.133	404.38
406.511	432.86
406.889	413.87
407.267	412.97
407.645	457.71
408.023	417.94
408.401	438.28
408.779	439.86
409.156	450.03
409.534	444.61
409.912	444.61
410.29	451.16
410.667	454.55
411.045	471.72
411.422	482.57
411.8	452.97
412.178	462.91
412.555	476.24
412.933	459.52
413.31	500.2
413.687	499.75
414.065	478.5
414.442	450.48
414.819	469.24
415.197	467.88
415.574	488.45
415.951	478.05
416.328	491.61
416.705	501.55
417.082	510.37
417.46	499.29
417.837	507.43
418.214	518.5
418.591	509.01
418.967	525.51
419.344	516.47
419.721	519.41
420.098	520.76
420.475	539.75
420.852	516.47
421.228	532.51
421.605	545.17
421.982	533.64
422.358	528.22
422.735	560.76
423.111	546.98
423.488	562.8
423.864	537.26
424.241	597.15
424.617	594.43
424.994	581.55
425.37	563.7
425.746	580.65
426.123	574.77
426.499	581.1
426.875	579.97
427.251	601.89
427.627	579.07
428.003	586.07
428.379	620.65
428.756	601.66
429.132	621.1
429.507	641.21
429.883	617.26
430.259	646.64
430.635	641.89
431.011	640.08
431.387	651.38
431.763	668.56
432.138	670.14
432.514	660.65
432.89	678.73
433.265	677.37
433.641	686.86
434.016	663.58
434.392	705.84
434.767	733.19
435.143	715.11
435.518	722.57
435.894	749.91
436.269	720.08
436.644	735.9
437.02	735.67
437.395	739.97
437.77	736.8
438.145	744.49
438.52	750.81
438.895	769.34
439.271	758.95
439.646	779.74
440.021	794.43
440.395	787.42
440.77	761.21
441.145	794.65
441.52	810.7
441.895	797.59
442.27	805.5
442.645	826.52
443.019	819.51
443.394	834.65
443.769	808.89
444.143	812.96
444.518	821.09
444.892	816.35
445.267	809.12
445.641	867.19
446.016	826.07
446.39	851.6
446.764	857.25
447.139	862.68
447.513	856.35
447.887	883.47
448.262	863.35
448.636	873.97
449.01	905.61
449.384	868.78
449.758	885.05
450.132	909.91
450.506	911.94
450.88	929.57
451.254	923.46
451.628	925.72
452.002	930.47
452.376	927.98
452.75	971.15
453.123	964.59
453.497	964.59
453.871	988.77
454.244	998.04
454.618	962.56
454.992	979.28
455.365	989.23
455.739	1032.84
456.112	1040.3
456.486	1042.33
456.859	1045.72
457.232	1069.68
457.606	1043.91
457.979	1068.55
458.352	1106.51
458.725	1131.37
459.099	1134.08
459.472	1128.88
459.845	1144.02
460.218	1120.75
460.591	1140.18
460.964	1149
461.337	1157.13
461.71	1177.24
462.083	1188.09
462.456	1204.36
462.829	1183.34
463.201	1236.9
463.574	1225.38
463.947	1279.16
464.32	1290.23
464.692	1331.59
465.065	1328.43
465.438	1291.14
465.81	1341.08
466.183	1336.11
466.555	1331.59
466.928	1372.72
467.3	1363.45
467.672	1379.05
468.045	1400.51
468.417	1404.36
468.789	1435.77
469.161	1430.34
469.534	1444.13
469.906	1483.68
470.278	1493.39
470.65	1503.79
471.022	1539.95
471.394	1579.04
471.766	1559.83
472.138	1592.15
472.51	1598.93
472.882	1640.51
473.253	1634.63
473.625	1670.34
473.997	1713.73
474.369	1707.85
474.74	1712.14
475.112	1760.73
475.484	1802.99
475.855	1800.96
476.227	1801.63
476.598	1866.26
476.97	1868.07
477.341	1897.68
477.713	1927.96
478.084	1926.6
478.455	2020.84
478.827	2009.76
479.198	2055.19
479.569	2066.49
479.94	2082.53
480.311	2141.51
480.682	2160.72
481.053	2244.56
481.424	2237.55
481.795	2271
482.166	2300.38
482.537	2351
482.908	2362.52
483.279	2396.19
483.65	2431.22
484.021	2461.96
484.391	2465.57
484.762	2515.96
485.133	2517.09
485.503	2549.64
485.874	2628.73
486.244	2612.91
486.615	2688.84
486.985	2728.84
487.356	2760.25
487.726	2780.82
488.097	2826.92
488.467	2876.18
488.837	2877.76
489.207	2915.73
489.578	2951.43
489.948	2941.72
490.318	3007.93
490.688	3028.04
491.058	3103.29
491.428	3105.33
491.798	3158.89
492.168	3216.51
492.538	3213.57
492.908	3247.02
493.278	3324.98
493.648	3312.33
494.017	3307.58
494.387	3414.92
494.757	3391.87
495.126	3421.48
495.496	3442.95
495.866	3464.87
496.235	3524.3
496.605	3551.19
496.974	3538.99
497.344	3590.51
497.713	3613.11
498.082	3623.05
498.452	3701.02
498.821	3673.22
499.19	3706.67
499.559	3752.77
499.928	3761.81
500.298	3792.54
500.667	3816.95
501.036	3829.83
501.405	3845.65
501.774	3876.16
502.143	3893.56
502.512	3942.37
502.88	3955.93
503.249	3950.96
503.618	3997.96
503.987	4010.39
504.356	4007.23
504.724	4068.24
505.093	4042.25
505.462	4116.15
505.83	4089.26
506.199	4176.49
506.567	4180.78
506.936	4189.14
507.304	4258.74
507.672	4283.83
508.041	4315.24
508.409	4300.78
508.777	4357.72
509.145	4400.44
509.514	4397.72
509.882	4410.6
510.25	4492.41
510.618	4503.26
510.986	4532.41
511.354	4517.72
511.722	4563.82
512.09	4659.41
512.458	4653.99
512.826	4672.07
513.193	4665.74
513.561	4693.08
513.929	4734.44
514.297	4785.74
514.664	4809.69
515.032	4861.21
515.4	4916.81
515.767	4950.25
516.135	4918.61
516.502	4899.63
516.869	4926.52
517.237	4994.77
517.604	5046.29
517.972	5048.78
518.339	5099.63
518.706	5166.06
519.073	5149.34
519.44	5208.78
519.808	5266.18
520.175	5271.15
520.542	5386.62
520.909	5406.96
521.276	5395.89
521.643	5449
522.009	5441.09
522.376	5483.8
522.743	5550.91
523.11	5580.52
523.477	5663
523.843	5690.57
524.21	5732.15
524.577	5753.39
524.943	5834.07
525.31	5808.76
525.676	5914.52
526.043	5962.43
526.409	5950.9
526.776	6039.49
527.142	6039.26
527.508	6068.19
527.874	6150.9
528.241	6161.74
528.607	6172.59
528.973	6248.52
529.339	6261.4
529.705	6311.12
530.071	6352.47
530.437	6399.48
530.803	6440.16
531.169	6481.74
531.535	6447.84
531.901	6540.72
532.267	6518.35
532.632	6532.13
532.998	6555.41
533.364	6615.52
533.73	6624.56
534.095	6734.16
534.461	6729.87
534.826	6766.47
535.192	6807.38
535.557	6838.34
535.923	6873.59
536.288	6798.34
536.653	6931.22
537.019	6894.15
537.384	6948.16
537.749	6984.77
538.114	6996.75
538.479	6977.99
538.845	7108.16
539.21	7084.88
539.575	7144.54
539.94	7135.28
540.305	7105.67
540.67	7157.42
541.034	7168.72
541.399	7186.58
541.764	7248.27
542.129	7241.04
542.494	7288.72
542.858	7332.11
543.223	7266.57
543.587	7373.69
543.952	7358.32
544.316	7412.56
544.681	7397.42
545.045	7424.54
545.41	7459.34
545.774	7504.99
546.138	7506.57
546.503	7515.16
546.867	7619.11
547.231	7646.68
547.595	7686.22
547.959	7704.53
548.324	7652.1
548.688	7641.48
549.052	7692.78
549.416	7779.56
549.779	7728.03
550.143	7748.82
550.507	7813.45
550.871	7909.95
551.235	7867.01
551.599	7911.53
551.962	7920.57
552.326	7993.79
552.689	7977.74
553.053	8025.2
553.417	7983.17
553.78	8106.78
554.143	8027.91
554.507	8131.41
554.87	8122.82
555.234	8233.33
555.597	8260.67
555.96	8287.56
556.323	8298.41
556.686	8274.01
557.05	8335.47
557.413	8442.14
557.776	8420.67
558.139	8511.29
558.502	8447.11
558.865	8497.5
559.228	8619.99
559.59	8637.39
559.953	8632.64
560.316	8709.02
560.679	8766.87
561.041	8787.21
561.404	8837.83
561.767	8850.94
562.129	8829.47
562.492	8993.08
562.854	8936.81
563.217	8941.33
563.579	9022.91
563.941	9041.67
564.304	9147.65
564.666	9114.44
565.028	9131.84
565.39	9161.67
565.753	9265.39
566.115	9248.9
566.477	9315.33
566.839	9279.18
567.201	9415.44
567.563	9385.39
567.925	9465.39
568.287	9486.63
568.648	9464.71
569.01	9604.59
569.372	9608.66
569.734	9552.62
570.095	9642.78
570.457	9666.74
570.819	9732.05
571.18	9732.27
571.542	9786.28
571.903	9822.89
572.265	9813.63
572.626	9894.08
572.987	9872.83
573.349	9948.99
573.71	9900.63
574.071	9966.16
574.432	9973.85
574.794	10067.63
575.155	10087.52
575.516	10020.85
575.877	10068.31
576.238	10145.37
576.599	10119.15
576.96	10090.46
577.32	10132.04
577.681	10148.53
578.042	10227.63
578.403	10260.17
578.763	10315.99
579.124	10267.17
579.485	10302.2
579.845	10276.21
580.206	10338.58
580.566	10219.49
580.927	10241.64
581.287	10273.28
581.648	10313.05
582.008	10324.8
582.368	10327.74
582.728	10393.05
583.089	10346.49
583.449	10325.03
583.809	10369.54
584.169	10389.2
584.529	10356.44
584.889	10458.81
585.249	10339.26
585.609	10312.82
585.969	10467.17
586.329	10381.75
586.688	10416.1
587.048	10348.75
587.408	10290.22
587.768	10334.52
588.127	10337.23
588.487	10335.42
588.846	10454.06
589.206	10283.22
589.565	10376.55
589.925	10395.98
590.284	10402.99
590.643	10424.01
591.003	10403.22
591.362	10443.89
591.721	10413.61
592.08	10408.86
592.44	10483.44
592.799	10452.71
593.158	10410.22
593.517	10399.83
593.876	10489.77
594.235	10442.99
594.593	10499.71
594.952	10428.07
595.311	10406.6
595.67	10511.91
596.029	10550.33
596.387	10475.98
596.746	10558.01
597.104	10506.94
597.463	10548.3
597.822	10526.38
598.18	10477.79
598.538	10504.46
598.897	10521.63
599.255	10496.55
599.613	10588.07
599.972	10572.02
600.33	10589.65
600.688	10477.56
601.046	10577.22
601.404	10635.53
601.762	10558.69
602.12	10722.98
602.478	10692.02
602.836	10666.49
603.194	10573.38
603.552	10668.97
603.91	10677.78
604.268	10621.29
604.625	10668.07
604.983	10701.06
605.341	10646.37
605.698	10728.63
606.056	10736.09
606.413	10747.16
606.771	10686.82
607.128	10732.92
607.485	10776.09
607.843	10682.3
608.2	10766.6
608.557	10831.45
608.914	10762.75
609.272	10784.9
609.629	10847.27
609.986	10840.94
610.343	10786.48
610.7	10794.84
611.057	10813.15
611.414	10870.55
611.771	10885.46
612.127	10877.78
612.484	10814.5
612.841	10882.98
613.198	10883.43
613.554	10917.55
613.911	11006.82
614.267	10998
614.624	10934.95
614.98	10973.14
615.337	10960.94
615.693	10992.13
616.05	11013.59
616.406	10992.35
616.762	11028.74
617.118	10938.12
617.475	10983.09
617.831	11054.95
618.187	11054.72
618.543	11101.95
618.899	11111.67
619.255	11138.56
619.611	11111.22
619.967	11159.35
620.323	11231.67
620.678	11066.02
621.034	11064.21
621.39	11160.71
621.746	11046.81
622.101	11166.36
622.457	11056.08
622.812	11142.86
623.168	11063.08
623.523	11112.58
623.879	11165.91
624.234	11056.53
624.589	11176.53
624.945	11118.22
625.3	11102.63
625.655	11134.04
626.01	11110.54
626.365	11171.56
626.72	11082.29
627.075	11110.77
627.43	11109.41
627.785	11132.46
628.14	11065.34
628.495	11114.16
628.85	11079.58
629.205	11097.43
629.559	11085.91
629.914	11086.59
630.269	11095.85
630.623	11011.33
630.978	10977.89
631.332	11095.17
631.687	11158
632.041	11065.12
632.396	11047.04
632.75	10979.7
633.104	10926.59
633.459	10965.01
633.813	10888.63
634.167	10934.95
634.521	10953.48
634.875	10955.29
635.229	10929.53
635.583	10883.2
635.937	10843.66
636.291	10832.81
636.645	10934.73
636.999	10828.51
637.352	10812.92
637.706	10732.47
638.06	10864.9
638.413	10789.65
638.767	10719.82
639.121	10750.1
639.474	10720.27
639.828	10716.43
640.181	10686.82
640.534	10665.13
640.888	10692.7
641.241	10620.38
641.594	10613.61
641.947	10676.88
642.301	10608.63
642.654	10668.29
643.007	10633.27
643.36	10595.07
643.713	10613.83
644.066	10619.25
644.419	10471.01
644.771	10487.51
645.124	10404.12
645.477	10470.78
645.83	10344.69
646.182	10253.39
646.535	10231.02
646.888	10215.65
647.24	10205.03
647.593	10181.98
647.945	10173.16
648.298	10097.69
648.65	10106.5
649.002	10115.77
649.355	10134.75
649.707	10153.73
650.059	10181.75
650.411	10348.08
650.763	10332.48
651.115	10447.51
651.467	10400.28
651.819	10353.5
652.171	10411.58
652.523	10311.24
652.875	10341.75
653.227	10277.79
653.578	10377.45
653.93	10361.41
654.282	10299.94
654.633	10203.22
654.985	10209.77
655.337	10227.17
655.688	10250
656.039	10237.12
656.391	10071.92
656.742	10183.56
657.094	10198.47
657.445	10178.81
657.796	10209.32
658.147	10180.4
658.498	10208.64
658.849	10179.94
659.2	10191.47
659.551	10146.72
659.902	10142.66
660.253	10211.58
660.604	10152.37
660.955	10113.05
661.306	10161.64
661.656	10081.64
662.007	10083.68
662.358	10093.39
662.708	10165.71
663.059	10083.68
663.409	9987.18
663.76	10092.94
664.11	10023.79
664.461	10040.29
664.811	10122.77
665.161	10125.48
665.511	10022.66
665.862	9989.21
666.212	10087.74
666.562	10084.58
666.912	10005.71
667.262	10047.97
667.612	10021.98
667.962	10106.95
668.312	9963.23
668.662	10064.02
669.011	9951.02
669.361	9977.69
669.711	9939.5
670.06	9964.36
670.41	9929.56
670.76	9930.91
671.109	9976.11
671.459	9965.26
671.808	9947.41
672.157	9946.5
672.507	9905.15
672.856	9958.93
673.205	9856.79
673.554	9871.48
673.904	9839.39
674.253	9994.64
674.602	9857.01
674.951	9789.45
675.3	9701.54
675.649	9807.07
675.998	9810.46
676.346	9861.31
676.695	9910.57
677.044	9895.66
677.393	9885.04
677.741	9875.55
678.09	9780.63
678.438	9784.02
678.787	9876.22
679.135	9770.46
679.484	9732.27
679.832	9721.43
680.181	9751.93
680.529	9752.61
680.877	9693.86
681.225	9691.14
681.573	9692.05
681.922	9633.52
682.27	9636.23
682.618	9595.78
682.966	9617.93
683.314	9666.29
683.661	9604.37
684.009	9612.5
684.357	9590.13
684.705	9528.89
685.053	9490.02
685.4	9531.6
685.748	9447.99
686.095	9386.52
686.443	9382
686.79	9349.91
687.138	9399.63
687.485	9364.82
687.832	9330.25
688.18	9338.38
688.527	9334.32
688.874	9322.34
689.221	9310.36
689.568	9226.97
689.915	9179.52
690.262	9230.36
690.609	9247.77
690.956	9172.74
691.303	9184.72
691.65	9120.99
691.997	9083.25
692.344	9025.62
692.69	9066.75
693.037	9078.73
693.383	8980.88
693.73	9039.18
694.077	9006.19
694.423	9001.67
694.769	8948.79
695.116	8907.21
695.462	8916.02
695.808	8947.66
696.155	8873.09
696.501	8825.18
696.847	8831.73
697.193	8735.24
697.539	8819.98
697.885	8725.97
698.231	8693.88
698.577	8709.7
698.923	8626.09
699.269	8607.33
699.614	8573.66
699.96	8594.9
700.306	8556.94
700.651	8485.53
700.997	8479.2
701.342	8455.7
701.688	8503.83
702.033	8414.57
702.379	8429.48
702.724	8482.81
703.069	8454.11
703.415	8389.03
703.76	8403.49
704.105	8393.32
704.45	8353.33
704.795	8342.7
705.14	8249.83
705.485	8289.82
705.83	8192.43
706.175	8238.75
706.52	8207.57
706.865	8152.65
707.209	8136.61
707.554	8092.32
707.899	8053.22
708.243	8009.61
708.588	8048.47
708.932	8042.15
709.277	8034.69
709.621	8004.63
709.966	7944.52
710.31	7993.56
710.654	7955.14
710.998	7996.72
711.342	7977.29
711.687	7900.91
712.031	7900.23
712.375	7959.66
712.719	7980
713.063	7883.28
713.407	7881.47
713.75	7826.33
714.094	7786.79
714.438	7782.27
714.782	7808.03
715.125	7750.63
715.469	7775.04
715.812	7679.22
716.156	7725.32
716.499	7693.91
716.843	7636.96
717.186	7628.6
717.53	7723.51
717.873	7660.69
718.216	7674.02
718.559	7637.86
718.902	7590.18
719.246	7619.11
719.589	7608.94
719.932	7517.87
720.275	7582.95
720.617	7527.13
720.96	7599.22
721.303	7521.03
721.646	7556.51
721.989	7437.19
722.331	7529.84
722.674	7443.74
723.016	7455.5
723.359	7446.91
723.701	7378.66
724.044	7412.79
724.386	7384.31
724.729	7409.85
725.071	7367.59
725.413	7353.13
725.755	7288.49
726.097	7312.45
726.439	7316.29
726.782	7269.96
727.124	7333.92
727.465	7256.63
727.807	7221.83
728.149	7222.73
728.491	7189.74
728.833	7230.42
729.175	7177.99
729.516	7205.33
729.858	7170.98
730.199	7184.54
730.541	7158.33
730.882	7119.01
731.224	7186.12
731.565	7024.55
731.906	7061.61
732.248	7140.48
732.589	7019.8
732.93	7025.22
733.271	7102.29
733.612	7070.42
733.953	7076.97
734.294	7022.51
734.635	6988.39
734.976	7065.9
735.317	6941.84
735.658	6963.31
735.999	6955.62
736.339	6973.25
736.68	6972.34
737.021	6978.9
737.361	6910.65
737.702	6892.12
738.042	6878.79
738.383	6836.76
738.723	6889.86
739.063	6829.52
739.404	6898.22
739.744	6803.76
740.084	6813.93
740.424	6782.75
740.764	6877.66
741.104	6851.22
741.444	6756.08
741.784	6782.29
742.124	6782.29
742.464	6816.19
742.804	6756.53
743.143	6756.53
743.483	6746.36
743.823	6766.02
744.162	6697.1
744.502	6714.95
744.841	6683.76
745.181	6725.35
745.52	6674.73
745.86	6674.73
746.199	6627.5
746.538	6667.27
746.877	6636.08
747.216	6612.81
747.556	6620.49
747.895	6608.29
748.234	6589.76
748.573	6493.04
748.911	6530.32
749.25	6598.57
749.589	6562.64
749.928	6540.27
750.267	6513.15
750.605	6505.46
750.944	6524.67
751.283	6495.97
751.621	6515.18
751.96	6475.41
752.298	6484.22
752.636	6425.69
752.975	6382.98
753.313	6409.2
753.651	6470.44
753.989	6337.11
754.327	6371.46
754.666	6314.06
755.004	6342.98
755.342	6300.95
755.679	6298.92
756.017	6288.52
756.355	6281.97
756.693	6253.04
757.031	6245.13
757.368	6275.87
757.706	6235.64
758.044	6202.42
758.381	6160.84
758.719	6154.74
759.056	6202.42
759.394	6175.08
759.731	6176.89
760.068	6116.77
760.405	6110.22
760.743	6075.19
761.08	6075.19
761.417	6098.02
761.754	6007.17
762.091	6011.01
762.428	6020.96
762.765	5963.11
763.102	5960.17
763.438	5990.9
763.775	5942.77
764.112	5853.96
764.449	5920.62
764.785	5860.74
