Data from black_plastic_tray_FLMS001491_098.txt Node
Date: Tue Feb 07 10:41:03 GMT 2017
User: dcchb
Spectrometer: FLMS00149
Trigger mode: 0
Integration Time (sec): 2.000000E-2
Scans to average: 10
Electric dark correction enabled: true
Nonlinearity correction enabled: false
Boxcar width: 0
XAxis mode: Wavelengths
Number of Pixels in Spectrum: 2048
>>>>>Begin Spectral Data<<<<<
341.393	-16.72
341.776	-16.72
342.16	-16.72
342.543	-57.17
342.927	-74.35
343.31	-68.47
343.693	-76.61
344.077	-71.64
344.46	-75.25
344.843	-56.5
345.226	-47.23
345.61	-20.56
345.993	-8.59
346.376	6.55
346.759	6.55
347.142	34.8
347.525	41.58
347.908	59.89
348.291	73.22
348.674	94.69
349.057	107.57
349.44	131.3
349.823	144.85
350.206	163.39
350.588	183.72
350.971	187.79
351.354	209.26
351.737	226.66
352.119	239.09
352.502	254
352.884	252.65
353.267	285.42
353.65	269.82
354.032	288.81
354.414	289.71
354.797	309.6
355.179	305.98
355.562	294.23
355.944	294.46
356.326	311.4
356.709	302.36
357.091	324.74
357.473	318.86
357.855	313.44
358.238	318.64
358.62	302.14
359.002	337.17
359.384	319.09
359.766	308.47
360.148	313.21
360.53	314.79
360.912	303.27
361.294	292.65
361.676	316.15
362.057	319.54
362.439	298.75
362.821	293.1
363.203	315.47
363.584	318.18
363.966	306.43
364.348	298.98
364.729	305.53
365.111	289.71
365.493	301.46
365.874	288.58
366.256	284.51
366.637	308.47
367.019	309.14
367.4	300.78
367.781	304.17
368.163	290.61
368.544	283.38
368.925	304.4
369.306	305.75
369.688	286.77
370.069	270.28
370.45	305.53
370.831	278.18
371.212	290.61
371.593	284.29
371.974	286.55
372.355	304.4
372.736	300.33
373.117	283.38
373.498	294.68
373.879	282.25
374.26	303.49
374.641	282.25
375.021	299.43
375.402	316.15
375.783	309.6
376.163	308.47
376.544	298.3
376.925	298.07
377.305	289.94
377.686	291.29
378.066	303.49
378.447	295.36
378.827	305.75
379.208	317.73
379.588	345.3
379.968	308.24
380.349	316.6
380.729	314.79
381.109	300.78
381.489	306.88
381.87	306.66
382.25	316.38
382.63	328.8
383.01	310.73
383.39	330.84
383.77	338.52
384.15	325.64
384.53	340.33
384.91	328.35
385.29	327
385.67	320.9
386.049	364.96
386.429	335.81
386.809	343.49
387.189	334.91
387.568	317.51
387.948	318.41
388.328	315.7
388.707	323.38
389.087	353.66
389.466	354.11
389.846	342.36
390.225	329.03
390.605	344.62
390.984	349.14
391.363	331.29
391.743	338.97
392.122	351.86
392.501	361.57
392.881	358.86
393.26	342.36
393.639	363.83
394.018	349.82
394.397	361.57
394.776	365.87
395.155	368.8
395.534	359.99
395.913	374.45
396.292	376.71
396.671	381.68
397.05	366.54
397.429	377.84
397.808	375.13
398.186	370.16
398.565	378.52
398.944	391.4
399.323	391.4
399.701	389.59
400.08	373.1
400.458	380.1
400.837	384.62
401.215	396.37
401.594	390.05
401.972	393.66
402.351	387.33
402.729	368.58
403.107	408.35
403.486	397.73
403.864	389.82
404.242	386.43
404.62	421.01
404.999	417.16
405.377	427.79
405.755	408.35
406.133	391.63
406.511	412.19
406.889	402.93
407.267	399.54
407.645	412.64
408.023	427.79
408.401	412.42
408.779	407.67
409.156	429.37
409.534	433.21
409.912	457.84
410.29	430.27
410.667	432.53
411.045	426.88
411.422	432.31
411.8	443.38
412.178	450.16
412.555	447.22
412.933	463.04
413.31	446.32
413.687	458.97
414.065	460.1
414.442	462.59
414.819	478.41
415.197	469.59
415.574	472.98
415.951	483.15
416.328	481.34
416.705	457.62
417.082	503.94
417.46	486.09
417.837	503.04
418.214	482.25
418.591	507.56
418.967	494.68
419.344	492.87
419.721	526.77
420.098	507.56
420.475	487.44
420.852	520.66
421.228	533.09
421.605	518.63
421.982	541
422.358	545.3
422.735	542.36
423.111	539.65
423.488	526.99
423.864	527.9
424.241	542.58
424.617	534.68
424.994	550.95
425.37	546.88
425.746	572.41
426.123	554.79
426.499	535.13
426.875	559.76
427.251	565.18
427.627	571.96
428.003	587.33
428.379	594.56
428.756	590.27
429.132	601.79
429.507	608.57
429.883	595.69
430.259	607.44
430.635	610.61
431.011	617.61
431.387	638.18
431.763	623.03
432.138	654.9
432.514	632.07
432.89	647.67
433.265	650.38
433.641	651.51
434.016	660.1
434.392	693.09
434.767	686.08
435.143	694.22
435.518	666.2
435.894	696.25
436.269	678.4
436.644	699.64
437.02	718.85
437.395	748.45
437.77	719.98
438.145	722.24
438.52	733.77
438.895	724.27
439.271	716.14
439.646	734.44
440.021	754.1
440.395	739.64
440.77	751.84
441.145	732.86
441.52	746.65
441.895	771.05
442.27	757.27
442.645	787.1
443.019	776.7
443.394	778.06
443.769	759.53
444.143	779.41
444.518	789.13
444.892	784.16
445.267	794.56
445.641	777.38
446.016	795.01
446.39	807.89
446.764	812.86
447.139	805.63
447.513	821
447.887	814.67
448.262	839.3
448.636	837.94
449.01	842.69
449.384	843.37
449.758	845.4
450.132	864.84
450.506	876.81
450.88	864.84
451.254	867.55
451.628	851.96
452.002	891.28
452.376	919.3
452.75	885.63
453.123	905.51
453.497	908.68
453.871	912.07
454.244	941.44
454.618	933.53
454.992	914.1
455.365	921.78
455.739	950.48
456.112	971.73
456.486	994.55
456.859	994.55
457.232	971.73
457.606	1007.43
457.979	1012.63
458.352	1043.14
458.725	1014.66
459.099	1020.54
459.472	1035.45
459.845	1074.77
460.218	1072.74
460.591	1058.28
460.964	1083.59
461.337	1111.16
461.71	1091.27
462.083	1161.33
462.456	1136.47
462.829	1128.56
463.201	1139.18
463.574	1142.79
463.947	1172.17
464.32	1207.43
464.692	1195.9
465.065	1183.02
465.438	1202.68
465.81	1229.57
466.183	1243.36
466.555	1243.36
466.928	1277.25
467.3	1276.58
467.672	1281.77
468.045	1336.01
468.417	1313.19
468.789	1347.08
469.161	1345.73
469.534	1361.77
469.906	1378.95
470.278	1388.44
470.65	1407.87
471.022	1397.7
471.394	1456.23
471.766	1481.09
472.138	1478.61
472.51	1472.96
472.882	1498.04
473.253	1526.29
473.625	1540.07
473.997	1537.36
474.369	1591.6
474.74	1593.18
475.112	1622.33
475.484	1686.51
475.855	1661.88
476.227	1681.31
476.598	1727.86
476.97	1754.3
477.341	1744.36
477.713	1777.35
478.084	1766.06
478.455	1832.49
478.827	1860.74
479.198	1888.54
479.569	1930.8
479.94	1933.51
480.311	1966.05
480.682	2010.79
481.053	2051.7
481.424	2049.44
481.795	2114.52
482.166	2122.88
482.537	2136.22
482.908	2175.08
483.279	2202.43
483.65	2213.73
484.021	2265.7
484.391	2298.02
484.762	2300.28
485.133	2349.99
485.503	2362.2
485.874	2399.71
486.244	2400.84
486.615	2488.97
486.985	2483.32
487.356	2507.96
487.726	2535.3
488.097	2553.61
488.467	2608.07
488.837	2654.85
489.207	2682.19
489.578	2715.63
489.948	2706.14
490.318	2776.2
490.688	2786.37
491.058	2805.35
491.428	2872.24
491.798	2881.05
492.168	2918.12
492.538	2930.77
492.908	2944.33
493.278	3023.42
493.648	3015.97
494.017	3057.09
494.387	3053.71
494.757	3098.45
495.126	3153.36
495.496	3161.05
495.866	3138.67
496.235	3180.71
496.605	3244.89
496.974	3235.4
497.344	3246.69
497.713	3274.94
498.082	3310.87
498.452	3340.03
498.821	3373.24
499.19	3370.08
499.559	3420.25
499.928	3417.09
500.298	3439.68
500.667	3485.78
501.036	3472.45
501.405	3546.12
501.774	3484.88
502.143	3589.28
502.512	3551.09
502.88	3596.97
503.249	3599.45
503.618	3642.16
503.987	3679.45
504.356	3685.1
504.724	3681.49
505.093	3676.29
505.462	3725.55
505.83	3766
506.199	3804.65
506.567	3835.61
506.936	3834.7
507.304	3877.86
507.672	3875.83
508.041	3917.64
508.409	3974.58
508.777	3968.26
509.145	4002.38
509.514	4005.09
509.882	4074.02
510.25	4054.36
510.618	4078.08
510.986	4081.7
511.354	4117.63
511.722	4166.9
512.09	4196.27
512.458	4201.25
512.826	4251.64
513.193	4265.2
513.561	4279.89
513.929	4321.24
514.297	4354.69
514.664	4324.18
515.032	4446.89
515.4	4429.26
515.767	4515.59
516.135	4489.15
516.502	4468.58
516.869	4573.67
517.237	4566.43
517.604	4600.33
517.972	4598.75
518.339	4699.99
518.706	4641.91
519.073	4693.66
519.44	4689.59
519.808	4765.3
520.175	4769.37
520.542	4890.27
520.909	4899.53
521.276	4912.64
521.643	4967.1
522.009	5004.16
522.376	4967.55
522.743	5031.28
523.11	5102.69
523.477	5113.99
523.843	5121.9
524.21	5230.82
524.577	5215.68
524.943	5284.61
525.31	5298.39
525.676	5386.75
526.043	5361.89
526.409	5398.95
526.776	5463.81
527.142	5493.64
527.508	5509.01
527.874	5561.44
528.241	5560.31
528.607	5644.6
528.973	5663.13
529.339	5640.08
529.705	5705.16
530.071	5765.95
530.437	5744.26
530.803	5815.44
531.169	5844.37
531.535	5852.5
531.901	5856.34
532.267	5894.31
532.632	5983.57
532.998	6036
533.364	6023.12
533.73	6036.68
534.095	6060.86
534.461	6118.48
534.826	6125.71
535.192	6175.43
535.557	6126.62
535.923	6218.59
536.288	6247.75
536.653	6247.52
537.019	6227.18
537.384	6294.3
537.749	6372.26
538.114	6326.39
538.479	6327.29
538.845	6366.84
539.21	6366.61
539.575	6442.54
539.94	6426.27
540.305	6458.36
540.67	6461.75
541.034	6485.48
541.399	6531.35
541.764	6546.49
542.129	6569.32
542.494	6605.02
542.858	6635.31
543.223	6671.69
543.587	6655.64
543.952	6684.8
544.316	6738.35
544.681	6700.61
545.045	6801.18
545.41	6755.08
545.774	6778.58
546.138	6793.72
546.503	6840.5
546.867	6810.67
547.231	6925.02
547.595	6890.21
547.959	6935.64
548.324	6897.9
548.688	7004.34
549.052	6967.95
549.416	7003.43
549.779	7008.86
550.143	7043.66
550.507	7107.16
550.871	7102.41
551.235	7119.13
551.599	7184.44
551.962	7216.76
552.326	7161.62
552.689	7254.27
553.053	7256.98
553.417	7276.64
553.78	7314.84
554.143	7339.24
554.507	7332.69
554.87	7461.5
555.234	7486.58
555.597	7423.99
555.96	7462.63
556.323	7543.76
556.686	7507.37
557.05	7610.87
557.413	7580.59
557.776	7625.11
558.139	7713.47
558.502	7671.89
558.865	7730.87
559.228	7746.69
559.59	7786.01
559.953	7864.65
560.316	7881.83
560.679	7920.92
561.041	7955.5
561.404	7927.25
561.767	8044.99
562.129	8064.42
562.492	8078.88
562.854	8089.96
563.217	8106.91
563.579	8137.19
563.941	8206.56
564.304	8210.63
564.666	8295.15
565.028	8286.79
565.39	8404.52
565.753	8406.33
566.115	8385.77
566.477	8443.62
566.839	8426.9
567.201	8513
567.563	8523.84
567.925	8564.75
568.287	8556.61
568.648	8565.42
569.01	8595.03
569.372	8652.2
569.734	8694.69
570.095	8791.63
570.457	8799.99
570.819	8754.35
571.18	8812.42
571.542	8886.55
571.903	8849.48
572.265	8922.48
572.626	8909.82
572.987	8915.25
573.349	9024.85
573.71	8979.65
574.071	9079.99
574.432	9060.78
574.794	9052.19
575.155	9115.47
575.516	9087.9
575.877	9099.87
576.238	9142.13
576.599	9171.28
576.96	9184.84
577.32	9199.08
577.681	9243.15
578.042	9225.97
578.403	9258.06
578.763	9221.45
579.124	9297.38
579.485	9380.32
579.845	9293.99
580.206	9312.07
580.566	9326.53
580.927	9326.53
581.287	9378.51
581.648	9284.95
582.008	9377.15
582.368	9415.12
582.728	9378.06
583.089	9369.02
583.449	9373.76
583.809	9394.33
584.169	9411.73
584.529	9379.87
584.889	9531.05
585.249	9375.12
585.609	9376.02
585.969	9437.94
586.329	9380.77
586.688	9442.92
587.048	9434.78
587.408	9392.07
587.768	9449.02
588.127	9473.88
588.487	9465.51
588.846	9492.18
589.206	9336.25
589.565	9385.52
589.925	9460.54
590.284	9418.51
590.643	9480.88
591.003	9523.37
591.362	9508.22
591.721	9485.4
592.08	9442.69
592.44	9490.6
592.799	9477.49
593.158	9470.94
593.517	9454.89
593.876	9535.12
594.235	9455.8
594.593	9513.87
594.952	9558.17
595.311	9559.52
595.67	9547.55
596.029	9498.73
596.387	9528.11
596.746	9519.07
597.104	9554.78
597.463	9542.35
597.822	9539.18
598.18	9552.74
598.538	9477.26
598.897	9628.22
599.255	9486.98
599.613	9664.83
599.972	9578.73
600.33	9625.51
600.688	9599.52
601.046	9646.07
601.404	9626.87
601.762	9672.29
602.12	9679.97
602.478	9664.15
602.836	9725.39
603.194	9628.45
603.552	9667.32
603.91	9711.61
604.268	9745.51
604.625	9664.83
604.983	9704.6
605.341	9613.98
605.698	9703.02
606.056	9740.99
606.413	9727.65
606.771	9751.61
607.128	9775.79
607.485	9771.95
607.843	9721.1
608.2	9825.05
608.557	9830.02
608.914	9790.93
609.272	9876.35
609.629	9847.88
609.986	9921.1
610.343	9766.75
610.7	9901.43
611.057	9970.36
611.414	9878.16
611.771	9914.99
612.127	9986.63
612.484	9981.43
612.841	9991.38
613.198	9982.56
613.554	9971.04
613.911	9934.43
614.267	10071.83
614.624	9999.06
614.98	9987.08
615.337	10040.41
615.693	10006.29
616.05	10063.01
616.406	10058.72
616.762	10058.27
617.118	10045.16
617.475	10100.75
617.831	10008.32
618.187	10070.92
618.543	10056.01
618.899	10133.52
619.255	10073.18
619.611	10154.76
619.967	10188.66
620.323	10144.59
620.678	10105.05
621.034	10013.3
621.39	10137.13
621.746	10067.98
622.101	10173.07
622.457	10136.23
622.812	10108.43
623.168	10079.51
623.523	10173.29
623.879	10119.51
624.234	10090.81
624.589	10117.25
624.945	10159.51
625.3	10143.46
625.655	10172.16
626.01	10204.48
626.365	10183.24
626.72	10160.64
627.075	10198.6
627.43	10201.54
627.785	10125.38
628.14	10152.05
628.495	10173.74
628.85	10134.87
629.205	10183.91
629.559	10180.07
629.914	10077.25
630.269	10105.5
630.623	10107.98
630.978	10100.07
631.332	10152.95
631.687	10158.15
632.041	10154.31
632.396	10132.16
632.75	10083.58
633.104	10067.76
633.459	9985.05
633.813	10028.89
634.167	10031.37
634.521	10017.59
634.875	9999.74
635.229	9969.23
635.583	9929.23
635.937	9932.39
636.291	9931.26
636.645	9917.48
636.999	9822.79
637.352	9864.6
637.706	9842.23
638.06	9875.22
638.413	9808.33
638.767	9863.47
639.121	9848.33
639.474	9803.58
639.828	9838.84
640.181	9719.52
640.534	9776.01
640.888	9770.36
641.241	9690.37
641.594	9808.1
641.947	9722.46
642.301	9683.81
642.654	9708.9
643.007	9690.37
643.36	9682.68
643.713	9744.83
644.066	9745.73
644.419	9646.3
644.771	9624.83
645.124	9516.36
645.477	9573.76
645.83	9484.5
646.182	9405.63
646.535	9316.37
646.888	9369.02
647.24	9261.9
647.593	9412.86
647.945	9291.51
648.298	9300.55
648.65	9255.12
649.002	9265.07
649.355	9264.39
649.707	9362.92
650.059	9358.62
650.411	9370.83
650.763	9466.87
651.115	9524.04
651.467	9507.32
651.819	9519.52
652.171	9458.96
652.523	9407.89
652.875	9461.22
653.227	9475.68
653.578	9501.9
653.93	9452.41
654.282	9413.31
654.633	9394.33
654.985	9361.56
655.337	9419.64
655.688	9363.6
656.039	9392.07
656.391	9245.41
656.742	9378.51
657.094	9334.44
657.445	9349.58
657.796	9346.65
658.147	9391.17
658.498	9269.36
658.849	9291.06
659.2	9301
659.551	9279.53
659.902	9330.38
660.253	9306.42
660.604	9289.7
660.955	9295.57
661.306	9309.13
661.656	9259.19
662.007	9265.75
662.358	9251.28
662.708	9254.45
663.059	9252.64
663.409	9205.18
663.76	9261.45
664.11	9248.34
664.461	9318.17
664.811	9341
665.161	9270.49
665.511	9194.11
665.862	9204.96
666.212	9285.86
666.562	9224.62
666.912	9247.44
667.262	9275.91
667.612	9178.52
667.962	9240.44
668.312	9168.35
668.662	9158.18
669.011	9149.14
669.361	9165.63
669.711	9081.8
670.06	9105.75
670.41	9098.74
670.76	9143.71
671.109	9134.68
671.459	9089.7
671.808	9066.65
672.157	9092.64
672.507	9056.03
672.856	9113.88
673.205	9091.51
673.554	9101.68
673.904	9046.54
674.253	9115.01
674.602	9042.93
674.951	8981.46
675.3	8892.87
675.649	9049.03
675.998	8993.66
676.346	9097.16
676.695	9098.97
677.044	8967.45
677.393	9009.03
677.741	8996.83
678.09	9010.84
678.438	8992.31
678.787	8985.07
679.135	9048.8
679.484	8893.1
679.832	8993.21
680.181	8908.47
680.529	8965.87
680.877	8992.53
681.225	8930.84
681.573	8969.71
681.922	8910.05
682.27	8842.25
682.618	8901.46
682.966	8859.65
683.314	8884.51
683.661	8860.33
684.009	8792.54
684.357	8792.31
684.705	8812.42
685.053	8830.05
685.4	8723.39
685.748	8755.48
686.095	8757.28
686.443	8726.55
686.79	8658.3
687.138	8723.61
687.485	8668.7
687.832	8617.85
688.18	8640.22
688.527	8637.29
688.874	8602.03
689.221	8565.42
689.568	8523.39
689.915	8557.97
690.262	8537.63
690.609	8464.18
690.956	8420.34
691.303	8389.38
691.65	8377.86
691.997	8322.94
692.344	8356.84
692.69	8391.64
693.037	8411.76
693.383	8281.36
693.73	8343.74
694.077	8309.84
694.423	8302.61
694.769	8299.22
695.116	8273.68
695.462	8193.46
695.808	8211.54
696.155	8258.09
696.501	8144.42
696.847	8139.22
697.193	8073.46
697.539	8144.64
697.885	8100.8
698.231	8039.56
698.577	8093.57
698.923	8054.48
699.269	7966.8
699.614	7952.56
699.96	7931.54
700.306	7876.18
700.651	7947.14
700.997	7889.96
701.342	7863.75
701.688	7848.61
702.033	7828.04
702.379	7854.93
702.724	7832.11
703.069	7886.12
703.415	7714.6
703.76	7782.17
704.105	7803.41
704.45	7720.02
704.795	7723.41
705.14	7661.95
705.485	7659.91
705.83	7624.21
706.175	7669.85
706.52	7635.73
706.865	7488.62
707.209	7565
707.554	7541.5
707.899	7602.74
708.243	7457.43
708.588	7504.44
708.932	7468.05
709.277	7448.84
709.621	7440.71
709.966	7435.96
710.31	7460.37
710.654	7306.7
710.998	7339.24
711.342	7378.56
711.687	7344.44
712.031	7387.83
712.375	7353.03
712.719	7308.73
713.063	7275.29
713.407	7389.41
713.75	7276.42
714.094	7245.23
714.438	7244.1
714.782	7221.51
715.125	7165.69
715.469	7199.58
715.812	7126.59
716.156	7127.04
716.499	7112.13
716.843	7094.95
717.186	7122.07
717.53	7165.46
717.873	7145.8
718.216	7157.55
718.559	7100.83
718.902	7075.52
719.246	7037.78
719.589	7033.71
719.932	6979.03
720.275	6984.22
720.617	6987.84
720.96	6989.42
721.303	7001.62
721.646	6939.7
721.989	6938.35
722.331	6938.8
722.674	6901.51
723.016	6904.9
723.359	6878.46
723.701	6957.78
724.044	6853.38
724.386	6842.31
724.729	6878.01
725.071	6845.47
725.413	6830.33
725.755	6808.63
726.097	6792.14
726.439	6763.89
726.782	6744.68
727.124	6752.14
727.465	6769.77
727.807	6743.1
728.149	6766.15
728.491	6718.92
728.833	6742.65
729.175	6729.54
729.516	6670.56
729.858	6657.45
730.199	6712.37
730.541	6737.45
730.882	6642.76
731.224	6641.86
731.565	6670.56
731.906	6649.32
732.248	6573.16
732.589	6624.23
732.93	6572.71
733.271	6607.06
733.612	6578.81
733.953	6625.36
734.294	6578.13
734.635	6565.03
734.976	6580.17
735.317	6534.74
735.658	6489.77
735.999	6476.89
736.339	6485.25
736.68	6481.19
737.021	6488.42
737.361	6481.86
737.702	6497.91
738.042	6489.32
738.383	6514.4
738.723	6490.68
739.063	6419.72
739.404	6396.44
739.744	6437.34
740.084	6371.13
740.424	6386.5
740.764	6426.5
741.104	6483.22
741.444	6363.9
741.784	6383.56
742.124	6383.79
742.464	6349.66
742.804	6279.61
743.143	6341.3
743.483	6324.13
743.823	6275.32
744.162	6327.07
744.502	6307.4
744.841	6221.98
745.181	6267.41
745.52	6299.5
745.86	6290
746.199	6243.45
746.538	6240.29
746.877	6214.98
747.216	6207.75
747.556	6184.92
747.895	6190.12
748.234	6163.45
748.573	6206.84
748.911	6132.27
749.25	6137.69
749.589	6143.12
749.928	6090.01
750.267	6176.56
750.605	6195.54
750.944	6094.53
751.283	6123.91
751.621	6166.84
751.96	6058.15
752.298	6053.63
752.636	6051.37
752.975	6003.68
753.313	6014.08
753.651	6017.92
753.989	5981.31
754.327	5937.92
754.666	5966.85
755.004	5957.13
755.342	5947.41
755.679	5903.12
756.017	5905.16
756.355	5871.03
756.693	5835.33
757.031	5912.61
757.368	5840.98
757.706	5855.67
758.044	5835.33
758.381	5843.46
758.719	5817.02
759.056	5790.81
759.394	5804.37
759.731	5730.24
760.068	5718.04
760.405	5695.9
760.743	5627.2
761.08	5713.3
761.417	5698.61
761.754	5609.12
762.091	5624.71
762.428	5617.71
762.765	5599.4
763.102	5627.87
763.438	5538.39
763.775	5573.64
764.112	5588.1
764.449	5558.5
764.785	5552.62
765.122	5499.52
765.458	5525.28
765.795	5482.12
766.131	5436.47
766.467	5447.31
766.804	5422.46
767.14	5383.81
767.476	5400.08
767.812	5382.91
768.148	5376.58
768.485	5334.77
768.821	5355.79
769.157	5329.58
769.492	5314.66
769.828	5254.1
