Data from black_plastic_tray_FLMS001491_090.txt Node
Date: Tue Feb 07 10:40:53 GMT 2017
User: dcchb
Spectrometer: FLMS00149
Trigger mode: 0
Integration Time (sec): 2.000000E-2
Scans to average: 10
Electric dark correction enabled: true
Nonlinearity correction enabled: false
Boxcar width: 0
XAxis mode: Wavelengths
Number of Pixels in Spectrum: 2048
>>>>>Begin Spectral Data<<<<<
341.393	-2.67
341.776	-2.67
342.16	-2.67
342.543	-37.24
342.927	-63.68
343.31	-52.39
343.693	-72.05
344.077	-60.75
344.46	-62.78
344.843	-37.47
345.226	-46.51
345.61	-22.33
345.993	-8.54
346.376	-18.71
346.759	-9.22
347.142	18.35
347.525	39.36
347.908	48.63
348.291	78.68
348.674	110.55
349.057	95.18
349.44	121.17
349.823	150.55
350.206	156.87
350.588	184.9
350.971	211.34
351.354	238.68
351.737	210.43
352.119	234.61
352.502	260.15
352.884	265.35
353.267	285.46
353.65	273.71
354.032	290.88
354.414	290.2
354.797	309.41
355.179	310.99
355.562	313.93
355.944	327.49
356.326	335.4
356.709	325.23
357.091	312.12
357.473	338.11
357.855	340.82
358.238	343.31
358.62	332.91
359.002	308.73
359.384	314.84
359.766	324.55
360.148	319.81
360.53	318
360.912	344.67
361.294	319.81
361.676	322.52
362.057	319.58
362.439	313.48
362.821	317.55
363.203	328.62
363.584	327.49
363.966	343.31
364.348	309.64
364.729	311.9
365.111	307.38
365.493	329.53
365.874	308.28
366.256	316.19
366.637	336.76
367.019	315.74
367.4	303.31
367.781	308.73
368.163	301.73
368.544	319.36
368.925	327.72
369.306	299.02
369.688	309.19
370.069	318.68
370.45	313.93
370.831	310.99
371.212	307.83
371.593	317.32
371.974	330.88
372.355	287.94
372.736	310.09
373.117	312.58
373.498	313.93
373.879	318.68
374.26	326.36
374.641	327.49
375.021	318.68
375.402	334.27
375.783	308.96
376.163	348.51
376.544	335.85
376.925	328.85
377.305	319.58
377.686	310.99
378.066	327.94
378.447	348.96
378.827	342.63
379.208	327.72
379.588	331.79
379.968	349.19
380.349	334.95
380.729	331.79
381.109	339.02
381.489	345.12
381.87	362.74
382.25	342.18
382.63	331.11
383.01	335.85
383.39	348.96
383.77	361.39
384.15	348.51
384.53	357.55
384.91	371.78
385.29	354.38
385.67	374.27
386.049	358.9
386.429	374.27
386.809	355.74
387.189	376.98
387.568	373.59
387.948	376.08
388.328	384.89
388.707	377.43
389.087	358
389.466	358.23
389.846	380.82
390.225	374.95
390.605	382.41
390.984	400.03
391.363	396.19
391.743	371.11
392.122	377.43
392.501	402.29
392.881	401.39
393.26	384.21
393.639	399.13
394.018	390.99
394.397	399.35
394.776	394.16
395.155	419.47
395.534	407.72
395.913	398.9
396.292	414.04
396.671	411.11
397.05	440.48
397.429	418.11
397.808	426.7
398.186	402.07
398.565	418.79
398.944	435.96
399.323	432.35
399.701	441.16
400.08	415.4
400.458	459.69
400.837	453.59
401.215	418.11
401.594	455.62
401.972	445.68
402.351	449.3
402.729	464.44
403.107	466.02
403.486	470.09
403.864	463.08
404.242	463.53
404.62	447.49
404.999	448.62
405.377	460.6
405.755	476.87
406.133	449.52
406.511	491.78
406.889	492.01
407.267	484.32
407.645	486.81
408.023	504.21
408.401	501.95
408.779	495.17
409.156	506.02
409.534	500.37
409.912	501.72
410.29	537.66
410.667	532.01
411.045	526.81
411.422	535.17
411.8	521.16
412.178	528.39
412.555	544.89
412.933	533.36
413.31	551.89
413.687	539.46
414.065	559.58
414.442	557.32
414.819	581.72
415.197	581.04
415.574	580.82
415.951	597.09
416.328	566.81
416.705	547.82
417.082	607.26
417.46	573.13
417.837	567.49
418.214	613.59
418.591	597.99
418.967	626.92
419.344	605.45
419.721	624.43
420.098	611.1
420.475	626.24
420.852	606.81
421.228	643.19
421.605	645.45
421.982	634.6
422.358	663.08
422.735	669.86
423.111	651.1
423.488	674.6
423.864	670.31
424.241	672.57
424.617	691.78
424.994	697.43
425.37	710.31
425.746	673.92
426.123	685
426.499	701.49
426.875	697.88
427.251	712.11
427.627	729.97
428.003	753.69
428.379	733.58
428.756	748.5
429.132	762.06
429.507	767.48
429.883	749.18
430.259	761.38
430.635	778.33
431.011	763.41
431.387	799.8
431.763	797.99
432.138	795.95
432.514	823.75
432.89	801.38
433.265	831.66
433.641	844.54
434.016	832.79
434.392	862.62
434.767	852.22
435.143	831.66
435.518	866.91
435.894	844.31
436.269	894.71
436.644	898.78
437.02	919.34
437.395	920.47
437.77	922.05
438.145	921.83
438.52	940.81
438.895	952.33
439.271	916.85
439.646	969.06
440.021	953.46
440.395	970.41
440.77	962.73
441.145	969.73
441.52	968.15
441.895	999.79
442.27	1002.73
442.645	1000.92
443.019	1006.12
443.394	1022.16
443.769	1030.3
444.143	1017.64
444.518	1033.46
444.892	1008.6
445.267	1050.41
445.641	1043.18
446.016	1041.6
446.39	1083.18
446.764	1056.74
447.139	1071.65
447.513	1069.84
447.887	1073.23
448.262	1087.25
448.636	1084.53
449.01	1122.72
449.384	1087.02
449.758	1108.71
450.132	1105.1
450.506	1144.87
450.88	1149.62
451.254	1146.23
451.628	1156.17
452.002	1166.11
452.376	1173.57
452.75	1177.41
453.123	1176.51
453.497	1201.14
453.871	1244.08
454.244	1189.62
454.618	1247.24
454.992	1252.44
455.365	1262.61
455.739	1267.13
456.112	1260.8
456.486	1325.43
456.859	1312.78
457.232	1324.98
457.606	1336.73
457.979	1361.59
458.352	1413.34
458.725	1376.28
459.099	1399.1
459.472	1425.09
459.845	1432.77
460.218	1431.64
460.591	1461.47
460.964	1474.35
461.337	1500.12
461.71	1522.71
462.083	1522.49
462.456	1542.15
462.829	1556.16
463.201	1544.63
463.574	1583.96
463.947	1600
464.32	1604.29
464.692	1642.94
465.065	1606.78
465.438	1683.61
465.81	1728.36
466.183	1735.14
466.555	1721.81
466.928	1769.26
467.3	1731.97
467.672	1774.46
468.045	1816.49
468.417	1812.88
468.789	1823.95
469.161	1856.72
469.534	1885.87
469.906	1898.98
470.278	1899.43
470.65	1962.48
471.022	1971.06
471.394	2004.51
471.766	2029.14
472.138	2074.56
472.51	2076.37
472.882	2107.33
473.253	2123.83
473.625	2157.95
473.997	2178.06
474.369	2219.19
474.74	2206.31
475.112	2253.77
475.484	2317.72
475.855	2366.76
476.227	2379.87
476.598	2393.65
476.97	2418.28
477.341	2475.91
477.713	2511.84
478.084	2566.75
478.455	2607.66
478.827	2597.26
479.198	2656.02
479.569	2689.92
479.94	2747.77
480.311	2754.77
480.682	2802.23
481.053	2889.46
481.424	2909.34
481.795	2985.95
482.166	3009.45
482.537	3046.29
482.908	3101.88
483.279	3168.09
483.65	3159.73
484.021	3225.72
484.391	3247.41
484.762	3297.13
485.133	3321.54
485.503	3338.49
485.874	3436.56
486.244	3479.95
486.615	3588.42
486.985	3552.94
487.356	3618.7
487.726	3638.36
488.097	3730.11
488.467	3741.64
488.837	3805.37
489.207	3859.15
489.578	3909.09
489.948	3963.55
490.318	3988.86
490.688	4012.14
491.058	4057.56
491.428	4131.91
491.798	4165.81
492.168	4210.1
492.538	4239.25
492.908	4271.57
493.278	4350.66
493.648	4382.53
494.017	4437.67
494.387	4436.31
494.757	4516.53
495.126	4513.14
495.496	4564.44
495.866	4575.97
496.235	4636.3
496.605	4713.14
496.974	4721.05
497.344	4711.1
497.713	4737.77
498.082	4834.72
498.452	4887.15
498.821	4893.02
499.19	4901.61
499.559	4946.13
499.928	4991.55
500.298	5019.35
500.667	5049.63
501.036	5065.22
501.405	5090.53
501.774	5159.68
502.143	5155.84
502.512	5181.15
502.88	5215.5
503.249	5240.13
503.618	5308.6
503.987	5305.89
504.356	5338.89
504.724	5423.63
505.093	5403.29
505.462	5381.37
505.83	5474.93
506.199	5556.28
506.567	5587.92
506.936	5598.77
507.304	5658.65
507.672	5684.64
508.041	5691.64
508.409	5718.08
508.777	5774.35
509.145	5848.48
509.514	5842.37
509.882	5909.27
510.25	5949.94
510.618	5977.51
510.986	6017.29
511.354	6051.18
511.722	6081.69
512.09	6133.67
512.458	6167.79
512.826	6226.55
513.193	6227
513.561	6302.7
513.929	6348.12
514.297	6396.94
514.664	6445.97
515.032	6473.09
515.4	6520.32
515.767	6526.88
516.135	6587.21
516.502	6514
516.869	6689.81
517.237	6688.68
517.604	6707.21
517.972	6778.85
518.339	6852.97
518.706	6841.44
519.073	6917.83
519.44	6986.98
519.808	7007.99
520.175	7072.17
520.542	7143.36
520.909	7219.97
521.276	7146.3
521.643	7269.23
522.009	7334.99
522.376	7316.91
522.743	7428.1
523.11	7485.27
523.477	7601.65
523.843	7613.85
524.21	7638.49
524.577	7750.35
524.943	7729.78
525.31	7830.12
525.676	7897.01
526.043	7977.23
526.409	8065.59
526.776	8047.29
527.142	8125.25
527.508	8217.91
527.874	8224.23
528.241	8282.99
528.607	8357.79
528.973	8351.01
529.339	8425.58
529.705	8479.59
530.071	8546.94
530.437	8541.96
530.803	8601.62
531.169	8711.45
531.535	8672.81
531.901	8712.13
532.267	8741.96
532.632	8817.89
532.998	8923.42
533.364	8909.19
533.73	8948.28
534.095	9065.79
534.461	9073.25
534.826	9121.84
535.192	9148.05
535.557	9176.3
535.923	9223.08
536.288	9246.35
536.653	9292.68
537.019	9313.47
537.384	9317.09
537.749	9383.52
538.114	9380.81
538.479	9451.32
538.845	9515.27
539.21	9470.98
539.575	9486.57
539.94	9537.19
540.305	9628.94
540.67	9680.24
541.034	9701.26
541.399	9677.08
541.764	9780.35
542.129	9739.45
542.494	9805.43
542.858	9777.41
543.223	9847.47
543.587	9964.07
543.952	9895.38
544.316	9973.34
544.681	10010.4
545.045	9987.58
545.41	10016.28
545.774	10044.98
546.138	10115.48
546.503	10148.48
546.867	10124.3
547.231	10195.25
547.595	10220.34
547.959	10280.22
548.324	10305.99
548.688	10287.46
549.052	10342.82
549.416	10332.65
549.779	10378.3
550.143	10420.79
550.507	10547.11
550.871	10564.51
551.235	10580.1
551.599	10622.14
551.962	10669.14
552.326	10663.04
552.689	10816.71
553.053	10748.23
553.417	10821.9
553.78	10937.83
554.143	10853.54
554.507	10948.68
554.87	11028.68
555.234	11082.01
555.597	11066.87
555.96	11084.95
556.323	11155
556.686	11223.48
557.05	11255.11
557.413	11316.81
557.776	11300.54
558.139	11420.53
558.502	11465.28
558.865	11415.34
559.228	11593.18
559.59	11632.73
559.953	11686.29
560.316	11749.11
560.679	11725.61
561.041	11840.18
561.404	11822.78
561.767	11883.57
562.129	11886.74
562.492	12052.38
562.854	12047.64
563.217	12084.47
563.579	12071.36
563.941	12203.34
564.304	12287.85
564.666	12323.56
565.028	12391.35
565.39	12397.91
565.753	12467.74
566.115	12458.47
566.477	12519.71
566.839	12526.72
567.201	12533.5
567.563	12645.36
567.925	12693.27
568.287	12774.85
568.648	12806.71
569.01	12859.14
569.372	12914.51
569.734	12927.84
570.095	12994.5
570.457	13100.71
570.819	13104.33
571.18	13117.66
571.542	13192.01
571.903	13238.79
572.265	13274.27
572.626	13306.36
572.987	13304.1
573.349	13441.27
573.71	13401.72
574.071	13530.31
574.432	13505.45
574.794	13490.54
575.155	13542.29
575.516	13477.2
575.877	13577.31
576.238	13605.11
576.599	13652.11
576.96	13654.82
577.32	13704.99
577.681	13733.92
578.042	13783.41
578.403	13803.07
578.763	13763.07
579.124	13854.37
579.485	13990.18
579.845	13894.14
580.206	13895.95
580.566	13898.89
580.927	13917.19
581.287	13956.96
581.648	13952.22
582.008	13989.96
582.368	13987.47
582.728	14009.84
583.089	14063.18
583.449	14048.26
583.809	14021.37
584.169	14028.15
584.529	14010.97
584.889	14075.38
585.249	14012.78
585.609	13951.31
585.969	14072.21
586.329	14052.1
586.688	14074.93
587.048	14148.37
587.408	14004.19
587.768	14008.26
588.127	14127.13
588.487	13998.77
588.846	14115.83
589.206	13919.22
589.565	13874.03
589.925	14067.02
590.284	14000.8
590.643	14061.82
591.003	14086.9
591.362	14151.31
591.721	14074.02
592.08	14062.27
592.44	14120.58
592.799	14118.77
593.158	14079.22
593.517	14071.54
593.876	14156.05
594.235	14107.69
594.593	14092.1
594.952	14165.32
595.311	14132.55
595.67	14114.7
596.029	14236.5
596.387	14219.78
596.746	14322.38
597.104	14096.85
597.463	14157.41
597.822	14138.88
598.18	14159.9
598.538	14164.87
598.897	14227.01
599.255	14150.18
599.613	14385.65
599.972	14285.99
600.33	14319.21
600.688	14307.46
601.046	14295.94
601.404	14331.64
601.762	14365.99
602.12	14411.41
602.478	14378.65
602.836	14449.15
603.194	14408.7
603.552	14335.48
603.91	14292.77
604.268	14381.59
604.625	14340.23
604.983	14494.58
605.341	14311.53
605.698	14453.9
606.056	14555.37
606.413	14489.38
606.771	14501.36
607.128	14558.98
607.485	14465.88
607.843	14397.18
608.2	14560.11
608.557	14650.5
608.914	14532.09
609.272	14664.29
609.629	14648.02
609.986	14670.62
610.343	14556.04
610.7	14754.46
611.057	14712.88
611.414	14691.41
611.771	14807.79
612.127	14778.86
612.484	14733.89
612.841	14884.85
613.198	14809.6
613.554	14822.93
613.911	14844.17
614.267	14769.6
614.624	14757.17
614.98	14825.42
615.337	14956.49
615.693	14835.13
616.05	14842.82
616.406	14931.85
616.762	14869.48
617.118	14948.12
617.475	14855.92
617.831	15006.43
618.187	14945.41
618.543	14972.98
618.899	15068.8
619.255	15094.56
619.611	15034.22
619.967	15088.46
620.323	15091.62
620.678	14959.42
621.034	15055.01
621.39	14989.48
621.746	14927.11
622.101	15141.11
622.457	15047.1
622.812	15019.08
623.168	15126.2
623.523	15124.84
623.879	15078.29
624.234	14959.88
624.589	15068.12
624.945	15083.04
625.3	15134.11
625.655	15058.63
626.01	15084.39
626.365	15100.66
626.72	15036.94
627.075	15091.17
627.43	14997.84
627.785	14916.49
628.14	15064.73
628.495	15064.73
628.85	14994.9
629.205	14951.51
629.559	14993.77
629.914	14884.85
630.269	14990.16
630.623	14999.65
630.978	14779.77
631.332	14990.38
631.687	14980.89
632.041	14876.04
632.396	14960.78
632.75	14967.56
633.104	14783.61
633.459	14799.2
633.813	14854.34
634.167	14830.84
634.521	14805.08
634.875	14809.14
635.229	14756.49
635.583	14634.46
635.937	14709.03
636.291	14624.74
636.645	14572.54
636.999	14546.78
637.352	14722.37
637.706	14496.16
638.06	14615.48
638.413	14610.28
638.767	14545.42
639.121	14530.51
639.474	14481.24
639.828	14592.2
640.181	14526.89
640.534	14526.44
640.888	14422.49
641.241	14372.32
641.594	14351.98
641.947	14415.26
642.301	14356.28
642.654	14411.41
643.007	14387.23
643.36	14384.97
643.713	14295.03
644.066	14438.76
644.419	14330.51
644.771	14310.63
645.124	14057.53
645.477	14085.55
645.83	13958.55
646.182	13861.82
646.535	13873.12
646.888	13938.21
647.24	13701.6
647.593	13796.52
647.945	13843.75
648.298	13675.61
648.65	13672.23
649.002	13636.29
649.355	13678.33
649.707	13755.16
650.059	13767.14
650.411	13950.18
650.763	14005.55
651.115	14067.7
651.467	14030.63
651.819	13995.61
652.171	13923.97
652.523	13966.91
652.875	13980.01
653.227	13959
653.578	14004.19
653.93	13935.04
654.282	13921.03
654.633	13981.14
654.985	13904.54
655.337	13913.57
655.688	13816.63
656.039	13840.36
656.391	13743.86
656.742	13776.86
657.094	13895.27
657.445	13886.91
657.796	13821.37
658.147	13835.84
658.498	13875.38
658.849	13932.33
659.2	13729.85
659.551	13783.18
659.902	13876.29
660.253	13852.33
660.604	13787.93
660.955	13725.56
661.306	13791.09
661.656	13711.09
662.007	13649.85
662.358	13637.2
662.708	13688.95
663.059	13678.55
663.409	13571.21
663.76	13695.95
664.11	13774.37
664.461	13712.22
664.811	13736.4
665.161	13655.05
665.511	13614.83
665.862	13676.29
666.212	13679.91
666.562	13722.39
666.912	13707.48
667.262	13629.06
667.612	13616.41
667.962	13720.81
668.312	13586.35
668.662	13660.47
669.011	13696.63
669.361	13567.14
669.711	13542.96
670.06	13580.48
670.41	13510.65
670.76	13504.09
671.109	13651.21
671.459	13556.07
671.808	13500.7
672.157	13512.91
672.507	13483.76
672.856	13491.21
673.205	13507.26
673.554	13542.74
673.904	13381.84
674.253	13442.85
674.602	13458.67
674.951	13251.9
675.3	13128.96
675.649	13408.73
675.998	13404.21
676.346	13414.15
676.695	13424.1
677.044	13304.78
677.393	13376.87
677.741	13358.79
678.09	13310.88
678.438	13326.7
678.787	13301.61
679.135	13326.92
679.484	13170.54
679.832	13325.79
680.181	13218.68
680.529	13202.86
680.877	13271.78
681.225	13193.14
681.573	13275.17
681.922	13147.95
682.27	13088.06
682.618	13230.2
682.966	13113.6
683.314	13115.86
683.661	13097.1
684.009	13036.08
684.357	12951.11
684.705	12944.33
685.053	12962.64
685.4	12945.01
685.748	12891.23
686.095	12844.9
686.443	12799.03
686.79	12803.55
687.138	12778.24
687.485	12731.23
687.832	12747.5
688.18	12686.94
688.527	12649.43
688.874	12595.19
689.221	12577.34
689.568	12598.58
689.915	12530.56
690.262	12512.93
690.609	12506.83
690.956	12444.69
691.303	12380.06
691.65	12373.73
691.997	12378.25
692.344	12277.23
692.69	12216.9
693.037	12299.61
693.383	12205.15
693.73	12288.31
694.077	12138.48
694.423	12198.14
694.769	12201.08
695.116	12094.64
695.462	12046.28
695.808	12028.65
696.155	12054.41
696.501	11947.3
696.847	11967.86
697.193	11865.72
697.539	11921.99
697.885	11729.68
698.231	11741.65
698.577	11811.26
698.923	11724.93
699.269	11666.4
699.614	11699.62
699.96	11698.94
700.306	11573.07
700.651	11564.94
700.997	11524.03
701.342	11551.83
701.688	11478.84
702.033	11461.66
702.379	11498.5
702.724	11353.87
703.069	11491.27
703.415	11329.69
703.76	11313.64
704.105	11291.04
704.45	11272.74
704.795	11203.14
705.14	11259.86
705.485	11131.05
705.83	11108.68
706.175	11141.9
706.52	11133.99
706.865	11018.28
707.209	11004.95
707.554	10994.33
707.899	11028.23
708.243	10969.7
708.588	10957.49
708.932	10919.98
709.277	10856.03
709.621	10998.17
709.966	10940.32
710.31	10894.9
710.654	10799.98
710.998	10826.2
711.342	10768.57
711.687	10770.38
712.031	10671.4
712.375	10755.24
712.719	10719.31
713.063	10651.74
713.407	10689.03
713.75	10631.63
714.094	10602.93
714.438	10618.52
714.782	10646.09
715.125	10523.61
715.469	10541.23
715.812	10505.98
716.156	10481.8
716.499	10512.08
716.843	10534.23
717.186	10463.95
717.53	10512.31
717.873	10510.5
718.216	10419.43
718.559	10409.94
718.902	10340.34
719.246	10369.26
719.589	10363.84
719.932	10328.13
720.275	10310.73
720.617	10332.65
720.96	10231.86
721.303	10288.59
721.646	10273.67
721.989	10204.52
722.331	10240.23
722.674	10190.73
723.016	10169.27
723.359	10146.67
723.701	10227.8
724.044	10052.89
724.386	10052.43
724.729	10053.34
725.071	10058.31
725.413	10015.82
725.755	10030.29
726.097	9976.96
726.439	9934.02
726.782	9944.19
727.124	10011.98
727.465	9951.87
727.807	9909.61
728.149	9850.63
728.491	9871.42
728.833	9852.44
729.175	9836.39
729.516	9858.99
729.858	9749.84
730.199	9763.18
730.541	9766.57
730.882	9859.22
731.224	9752.55
731.565	9738.32
731.906	9713.46
732.248	9715.95
732.589	9670.3
732.93	9682.05
733.271	9622.39
733.612	9656.74
733.953	9624.2
734.294	9573.8
734.635	9585.55
734.976	9614.93
735.317	9629.85
735.658	9579.9
735.999	9520.7
736.339	9525.44
736.68	9492.45
737.021	9413.81
737.361	9426.69
737.702	9437.99
738.042	9428.27
738.383	9407.7
738.723	9449.51
739.063	9372.23
739.404	9412.45
739.744	9352.11
740.084	9379.91
740.424	9383.98
740.764	9267.14
741.104	9405.9
741.444	9305.11
741.784	9239.35
742.124	9234.38
742.464	9181.5
742.804	9210.2
743.143	9257.88
743.483	9301.27
743.823	9176.75
744.162	9151.21
744.502	9249.74
744.841	9136.3
745.181	9197.31
745.52	9168.16
745.86	9160.03
746.199	9168.84
746.538	9092.68
746.877	9135.4
747.216	9082.97
747.556	9006.81
747.895	9064.66
748.234	9037.54
748.573	9050.88
748.911	9013.82
749.25	9017.43
749.589	8975.4
749.928	8955.51
750.267	8967.72
750.605	8852.24
750.944	8926.81
751.283	8896.53
751.621	8895.18
751.96	8713.94
752.298	8815.4
752.636	8846.82
752.975	8782.86
753.313	8753.48
753.651	8755.07
753.989	8724.78
754.327	8720.49
754.666	8688.18
755.004	8709.87
755.342	8676.2
755.679	8654.5
756.017	8588.52
756.355	8563.66
756.693	8484.57
757.031	8554.39
757.368	8536.32
757.706	8520.5
758.044	8510.33
758.381	8451.12
758.719	8364.79
759.056	8465.81
759.394	8442.76
