Data from black_metal_pc_casing_FLMS001491_00028.txt Node
Date: Wed Feb 08 14:32:15 GMT 2017
User: dcchb
Spectrometer: FLMS00149
Trigger mode: 0
Integration Time (sec): 2.000000E-2
Scans to average: 10
Electric dark correction enabled: true
Nonlinearity correction enabled: false
Boxcar width: 0
XAxis mode: Wavelengths
Number of Pixels in Spectrum: 2048
>>>>>Begin Spectral Data<<<<<
341.393	-33.4
341.776	-33.4
342.16	-33.4
342.543	-56.45
342.927	-74.53
343.31	-75.21
343.693	-69.11
344.077	-85.61
344.46	-51.26
344.843	-42.44
345.226	-55.78
345.61	-31.37
345.993	-18.04
346.376	-20.52
346.759	21.06
347.142	46.82
347.525	66.48
347.908	46.59
348.291	57.22
348.674	88.85
349.057	122.3
349.44	133.82
349.823	136.99
350.206	138.8
350.588	177.89
350.971	200.49
351.354	186.48
351.737	211.79
352.119	225.35
352.502	230.54
352.884	270.09
353.267	274.16
353.65	266.93
354.032	286.81
354.414	310.77
354.797	307.6
355.179	296.31
355.562	315.97
355.944	309.64
356.326	318.68
356.709	301.28
357.091	328.62
357.473	337.66
357.855	303.76
358.238	328.62
358.62	334.95
359.002	299.7
359.384	310.54
359.766	306.93
360.148	312.12
360.53	321.16
360.912	332.69
361.294	328.85
361.676	297.21
362.057	295.18
362.439	315.29
362.821	302.18
363.203	316.19
363.584	319.81
363.966	322.29
364.348	306.02
364.729	316.87
365.111	295.18
365.493	301.73
365.874	313.93
366.256	290.2
366.637	301.28
367.019	310.32
367.4	307.15
367.781	296.31
368.163	319.81
368.544	295.18
368.925	289.75
369.306	304.89
369.688	303.99
370.069	294.5
370.45	286.81
370.831	302.18
371.212	304.89
371.593	295.18
371.974	309.86
372.355	318.68
372.736	301.05
373.117	299.24
373.498	317.1
373.879	284.33
374.26	303.31
374.641	308.96
375.021	314.84
375.402	308.06
375.783	313.25
376.163	318.9
376.544	322.07
376.925	309.19
377.305	324.55
377.686	321.62
378.066	315.97
378.447	331.79
378.827	329.3
379.208	327.94
379.588	323.88
379.968	311.45
380.349	341.95
380.729	323.65
381.109	313.93
381.489	335.85
381.87	335.85
382.25	346.93
382.63	332.91
383.01	340.15
383.39	337.21
383.77	344.89
384.15	350.77
384.53	350.54
384.91	329.75
385.29	339.69
385.67	351.67
386.049	360.03
386.429	344.67
386.809	348.73
387.189	374.04
387.568	358.9
387.948	332.24
388.328	351.22
388.707	348.73
389.087	365.23
389.466	354.38
389.846	350.32
390.225	362.29
390.605	370.88
390.984	359.35
391.363	357.1
391.743	388.28
392.122	369.75
392.501	389.18
392.881	379.24
393.26	372.46
393.639	388.73
394.018	390.09
394.397	406.59
394.776	387.15
395.155	370.65
395.534	388.51
395.913	393.7
396.292	409.52
396.671	413.14
397.05	410.43
397.429	408.39
397.808	409.75
398.186	415.4
398.565	422.63
398.944	413.14
399.323	421.95
399.701	412.23
400.08	405
400.458	435.51
400.837	408.85
401.215	406.59
401.594	424.21
401.972	432.8
402.351	420.14
402.729	428.05
403.107	448.84
403.486	437.77
403.864	420.6
404.242	451.56
404.62	449.07
404.999	418.11
405.377	432.35
405.755	452.91
406.133	459.24
406.511	444.55
406.889	478.67
407.267	457.43
407.645	457.43
408.023	469.86
408.401	490.65
408.779	482.06
409.156	487.26
409.534	452.91
409.912	493.81
410.29	532.23
410.667	505.11
411.045	498.56
411.422	499.46
411.8	517.32
412.178	527.49
412.555	525
412.933	524.55
413.31	509.41
413.687	523.87
414.065	528.39
414.442	557.99
414.819	552.57
415.197	529.07
415.574	564.77
415.951	556.41
416.328	530.2
416.705	536.07
417.082	546.92
417.46	564.55
417.837	582.17
418.214	554.38
418.591	578.11
418.967	557.77
419.344	566.36
419.721	563.19
420.098	595.96
420.475	587.37
420.852	586.24
421.228	604.55
421.605	619.01
421.982	579.46
422.358	617.43
422.735	621.95
423.111	630.99
423.488	619.24
423.864	611.33
424.241	631.89
424.617	626.47
424.994	635.05
425.37	621.27
425.746	654.71
426.123	656.97
426.499	668.05
426.875	650.65
427.251	679.12
427.627	675.73
428.003	680.93
428.379	696.52
428.756	685.67
429.132	699.91
429.507	722.96
429.883	742.85
430.259	717.09
430.635	726.8
431.011	741.72
431.387	756.41
431.763	744.2
432.138	743.53
432.514	776.75
432.89	769.06
433.265	796.41
433.641	774.26
434.016	781.49
434.392	801.38
434.767	811.32
435.143	802.06
435.518	832.34
435.894	812.9
436.269	826.91
436.644	845.22
437.02	844.54
437.395	831.88
437.77	853.81
438.145	869.17
438.52	847.25
438.895	898.1
439.271	889.51
439.646	891.54
440.021	907.59
440.395	903.3
440.77	873.01
441.145	889.28
441.52	926.8
441.895	903.97
442.27	913.92
442.645	905.1
443.019	922.28
443.394	932.45
443.769	947.36
444.143	937.42
444.518	951.66
444.892	980.81
445.267	960.24
445.641	990.98
446.016	969.73
446.39	995.27
446.764	995.95
447.139	991.88
447.513	1006.8
447.887	1008.15
448.262	1005.44
448.636	1024.65
449.01	1018.09
449.384	1044.53
449.758	1019.45
450.132	1074.82
450.506	1063.52
450.88	1070.52
451.254	1066.23
451.628	1074.14
452.002	1102.84
452.376	1108.71
452.75	1115.95
453.123	1113.91
453.497	1117.75
453.871	1114.36
454.244	1153.46
454.618	1128.6
454.992	1140.58
455.365	1169.5
455.739	1193.23
456.112	1193.46
456.486	1200.24
456.859	1209.05
457.232	1230.07
457.606	1233.46
457.979	1251.99
458.352	1298.09
458.725	1296.05
459.099	1280.69
459.472	1320.01
459.845	1322.04
460.218	1345.09
460.591	1345.32
460.964	1350.97
461.337	1361.36
461.71	1386.9
462.083	1418.76
462.456	1381.7
462.829	1432.55
463.201	1446.56
463.574	1444.98
463.947	1457.86
464.32	1499.89
464.692	1522.94
465.065	1525.2
465.438	1548.25
465.81	1556.16
466.183	1560.45
466.555	1620.79
466.928	1604.52
467.3	1593.22
467.672	1617.17
468.045	1694.01
468.417	1666.44
468.789	1677.96
469.161	1683.39
469.534	1700.56
469.906	1772.43
470.278	1754.35
470.65	1788.7
471.022	1793.22
471.394	1835.02
471.766	1846.55
472.138	1857.39
472.51	1894.46
472.882	1962.48
473.253	1969.48
473.625	1983.95
473.997	1997.73
474.369	2013.77
474.74	2030.72
475.112	2068.01
475.484	2133.32
475.855	2162.02
476.227	2169.25
476.598	2245.63
476.97	2205.63
477.341	2273.43
477.713	2304.16
478.084	2296.25
478.455	2356.82
478.827	2401.11
479.198	2477.04
479.569	2445.63
479.94	2519.98
480.311	2523.14
480.682	2600.2
481.053	2625.06
481.424	2673.64
481.795	2676.36
482.166	2712.51
482.537	2796.58
482.908	2846.07
483.279	2852.85
483.65	2884.49
484.021	2925.16
484.391	2966.52
484.762	3002.45
485.133	3037.25
485.503	3064.37
485.874	3126.74
486.244	3174.2
486.615	3240.64
486.985	3209
487.356	3284.7
487.726	3326.51
488.097	3406.73
488.467	3399.95
488.837	3468.65
489.207	3473.85
489.578	3544.13
489.948	3588.65
490.318	3626.16
490.688	3609.66
491.058	3708.87
491.428	3781.64
491.798	3768.98
492.168	3810.34
492.538	3869.77
492.908	3912.93
493.278	3945.48
493.648	3964.68
494.017	3986.15
494.387	4015.98
494.757	4089.2
495.126	4143.89
495.496	4148.63
495.866	4156.09
496.235	4214.17
496.605	4284.45
496.974	4233.6
497.344	4309.53
497.713	4345.01
498.082	4423.43
498.452	4417.33
498.821	4432.69
499.19	4420.94
499.559	4486.93
499.928	4529.64
500.298	4576.19
500.667	4582.75
501.036	4607.38
501.405	4650.54
501.774	4680.82
502.143	4719.24
502.512	4733.7
502.88	4742.97
503.249	4806.47
503.618	4862.74
503.987	4830.88
504.356	4874.94
504.724	4898.44
505.093	4888.05
505.462	4934.38
505.83	4974.6
506.199	5013.02
506.567	5052.56
506.936	5054.15
507.304	5247.81
507.672	5201.94
508.041	5206.69
508.409	5249.17
508.777	5277.87
509.145	5281.94
509.514	5301.15
509.882	5418.43
510.25	5394.25
510.618	5417.98
510.986	5463.4
511.354	5530.97
511.722	5580.01
512.09	5538.88
512.458	5656.39
512.826	5665.2
513.193	5682.6
513.561	5645.54
513.929	5735.48
514.297	5807.35
514.664	5791.53
515.032	5837.85
515.4	5864.75
515.767	5928.93
516.135	5978.64
516.502	5962.15
516.869	6052.99
517.237	6098.87
517.604	6100.9
517.972	6145.19
518.339	6209.14
518.706	6192.87
519.073	6237.62
519.44	6266.09
519.808	6325.3
520.175	6362.59
520.542	6474.45
520.909	6462.7
521.276	6532.53
521.643	6595.35
522.009	6643.03
522.376	6625.18
522.743	6676.25
523.11	6779.98
523.477	6830.82
523.843	6873.76
524.21	6958.05
524.577	6982.01
524.943	6956.7
525.31	7031.95
525.676	7118.73
526.043	7149.46
526.409	7192.85
526.776	7262.22
527.142	7310.58
527.508	7356.91
527.874	7414.31
528.241	7467.42
528.607	7472.16
528.973	7571.59
529.339	7626.28
529.705	7572.27
530.071	7656.56
530.437	7784.92
530.803	7835.09
531.169	7841.87
531.535	7810.68
531.901	7871.7
532.267	7896.56
532.632	7901.76
532.998	8006.61
533.364	8057.23
533.73	8074.41
534.095	8176.1
534.461	8150.11
534.826	8263.78
535.192	8239.83
535.557	8291.12
535.923	8305.81
536.288	8287.51
536.653	8312.82
537.019	8361.63
537.384	8369.09
537.749	8501.51
538.114	8483.21
538.479	8522.08
538.845	8567.5
539.21	8443.89
539.575	8580.38
539.94	8594.39
540.305	8724.11
540.67	8605.01
541.034	8650.66
541.399	8748.74
541.764	8754.84
542.129	8784.22
542.494	8805.69
542.858	8866.93
543.223	8890.88
543.587	8899.92
543.952	8894.5
544.316	8967.04
544.681	8969.07
545.045	8976.98
545.41	9067.83
545.774	9056.53
546.138	9171.55
546.503	9176.3
546.867	9171.55
547.231	9172
547.595	9286.35
547.959	9283.41
548.324	9295.39
548.688	9299.68
549.052	9328.16
549.416	9402.73
549.779	9379.23
550.143	9408.16
550.507	9485.22
550.871	9528.15
551.235	9552.56
551.599	9592.56
551.962	9662.84
552.326	9618.77
552.689	9694.48
553.053	9688.38
553.417	9715.72
553.78	9821.25
554.143	9813.12
554.507	9842.72
554.87	9896.28
555.234	9936.28
555.597	9830.29
555.96	9964.53
556.323	10019.89
556.686	9978.54
557.05	10096.27
557.413	10128.59
557.776	10078.2
558.139	10237.29
558.502	10263.73
558.865	10289.94
559.228	10322.48
559.59	10447.23
559.953	10368.81
560.316	10468.47
560.679	10487
561.041	10610.84
561.404	10554.79
561.767	10632.08
562.129	10671.63
562.492	10836.59
562.854	10784.17
563.217	10811.51
563.579	10811.51
563.941	10851.51
564.304	10923.37
564.666	11047.66
565.028	11053.31
565.39	11046.53
565.753	11165.85
566.115	11163.82
566.477	11252.85
566.839	11241.78
567.201	11355.22
567.563	11312.51
567.925	11429.8
568.287	11467.99
568.648	11466.63
569.01	11457.82
569.372	11646.52
569.734	11561.09
570.095	11666.63
570.457	11681.54
570.819	11734.42
571.18	11738.04
571.542	11809
571.903	11785.27
572.265	11907.53
572.626	11870.92
572.987	11970.35
573.349	12009.22
573.71	12022.78
574.071	12085.6
574.432	12033.62
574.794	12065.49
575.155	12079.72
575.516	12138.71
575.877	12125.15
576.238	12179.16
576.599	12304.58
576.96	12137.35
577.32	12245.82
577.681	12275.65
578.042	12332.15
578.403	12421.41
578.763	12354.52
579.124	12366.04
579.485	12458.25
579.845	12451.69
580.206	12355.65
580.566	12439.26
580.927	12440.39
581.287	12559.94
581.648	12452.37
582.008	12513.84
582.368	12489.43
582.728	12521.3
583.089	12488.53
583.449	12517.68
583.809	12605.59
584.169	12609.2
584.529	12570.79
584.889	12634.51
585.249	12581.86
585.609	12532.82
585.969	12572.59
586.329	12539.83
586.688	12647.39
587.048	12592.48
587.408	12592.71
587.768	12568.98
588.127	12558.13
588.487	12574.4
588.846	12654.4
589.206	12609.2
589.565	12572.14
589.925	12605.36
590.284	12608.75
590.643	12585.02
591.003	12575.76
591.362	12684
591.721	12664.12
592.08	12657.11
592.44	12698.92
592.799	12734.4
593.158	12738.24
593.517	12620.5
593.876	12674.29
594.235	12666.15
594.593	12614.85
594.952	12752.93
595.311	12654.4
595.67	12683.55
596.029	12767.84
596.387	12750.89
596.746	12897.1
597.104	12768.75
597.463	12768.75
597.822	12714.74
598.18	12722.19
598.538	12765.81
598.897	12784.34
599.255	12735.53
599.613	12959.02
599.972	12763.32
600.33	12813.04
600.688	12761.74
601.046	12771.68
601.404	12921.28
601.762	12804.9
602.12	12954.73
602.478	12901.85
602.836	12915.18
603.194	12884.45
603.552	12949.53
603.91	12818.91
604.268	12989.08
604.625	12914.05
604.983	12929.19
605.341	12935.3
605.698	13030.21
606.056	13015.52
606.413	12980.04
606.771	13033.15
607.128	13018.01
607.485	13061.39
607.843	12981.85
608.2	13122.86
608.557	13143.2
608.914	13092.13
609.272	13143.2
609.629	13168.06
609.986	13214.84
610.343	13148.85
610.7	13251.45
611.057	13210.09
611.414	13225.46
611.771	13199.92
612.127	13273.37
612.484	13215.06
612.841	13320.6
613.198	13243.76
613.554	13298
613.911	13353.59
614.267	13346.81
614.624	13336.19
614.98	13332.12
615.337	13342.29
615.693	13382.29
616.05	13359.01
616.406	13410.54
616.762	13497.31
617.118	13393.81
617.475	13454.38
617.831	13527.37
618.187	13530.53
618.543	13470.42
618.899	13555.39
619.255	13506.58
619.611	13482.85
619.967	13541.16
620.323	13567.82
620.678	13497.77
621.034	13538.22
621.39	13508.39
621.746	13517.2
622.101	13570.98
622.457	13528.27
622.812	13516.07
623.168	13543.42
623.523	13593.58
623.879	13658.44
624.234	13419.12
624.589	13572.57
624.945	13713.35
625.3	13542.06
625.655	13621.83
626.01	13545
626.365	13609.63
626.72	13573.24
627.075	13592.23
627.43	13583.41
627.785	13535.96
628.14	13546.35
628.495	13575.5
628.85	13513.36
629.205	13484.89
629.559	13645.11
629.914	13491.21
630.269	13483.3
630.623	13538.22
630.978	13462.97
631.332	13547.26
631.687	13504.55
632.041	13507.71
632.396	13566.24
632.75	13460.93
633.104	13425.9
633.459	13371.22
633.813	13360.14
634.167	13403.08
634.521	13412.12
634.875	13471.78
635.229	13347.71
635.583	13289.18
635.937	13241.73
636.291	13290.09
636.645	13287.6
636.999	13228.85
637.352	13196.76
637.706	13236.08
638.06	13326.7
638.413	13175.29
638.767	13114.27
639.121	13188.4
639.474	13110.21
639.828	13149.3
640.181	13131.22
640.534	13056.87
640.888	13038.12
641.241	13019.81
641.594	13064.33
641.947	13037.44
642.301	12967.39
642.654	13096.87
643.007	13019.81
643.36	12969.42
643.713	12977.55
644.066	13001.28
644.419	12818.69
644.771	12825.02
645.124	12702.53
645.477	12702.76
645.83	12641.52
646.182	12530.33
646.535	12578.69
646.888	12520.17
647.24	12436.1
647.593	12513.61
647.945	12467.51
648.298	12444.69
648.65	12362.88
649.002	12355.42
649.355	12401.98
649.707	12473.84
650.059	12479.49
650.411	12603.78
650.763	12697.34
651.115	12706.15
651.467	12666.15
651.819	12679.71
652.171	12639.71
652.523	12711.57
652.875	12587.06
653.227	12593.16
653.578	12657.11
653.93	12589.77
654.282	12524.01
654.633	12495.98
654.985	12548.86
655.337	12535.08
655.688	12566.49
656.039	12537.79
656.391	12457.57
656.742	12518.81
657.094	12532.59
657.445	12524.01
657.796	12538.92
658.147	12467.51
658.498	12409.21
658.849	12497.34
659.2	12438.81
659.551	12384.12
659.902	12407.17
660.253	12464.8
660.604	12495.76
660.955	12381.86
661.306	12487.4
661.656	12368.3
662.007	12387.29
662.358	12366.27
662.708	12492.37
663.059	12364.91
663.409	12409.89
663.76	12420.05
664.11	12418.7
664.461	12411.02
664.811	12344.58
665.161	12360.62
665.511	12377.12
665.862	12339.83
666.212	12330.34
666.562	12321.75
666.912	12341.86
667.262	12311.58
667.612	12339.6
667.962	12362.2
668.312	12265.26
668.662	12333.96
669.011	12334.41
669.361	12309.55
669.711	12298.25
670.06	12244.47
670.41	12256.44
670.76	12293.05
671.109	12314.75
671.459	12199.27
671.808	12197.46
672.157	12327.4
672.507	12220.06
672.856	12180.51
673.205	12225.03
673.554	12186.84
673.904	12244.47
674.253	12261.41
674.602	12184.13
674.951	11976.68
675.3	11950.91
675.649	12052.38
675.998	12169.21
676.346	12165.6
676.695	12179.16
677.044	12074.53
677.393	12120.18
677.741	12142.77
678.09	12124.92
678.438	12036.34
678.787	12043.57
679.135	12024.58
679.484	11988.88
679.832	12078.59
680.181	12021.65
680.529	12024.13
680.877	11956.34
681.225	11964.47
681.573	12023.23
681.922	11889.9
682.27	11853.52
682.618	11879.96
682.966	11850.35
683.314	11866.4
683.661	11837.7
684.009	11772.61
684.357	11710.47
684.705	11709.11
685.053	11782.78
685.4	11691.94
685.748	11677.02
686.095	11637.7
686.443	11602.9
686.79	11639.28
687.138	11660.98
687.485	11583.01
687.832	11524.71
688.18	11578.72
688.527	11458.72
688.874	11497.59
689.221	11476.58
689.568	11461.66
689.915	11431.61
690.262	11417.37
690.609	11336.69
690.956	11325.85
691.303	11338.5
691.65	11308.9
691.997	11238.84
692.344	11209.69
692.69	11241.33
693.037	11200.88
693.383	11063.48
693.73	11129.02
694.077	11045.85
694.423	11085.85
694.769	11059.64
695.116	11030.94
695.462	11004.05
695.808	10991.17
696.155	10990.26
696.501	10885.41
696.847	10835.24
697.193	10857.16
697.539	10905.74
697.885	10734.9
698.231	10716.6
698.577	10749.82
698.923	10765.86
699.269	10679.08
699.614	10607.22
699.96	10574.91
700.306	10586.88
700.651	10547.79
700.997	10545.75
701.342	10504.17
701.688	10564.51
702.033	10478.41
702.379	10470.28
702.724	10435.25
703.069	10438.41
703.415	10311.64
703.76	10288.36
704.105	10379.88
704.45	10356.15
704.795	10229.83
705.14	10279.77
705.485	10187.12
705.83	10199.77
706.175	10152.32
706.52	10171.07
706.865	10109.38
707.209	10165.65
707.554	10070.29
707.899	10076.84
708.243	10019.67
708.588	9943.28
708.932	9924.53
709.277	9932.66
709.621	9961.14
709.966	9914.58
710.31	9964.3
710.654	9861.03
710.998	9866.68
711.342	9857.18
711.687	9865.55
712.031	9725.44
712.375	9726.79
712.719	9825.77
713.063	9719.33
713.407	9677.98
713.75	9708.49
714.094	9696.06
714.438	9662.84
714.782	9619.68
715.125	9613.57
715.469	9623.07
715.812	9545.78
716.156	9517.76
716.499	9523.18
716.843	9513.92
717.186	9414.48
717.53	9536.74
717.873	9504.2
718.216	9501.71
718.559	9428.72
718.902	9437.31
719.246	9396.18
719.589	9406.35
719.932	9381.49
720.275	9301.27
720.617	9336.29
720.96	9291.78
721.303	9331.32
721.646	9274.37
721.989	9187.15
722.331	9225.56
722.674	9191.21
723.016	9234.38
723.359	9148.28
723.701	9228.95
724.044	9064.44
724.386	9155.96
724.729	9071.44
725.071	9106.47
725.413	9116.19
725.755	9078
726.097	9035.06
726.439	9035.96
726.782	9011.33
727.124	9033.03
727.465	8991.44
727.807	9030.99
728.149	8960.48
728.491	9035.74
728.833	8990.54
729.175	8941.5
729.516	8914.61
729.858	8963.2
730.199	8950.09
730.541	8913.71
730.882	8960.03
731.224	8885.23
731.565	8876.87
731.906	8891.79
732.248	8853.14
732.589	8776.99
732.93	8753.48
733.271	8800.26
733.612	8748.96
733.953	8754.16
734.294	8768.17
734.635	8701.73
734.976	8745.12
735.317	8633.04
735.658	8751.45
735.999	8696.08
736.339	8638.01
736.68	8749.42
737.021	8681.17
737.361	8599.14
737.702	8645.46
738.042	8614.73
738.383	8618.8
738.723	8628.97
739.063	8540.38
739.404	8569.99
739.744	8535.19
740.084	8561.85
740.424	8590.78
740.764	8532.47
741.104	8569.99
741.444	8513.26
741.784	8459.71
742.124	8483.89
742.464	8456.09
742.804	8477.33
743.143	8395.98
743.483	8367.73
743.823	8393.72
744.162	8332.03
744.502	8348.52
744.841	8344.91
745.181	8354.4
745.52	8380.16
745.86	8347.85
746.199	8338.81
746.538	8298.13
746.877	8324.12
747.216	8302.65
747.556	8336.55
747.895	8247.74
748.234	8254.06
748.573	8243.22
748.911	8266.04
749.25	8227.85
749.589	8157.57
749.928	8214.97
750.267	8186.27
750.605	8153.05
750.944	8081.19
751.283	8087.29
751.621	8106.5
751.96	8084.35
752.298	8076.89
752.636	8036.89
752.975	7988.31
753.313	7974.52
753.651	8043.67
753.989	7944.69
754.327	7954.64
754.666	7887.52
755.004	7932.26
755.342	7898.82
755.679	7892.26
756.017	7868.31
756.355	7849.33
756.693	7812.94
757.031	7828.99
757.368	7793.06
757.706	7729.33
758.044	7703.57
758.381	7702.66
758.719	7662.44
759.056	7705.38
759.394	7652.04
759.731	7637.13
760.068	7612.72
760.405	7598.94
760.743	7597.13
761.08	7577.47
761.417	7558.71
