Data from black_plastic_tray_FLMS001491_021.txt Node
Date: Tue Feb 07 10:39:30 GMT 2017
User: dcchb
Spectrometer: FLMS00149
Trigger mode: 0
Integration Time (sec): 2.000000E-2
Scans to average: 10
Electric dark correction enabled: true
Nonlinearity correction enabled: false
Boxcar width: 0
XAxis mode: Wavelengths
Number of Pixels in Spectrum: 2048
>>>>>Begin Spectral Data<<<<<
341.393	5.58
341.776	5.58
342.16	5.58
342.543	-58.83
342.927	-50.69
343.31	-78.94
343.693	-78.49
344.077	-56.79
344.46	-69.22
344.843	-56.34
345.226	-48.43
345.61	-17.02
345.993	-15.21
346.376	-10.47
346.759	22.53
347.142	30.21
347.525	68.18
347.908	49.87
348.291	59.14
348.674	85.8
349.057	115.18
349.44	143.43
349.823	140.04
350.206	148.17
350.588	172.35
350.971	179.81
351.354	225.23
351.737	219.36
352.119	247.61
352.502	242.63
352.884	253.48
353.267	258.68
353.65	291.9
354.032	286.93
354.414	291.67
354.797	304.33
355.179	311.79
355.562	310.88
355.944	302.07
356.326	321.28
356.709	298.9
357.091	307.04
357.473	331.22
357.855	338
358.238	326.47
358.62	340.94
359.002	340.03
359.384	325.12
359.766	339.81
360.148	332.35
360.53	339.13
360.912	323.54
361.294	319.02
361.676	321.73
362.057	343.65
362.439	325.57
362.821	337.77
363.203	305.46
363.584	324.67
363.966	304.55
364.348	291.67
364.729	329.19
365.111	321.73
365.493	307.94
365.874	319.69
366.256	306.81
366.637	305.23
367.019	314.05
367.4	293.26
367.781	326.47
368.163	288.28
368.544	312.92
368.925	307.49
369.306	301.16
369.688	333.93
370.069	314.05
370.45	314.95
370.831	315.85
371.212	299.58
371.593	309.98
371.974	293.48
372.355	324.44
372.736	297.77
373.117	317.89
373.498	319.24
373.879	312.46
374.26	324.67
374.641	297.1
375.021	305.23
375.402	313.14
375.783	309.3
376.163	326.47
376.544	323.76
376.925	334.38
377.305	311.11
377.686	317.66
378.066	348.85
378.447	333.93
378.827	343.88
379.208	345.01
379.588	345.46
379.968	308.4
380.349	337.1
380.729	345.01
381.109	332.35
381.489	343.65
381.87	339.81
382.25	351.56
382.63	347.72
383.01	332.35
383.39	346.81
383.77	329.41
384.15	360.82
384.53	364.44
384.91	352.01
385.29	366.47
385.67	369.86
386.049	378.68
386.429	349.52
386.809	373.25
387.189	376.19
387.568	364.67
387.948	368.28
388.328	369.64
388.707	361.5
389.087	401.05
389.466	386.59
389.846	375.96
390.225	375.51
390.605	406.7
390.984	367.6
391.363	361.95
391.743	397.66
392.122	404.89
392.501	385.68
392.881	395.63
393.26	418.68
393.639	407.15
394.018	396.98
394.397	406.02
394.776	408.51
395.155	395.4
395.534	405.34
395.913	408.96
396.292	415.96
396.671	411.22
397.05	421.39
397.429	419.35
397.808	425.68
398.186	420.94
398.565	433.82
398.944	412.57
399.323	429.75
399.701	428.17
400.08	426.81
400.458	423.87
400.837	433.82
401.215	433.36
401.594	456.87
401.972	439.24
402.351	447.15
402.729	443.53
403.107	450.31
403.486	452.8
403.864	460.48
404.242	454.83
404.62	477.66
404.999	469.3
405.377	480.82
405.755	468.17
406.133	496.41
406.511	485.57
406.889	496.41
407.267	500.48
407.645	500.71
408.023	526.02
408.401	502.52
408.779	523.53
409.156	516.98
409.534	502.06
409.912	501.39
410.29	524.89
410.667	540.03
411.045	534.6
411.422	518.79
411.8	527.83
412.178	538.22
412.555	553.81
412.933	566.02
413.31	551.78
413.687	533.25
414.065	571.44
414.442	565.11
414.819	576.64
415.197	597.88
415.574	595.85
415.951	575.73
416.328	622.29
416.705	602.85
417.082	568.95
417.46	635.62
417.837	602.17
418.214	609.4
418.591	614.15
418.967	599.01
419.344	611.44
419.721	639.91
420.098	608.05
420.475	617.09
420.852	622.29
421.228	661.61
421.605	669.97
421.982	655.73
422.358	679.01
422.735	671.55
423.111	660.48
423.488	658.9
423.864	693.47
424.241	649.63
424.617	682.62
424.994	699.12
425.37	678.1
425.746	696.86
426.123	714.49
426.499	735.73
426.875	706.35
427.251	694.83
427.627	737.09
428.003	730.98
428.379	752.68
428.756	744.32
429.132	779.34
429.507	768.27
429.883	760.36
430.259	800.59
430.635	776.41
431.011	784.54
431.387	806.24
431.763	805.78
432.138	809.4
432.514	819.57
432.89	839.68
433.265	841.94
433.641	868.83
434.016	856.86
434.392	874.71
434.767	859.57
435.143	896.4
435.518	890.75
435.894	894.14
436.269	888.04
436.644	907.7
437.02	905.89
437.395	919
437.77	946.35
438.145	958.1
438.52	960.13
438.895	978.21
439.271	971.66
439.646	996.06
440.021	975.04
440.395	954.71
440.77	990.64
441.145	987.25
441.52	1025.67
441.895	1029.73
442.27	1034.7
442.645	1006.46
443.019	1034.03
443.394	1043.07
443.769	1043.97
444.143	1048.04
444.518	1061.6
444.892	1047.13
445.267	1077.64
445.641	1059.34
446.016	1089.17
446.39	1073.35
446.764	1102.05
447.139	1106.34
447.513	1110.18
447.887	1126.68
448.262	1137.75
448.636	1133.46
449.01	1157.64
449.384	1155.83
449.758	1145.89
450.132	1142.95
450.506	1186.11
450.88	1164.19
451.254	1186.34
451.628	1218.43
452.002	1192.44
452.376	1223.17
452.75	1213.68
453.123	1244.87
453.497	1244.19
453.871	1252.55
454.244	1269.27
454.618	1279.9
454.992	1297.52
455.365	1280.57
455.739	1318.31
456.112	1326
456.486	1339.1
456.859	1362.61
457.232	1378.42
457.606	1400.8
457.979	1384.75
458.352	1428.14
458.725	1433.34
459.099	1427.24
459.472	1465.88
459.845	1477.86
460.218	1476.05
460.591	1521.7
460.964	1519.89
461.337	1551.75
461.71	1558.76
462.083	1560.34
462.456	1571.19
462.829	1583.39
463.201	1639.21
463.574	1620.9
463.947	1646.67
464.32	1673.33
464.692	1693.9
465.065	1715.36
465.438	1732.09
465.81	1744.52
466.183	1732.99
466.555	1798.53
466.928	1789.49
467.3	1821.12
467.672	1832.2
468.045	1867.9
468.417	1890.28
468.789	1881.01
469.161	1910.61
469.534	1909.48
469.906	1945.41
470.278	1971.4
470.65	2010.95
471.022	2036.49
471.394	2068.58
471.766	2082.81
472.138	2122.13
472.51	2154
472.882	2190.15
473.253	2197.16
473.625	2242.36
473.997	2264.95
474.369	2309.25
474.74	2282.13
475.112	2318.96
475.484	2376.59
475.855	2441.45
476.227	2404.39
476.598	2514.44
476.97	2519.86
477.341	2577.04
477.713	2589.24
478.084	2634.44
478.455	2656.58
478.827	2691.38
479.198	2779.52
479.569	2766.64
479.94	2808.22
480.311	2887.54
480.682	2941.09
481.053	2990.13
481.424	3013.41
481.795	3077.36
482.166	3120.3
482.537	3087.98
482.908	3186.06
483.279	3226.06
483.65	3278.26
484.021	3329.56
484.391	3394.87
484.762	3398.94
485.133	3420.4
485.503	3507.86
485.874	3547.86
486.244	3598.03
486.615	3613.62
486.985	3699.95
487.356	3708.53
487.726	3799.15
488.097	3823.56
488.467	3864.01
488.837	3947.17
489.207	3980.39
489.578	4033.72
489.948	4058.58
490.318	4082.31
490.688	4095.41
491.058	4181.97
491.428	4221.06
491.798	4298.8
492.168	4346.93
492.538	4368.63
492.908	4415.41
493.278	4471.9
493.648	4529.3
494.017	4529.53
494.387	4603.88
494.757	4622.86
495.126	4671.9
495.496	4672.35
495.866	4735.17
496.235	4749.64
496.605	4789.18
496.974	4847.71
497.344	4861.5
497.713	4929.52
498.082	4936.75
498.452	5027.59
498.821	5003.19
499.19	5011.1
499.559	5073.02
499.928	5174.26
500.298	5197.76
500.667	5263.07
501.036	5160.25
501.405	5221.49
501.774	5248.15
502.143	5321.37
502.512	5275.95
502.88	5417.41
503.249	5372.67
503.618	5465.55
503.987	5476.85
504.356	5500.12
504.724	5554.13
505.093	5586
505.462	5616.96
505.83	5672.1
506.199	5684.53
506.567	5730.4
506.936	5775.37
507.304	5837.97
507.672	5804.52
508.041	5856.05
508.409	5880.23
508.777	5965.87
509.145	5982.82
509.514	5992.99
509.882	6047.45
510.25	6088.36
510.618	6178.3
510.986	6106.44
511.354	6182.82
511.722	6289.03
512.09	6331.97
512.458	6372.87
512.826	6372.42
513.193	6414.22
513.561	6459.87
513.929	6512.53
514.297	6524.73
514.664	6640.43
515.032	6647.89
515.4	6664.16
515.767	6738.51
516.135	6758.17
516.502	6745.06
516.869	6874.1
517.237	6846.76
517.604	6863.03
517.972	6998.16
518.339	7058.27
518.706	7060.31
519.073	7113.87
519.44	7137.59
519.808	7223.47
520.175	7296.23
520.542	7359.28
520.909	7361.54
521.276	7389.34
521.643	7473.18
522.009	7515.44
522.376	7564.93
522.743	7604.7
523.11	7695.55
523.477	7776.9
523.843	7837.24
524.21	7843.11
524.577	7955.65
524.943	7907.29
525.31	8020.28
525.676	8074.07
526.043	8185.48
526.409	8159.04
526.776	8222.09
527.142	8303.67
527.508	8333.27
527.874	8401.74
528.241	8448.97
528.607	8521.29
528.973	8533.49
529.339	8550.89
529.705	8595.18
530.071	8687.61
530.437	8799.7
530.803	8846.48
531.169	8934.84
531.535	8892.58
531.901	8887.38
532.267	8980.03
532.632	9033.82
532.998	9049.41
533.364	9070.2
533.73	9211.21
534.095	9204.66
534.461	9271.32
534.826	9317.65
535.192	9329.85
535.557	9427.48
535.923	9395.84
536.288	9352.45
536.653	9494.59
537.019	9433.81
537.384	9577.98
537.749	9604.65
538.114	9639.22
538.479	9694.59
538.845	9656.85
539.21	9717.41
539.575	9766
539.94	9831.54
540.305	9832.67
540.67	9832.44
541.034	9846.45
541.399	9966.22
541.764	9931.87
542.129	9949.95
542.494	9936.62
542.858	10004.64
543.223	10062.72
543.587	10062.94
543.952	10086.67
544.316	10144.97
544.681	10150.17
545.045	10250.28
545.41	10245.76
545.774	10366.66
546.138	10296.16
546.503	10276.04
546.867	10381.58
547.231	10420.22
547.595	10506.55
547.959	10489.15
548.324	10529.6
548.688	10506.09
549.052	10596.94
549.416	10619.31
549.779	10563.49
550.143	10638.52
550.507	10737.73
550.871	10785.41
551.235	10771.17
551.599	10868.34
551.962	10903.6
552.326	10858.17
552.689	10951.73
553.053	10982.47
553.417	11021.33
553.78	11108.11
554.143	11072.63
554.507	11165.51
554.87	11182.69
555.234	11280.08
555.597	11225.62
555.96	11238.73
556.323	11260.88
556.686	11361.21
557.05	11415.22
557.413	11436.46
557.776	11486.41
558.139	11607.99
558.502	11581.77
558.865	11611.15
559.228	11722.11
559.59	11800.07
559.953	11831.93
560.316	11909.22
560.679	11915.55
561.041	11974.76
561.404	12010.69
561.767	12018.37
562.129	12039.84
562.492	12209.1
562.854	12124.13
563.217	12230.34
563.579	12330.68
563.941	12344.69
564.304	12360.28
564.666	12410.22
565.028	12461.97
565.39	12512.14
565.753	12546.27
566.115	12615.19
566.477	12638.24
566.839	12739.71
567.201	12810.89
567.563	12747.39
567.925	12856.54
568.287	12918.69
568.648	12905.8
569.01	12880.72
569.372	13057.21
569.734	13010.66
570.095	13123.43
570.457	13202.07
570.819	13282.52
571.18	13256.98
571.542	13308.28
571.903	13355.74
572.265	13339.24
572.626	13433.93
572.987	13407.49
573.349	13495.39
573.71	13461.5
574.071	13529.74
574.432	13553.7
574.794	13572.68
575.155	13642.73
575.516	13640.7
575.877	13644.77
576.238	13605.9
576.599	13721.15
576.96	13737.87
577.32	13832.79
577.681	13789.17
578.042	13809.51
578.403	13951.65
578.763	13991.88
579.124	14019.45
579.485	14024.19
579.845	13951.88
580.206	13913.46
580.566	13926.57
580.927	13959.79
581.287	14053.8
581.648	13976.74
582.008	14041.59
582.368	14061.25
582.728	14073.46
583.089	13997.08
583.449	14100.35
583.809	14120.69
584.169	14082.27
584.529	14097.41
584.889	14171.99
585.249	14121.37
585.609	14103.06
585.969	14106.68
586.329	14049.96
586.688	14151.42
587.048	14092.67
587.408	14032.1
587.768	14099.45
588.127	14104.42
588.487	14070.29
588.846	14155.04
589.206	13955.72
589.565	14056.28
589.925	14105.55
590.284	14059.67
590.643	14073.01
591.003	14096.73
591.362	14228.71
591.721	14125.66
592.08	14164.08
592.44	14225.09
592.799	14185.32
593.158	14212.44
593.517	14226
593.876	14227.8
594.235	14180.57
594.593	14221.25
594.952	14237.07
595.311	14202.04
595.67	14165.21
596.029	14263.28
596.387	14175.38
596.746	14282.27
597.104	14221.25
597.463	14217.18
597.822	14306.45
598.18	14106.45
598.538	14148.03
598.897	14320.46
599.255	14099.22
599.613	14334.92
599.972	14350.51
600.33	14299.89
600.688	14231.65
601.046	14265.54
601.404	14377.63
601.762	14356.39
602.12	14402.71
602.478	14491.3
602.836	14490.4
603.194	14351.19
603.552	14420.57
603.91	14364.07
604.268	14480.23
604.625	14364.07
604.983	14376.73
605.341	14287.46
605.698	14375.14
606.056	14515.93
606.413	14470.28
606.771	14576.95
607.128	14504.18
607.485	14381.92
607.843	14438.42
608.2	14487.46
608.557	14608.81
608.914	14563.84
609.272	14586.89
609.629	14694.91
609.986	14610.62
610.343	14501.24
610.7	14686.1
611.057	14698.07
611.414	14622.82
611.771	14758.41
612.127	14775.13
612.484	14670.96
612.841	14862.14
613.198	14766.55
613.554	14791.86
613.911	14835.47
614.267	14721.8
614.624	14775.59
614.98	14750.05
615.337	14876.83
615.693	14791.86
616.05	14828.24
616.406	14934
616.762	14809.94
617.118	14818.75
617.475	14898.07
617.831	14871.85
618.187	14917.96
618.543	14896.71
618.899	15059.42
619.255	15045.64
619.611	15002.7
619.967	15073.43
620.323	15051.74
620.678	14920.67
621.034	14882.48
621.39	14897.62
621.746	14982.36
622.101	15140.55
622.457	14918.63
622.812	15079.98
623.168	15071.4
623.523	14943.49
623.879	15035.24
624.234	14883.15
624.589	15033.43
624.945	15052.41
625.3	15070.27
625.655	15037.95
626.01	15075.24
626.365	15072.3
626.72	15098.97
627.075	14959.99
627.43	14985.3
627.785	14962.02
628.14	15015.13
628.495	14988.01
628.85	14945.07
629.205	14910.95
629.559	15010.61
629.914	14984.17
630.269	14971.74
630.623	14964.73
630.978	14848.58
631.332	14934.9
631.687	14955.24
632.041	14932.42
632.396	14962.02
632.75	14911.4
633.104	14884.74
633.459	14736.04
633.813	14814
634.167	14795.02
634.521	14837.28
634.875	14835.47
635.229	14715.93
635.583	14624.86
635.937	14590.51
636.291	14670.96
636.645	14625.53
636.999	14529.72
637.352	14604.52
637.706	14429.38
638.06	14513.45
638.413	14563.16
638.767	14531.3
639.121	14538.76
639.474	14430.96
639.828	14466.44
640.181	14513.22
640.534	14459.89
640.888	14401.81
641.241	14332.89
641.594	14429.83
641.947	14386.9
642.301	14396.61
642.654	14289.27
643.007	14393.9
643.36	14258.76
643.713	14320.23
644.066	14332.66
644.419	14226.9
644.771	14150.07
645.124	14068.03
645.477	14008.83
645.83	13920.69
646.182	13855.38
646.535	13763.18
646.888	13759.34
647.24	13727.03
647.593	13765.9
647.945	13671.89
648.298	13552.34
648.65	13709.63
649.002	13557.31
649.355	13672.79
649.707	13703.3
650.059	13731.77
650.411	13802.28
650.763	13940.81
651.115	14060.8
651.467	14027.13
651.819	13998.66
652.171	13986.45
652.523	13868.94
652.875	13942.16
653.227	13898.77
653.578	13955.27
653.93	13877.08
654.282	13866.23
654.633	13784.65
654.985	13710.08
655.337	13756.18
655.688	13745.1
656.039	13939.45
656.391	13694.03
656.742	13723.41
657.094	13715.27
657.445	13788.72
657.796	13823.97
658.147	13750.08
658.498	13761.38
658.849	13743.07
659.2	13782.17
659.551	13762.51
659.902	13744.2
660.253	13777.42
660.604	13673.02
660.955	13698.33
661.306	13609.29
661.656	13603.87
662.007	13592.11
662.358	13591.44
662.708	13625.79
663.059	13611.32
663.409	13487.48
663.76	13644.77
664.11	13516.86
664.461	13704.2
664.811	13577.2
665.161	13659.68
665.511	13492
665.862	13532
666.212	13567.03
666.562	13529.74
666.912	13545.56
667.262	13550.76
667.612	13534.94
667.962	13460.82
668.312	13426.69
668.662	13487.94
669.011	13462.4
669.361	13405.45
669.711	13385.11
670.06	13357.32
670.41	13406.13
670.76	13316.64
671.109	13338.56
671.459	13451.1
671.808	13419.46
672.157	13374.94
672.507	13363.19
672.856	13330.43
673.205	13288.17
673.554	13267.15
673.904	13360.71
674.253	13381.72
674.602	13262.63
674.951	13089.08
675.3	13084.78
675.649	13310.31
675.998	13262.86
676.346	13357.54
676.695	13352.8
677.044	13227.38
677.393	13229.41
677.741	13263.31
678.09	13134.95
678.438	13088.85
678.787	13102.41
679.135	13132.69
679.484	13014.73
679.832	13105.12
680.181	13078.91
680.529	13113.48
680.877	13107.61
681.225	13087.04
681.573	13192.12
681.922	13035.29
682.27	12970.21
682.618	12978.35
682.966	12908.74
683.314	12984.45
683.661	12934.73
684.009	12886.37
684.357	12862.64
684.705	12904
685.053	12857.44
685.4	12850.89
685.748	12803.21
686.095	12756.43
686.443	12580.62
686.79	12635.76
687.138	12584.68
687.485	12636.66
687.832	12577.9
688.18	12523.89
688.527	12450.22
688.874	12510.11
689.221	12453.61
689.568	12457.23
689.915	12452.03
690.262	12416.55
690.609	12307.63
690.956	12282.09
691.303	12331.36
691.65	12228.76
691.997	12203.45
692.344	12209.55
692.69	12143.11
693.037	12190.57
693.383	12133.17
693.73	12190.34
694.077	12112.83
694.423	12005.49
694.769	12022.89
695.116	12010.69
695.462	11989.44
695.808	11973.85
696.155	11951.25
696.501	11871.48
696.847	11869
697.193	11765.95
697.539	11762.78
697.885	11739.51
698.231	11630.58
698.577	11651.83
698.923	11569.34
699.269	11553.52
699.614	11462.45
699.96	11452.74
700.306	11459.52
700.651	11371.38
700.997	11400.53
701.342	11387.65
701.688	11366.64
702.033	11288.67
702.379	11338.84
702.724	11274.89
703.069	11347.88
703.415	11217.71
703.76	11211.84
704.105	11243.7
704.45	11186.3
704.795	11171.84
705.14	11129.58
705.485	11156.7
705.83	11073.99
706.175	10990.83
706.52	11043.25
706.865	10939.3
707.209	10964.84
707.554	10858.17
707.899	10935.46
708.243	10885.97
708.588	10890.04
708.932	10860.89
709.277	10851.62
709.621	10765.75
709.966	10708.12
710.31	10776.82
710.654	10646.2
710.998	10718.52
711.342	10745.86
711.687	10748.12
712.031	10601.68
712.375	10536.15
712.719	10504.96
713.063	10508.13
713.407	10564.17
713.75	10527.79
714.094	10536.38
714.438	10418.41
714.782	10450.73
715.125	10344.52
715.469	10387.45
715.812	10373.44
716.156	10269.49
716.499	10196.5
716.843	10218.19
717.186	10283.27
717.53	10266.55
717.873	10309.71
718.216	10255.48
718.559	10248.47
718.902	10151.53
719.246	10237.85
719.589	10179.1
719.932	10197.4
720.275	10074.01
720.617	10109.27
720.96	10037.41
721.303	10032.66
721.646	10092.32
721.989	9968.48
722.331	10084.64
722.674	9914.7
723.016	10048.03
723.359	9979.55
723.701	9990.4
724.044	9957.63
724.386	9892.1
724.729	9958.99
725.071	9853.91
725.413	9829.28
725.755	9861.37
726.097	9779.79
726.439	9748.15
726.782	9768.94
727.124	9868.14
727.465	9762.38
727.807	9773.23
728.149	9755.61
728.491	9731.88
728.833	9688.71
729.175	9664.31
729.516	9676.51
729.858	9647.81
730.199	9656.4
730.541	9618.89
730.882	9548.15
731.224	9559.9
731.565	9541.6
731.906	9542.73
732.248	9572.56
732.589	9513.35
732.93	9481.49
733.271	9433.58
733.612	9499.57
733.953	9464.99
734.294	9399
734.635	9404.88
734.976	9403.07
735.317	9374.6
735.658	9406.01
735.999	9389.51
736.339	9344.54
736.68	9354.49
737.021	9239.01
737.361	9233.58
737.702	9303.64
738.042	9192
738.383	9176.19
738.723	9191.1
739.063	9096.87
739.404	9194.04
739.744	9198.56
740.084	9086.7
740.424	9068.62
740.764	9105.68
741.104	9180.7
741.444	9087.15
741.784	9110.2
742.124	9115.62
742.464	9034.04
742.804	9060.26
743.143	9060.93
743.483	9078.33
743.823	9043.76
744.162	9046.7
744.502	9010.09
744.841	9071.33
745.181	9019.35
745.52	9050.31
745.86	9014.61
746.199	8906.14
746.538	8961.05
746.877	8971.9
747.216	8891
747.556	8827.27
747.895	8859.36
748.234	8840.83
748.573	8876.76
748.911	8877.66
749.25	8814.84
749.589	8765.57
749.928	8812.35
750.267	8785.24
750.605	8776.42
750.944	8787.72
751.283	8778.91
751.621	8773.03
751.96	8632.7
752.298	8726.25
752.636	8676.31
752.975	8629.08
753.313	8647.39
753.651	8641.06
753.989	8620.72
754.327	8613.04
754.666	8535.75
755.004	8550.89
755.342	8480.38
755.679	8515.19
756.017	8389.31
756.355	8371.69
756.693	8448.97
757.031	8443.32
757.368	8326.49
757.706	8385.7
758.044	8326.26
758.381	8271.35
758.719	8294.63
759.056	8283.55
759.394	8227.74
759.731	8227.51
760.068	8146.83
760.405	8151.81
