Data from black_plastic_tray_FLMS001491_036.txt Node
Date: Tue Feb 07 10:39:42 GMT 2017
User: dcchb
Spectrometer: FLMS00149
Trigger mode: 0
Integration Time (sec): 2.000000E-2
Scans to average: 10
Electric dark correction enabled: true
Nonlinearity correction enabled: false
Boxcar width: 0
XAxis mode: Wavelengths
Number of Pixels in Spectrum: 2048
>>>>>Begin Spectral Data<<<<<
341.393	-22.23
341.776	-22.23
342.16	-22.23
342.543	-62
342.927	-78.5
343.31	-78.73
343.693	-84.15
344.077	-63.81
344.46	-59.07
344.843	-39.41
345.226	-47.99
345.61	-30.59
345.993	-24.49
346.376	-4.38
346.759	6.24
347.142	36.3
347.525	49.18
347.908	39.91
348.291	90.08
348.674	95.73
349.057	115.17
349.44	139.57
349.823	140.02
350.206	167.37
350.588	199.23
350.971	196.29
351.354	225.9
351.737	242.39
352.119	234.26
352.502	274.71
352.884	258.89
353.267	262.73
353.65	306.12
354.032	297.53
354.414	288.95
354.797	296.4
355.179	307.25
355.562	321.71
355.944	322.17
356.326	323.07
356.709	346.8
357.091	325.1
357.473	332.56
357.855	340.25
358.238	349.51
358.62	334.37
359.002	330.08
359.384	318.55
359.766	337.53
360.148	352.9
360.53	336.86
360.912	336.86
361.294	338.89
361.676	324.65
362.057	344.76
362.439	334.37
362.821	323.75
363.203	331.21
363.584	325.33
363.966	301.38
364.348	321.49
364.729	312.9
365.111	321.71
365.493	336.18
365.874	311.09
366.256	334.37
366.637	340.47
367.019	323.75
367.4	317.65
367.781	314.03
368.163	329.17
368.544	323.97
368.925	342.51
369.306	322.62
369.688	319.68
370.069	310.64
370.45	309.06
370.831	339.57
371.212	326.91
371.593	310.19
371.974	327.36
372.355	330.3
372.736	331.66
373.117	327.14
373.498	332.34
373.879	319
374.26	318.78
374.641	321.94
375.021	323.52
375.402	326.91
375.783	345.44
376.163	353.35
376.544	354.48
376.925	327.82
377.305	349.96
377.686	336.18
378.066	346.12
378.447	355.16
378.827	349.96
379.208	330.98
379.588	368.04
379.968	359.23
380.349	359.45
380.729	342.05
381.109	355.61
381.489	347.48
381.87	338.44
382.25	349.06
382.63	381.83
383.01	356.29
383.39	365.33
383.77	383.41
384.15	368.04
384.53	357.19
384.91	388.83
385.29	378.89
385.67	384.09
386.049	374.59
386.429	396.29
386.809	399.45
387.189	384.99
387.568	397.19
387.948	391.77
388.328	407.59
388.707	402.84
389.087	405.33
389.466	413.69
389.846	414.37
390.225	393.8
390.605	419.34
390.984	426.34
391.363	407.59
391.743	416.85
392.122	409.85
392.501	419.11
392.881	407.81
393.26	439
393.639	434.48
394.018	427.93
394.397	449.62
394.776	485.33
395.155	444.42
395.534	445.33
395.913	462.5
396.292	441.26
396.671	448.04
397.05	467.7
397.429	449.39
397.808	478.09
398.186	459.11
398.565	460.92
398.944	484.42
399.323	466.34
399.701	486.23
400.08	475.38
400.458	466.8
400.837	479.45
401.215	487.81
401.594	498.43
401.972	484.65
402.351	493.91
402.729	522.84
403.107	513.35
403.486	497.08
403.864	515.16
404.242	519.22
404.62	530.3
404.999	500.92
405.377	529.62
405.755	548.38
406.133	518.77
406.511	545.21
406.889	529.62
407.267	560.13
407.645	558.77
408.023	565.1
408.401	571.88
408.779	556.96
409.156	564.65
409.534	577.53
409.912	571.43
410.29	592.44
410.667	587.92
411.045	588.15
411.422	608.71
411.8	598.54
412.178	606.23
412.555	616.62
412.933	624.53
413.31	629.5
413.687	620.69
414.065	646.9
414.442	638.99
414.819	638.09
415.197	648.49
415.574	673.34
415.951	664.08
416.328	675.6
416.705	664.53
417.082	681.71
417.46	693
417.837	703.63
418.214	704.76
418.591	687.81
418.967	702.95
419.344	696.62
419.721	717.41
420.098	752.89
420.475	743.62
420.852	714.47
421.228	734.81
421.605	747.01
421.982	758.09
422.358	767.8
422.735	768.48
423.111	787.24
423.488	774.13
423.864	783.4
424.241	791.31
424.617	785.21
424.994	809.39
425.37	818.2
425.746	822.49
426.123	815.26
426.499	802.38
426.875	847.8
427.251	874.92
427.627	852.1
428.003	876.28
428.379	890.74
428.756	886.9
429.132	884.41
429.507	890.06
429.883	915.15
430.259	925.99
430.635	941.59
431.011	923.73
431.387	933.68
431.763	989.95
432.138	989.95
432.514	1004.86
432.89	990.62
433.265	1023.62
433.641	1007.35
434.016	1023.17
434.392	1009.38
434.767	1078.53
435.143	1033.33
435.518	1049.15
435.894	1084.41
436.269	1082.6
436.644	1112.88
437.02	1100.23
437.395	1083.05
437.77	1117.17
438.145	1171.41
438.52	1138.64
438.895	1148.13
439.271	1168.02
439.646	1188.81
440.021	1191.52
440.395	1203.95
440.77	1198.53
441.145	1189.94
441.52	1209.37
441.895	1222.03
442.27	1260.67
442.645	1247.34
443.019	1244.18
443.394	1250.5
443.769	1268.36
444.143	1273.78
444.518	1260.67
444.892	1277.85
445.267	1296.38
445.641	1301.35
446.016	1302.48
446.39	1313.33
446.764	1344.29
447.139	1311.97
447.513	1335.02
447.887	1367.34
448.262	1389.03
448.636	1358.07
449.01	1394.23
449.384	1399.2
449.758	1371.86
450.132	1426.54
450.506	1419.09
450.88	1395.81
451.254	1399.88
451.628	1440.33
452.002	1452.53
452.376	1473.77
452.75	1490.05
453.123	1494.79
453.497	1514.68
453.871	1541.34
454.244	1557.39
454.618	1570.5
454.992	1591.06
455.365	1609.59
455.739	1626.31
456.112	1634.45
456.486	1663.6
456.859	1673.77
457.232	1684.39
457.606	1679.87
457.979	1692.98
458.352	1738.63
458.725	1770.04
459.099	1794.9
459.472	1807.1
459.845	1849.58
460.218	1857.04
460.591	1851.62
460.964	1857.72
461.337	1893.65
461.71	1922.12
462.083	1944.72
462.456	1956.02
462.829	1937.94
463.201	1993.31
463.574	1975.46
463.947	2044.16
464.32	2073.76
464.692	2114.66
465.065	2115.34
465.438	2129.12
465.81	2163.7
466.183	2183.81
466.555	2264.94
466.928	2239.86
467.3	2234.43
467.672	2290.48
468.045	2323.7
468.417	2291.38
468.789	2352.4
469.161	2350.36
469.534	2433.07
469.906	2434.43
470.278	2432.39
470.65	2469.68
471.022	2543.8
471.394	2581.99
471.766	2622.45
472.138	2599.39
472.51	2651.82
472.882	2714.65
473.253	2748.32
473.625	2790.35
473.997	2825.15
474.369	2834.19
474.74	2897.47
475.112	2931.82
475.484	2993.06
475.855	3057.46
476.227	3061.08
476.598	3131.81
476.97	3142.21
477.341	3244.35
477.713	3247.29
478.084	3308.3
478.455	3356.66
478.827	3381.75
479.198	3511.91
479.569	3488.41
479.94	3619.03
480.311	3609.99
480.682	3714.62
481.053	3732.02
481.424	3786.03
481.795	3832.58
482.166	3908.06
482.537	3994.16
482.908	4066.02
483.279	4023.09
483.65	4179.69
484.021	4253.59
484.391	4258.56
484.762	4327.71
485.133	4336.98
485.503	4419.23
485.874	4531.77
486.244	4519.57
486.615	4617.65
486.985	4681.83
487.356	4762.28
487.726	4797.08
488.097	4859.22
488.467	4867.81
488.837	5009.5
489.207	5026
489.578	5100.35
489.948	5146.67
490.318	5203.39
490.688	5253.11
491.058	5301.02
491.428	5430.28
491.798	5458.3
492.168	5565.19
492.538	5568.36
492.908	5648.13
493.278	5742.59
493.648	5698.75
494.017	5797.73
494.387	5846.32
494.757	5863.04
495.126	5938.97
495.496	5971.51
495.866	6039.76
496.235	6078.85
496.605	6108.23
496.974	6159.08
497.344	6266.19
497.713	6229.81
498.082	6325.17
498.452	6364.04
498.821	6380.99
499.19	6431.84
499.559	6518.39
499.928	6569.91
500.298	6634.32
500.667	6656.46
501.036	6648.1
501.405	6692.17
501.774	6776.23
502.143	6805.84
502.512	6835.89
502.88	6882.9
503.249	6872.95
503.618	6979.84
503.987	7048.09
504.356	7024.36
504.724	7089.9
505.093	7103.23
505.462	7165.38
505.83	7176
506.199	7272.49
506.567	7456.89
506.936	7385.94
507.304	7495.54
507.672	7509.77
508.041	7512.26
508.409	7585.93
508.777	7592.94
509.145	7700.28
509.514	7737.79
509.882	7695.76
510.25	7785.7
510.618	7836.32
510.986	7912.7
511.354	7954.96
511.722	8123.09
512.09	8127.16
512.458	8088.97
512.826	8166.93
513.193	8220.94
513.561	8229.53
513.929	8336.87
514.297	8419.58
514.664	8474.95
515.032	8550.65
515.4	8645.11
515.767	8603.76
516.135	8726.47
516.502	8642.17
516.869	8774.15
517.237	8846.91
517.604	8846.46
517.972	8961.04
518.339	9031.77
518.706	9096.85
519.073	9159.22
519.44	9210.52
519.808	9246.23
520.175	9283.29
520.542	9442.83
520.909	9503.62
521.276	9558.53
521.643	9630.17
522.009	9636.05
522.376	9704.52
522.743	9752.65
523.11	9870.62
523.477	9975.92
523.843	10043.27
524.21	10110.16
524.577	10110.84
524.943	10224.51
525.31	10302.47
525.676	10393.54
526.043	10426.31
526.409	10494.78
526.776	10581.56
527.142	10689.35
527.508	10736.36
527.874	10881.89
528.241	10824.94
528.607	10887.09
528.973	11017.48
529.339	11067.87
529.705	11196.91
530.071	11240.98
530.437	11264.93
530.803	11291.6
531.169	11396.45
531.535	11438.26
531.901	11497.69
532.267	11578.14
532.632	11615.88
532.998	11677.57
533.364	11742.88
533.73	11766.39
534.095	11850
534.461	11848.64
534.826	12014.29
535.192	12026.94
535.557	12113.04
535.923	12135.64
536.288	12156.21
536.653	12172.7
537.019	12261.51
537.384	12400.49
537.749	12326.37
538.114	12362.08
538.479	12417.44
538.845	12489.98
539.21	12565.23
539.575	12563.2
539.94	12564.78
540.305	12572.47
540.67	12638.45
541.034	12754.61
541.399	12781.5
541.764	12870.31
542.129	12932.91
542.494	12873.93
542.858	12908.05
543.223	12902.17
543.587	13018.1
543.952	12959.57
544.316	13094.94
544.681	13014.94
545.045	13162.06
545.41	13198.66
545.774	13237.76
546.138	13276.85
546.503	13349.17
546.867	13318.66
547.231	13483.85
547.595	13491.99
547.959	13567.47
548.324	13560.91
548.688	13629.84
549.052	13611.53
549.416	13658.77
549.779	13669.39
550.143	13678.65
550.507	13774.92
550.871	13805.65
551.235	13884.97
551.599	13958.19
551.962	13959.1
552.326	14035.7
552.689	14109.6
553.053	14143.95
553.417	14130.17
553.78	14430.5
554.143	14300.78
554.507	14413.32
554.87	14348.24
555.234	14551.62
555.597	14596.37
555.96	14608.34
556.323	14559.08
556.686	14625.75
557.05	14795.91
557.413	14783.26
557.776	14863.25
558.139	14907.09
558.502	15003.59
558.865	15013.76
559.228	15181.89
559.59	15203.13
559.953	15321.09
560.316	15454.42
560.679	15430.7
561.041	15462.33
561.404	15492.62
561.767	15569
562.129	15537.36
562.492	15749.56
562.854	15723.57
563.217	15794.53
563.579	15810.35
563.941	15971.92
564.304	15991.36
564.666	16145.25
565.028	16108.64
565.39	16190.45
565.753	16242.2
566.115	16366.26
566.477	16429.77
566.839	16459.37
567.201	16574.62
567.563	16600.16
567.925	16773.49
568.287	16761.73
568.648	16672.02
569.01	16867.72
569.372	16795.41
569.734	16841.28
570.095	17039.69
570.457	17079.69
570.819	17129.18
571.18	17140.48
571.542	17241.95
571.903	17256.86
572.265	17393.36
572.626	17378.22
572.987	17452.56
573.349	17552.45
573.71	17573.24
574.071	17570.3
574.432	17570.07
574.794	17800.58
575.155	17662.5
575.516	17735.72
575.877	17729.39
576.238	17760.58
576.599	17935.49
576.96	17880.58
577.32	17961.02
577.681	17989.05
578.042	17994.92
578.403	18109.04
578.763	18119.44
579.124	18263.16
579.485	18259.1
579.845	18298.19
580.206	18141.81
580.566	18102.04
580.927	18186.33
581.287	18269.49
581.648	18163.96
582.008	18273.79
582.368	18182.26
582.728	18285.31
583.089	18210.74
583.449	18263.39
583.809	18308.59
584.169	18328.25
584.529	18230.17
584.889	18382.26
585.249	18283.73
585.609	18310.85
585.969	18313.33
586.329	18266.55
586.688	18337.96
587.048	18231.75
587.408	18201.7
587.768	18273.33
588.127	18327.12
588.487	18313.56
588.846	18434.23
589.206	18195.6
589.565	18193.56
589.925	18300.9
590.284	18269.49
590.643	18280.11
591.003	18338.87
591.362	18317.17
591.721	18318.98
592.08	18322.82
592.44	18432.88
592.799	18503.61
593.158	18429.71
593.517	18409.83
593.876	18426.1
594.235	18389.71
594.593	18474.68
594.952	18423.84
595.311	18426.1
595.67	18552.87
596.029	18419.09
596.387	18485.76
596.746	18557.39
597.104	18482.37
597.463	18416.61
597.822	18422.71
598.18	18353.33
598.538	18497.06
598.897	18502.71
599.255	18364.18
599.613	18716.49
599.972	18542.25
600.33	18628.8
600.688	18494.8
601.046	18637.17
601.404	18646.88
601.762	18729.82
602.12	18736.15
602.478	18751.06
602.836	18770.72
603.194	18635.36
603.552	18679.42
603.91	18652.98
604.268	18733.66
604.625	18684.4
604.983	18678.07
605.341	18627.9
605.698	18669.48
606.056	18676.49
606.413	18734.11
606.771	18771.17
607.128	18910.83
607.485	18706.32
607.843	18758.74
608.2	18885.75
608.557	18900.21
608.914	18773.88
609.272	19025.63
609.629	18903.6
609.986	19031.05
610.343	19036.25
610.7	19124.84
611.057	19140.43
611.414	18992.86
611.771	19068.79
612.127	19167.77
612.484	19097.94
612.841	19254.55
613.198	19205.06
613.554	19186.08
613.911	19274.44
614.267	19364.15
614.624	19327.54
614.98	19149.69
615.337	19303.81
615.693	19333.19
616.05	19267.66
616.406	19314.89
616.762	19303.81
617.118	19337.26
617.475	19327.77
617.831	19540.87
618.187	19353.98
618.543	19457.93
618.899	19591.94
619.255	19587.42
619.611	19431.49
619.967	19662.22
620.323	19601.66
620.678	19520.98
621.034	19584.49
621.39	19563.47
621.746	19440.08
622.101	19628.1
622.457	19463.58
622.812	19600.08
623.168	19650.02
623.523	19637.37
623.879	19644.82
624.234	19465.17
624.589	19687.31
624.945	19595.56
625.3	19614.77
625.655	19637.37
626.01	19622.22
626.365	19547.65
626.72	19627.2
627.075	19588.1
627.43	19475.56
627.785	19495.45
628.14	19580.42
628.495	19560.76
628.85	19501.1
629.205	19491.38
629.559	19604.15
629.914	19485.5
630.269	19467.65
630.623	19448.22
630.978	19416.35
631.332	19493.19
631.687	19525.5
632.041	19444.6
632.396	19471.04
632.75	19436.01
633.104	19431.04
633.459	19290.26
633.813	19383.13
634.167	19350.82
634.521	19346.75
634.875	19326.41
635.229	19258.17
635.583	19245.06
635.937	19190.6
636.291	19113.99
636.645	19010.94
636.999	18907.67
637.352	19103.37
637.706	18967.1
638.06	19034.44
638.413	18940.66
638.767	18945.18
639.121	19027.66
639.474	18744.96
639.828	18845.52
640.181	18871.51
640.534	18898.63
640.888	18756.71
641.241	18701.12
641.594	18733.21
641.947	18836.93
642.301	18593.1
642.654	18663.38
643.007	18589.48
643.36	18530.73
643.713	18602.82
644.066	18627.9
644.419	18481.92
644.771	18540.22
645.124	18267.46
645.477	18214.35
645.83	18051.87
646.182	18011.42
646.535	17906.34
646.888	17964.87
647.24	17817.07
647.593	18002.61
647.945	17874.25
648.298	17843.29
648.65	17672.67
649.002	17748.83
649.355	17850.52
649.707	17746.34
650.059	17889.84
650.411	18030.63
650.763	18034.24
651.115	18292.54
651.467	18248.7
651.819	18282.15
652.171	18175.93
652.523	18028.37
652.875	18028.37
653.227	18007.8
653.578	18136.84
653.93	18074.92
654.282	18026.56
654.633	18023.4
654.985	17955.83
655.337	17951.31
655.688	18081.7
656.039	17975.26
656.391	17833.34
656.742	17875.15
657.094	17849.16
657.445	17967.58
657.796	17786.79
658.147	17864.3
658.498	17909.73
658.849	17804.42
659.2	17959.22
659.551	17873.34
659.902	17909.27
660.253	17836.73
660.604	17787.02
660.955	17737.98
661.306	17762.84
661.656	17720.81
662.007	17649.62
662.358	17692.78
662.708	17708.38
663.059	17671.77
663.409	17556.29
663.76	17643.07
664.11	17719.9
664.461	17637.19
664.811	17680.58
665.161	17649.85
665.511	17544.31
665.862	17619.34
666.212	17641.71
666.562	17502.05
666.912	17537.76
667.262	17598.55
667.612	17540.47
667.962	17506.57
668.312	17564.88
668.662	17446.91
669.011	17403.75
669.361	17372.11
669.711	17394.26
670.06	17360.14
670.41	17395.62
670.76	17321.27
671.109	17408.05
671.459	17350.87
671.808	17241.04
672.157	17397.65
672.507	17164.89
672.856	17267.48
673.205	17241.04
673.554	17301.16
673.904	17227.26
674.253	17344.54
674.602	17208.95
674.951	17002.41
675.3	16862.07
675.649	17166.7
675.998	17185
676.346	17138.67
676.695	17202.17
677.044	17139.8
677.393	17154.72
677.741	17127.6
678.09	17018.9
678.438	16973.48
678.787	16996.76
679.135	17004.89
679.484	16956.76
679.832	17026.13
680.181	16968.51
680.529	16931.45
680.877	16982.07
681.225	16872.69
681.573	17048.28
681.922	16760.38
682.27	16684.45
682.618	16855.52
682.966	16656.65
683.314	16912.92
683.661	16735.97
684.009	16598.12
684.357	16603.77
684.705	16575.98
685.053	16635.41
685.4	16597.22
685.748	16519.71
686.095	16450.78
686.443	16387.28
686.79	16378.02
687.138	16417.79
687.485	16262.31
687.832	16278.36
688.18	16282.2
688.527	16155.87
688.874	16149.77
689.221	16123.79
689.568	16142.32
689.915	16063.67
690.262	16026.16
690.609	16095.31
690.956	15945.71
691.303	15892.38
691.65	15880.63
691.997	15808.09
692.344	15743.46
692.69	15746.85
693.037	15728.32
693.383	15523.12
693.73	15749.56
694.077	15662.33
694.423	15671.37
694.769	15575.78
695.116	15509.56
695.462	15462.56
695.808	15376.01
696.155	15526.74
696.501	15325.61
696.847	15379.4
697.193	15126.07
697.539	15272.28
697.885	15054.21
698.231	15134.66
698.577	15077.71
698.923	15006.3
699.269	15049.24
699.614	14984.38
699.96	14978.96
700.306	14915
700.651	14841.56
700.997	14783.71
701.342	14755.91
701.688	14746.87
702.033	14647.89
702.379	14644.05
702.724	14589.59
703.069	14695.8
703.415	14486.09
703.76	14589.14
704.105	14512.75
704.45	14478.63
704.795	14468.24
705.14	14424.17
705.485	14376.49
705.83	14256.49
706.175	14286.55
706.52	14192.31
706.865	14266.43
707.209	14234.57
707.554	14075.03
707.899	14248.35
708.243	14070.73
708.588	14053.56
708.932	13943.73
709.277	13988.7
709.621	14058.75
709.966	13882.04
710.31	13957.74
710.654	13836.16
710.998	13855.37
711.342	13807.24
711.687	13708.26
712.031	13704.87
712.375	13678.65
712.719	13672.1
713.063	13560.01
713.407	13642.49
713.75	13501.93
714.094	13502.39
714.438	13462.39
714.782	13532.44
715.125	13360.92
715.469	13432.1
715.812	13349.62
716.156	13214.94
716.499	13267.59
716.843	13248.83
717.186	13212.22
717.53	13289.51
717.873	13273.24
718.216	13328.83
718.559	13247.25
718.902	13145.11
719.246	13204.77
719.589	13137.87
719.932	13093.36
720.275	13112.56
720.617	13054.04
720.96	13013.13
721.303	13001.16
721.646	12949.18
721.989	12842.52
722.331	13000.25
722.674	12888.39
723.016	12824.66
723.359	12824.44
723.701	12912.34
724.044	12771.78
724.386	12782.18
724.729	12820.14
725.071	12691.11
725.413	12716.64
725.755	12653.82
726.097	12605.69
726.439	12611.56
726.782	12565.01
727.124	12640.26
727.465	12517.1
727.807	12564.33
728.149	12499.93
728.491	12447.5
728.833	12447.05
729.175	12458.12
729.516	12319.59
729.858	12423.77
730.199	12327.27
730.541	12344.45
730.882	12358.69
731.224	12369.08
731.565	12306.26
731.906	12277.11
732.248	12316.2
732.589	12187.62
732.93	12221.29
733.271	12280.04
733.612	12247.95
733.953	12198.92
734.294	12127.51
734.635	12119.37
734.976	12193.72
735.317	12104.46
735.658	12090.9
735.999	12148.07
736.339	12035.76
736.68	12116.66
737.021	11990.33
737.361	11999.15
737.702	12038.47
738.042	12021.97
738.383	11997.57
738.723	11973.39
739.063	11864.01
739.404	11977.91
739.744	11919.38
740.084	11842.32
740.424	11751.92
740.764	11866.95
741.104	11776.78
741.444	11763.22
741.784	11657.91
742.124	11782.66
742.464	11692.26
742.804	11659.04
743.143	11606.62
743.483	11620.63
743.823	11544.7
744.162	11656.78
744.502	11671.7
744.841	11583.11
745.181	11620.63
745.52	11629.67
745.86	11600.97
746.199	11507.64
746.538	11544.02
746.877	11529.56
747.216	11424.7
747.556	11411.37
747.895	11405.49
748.234	11354.87
748.573	11408.65
748.911	11324.14
749.25	11317.58
749.589	11258.15
749.928	11308.77
750.267	11324.82
750.605	11219.51
750.944	11177.93
751.283	11162.33
751.621	11218.38
751.96	11156.46
752.298	11098.61
752.636	11098.15
752.975	11043.47
753.313	10956.92
753.651	11098.15
753.989	11022.9
754.327	10978.38
754.666	10951.04
755.004	10883.7
755.342	10892.74
755.679	10802.34
756.017	10869.46
756.355	10774.55
