Data from black_plastic_tray_FLMS001491_096.txt Node
Date: Tue Feb 07 10:41:03 GMT 2017
User: dcchb
Spectrometer: FLMS00149
Trigger mode: 0
Integration Time (sec): 2.000000E-2
Scans to average: 10
Electric dark correction enabled: true
Nonlinearity correction enabled: false
Boxcar width: 0
XAxis mode: Wavelengths
Number of Pixels in Spectrum: 2048
>>>>>Begin Spectral Data<<<<<
341.393	-9.56
341.776	-9.56
342.16	-9.56
342.543	-59.5
342.927	-57.24
343.31	-45.04
343.693	-80.75
344.077	-64.7
344.46	-60.18
344.843	-69.22
345.226	-24.25
345.61	-33.52
345.993	-15.44
346.376	-10.01
346.759	13.94
347.142	12.36
347.525	52.81
347.908	61.4
348.291	63.88
348.674	74.5
349.057	124.22
349.44	123.09
349.823	133.03
350.206	151.11
350.588	180.04
350.971	183.2
351.354	206.25
351.737	224.78
352.119	228.17
352.502	245.57
352.884	257.32
353.267	258.23
353.65	286.25
354.032	295.06
354.414	291.9
354.797	284.44
355.179	283.76
355.562	316.08
355.944	313.59
356.326	311.79
356.709	327.6
357.091	305.91
357.473	305.01
357.855	305.46
358.238	326.47
358.62	307.04
359.002	334.84
359.384	317.21
359.766	308.62
360.148	326.7
360.53	337.77
360.912	325.8
361.294	323.54
361.676	327.83
362.057	311.79
362.439	316.08
362.821	328.73
363.203	322.18
363.584	311.79
363.966	323.31
364.348	307.04
364.729	312.69
365.111	302.07
365.493	322.18
365.874	294.16
366.256	299.13
366.637	299.81
367.019	292.13
367.4	289.64
367.781	291.67
368.163	287.15
368.544	322.18
368.925	300.71
369.306	281.96
369.688	287.38
370.069	304.1
370.45	307.27
370.831	286.25
371.212	319.02
371.593	284.22
371.974	313.82
372.355	309.98
372.736	307.04
373.117	301.84
373.498	302.75
373.879	320.15
374.26	303.65
374.641	290.77
375.021	302.52
375.402	282.63
375.783	310.88
376.163	310.43
376.544	296.42
376.925	322.18
377.305	313.59
377.686	331.9
378.066	289.19
378.447	316.98
378.827	314.95
379.208	321.5
379.588	282.86
379.968	316.31
380.349	314.5
380.729	300.49
381.109	316.98
381.489	297.1
381.87	332.12
382.25	329.41
382.63	323.99
383.01	329.64
383.39	321.28
383.77	338.23
384.15	336.87
384.53	327.38
384.91	339.58
385.29	348.39
385.67	334.38
386.049	335.97
386.429	349.75
386.809	338.68
387.189	327.83
387.568	334.16
387.948	354.5
388.328	346.59
388.707	347.72
389.087	339.81
389.466	343.2
389.846	334.16
390.225	354.72
390.605	364.44
390.984	368.96
391.363	357.21
391.743	389.98
392.122	360.82
392.501	350.2
392.881	347.26
393.26	374.16
393.639	374.38
394.018	347.26
394.397	353.82
394.776	374.61
395.155	366.7
395.534	369.64
395.913	382.97
396.292	385.91
396.671	374.38
397.05	389.07
397.429	382.97
397.808	376.19
398.186	383.65
398.565	382.29
398.944	389.98
399.323	401.73
399.701	396.08
400.08	407.83
400.458	406.25
400.837	387.04
401.215	388.39
401.594	397.43
401.972	393.82
402.351	407.15
402.729	387.26
403.107	405.12
403.486	408.51
403.864	415.29
404.242	399.24
404.62	402.86
404.999	406.92
405.377	420.48
405.755	421.39
406.133	421.16
406.511	412.12
406.889	405.12
407.267	422.74
407.645	413.93
408.023	434.04
408.401	422.74
408.779	452.8
409.156	425.68
409.534	438.79
409.912	437.66
410.29	448.28
410.667	430.88
411.045	438.56
411.422	445.12
411.8	450.09
412.178	444.21
412.555	463.65
412.933	464.78
413.31	471.56
413.687	462.74
414.065	454.61
414.442	481.05
414.819	486.92
415.197	480.82
415.574	491.44
415.951	499.8
416.328	481.27
416.705	486.7
417.082	479.46
417.46	486.02
417.837	488.28
418.214	513.59
418.591	518.33
418.967	511.78
419.344	505.23
419.721	518.33
420.098	505.9
420.475	512.68
420.852	540.03
421.228	505.45
421.605	512.68
421.982	528.73
422.358	533.47
422.735	540.03
423.111	531.21
423.488	529.63
423.864	547.71
424.241	550.65
424.617	554.49
424.994	559.69
425.37	550.88
425.746	538.9
426.123	570.08
426.499	552.91
426.875	567.82
427.251	580.25
427.627	585
428.003	585.68
428.379	601.04
428.756	616.18
429.132	609.63
429.507	603.3
429.883	609.63
430.259	619.57
430.635	617.77
431.011	621.16
431.387	617.99
431.763	638.78
432.138	627.71
432.514	648.05
432.89	644.43
433.265	659.12
433.641	651.89
434.016	679.46
434.392	673.81
434.767	665.9
435.143	668.39
435.518	698.44
435.894	693.24
436.269	694.83
436.644	721.27
437.02	697.31
437.395	695.96
437.77	720.81
438.145	733.7
438.52	720.81
438.895	709.97
439.271	712.9
439.646	746.8
440.021	760.81
440.395	755.84
440.77	730.98
441.145	758.55
441.52	783.86
441.895	770.76
442.27	761.72
442.645	798.33
443.019	784.54
443.394	783.41
443.769	785.67
444.143	781.15
444.518	800.13
444.892	789.74
445.267	802.62
445.641	826.35
446.016	801.72
446.39	795.61
446.764	807.14
447.139	809.4
447.513	818.44
447.887	834.03
448.262	857.08
448.636	826.12
449.01	839.23
449.384	844.65
449.758	844.2
450.132	850.08
450.506	842.39
450.88	879
451.254	847.59
451.628	856.86
452.002	869.06
452.376	907.25
452.75	907.48
453.123	901.15
453.497	923.07
453.871	911.54
454.244	894.14
454.618	919.91
454.992	933.92
455.365	971.2
455.739	965.55
456.112	959.23
456.486	984.08
456.859	985.67
457.232	998.1
457.606	1029.28
457.979	1038.55
458.352	1011.43
458.725	1039.9
459.099	1060.69
459.472	1072.22
459.845	1085.1
460.218	1082.39
460.591	1083.74
460.964	1105.44
461.337	1126.23
461.71	1127.58
462.083	1115.38
462.456	1118.77
462.829	1125.32
463.201	1180.24
463.574	1166.68
463.947	1176.4
464.32	1210.29
464.692	1199.67
465.065	1209.62
465.438	1233.8
465.81	1270.86
466.183	1236.51
466.555	1255.72
466.928	1275.6
467.3	1267.69
467.672	1294.58
468.045	1328.26
468.417	1342.27
468.789	1328.93
469.161	1358.99
469.534	1367.13
469.906	1400.12
470.278	1383.85
470.65	1399.89
471.022	1452.09
471.394	1445.54
471.766	1438.54
472.138	1468.37
472.51	1507.46
472.882	1512.21
473.253	1533.22
473.625	1525.76
473.997	1576.16
474.369	1607.34
474.74	1613.67
475.112	1617.74
475.484	1664.07
475.855	1678.98
476.227	1714.91
476.598	1718.3
476.97	1699.32
477.341	1749.49
477.713	1786.55
478.084	1789.94
478.455	1838.07
478.827	1856.83
479.198	1918.07
479.569	1892.08
479.94	1972.53
480.311	1992.65
480.682	1990.39
481.053	2039.2
481.424	2090.95
481.795	2091.4
482.166	2092.3
482.537	2131.85
482.908	2183.6
483.279	2204.62
483.65	2212.53
484.021	2248.68
484.391	2305.86
484.762	2286.42
485.133	2311.73
485.503	2341.34
485.874	2387.21
486.244	2477.38
486.615	2450.03
486.985	2483.25
487.356	2528
487.726	2538.85
488.097	2571.16
488.467	2620.43
488.837	2638.73
489.207	2671.72
489.578	2734.09
489.948	2703.81
490.318	2782.46
490.688	2752.63
491.058	2797.6
491.428	2846.63
491.798	2879.18
492.168	2917.37
492.538	2924.15
492.908	2962.34
493.278	3015.67
493.648	3045.05
494.017	3015.9
494.387	3045.5
494.757	3088.89
495.126	3120.07
495.496	3129.79
495.866	3155.33
496.235	3191.03
496.605	3187.87
496.974	3255.44
497.344	3314.87
497.713	3296.34
498.082	3329.11
498.452	3340.41
498.821	3372.95
499.19	3375.89
499.559	3378.82
499.928	3441.65
500.298	3490.91
500.667	3530.46
501.036	3439.39
501.405	3518.25
501.774	3528.2
502.143	3549.44
502.512	3570.01
502.88	3610.23
503.249	3627.63
503.618	3593.73
503.987	3666.27
504.356	3688.42
504.724	3679.61
505.093	3733.84
505.462	3736.78
505.83	3762.54
506.199	3752.15
506.567	3862.2
506.936	3838.7
507.304	3871.24
507.672	3892.71
508.041	3883.22
508.409	3936.78
508.777	3896.1
509.145	4036.89
509.514	4004.12
509.882	4068.52
510.25	4045.25
510.618	4083.21
510.986	4092.25
511.354	4161.18
511.722	4199.82
512.09	4201.4
512.458	4191.23
512.826	4261.51
513.193	4281.17
513.561	4238.46
513.929	4320.95
514.297	4360.27
514.664	4418.57
515.032	4394.62
515.4	4436.2
515.767	4438.91
516.135	4475.97
516.502	4439.13
516.869	4557.78
517.237	4579.24
517.604	4606.36
517.972	4616.08
518.339	4653.59
518.706	4646.13
519.073	4723.2
519.44	4717.32
519.808	4838.22
520.175	4783.76
520.542	4913.92
520.909	4905.79
521.276	4892.68
521.643	4963.19
522.009	4984.88
522.376	5027.59
522.743	5010.19
523.11	5083.19
523.477	5117.53
523.843	5160.92
524.21	5163.18
524.577	5222.62
524.943	5280.69
525.31	5288.15
525.676	5362.5
526.043	5375.61
526.409	5416.96
526.776	5485.43
527.142	5478.2
527.508	5542.38
527.874	5586.68
528.241	5582.16
528.607	5590.29
528.973	5675.49
529.339	5671.64
529.705	5732.21
530.071	5743.51
530.437	5768.14
530.803	5826.67
531.169	5835.93
531.535	5850.17
531.901	5868.48
532.267	5932.43
532.632	5958.42
532.998	6019.21
533.364	6062.37
533.73	6039.32
534.095	6077.51
534.461	6120.9
534.826	6101.01
535.192	6160.67
535.557	6204.29
535.923	6152.54
536.288	6199.99
536.653	6267.79
537.019	6288.35
537.384	6294.45
537.749	6319.31
538.114	6343.49
538.479	6300.55
538.845	6392.98
539.21	6364.28
539.575	6384.62
539.94	6452.42
540.305	6414.9
540.67	6486.76
541.034	6461
541.399	6538.29
541.764	6552.07
542.129	6554.79
542.494	6593.88
542.858	6617.83
543.223	6632.52
543.587	6690.6
543.952	6671.39
544.316	6755.01
544.681	6686.53
545.045	6756.59
545.41	6810.6
545.774	6806.98
546.138	6835
546.503	6803.59
546.867	6882.46
547.231	6924.04
547.595	6907.77
547.959	6916.58
548.324	6983.7
548.688	6936.24
549.052	7005.85
549.416	7002.23
549.779	7006.98
550.143	7044.04
550.507	7090.36
550.871	7090.59
551.235	7098.5
551.599	7174.43
551.962	7227.99
552.326	7239.97
552.689	7286.52
553.053	7244.26
553.417	7252.17
553.78	7374.88
554.143	7346.4
554.507	7418.72
554.87	7465.95
555.234	7509.79
555.597	7445.38
555.96	7475.67
556.323	7574.87
556.686	7542.33
557.05	7618.94
557.413	7616.9
557.776	7681.31
558.139	7663.23
558.502	7731.7
558.865	7671.14
559.228	7784.81
559.59	7805.83
559.953	7784.13
560.316	7912.49
560.679	7885.82
561.041	7983
561.404	7943.22
561.767	8091.24
562.129	7996.56
562.492	8162.2
562.854	8104.8
563.217	8106.16
563.579	8155.2
563.941	8196.55
564.304	8306.6
564.666	8289.2
565.028	8247.4
565.39	8347.73
565.753	8347.96
566.115	8352.25
566.477	8423.21
566.839	8413.95
567.201	8522.64
567.563	8462.08
567.925	8572.36
568.287	8649.87
568.648	8559.7
569.01	8619.82
569.372	8678.12
569.734	8668.85
570.095	8772.13
570.457	8744.33
570.819	8778.91
571.18	8816.65
571.542	8854.61
571.903	8863.88
572.265	8916.08
572.626	8908.4
572.987	8973.93
573.349	8929.41
573.71	8981.39
574.071	9037.43
574.432	9080.82
574.794	9087.15
575.155	9102.51
575.516	9092.12
575.877	9147.03
576.238	9138.45
576.599	9172.12
576.96	9168.95
577.32	9201.72
577.681	9290.31
578.042	9222.29
578.403	9230.2
578.763	9267.71
579.124	9273.13
579.485	9342.96
579.845	9313.58
580.206	9250.31
580.566	9356.97
580.927	9379.34
581.287	9409.17
581.648	9380.25
582.008	9384.32
582.368	9401.72
582.728	9427.93
583.089	9405.78
583.449	9389.96
583.809	9400.59
584.169	9457.99
584.529	9413.47
584.889	9470.19
585.249	9406.69
585.609	9426.8
585.969	9425.67
586.329	9477.65
586.688	9434.26
587.048	9465.22
587.408	9371.66
587.768	9419.57
588.127	9394.26
588.487	9463.64
588.846	9467.93
589.206	9396.52
589.565	9377.54
589.925	9488.49
590.284	9469.28
590.643	9496.85
591.003	9466.12
591.362	9496.18
591.721	9438.55
592.08	9464.31
592.44	9518.78
592.799	9475.84
593.158	9504.54
593.517	9503.18
593.876	9498.21
594.235	9560.81
594.593	9524.88
594.952	9587.7
595.311	9457.08
595.67	9495.05
596.029	9550.41
596.387	9556.51
596.746	9610.07
597.104	9600.13
597.463	9515.39
597.822	9638.32
598.18	9549.06
598.538	9539.57
598.897	9641.94
599.255	9529.4
599.613	9654.82
599.972	9563.52
600.33	9597.87
600.688	9573.24
601.046	9618.21
601.404	9697.08
601.762	9637.87
602.12	9691.65
602.478	9650.75
602.836	9651.2
603.194	9592.67
603.552	9714.93
603.91	9683.52
604.268	9679.22
604.625	9727.81
604.983	9737.98
605.341	9697.75
605.698	9701.6
606.056	9715.83
606.413	9754.48
606.771	9664.76
607.128	9733.23
607.485	9710.41
607.843	9741.82
608.2	9832.67
608.557	9787.02
608.914	9765.55
609.272	9894.13
609.629	9900.69
609.986	9913.12
610.343	9796.51
610.7	9897.3
611.057	9881.25
611.414	9954.92
611.771	9861.59
612.127	9958.76
612.484	9928.48
612.841	9968.25
613.198	10000.57
613.554	9927.35
613.911	10021.36
614.267	9963.74
614.624	9918.99
614.98	9998.08
615.337	10078.53
615.693	9936.17
616.05	10085.99
616.406	10079.89
616.762	9980.01
617.118	10058.42
617.475	10094.81
617.831	10104.75
618.187	10050.29
618.543	10099.32
618.899	10170.74
619.255	10098.42
619.611	10056.16
619.967	10115.14
620.323	10179.32
620.678	10062.04
621.034	10104.75
621.39	10097.52
621.746	10082.6
622.101	10227.23
622.457	10109.72
622.812	10112.43
623.168	10171.87
623.523	10230.62
623.879	10261.13
624.234	10105.88
624.589	10173.22
624.945	10197.63
625.3	10203.5
625.655	10222.49
626.01	10230.62
626.365	10164.18
626.72	10179.1
627.075	10154.01
627.43	10177.51
627.785	10110.4
628.14	10155.14
628.495	10142.94
628.85	10133.45
629.205	10176.38
629.559	10162.6
629.914	10178.64
630.269	10129.38
630.623	10095.94
630.978	10081.7
631.332	10112.88
631.687	10156.05
632.041	10042.15
632.396	10087.35
632.75	10058.65
633.104	10072.88
633.459	10023.62
633.813	9932.32
634.167	9987.46
634.521	9971.64
634.875	9958.76
635.229	9943.4
635.583	9960.8
635.937	9916.28
636.291	9883.74
636.645	10026.33
636.999	9812.55
637.352	9890.97
637.706	9840.57
638.06	9861.37
638.413	9866.56
638.767	9811.42
639.121	9887.35
639.474	9861.82
639.828	9766.23
640.181	9794.7
640.534	9750.41
640.888	9728.49
641.241	9682.84
641.594	9752.67
641.947	9724.42
642.301	9730.3
642.654	9744.98
643.007	9707.02
643.36	9792.67
643.713	9706.34
644.066	9763.74
644.419	9642.61
644.771	9662.27
645.124	9569.4
645.477	9492.56
645.83	9427.48
646.182	9407.14
646.535	9358.55
646.888	9363.98
647.24	9284.88
647.593	9363.75
647.945	9350.19
648.298	9254.15
648.65	9293.92
649.002	9285.33
649.355	9294.6
649.707	9290.08
650.059	9314.49
650.411	9455.05
650.763	9448.04
651.115	9546.35
651.467	9491.43
651.819	9522.62
652.171	9474.03
652.523	9446.23
652.875	9538.66
653.227	9437.42
653.578	9532.11
653.93	9477.65
654.282	9432.22
654.633	9388.84
654.985	9407.37
655.337	9427.7
655.688	9449.85
656.039	9363.75
656.391	9314.26
656.742	9330.98
657.094	9394.71
657.445	9415.05
657.796	9359.46
658.147	9314.94
658.498	9407.37
658.849	9394.03
659.2	9348.16
659.551	9316.29
659.902	9309.06
660.253	9347.48
660.604	9389.29
660.955	9239.91
661.306	9328.95
661.656	9215.05
662.007	9250.08
662.358	9252.12
662.708	9248.73
663.059	9265.22
663.409	9173.02
663.76	9261.38
664.11	9319.01
664.461	9281.49
664.811	9273.58
665.161	9291.89
665.511	9234.04
665.862	9245.11
666.212	9251.21
666.562	9271.32
666.912	9217.09
667.262	9191.78
667.612	9188.39
667.962	9169.63
668.312	9194.94
668.662	9182.06
669.011	9166.69
669.361	9155.62
669.711	9200.82
670.06	9129.18
670.41	9141.16
670.76	9130.31
671.109	9157.2
671.459	9193.36
671.808	9058.22
672.157	9144.55
672.507	9044.66
672.856	9050.99
673.205	9127.82
673.554	9181.16
673.904	9039.69
674.253	9153.36
674.602	9078.56
674.951	8969.41
675.3	8891.67
675.649	9031.56
675.998	9104.32
676.346	9088.96
676.695	9081.5
677.044	8974.61
677.393	9047.15
677.741	8995.85
678.09	8975.51
678.438	9002.18
678.787	9046.47
679.135	9020.94
679.484	8914.72
679.832	8975.96
680.181	8950.2
680.529	8936.64
680.877	8956.53
681.225	8930.32
681.573	8963.76
681.922	8921.95
682.27	8913.14
682.618	8900.71
682.966	8843.54
683.314	8883.76
683.661	8933.71
684.009	8817.55
684.357	8832.01
684.705	8811.45
685.053	8779.59
685.4	8852.8
685.748	8727.84
686.095	8725.8
686.443	8715.18
686.79	8656.2
687.138	8682.41
687.485	8669.08
687.832	8637.67
688.18	8635.86
688.527	8594.05
688.874	8699.81
689.221	8563.77
689.568	8592.92
689.915	8538.46
690.262	8570.78
690.609	8459.59
690.956	8454.4
691.303	8486.03
691.65	8456.88
691.997	8390.44
692.344	8358.81
692.69	8377.56
693.037	8349.09
693.383	8338.69
693.73	8363.55
694.077	8263.89
694.423	8314.06
694.769	8258.24
695.116	8268.64
695.462	8288.07
695.808	8261.41
696.155	8213.05
696.501	8145.03
696.847	8172.14
697.193	8081.3
697.539	8141.64
697.885	8072.71
698.231	8075.65
698.577	8049.44
698.923	8037.46
699.269	8032.71
699.614	7999.95
699.96	7916.78
700.306	7983.67
700.651	7928.53
700.997	7920.85
701.342	7899.38
701.688	7820.97
702.033	7884.69
702.379	7856.45
702.724	7786.62
703.069	7830.01
703.415	7744.81
703.76	7745.71
704.105	7778.48
704.45	7742.78
704.795	7667.75
705.14	7705.72
705.485	7681.54
705.83	7595.89
706.175	7608.77
706.52	7647.64
706.865	7565.83
707.209	7548.88
707.554	7539.62
707.899	7547.53
708.243	7526.96
708.588	7553.63
708.932	7445.84
709.277	7507.98
709.621	7518.83
709.966	7386.85
710.31	7430.69
710.654	7354.31
710.998	7338.95
711.342	7383.92
711.687	7408.1
712.031	7333.75
712.375	7354.54
712.719	7262.11
713.063	7339.17
713.407	7238.16
713.75	7286.29
714.094	7236.35
714.438	7205.84
714.782	7230.7
715.125	7168.1
715.469	7241.09
715.812	7196.8
716.156	7159.52
716.499	7096.24
716.843	7155
717.186	7102.12
717.53	7151.61
717.873	7099.86
718.216	7093.98
718.559	7034.32
718.902	7042.23
719.246	7037.48
719.589	7044.94
719.932	6948.9
720.275	6947.09
720.617	6975.57
720.96	7035.45
721.303	7008.33
721.646	6928.79
721.989	6893.99
722.331	6915.91
722.674	6899.63
723.016	6915
723.359	6890.6
723.701	6926.75
724.044	6818.06
724.386	6852.4
724.729	6836.36
725.071	6843.37
725.413	6776.7
725.755	6792.07
726.097	6793.2
726.439	6756.59
726.782	6725.18
727.124	6784.16
727.465	6747.1
727.807	6727.89
728.149	6770.6
728.491	6749.81
728.833	6719.07
729.175	6664.84
729.516	6670.49
729.858	6706.42
730.199	6703.71
730.541	6597.04
730.882	6684.95
731.224	6663.26
731.565	6602.47
731.906	6655.8
732.248	6592.75
732.589	6566.54
732.93	6581.68
733.271	6581.9
733.612	6582.36
733.953	6569.47
734.294	6569.25
734.635	6569.25
734.976	6553.88
735.317	6529.93
735.658	6493.32
735.999	6516.37
736.339	6509.36
736.68	6501.45
737.021	6521.57
737.361	6383.94
737.702	6481.11
738.042	6502.58
738.383	6429.82
738.723	6413.55
739.063	6426.43
739.404	6442.02
739.744	6456.26
740.084	6374.68
740.424	6393.43
740.764	6401.57
741.104	6370.84
741.444	6375.35
741.784	6348.24
742.124	6348.24
742.464	6354.34
742.804	6327.9
743.143	6278.63
743.483	6276.83
743.823	6288.35
744.162	6286.32
744.502	6272.53
744.841	6300.1
745.181	6263.27
745.52	6272.31
745.86	6253.55
746.199	6200.22
746.538	6224.17
746.877	6190.05
747.216	6213.78
747.556	6194.79
747.895	6246.77
748.234	6204.96
748.573	6164.97
748.911	6178.3
749.25	6115.47
749.589	6130.39
749.928	6114.34
750.267	6197.28
750.605	6109.6
750.944	6156.38
751.283	6035.7
751.621	6072.09
751.96	6025.76
752.298	6078.87
752.636	6050.84
752.975	6014.91
753.313	6018.75
753.651	6016.72
753.989	5994.12
754.327	5930.39
754.666	5915.25
755.004	5934.69
755.342	5901.92
755.679	5899.21
756.017	5855.14
756.355	5920.45
756.693	5836.61
757.031	5851.3
757.368	5893.79
757.706	5880
758.044	5832.54
758.381	5851.53
758.719	5801.13
759.056	5793.22
759.394	5795.48
759.731	5730.17
760.068	5758.42
760.405	5704.64
760.743	5665.77
761.08	5649.27
761.417	5735.37
761.754	5696.28
762.091	5639.33
762.428	5635.26
762.765	5593.91
763.102	5623.96
763.438	5600.69
763.775	5562.72
764.112	5587.35
764.449	5589.61
764.785	5521.59
765.122	5522.04
765.458	5527.69
765.795	5514.13
766.131	5459.45
766.467	5480.46
766.804	5424.87
767.14	5404.99
767.476	5396.4
767.812	5390.97
768.148	5397.98
768.485	5360.47
768.821	5327.7
769.157	5332.9
769.492	5342.61
769.828	5275.04
