Data from black_plastic_tray_FLMS001491_010.txt Node
Date: Tue Feb 07 10:39:11 GMT 2017
User: dcchb
Spectrometer: FLMS00149
Trigger mode: 0
Integration Time (sec): 2.000000E-2
Scans to average: 10
Electric dark correction enabled: true
Nonlinearity correction enabled: false
Boxcar width: 0
XAxis mode: Wavelengths
Number of Pixels in Spectrum: 2048
>>>>>Begin Spectral Data<<<<<
341.393	8.14
341.776	8.14
342.16	8.14
342.543	-62.6
342.927	-64.41
343.31	-68.47
343.693	-84.07
344.077	-60.79
344.46	-76.83
344.843	-51.3
345.226	-54.24
345.61	-42.03
345.993	-16.5
346.376	9.72
346.759	21.24
347.142	21.24
347.525	35.48
347.908	64.86
348.291	91.07
348.674	86.78
349.057	123.84
349.44	114.8
349.823	115.03
350.206	156.61
350.588	186.21
350.971	195.25
351.354	215.14
351.737	197.73
352.119	244.51
352.502	239.32
352.884	256.26
353.267	264.4
353.65	258.98
354.032	289.94
354.414	281.8
354.797	290.61
355.179	276.83
355.562	310.95
355.944	291.74
356.326	306.88
356.709	312.31
357.091	307.34
357.473	310.05
357.855	334.91
358.238	326.32
358.62	328.13
359.002	340.1
359.384	348.47
359.766	329.93
360.148	325.42
360.53	336.04
360.912	326.77
361.294	327.22
361.676	297.17
362.057	302.82
362.439	313.66
362.821	313.21
363.203	312.99
363.584	331.52
363.966	288.35
364.348	324.51
364.729	304.17
365.111	309.37
365.493	294.68
365.874	312.99
366.256	311.63
366.637	322.48
367.019	288.13
367.4	275.25
367.781	303.04
368.163	312.53
368.544	291.07
368.925	293.78
369.306	289.94
369.688	301.24
370.069	298.52
370.45	312.53
370.831	308.01
371.212	297.85
371.593	302.82
371.974	310.05
372.355	319.31
372.736	305.53
373.117	301.01
373.498	314.57
373.879	301.69
374.26	299.65
374.641	307.11
375.021	331.74
375.402	311.63
375.783	310.5
376.163	304.4
376.544	320.22
376.925	308.92
377.305	315.92
377.686	313.89
378.066	321.8
378.447	334.45
378.827	324.29
379.208	332.42
379.588	323.61
379.968	318.18
380.349	307.79
380.729	326.77
381.109	329.26
381.489	313.89
381.87	327.22
382.25	317.73
382.63	323.38
383.01	338.07
383.39	325.42
383.77	319.09
384.15	346.66
384.53	347.11
384.91	347.79
385.29	325.42
385.67	333.55
386.049	345.53
386.429	338.97
386.809	343.27
387.189	342.82
387.568	347.56
387.948	350.5
388.328	337.62
388.707	359.76
389.087	343.27
389.466	343.95
389.846	361.12
390.225	376.71
390.605	372.42
390.984	388.46
391.363	376.26
391.743	369.93
392.122	364.28
392.501	370.39
392.881	377.62
393.26	378.75
393.639	390.27
394.018	380.33
394.397	394.79
394.776	382.14
395.155	383.27
395.534	403.83
395.913	402.02
396.292	378.97
396.671	400.89
397.05	385.75
397.429	419.2
397.808	395.24
398.186	387.56
398.565	414.23
398.944	393.44
399.323	396.37
399.701	409.25
400.08	418.97
400.458	412.64
400.837	421.46
401.215	418.75
401.594	415.13
401.972	430.05
402.351	426.88
402.729	432.98
403.107	427.79
403.486	413.1
403.864	410.16
404.242	439.08
404.62	451.97
404.999	445.19
405.377	441.8
405.755	456.71
406.133	445.19
406.511	444.06
406.889	454.9
407.267	465.75
407.645	480.44
408.023	473.43
408.401	453.77
408.779	459.87
409.156	461.68
409.534	478.63
409.912	480.89
410.29	476.15
410.667	484.28
411.045	474.56
411.422	500.1
411.8	516.6
412.178	490.38
412.555	497.84
412.933	505.07
413.31	512.98
413.687	510.04
414.065	499.42
414.442	513.21
414.819	511.85
415.197	544.39
415.574	525.64
415.951	535.13
416.328	541.23
416.705	535.58
417.082	533.77
417.46	511.4
417.837	543.49
418.214	548.69
418.591	563.83
418.967	549.14
419.344	583.26
419.721	589.59
420.098	559.53
420.475	576.93
420.852	586.43
421.228	556.82
421.605	577.39
421.982	592.3
422.358	588.01
422.735	607.44
423.111	607.67
423.488	587.1
423.864	614.22
424.241	605.18
424.617	624.84
424.994	644.28
425.37	635.69
425.746	613.54
426.123	664.84
426.499	651.96
426.875	658.74
427.251	669.81
427.627	659.42
428.003	675.01
428.379	670.94
428.756	682.24
429.132	679.53
429.507	694.45
429.883	711.62
430.259	702.58
430.635	718.85
431.011	731.73
431.387	724.27
431.763	715.69
432.138	734.22
432.514	738.51
432.89	758.4
433.265	752.52
433.641	787.78
434.016	778.06
434.392	764.27
434.767	785.74
435.143	769.92
435.518	790.26
435.894	798.62
436.269	825.06
436.644	818.06
437.02	823.03
437.395	828.68
437.77	838.17
438.145	841.33
438.52	852.18
438.895	869.36
439.271	860.54
439.646	875.23
440.021	874.33
440.395	882.24
440.77	866.42
441.145	907.09
441.52	909.35
441.895	918.62
442.27	921.11
442.645	915.91
443.019	917.49
443.394	904.16
443.769	955.46
444.143	935.12
444.518	905.96
444.892	925.17
445.267	942.12
445.641	959.3
446.016	945.96
446.39	946.87
446.764	948.9
447.139	988.67
447.513	997.04
447.887	1000.88
448.262	981.44
448.636	982.35
449.01	1002.91
449.384	993.87
449.758	1009.92
450.132	1029.58
450.506	1021.22
450.88	1050.37
451.254	1031.84
451.628	1059.41
452.002	1067.99
452.376	1035.23
452.75	1097.6
453.123	1081.33
453.497	1104.15
453.871	1110.71
454.244	1102.57
454.618	1109.12
454.992	1144.6
455.365	1139.41
455.739	1167.65
456.112	1169.91
456.486	1199.74
456.859	1240.65
457.232	1222.57
457.606	1203.58
457.979	1220.08
458.352	1237.71
458.725	1258.72
459.099	1294.88
459.472	1279.29
459.845	1298.04
460.218	1338.95
460.591	1312.96
460.964	1301.66
461.337	1336.46
461.71	1351.83
462.083	1355.22
462.456	1368.33
462.829	1390.92
463.201	1424.82
463.574	1396.12
463.947	1403.8
464.32	1443.35
464.692	1474.31
465.065	1468.44
465.438	1496.46
465.81	1508.66
466.183	1549.34
466.555	1583.69
466.928	1560.86
467.3	1588.21
467.672	1569
468.045	1605.16
468.417	1606.29
468.789	1627.08
469.161	1660.3
469.534	1672.72
469.906	1668.88
470.278	1719.73
470.65	1718.37
471.022	1752.72
471.394	1827.07
471.766	1809.67
472.138	1808.77
472.51	1870.46
472.882	1878.59
473.253	1932.38
473.625	1925.83
473.997	1932.83
474.369	1963.11
474.74	1978.48
475.112	2037.46
475.484	2050.79
475.855	2083.11
476.227	2095.54
476.598	2160.62
476.97	2179.83
477.341	2209.43
477.713	2222.99
478.084	2233.16
478.455	2289.66
478.827	2340.05
479.198	2385.02
479.569	2371.92
479.94	2445.81
480.311	2461.18
480.682	2522.65
481.053	2567.62
481.424	2601.51
481.795	2641.74
482.166	2669.99
482.537	2693.04
482.908	2746.14
483.279	2737.1
483.65	2795.18
484.021	2859.59
484.391	2917.89
484.762	2916.31
485.133	2948.4
485.503	2975.51
485.874	3051.9
486.244	3065.46
486.615	3144.32
486.985	3179.8
487.356	3182.06
487.726	3210.09
488.097	3282.85
488.467	3302.06
488.837	3362.17
489.207	3390.19
489.578	3419.57
489.948	3471.55
490.318	3508.16
490.688	3542.51
491.058	3567.14
491.428	3642.39
491.798	3668.83
492.168	3732.11
492.538	3716.74
492.908	3806.68
493.278	3822.72
493.648	3811.88
494.017	3901.59
494.387	3915.15
494.757	3935.26
495.126	3996.96
495.496	3969.84
495.866	4017.52
496.235	4058.88
496.605	4101.59
496.974	4117.41
497.344	4163.05
497.713	4225.2
498.082	4213
498.452	4275.37
498.821	4253.22
499.19	4310.4
499.559	4325.08
499.928	4395.36
500.298	4401.92
500.667	4431.52
501.036	4461.58
501.405	4547.23
501.774	4490.73
502.143	4514.91
502.512	4550.39
502.88	4623.38
503.249	4639.2
503.618	4687.56
503.987	4656.37
504.356	4725.07
504.724	4722.59
505.093	4753.1
505.462	4768.69
505.83	4787.67
506.199	4853.21
506.567	4916.03
506.936	4892.3
507.304	4952.19
507.672	4998.96
508.041	5003.71
508.409	5062.92
508.777	5069.7
509.145	5142.46
509.514	5167.77
509.882	5170.26
510.25	5155.34
510.618	5201.9
510.986	5262.69
511.354	5285.51
511.722	5309.24
512.09	5387.65
512.458	5386.75
512.826	5478.73
513.193	5439.63
513.561	5493.64
513.929	5550.81
514.297	5637.82
514.664	5615.9
515.032	5670.36
515.4	5696.35
515.767	5709.23
516.135	5776.12
516.502	5744.26
516.869	5840.3
517.237	5846.4
517.604	5804.37
517.972	5916.23
518.339	5915.32
518.706	5968.66
519.073	5979.05
519.44	6048.88
519.808	6151.25
520.175	6129.56
520.542	6249.55
520.909	6219.27
521.276	6250.91
521.643	6329.33
522.009	6379.49
522.376	6440.96
522.743	6445.03
523.11	6506.5
523.477	6633.5
523.843	6619.04
524.21	6729.99
524.577	6730.9
524.943	6739.48
525.31	6812.48
525.676	6917.11
526.043	6917.56
526.409	6899.25
526.776	7064.67
527.142	7032.36
527.508	7095.41
527.874	7135.41
528.241	7144.44
528.607	7210.88
528.973	7246.36
529.339	7263.99
529.705	7368.39
530.071	7350.77
530.437	7348.51
530.803	7501.05
531.169	7533.14
531.535	7496.53
531.901	7577.88
532.267	7604.77
532.632	7628.27
532.998	7720.02
533.364	7713.7
533.73	7808.38
534.095	7841.38
534.461	7863.97
534.826	7974.03
535.192	7917.76
535.557	7992.78
535.923	8005.21
536.288	8077.3
536.653	8083.4
537.019	8038.21
537.384	8141.25
537.749	8192.33
538.114	8164.53
538.479	8124.76
538.845	8257.86
539.21	8238.43
539.575	8250.63
539.94	8248.6
540.305	8331.98
540.67	8355.03
541.034	8317.07
541.399	8428.48
541.764	8396.16
542.129	8481.58
542.494	8454.92
542.858	8507.8
543.223	8449.72
543.587	8545.54
543.952	8610.17
544.316	8631.86
544.681	8644.74
545.045	8676.16
545.41	8827.79
545.774	8772.42
546.138	8784.4
546.503	8841.35
546.867	8825.3
547.231	8938.07
547.595	8931.74
547.959	8977.84
548.324	8965.41
548.688	9010.16
549.052	8982.81
549.416	9024.85
549.779	9042.7
550.143	9006.54
550.507	9089.48
550.871	9145.3
551.235	9117.5
551.599	9215.58
551.962	9207.44
552.326	9230.27
552.689	9289.25
553.053	9245.18
553.417	9287.44
553.78	9430.71
554.143	9427.1
554.507	9469.81
554.87	9528.11
555.234	9640.65
555.597	9614.44
555.96	9609.69
556.323	9610.59
556.686	9661.67
557.05	9728.78
557.413	9750.25
557.776	9736.47
558.139	9848.78
558.502	9880.64
558.865	9907.76
559.228	10036.35
559.59	10058.27
559.953	10023.24
560.316	10147.53
560.679	10183.91
561.041	10185.04
561.404	10266.85
561.767	10240.41
562.129	10292.16
562.492	10372.16
562.854	10351.82
563.217	10383.91
563.579	10436.11
563.941	10474.3
564.304	10498.71
564.666	10530.8
565.028	10499.16
565.39	10573.51
565.753	10637.46
566.115	10675.43
566.477	10821.86
566.839	10773.28
567.201	10882.65
567.563	10793.16
567.925	10972.37
568.287	11013.72
568.648	10990.22
569.01	11125.36
569.372	11110.44
569.734	11128.97
570.095	11146.6
570.457	11309.31
570.819	11270.21
571.18	11307.5
571.542	11374.16
571.903	11392.47
572.265	11390.21
572.626	11454.61
572.987	11473.82
573.349	11475.4
573.71	11506.82
574.071	11527.61
574.432	11606.93
574.794	11626.36
575.155	11570.77
575.516	11604.21
575.877	11667.94
576.238	11639.24
576.599	11719.69
576.96	11652.12
577.32	11655.51
577.681	11764.44
578.042	11754.49
578.403	11800.14
578.763	11832.46
579.124	11819.12
579.485	11902.06
579.845	11885.79
580.206	11838.11
580.566	11808.73
580.927	11897.31
581.287	11910.2
581.648	11879.46
582.008	11981.38
582.368	12002.62
582.728	12010.98
583.089	12000.14
583.449	12011.21
583.809	11977.31
584.169	12074.71
584.529	12021.83
584.889	12156.29
585.249	12073.58
585.609	12084.43
585.969	12062.06
586.329	11980.02
586.688	12057.54
587.048	12108.83
587.408	12034.49
587.768	11992.23
588.127	12003.98
588.487	11996.07
588.846	12078.33
589.206	11935.51
589.565	11927.37
589.925	12044.2
590.284	11975.73
590.643	12021.15
591.003	11949.06
591.362	12057.31
591.721	11916.97
592.08	11963.3
592.44	12003.75
592.799	12047.82
593.158	12035.39
593.517	12063.86
593.876	12051.66
594.235	12056.86
594.593	12025.45
594.952	12142.51
595.311	12008.27
595.67	12080.59
596.029	12073.13
596.387	12149.96
596.746	12122.17
597.104	12144.77
597.463	12089.85
597.822	12154.71
598.18	12150.41
598.538	12217.08
598.897	12205.78
599.255	12122.17
599.613	12251.43
599.972	12259.56
600.33	12353.12
600.688	12274.48
601.046	12279.9
601.404	12332.11
601.762	12274.48
602.12	12311.09
602.478	12323.07
602.836	12281.48
603.194	12275.38
603.552	12271.54
603.91	12173.69
604.268	12335.04
604.625	12255.27
604.983	12281.71
605.341	12202.39
605.698	12339.79
606.056	12298.89
606.413	12264.08
606.771	12285.1
607.128	12291.65
607.485	12345.21
607.843	12352.44
608.2	12363.29
608.557	12453.68
608.914	12449.62
609.272	12570.06
609.629	12537.75
609.986	12610.97
610.343	12443.29
610.7	12505.89
611.057	12544.08
611.414	12528.71
611.771	12591.31
612.127	12541.37
612.484	12589.27
612.841	12680.57
613.198	12662.27
613.554	12608.71
613.911	12730.74
614.267	12652.32
614.624	12660.68
614.98	12694.13
615.337	12722.83
615.693	12695.49
616.05	12705.2
616.406	12721.7
616.762	12667.01
617.118	12753.11
617.475	12629.5
617.831	12749.72
618.187	12756.27
618.543	12773.9
618.899	12840.57
619.255	12754.69
619.611	12753.79
619.967	12836.05
620.323	12838.31
620.678	12835.82
621.034	12764.41
621.39	12780
621.746	12745.2
622.101	12873.56
622.457	12799.89
622.812	12797.18
623.168	12761.47
623.523	12825.2
623.879	12821.36
624.234	12780.23
624.589	12732.09
624.945	12921.92
625.3	12915.14
625.655	12852.32
626.01	12841.02
626.365	12855.26
626.72	12830.17
627.075	12827.23
627.43	12814.13
627.785	12806.67
628.14	12851.87
628.495	12827.23
628.85	12841.24
629.205	12822.94
629.559	12890.51
629.914	12885.54
630.269	12852.77
630.623	12788.59
630.978	12765.99
631.332	12865.88
631.687	12850.28
632.041	12754.92
632.396	12762.83
632.75	12700.68
633.104	12694.36
633.459	12608.71
633.813	12653.45
634.167	12633.79
634.521	12666.11
634.875	12719.21
635.229	12645.77
635.583	12596.05
635.937	12547.47
636.291	12515.6
636.645	12514.93
636.999	12384.08
637.352	12521.48
637.706	12468.6
638.06	12444.64
638.413	12416.85
638.767	12455.27
639.121	12382.73
639.474	12279.9
639.828	12351.77
640.181	12332.56
640.534	12267.93
640.888	12298.21
641.241	12236.74
641.594	12303.86
641.947	12297.3
642.301	12312.67
642.654	12296.17
643.007	12246.46
643.36	12301.37
643.713	12229.96
644.066	12177.98
644.419	12209.85
644.771	12139.34
645.124	12058.67
645.477	12111.32
645.83	11859.35
646.182	11898.9
646.535	11830.2
646.888	11835.85
647.24	11779.8
647.593	11814.6
647.945	11744.1
648.298	11711.33
648.65	11723.99
649.002	11613.48
649.355	11812.12
649.707	11693.03
650.059	11759.92
650.411	11841.27
650.763	11893.92
651.115	12049.63
651.467	11834.72
651.819	11930.99
652.171	11922.4
652.523	11874.49
652.875	11867.03
653.227	11802.85
653.578	11910.2
653.93	11869.07
654.282	11872
654.633	11749.07
654.985	11811.21
655.337	11815.28
655.688	11719.24
656.039	11827.49
656.391	11797.66
656.742	11799.24
657.094	11735.06
657.445	11774.15
657.796	11835.4
658.147	11835.62
658.498	11737.54
658.849	11799.69
659.2	11791.78
659.551	11787.94
659.902	11775.06
660.253	11815.51
660.604	11766.92
660.955	11745.68
661.306	11696.19
661.656	11647.15
662.007	11694.38
662.358	11708.17
662.708	11785.23
663.059	11691.44
663.409	11509.08
663.76	11602.18
664.11	11604.44
664.461	11623.88
664.811	11655.29
665.161	11605.8
665.511	11550.66
665.862	11594.27
666.212	11590.88
666.562	11620.26
666.912	11482.86
667.262	11572.13
667.612	11521.05
667.962	11583.88
668.312	11460.49
668.662	11484.67
669.011	11532.58
669.361	11456.65
669.711	11478.57
670.06	11471.79
670.41	11469.08
670.76	11408.51
671.109	11467.72
671.459	11494.61
671.808	11410.77
672.157	11495.52
672.507	11370.55
672.856	11371.23
673.205	11414.62
673.554	11422.3
673.904	11384.33
674.253	11507.72
674.602	11432.92
674.951	11307.73
675.3	11229.54
675.649	11389.98
675.998	11325.13
676.346	11396.76
676.695	11495.74
677.044	11345.69
677.393	11357.44
677.741	11332.58
678.09	11289.19
678.438	11192.7
678.787	11255.52
679.135	11231.8
679.484	11210.78
679.832	11261.17
680.181	11157.67
680.529	11195.64
680.877	11209.87
681.225	11124.68
681.573	11225.69
681.922	11147.5
682.27	11071.35
682.618	11106.6
682.966	11079.48
683.314	11081.97
683.661	10992.71
684.009	11068.41
684.357	10947.28
684.705	10989.99
685.053	11000.61
685.4	11010.11
685.748	10887.17
686.095	10842.65
686.443	10781.64
686.79	10831.58
687.138	10875.87
687.485	10770.34
687.832	10771.47
688.18	10800.17
688.527	10691.7
688.874	10624.13
689.221	10656.44
689.568	10607.4
689.915	10713.16
690.262	10632.04
690.609	10598.59
690.956	10571.47
691.303	10592.04
691.65	10466.17
691.997	10463.23
692.344	10512.94
692.69	10431.59
693.037	10418.94
693.383	10351.37
693.73	10350.01
694.077	10477.01
694.423	10408.54
694.769	10355.43
695.116	10302.33
695.462	10313.18
695.808	10332.84
696.155	10281.09
696.501	10159.96
696.847	10132.39
697.193	10086.97
697.539	10140.52
697.885	10087.64
698.231	10023.69
698.577	10032.28
698.923	10012.39
699.269	9910.47
699.614	9940.98
699.96	9871.6
700.306	9874.54
700.651	9816.92
700.997	9853.75
701.342	9755.22
701.688	9713.19
702.033	9773.3
702.379	9735.56
702.724	9700.08
703.069	9769.91
703.415	9577.38
703.76	9617.6
704.105	9640.2
704.45	9570.37
704.795	9525.17
705.14	9521.78
705.485	9574.66
705.83	9446.76
706.175	9357.49
706.52	9425.29
706.865	9365.18
707.209	9345.97
707.554	9332.64
707.899	9352.52
708.243	9303.26
708.588	9341.22
708.932	9287.67
709.277	9261.68
709.621	9299.87
709.966	9214.67
710.31	9257.38
710.654	9126.99
710.998	9171.96
711.342	9158.18
711.687	9148.01
712.031	9187.1
712.375	9131.06
712.719	9110.49
713.063	9100.78
713.407	9119.31
713.75	9052.87
714.094	9006.32
714.438	8973.78
714.782	9063.72
715.125	8987.11
715.469	8940.1
715.812	8943.95
716.156	8796.83
716.499	8963.83
716.843	8912.53
717.186	8831.86
717.53	8863.04
717.873	8868.92
718.216	8858.98
718.559	8751.86
718.902	8727
719.246	8778.53
719.589	8688.59
719.932	8754.8
720.275	8685.2
720.617	8632.32
720.96	8665.31
721.303	8633.45
721.646	8596.61
721.989	8571.3
722.331	8584.86
722.674	8581.47
723.016	8503.73
723.359	8558.65
723.701	8548.25
724.044	8504.64
724.386	8444.07
724.729	8513.22
725.071	8458.76
725.413	8415.15
725.755	8413.56
726.097	8351.19
726.439	8325.88
726.782	8324.98
727.124	8389.61
727.465	8323.85
727.807	8346.9
728.149	8368.59
728.491	8342.15
728.833	8316.62
729.175	8291.08
729.516	8230.97
729.858	8277.3
730.199	8254.7
730.541	8266
730.882	8244.53
731.224	8314.81
731.565	8236.39
731.906	8244.75
732.248	8227.13
732.589	8152.55
732.93	8164.08
733.271	8176.51
733.612	8164.98
733.953	8118.2
734.294	8154.14
734.635	8156.85
734.976	8142.16
735.317	8112.33
735.658	8122.72
735.999	8108.71
736.339	8106.23
736.68	8059.45
737.021	7961.15
737.361	7972.45
737.702	8017.42
738.042	7998.43
738.383	7985.78
738.723	7981.94
739.063	7941.49
739.404	7926.12
739.744	7931.32
740.084	7891.77
740.424	7917.53
740.764	7863.07
741.104	7887.25
741.444	7865.56
741.784	7853.35
742.124	7771.32
742.464	7785.33
742.804	7724.99
743.143	7802.73
743.483	7807.03
743.823	7712.79
744.162	7745.56
744.502	7702.4
744.841	7753.24
745.181	7746.46
745.52	7681.15
745.86	7681.61
746.199	7638.22
746.538	7589.63
746.877	7639.35
747.216	7574.26
747.556	7606.81
747.895	7683.19
748.234	7601.38
748.573	7588.73
748.911	7549.41
749.25	7568.61
749.589	7560.93
749.928	7559.58
750.267	7572
750.605	7553.25
750.944	7500.59
751.283	7508.73
751.621	7442.52
751.96	7467.37
752.298	7447.49
752.636	7455.4
752.975	7391.22
753.313	7375.17
753.651	7411.78
753.989	7362.07
754.327	7353.93
754.666	7334.95
755.004	7338.79
755.342	7309.86
755.679	7238.91
756.017	7225.8
756.355	7208.62
756.693	7176.76
757.031	7266.25
757.368	7117.1
757.706	7184.44
758.044	7122.75
758.381	7127.95
758.719	7162.52
759.056	7153.03
759.394	7093.15
759.731	7074.62
760.068	7122.07
760.405	6964.79
760.743	7009.76
761.08	7010.89
761.417	6967.5
761.754	6992.13
762.091	6989.87
762.428	6958.46
