Data from black_metal_pc_casing_FLMS001491_00078.txt Node
Date: Wed Feb 08 14:33:29 GMT 2017
User: dcchb
Spectrometer: FLMS00149
Trigger mode: 0
Integration Time (sec): 2.000000E-2
Scans to average: 10
Electric dark correction enabled: true
Nonlinearity correction enabled: false
Boxcar width: 0
XAxis mode: Wavelengths
Number of Pixels in Spectrum: 2048
>>>>>Begin Spectral Data<<<<<
341.393	-23.54
341.776	-23.54
342.16	-23.54
342.543	-56.76
342.927	-69.87
343.31	-57.22
343.693	-54.96
344.077	-52.02
344.46	-67.39
344.843	-36.43
345.226	-56.09
345.61	-43.21
345.993	-21.51
346.376	-21.74
346.759	2.22
347.142	27.53
347.525	27.3
347.908	40.41
348.291	80.86
348.674	103.01
349.057	129.22
349.44	144.13
349.823	150.69
350.206	188.88
350.588	203.12
350.971	215.77
351.354	239.5
351.737	227.3
352.119	227.75
352.502	241.08
352.884	248.76
353.267	266.17
353.65	289.22
354.032	289.44
354.414	294.19
354.797	300.97
355.179	293.06
355.562	314.3
355.944	330.57
356.326	321.98
356.709	326.73
357.091	336.9
357.473	330.57
357.855	348.88
358.238	328.76
358.62	348.88
359.002	335.54
359.384	330.34
359.766	330.8
360.148	325.6
360.53	342.77
360.912	331.02
361.294	315.2
361.676	309.1
362.057	319.72
362.439	330.8
362.821	314.53
363.203	336.22
363.584	334.41
363.966	310.68
364.348	299.38
364.729	310.46
365.111	325.15
365.493	318.14
365.874	336.22
366.256	320.85
366.637	308.2
367.019	313.85
367.4	324.24
367.781	324.69
368.163	302.32
368.544	322.66
368.925	325.15
369.306	320.63
369.688	295.09
370.069	310.23
370.45	323.56
370.831	322.44
371.212	303.23
371.593	314.3
371.974	318.14
372.355	298.93
372.736	307.97
373.117	315.88
373.498	318.14
373.879	312.94
374.26	308.2
374.641	326.05
375.021	320.85
375.402	316.56
375.783	326.95
376.163	346.84
376.544	340.97
376.925	353.62
377.305	326.28
377.686	326.05
378.066	341.64
378.447	343.45
378.827	353.62
379.208	357.69
379.588	354.98
379.968	339.61
380.349	358.14
380.729	355.43
381.109	362.43
381.489	335.32
381.87	362.21
382.25	344.36
382.63	347.07
383.01	355.88
383.39	346.39
383.77	368.54
384.15	363.34
384.53	359.04
384.91	369.21
385.29	355.2
385.67	380.29
386.049	371.93
386.429	381.64
386.809	380.96
387.189	343.9
387.568	367.18
387.948	390.23
388.328	398.59
388.707	396.33
389.087	378.7
389.466	376.67
389.846	390.68
390.225	381.42
390.605	378.25
390.984	383.22
391.363	389.55
391.743	396.11
392.122	401.98
392.501	403.34
392.881	421.64
393.26	421.87
393.639	394.07
394.018	404.92
394.397	430.23
394.776	421.87
395.155	415.09
395.534	425.71
395.913	384.58
396.292	435.88
396.671	421.64
397.05	428.19
397.429	432.71
397.808	451.25
398.186	434.07
398.565	446.5
398.944	455.31
399.323	446.27
399.701	458.7
400.08	456.22
400.458	448.08
400.837	429.55
401.215	465.26
401.594	450.57
401.972	441.3
402.351	460.51
402.729	458.93
403.107	456.67
403.486	464.35
403.864	463.67
404.242	470.23
404.62	478.14
404.999	489.44
405.377	475.2
405.755	512.03
406.133	487.85
406.511	496.22
406.889	498.7
407.267	496.22
407.645	484.46
408.023	518.36
408.401	525.59
408.779	530.11
409.156	528.53
409.534	507.06
409.912	528.08
410.29	523.79
410.667	528.98
411.045	535.76
411.422	545.93
411.8	562.43
412.178	544.35
412.555	545.03
412.933	554.29
413.31	611.02
413.687	555.88
414.065	569.43
414.442	578.7
414.819	559.72
415.197	602.65
415.574	594.52
415.951	622.31
416.328	589.09
416.705	616.89
417.082	592.03
417.46	603.56
417.837	616.89
418.214	620.73
418.591	615.76
418.967	613.05
419.344	651.69
419.721	640.39
420.098	658.92
420.475	665.25
420.852	662.54
421.228	647.62
421.605	660.05
421.982	671.13
422.358	665.93
422.735	657.79
423.111	674.97
423.488	668.64
423.864	694.63
424.241	693.95
424.617	695.98
424.994	703.89
425.37	684.23
425.746	686.49
426.123	713.16
426.499	712.93
426.875	735.31
427.251	719.26
427.627	749.09
428.003	733.72
428.379	751.35
428.756	753.84
429.132	766.94
429.507	758.81
429.883	784.8
430.259	814.4
430.635	782.54
431.011	804.91
431.387	801.97
431.763	841.52
432.138	819.6
432.514	838.35
432.89	818.69
433.265	885.13
433.641	872.48
434.016	874.51
434.392	881.52
434.767	872.48
435.143	874.96
435.518	910.89
435.894	894.85
436.269	905.02
436.644	930.55
437.02	938.01
437.395	934.4
437.77	929.88
438.145	955.19
438.52	979.82
438.895	972.81
439.271	953.38
439.646	975.07
440.021	1002.64
440.395	1008.97
440.77	980.95
441.145	992.25
441.52	1041.29
441.895	999.03
442.27	1017.56
442.645	1039.48
443.019	1040.83
443.394	1032.7
443.769	1068.4
444.143	1039.7
444.518	1062.75
444.892	1065.47
445.267	1075.41
445.641	1073.83
446.016	1085.35
446.39	1097.33
446.764	1085.8
447.139	1091.91
447.513	1107.27
447.887	1123.77
448.262	1109.98
448.636	1119.02
449.01	1131.68
449.384	1127.16
449.758	1158.57
450.132	1161.51
450.506	1170.1
450.88	1161.06
451.254	1140.94
451.628	1196.54
452.002	1181.85
452.376	1186.59
452.75	1215.52
453.123	1240.83
453.497	1222.07
453.871	1266.59
454.244	1263.2
454.618	1268.4
454.992	1296.87
455.365	1290.55
455.739	1321.05
456.112	1315.63
456.486	1331.9
456.859	1342.3
457.232	1372.8
457.606	1372.12
457.979	1373.25
458.352	1391.56
458.725	1440.82
459.099	1434.72
459.472	1447.38
459.845	1462.74
460.218	1463.87
460.591	1485.12
460.964	1531.22
461.337	1488.51
461.71	1557.66
462.083	1578.67
462.456	1596.53
462.829	1593.36
463.201	1615.73
463.574	1593.36
463.947	1602.4
464.32	1652.12
464.692	1688.27
465.065	1699.35
465.438	1684.66
465.81	1704.32
466.183	1748.84
466.555	1743.41
466.928	1782.51
467.3	1774.83
467.672	1781.38
468.045	1843.75
468.417	1848.27
468.789	1865.45
469.161	1864.54
469.534	1891.21
469.906	1973.47
470.278	1970.53
470.65	1971.43
471.022	2016.63
471.394	2020.7
471.766	2078.1
472.138	2104.31
472.51	2105.44
472.882	2135.04
473.253	2182.73
473.625	2223.18
473.997	2205.78
474.369	2267.24
474.74	2297.75
475.112	2283.74
475.484	2376.17
475.855	2380.01
476.227	2383.4
476.598	2462.49
476.97	2495.71
477.341	2519.21
477.713	2578.87
478.084	2569.38
478.455	2622.94
478.827	2647.8
479.198	2705.2
479.569	2730.28
479.94	2796.27
480.311	2794.91
480.682	2845.76
481.053	2950.84
481.424	2991.29
481.795	3032.42
482.166	3090.72
482.537	3096.37
482.908	3165.07
483.279	3151.29
483.65	3226.54
484.021	3298.85
484.391	3335.69
484.762	3348.12
485.133	3399.64
485.503	3441
485.874	3512.86
486.244	3514.44
486.615	3604.61
486.985	3631.27
487.356	3691.39
487.726	3724.83
488.097	3795.34
488.467	3784.94
488.837	3843.25
489.207	3893.64
489.578	3933.64
489.948	4003.02
490.318	4060.64
490.688	4074.2
491.058	4105.84
491.428	4184.25
491.798	4246.63
492.168	4263.35
492.538	4271.94
492.908	4387.19
493.278	4431.48
493.648	4379.5
494.017	4476
494.387	4524.58
494.757	4610.01
495.126	4610.91
495.496	4599.84
495.866	4666.5
496.235	4684.13
496.605	4760.06
496.974	4779.04
497.344	4805.93
497.713	4858.59
498.082	4882.32
498.452	4917.12
498.821	4973.84
499.19	4986.72
499.559	5002.54
499.928	5069.88
500.298	5074.85
500.667	5146.94
501.036	5050.22
501.405	5201.63
501.774	5154.17
502.143	5196.88
502.512	5275.75
502.88	5317.78
503.249	5348.74
503.618	5332.92
503.987	5400.04
504.356	5460.15
504.724	5449.98
505.093	5463.32
505.462	5549.87
505.83	5542.86
506.199	5616.76
506.567	5705.12
506.936	5700.15
507.304	5739.92
507.672	5758.9
508.041	5785.34
508.409	5819.01
508.777	5865.79
509.145	5911.89
509.514	5948.05
509.882	5994.83
510.25	6003.64
510.618	6060.82
510.986	6054.04
511.354	6109.63
511.722	6211.55
512.09	6268.27
512.458	6236.4
512.826	6280.02
513.193	6365.44
513.561	6319.57
513.929	6389.62
514.297	6482.27
514.664	6510.29
515.032	6560.69
515.4	6629.61
515.767	6654.7
516.135	6665.77
516.502	6639.78
516.869	6793.68
517.237	6799.33
517.604	6815.37
517.972	6818.08
518.339	6928.14
518.706	6909.38
519.073	7010.39
519.44	6983.5
519.808	7030.51
520.175	7114.35
520.542	7172.88
520.909	7206.77
521.276	7289.71
521.643	7290.16
522.009	7390.72
522.376	7477.95
522.743	7478.18
523.11	7565.18
523.477	7610.15
523.843	7698.06
524.21	7772.18
524.577	7817.83
524.943	7874.33
525.31	7916.36
525.676	7980.99
526.043	8009.24
526.409	8039.07
526.776	8139.86
527.142	8180.31
527.508	8213.3
527.874	8324.26
528.241	8309.8
528.607	8311.15
528.973	8503.24
529.339	8456.23
529.705	8529.68
530.071	8629.34
530.437	8663.91
530.803	8652.84
531.169	8700.29
531.535	8704.14
531.901	8815.77
532.267	8795.21
532.632	8937.35
532.998	8881.53
533.364	8938.93
533.73	8998.59
534.095	9057.57
534.461	9081.07
534.826	9141.64
535.192	9185.03
535.557	9266.38
535.923	9216.44
536.288	9218.47
536.653	9394.74
537.019	9321.29
537.384	9407.17
537.749	9480.61
538.114	9444.68
538.479	9482.87
538.845	9513.15
539.21	9520.16
539.575	9606.48
539.94	9544.34
540.305	9692.81
540.67	9673.38
541.034	9741.85
541.399	9737.1
541.764	9793.37
542.129	9841.73
542.494	9853.48
542.858	9905.01
543.223	9926.48
543.587	9969.86
543.952	9954.72
544.316	10104.1
544.681	10010.09
545.045	10085.57
545.41	10180.71
545.774	10169.18
546.138	10166.92
546.503	10222.74
546.867	10288.05
547.231	10345
547.595	10388.61
547.959	10372.11
548.324	10366.69
548.688	10330.99
549.052	10478.78
549.416	10452.56
549.779	10537.76
550.143	10530.3
550.507	10567.59
550.871	10685.78
551.235	10706.34
551.599	10738.43
551.962	10767.13
552.326	10830.86
552.689	10914.92
553.053	10867.24
553.417	10860.46
553.78	10960.57
554.143	11009.39
554.507	11117.41
554.87	11062.72
555.234	11187.01
555.597	11091.64
555.96	11184.3
556.323	11241.7
556.686	11265.88
557.05	11346.1
557.413	11367.79
557.776	11363.05
558.139	11508.81
558.502	11537.06
558.865	11615.7
559.228	11616.6
559.59	11665.64
559.953	11671.52
560.316	11743.6
560.679	11834.9
561.041	11810.49
561.404	11866.99
561.767	12052.97
562.129	11978.17
562.492	12113.31
562.854	12089.13
563.217	12047.55
563.579	12227.43
563.941	12255.45
564.304	12332.29
564.666	12403.47
565.028	12359.41
565.39	12514.43
565.753	12618.83
566.115	12593.98
566.477	12644.37
566.839	12646.86
567.201	12763.69
567.563	12821.09
567.925	12853.63
568.287	12833.97
568.648	12859.51
569.01	13022.21
569.372	13077.13
569.734	12958.03
570.095	13089.33
570.457	13132.72
570.819	13164.81
571.18	13220.17
571.542	13321.42
571.903	13238.03
572.265	13379.49
572.626	13360.28
572.987	13463.11
573.349	13452.26
573.71	13496.78
574.071	13561.18
574.432	13627.85
574.794	13649.32
575.155	13614.29
575.516	13657.45
575.877	13729.99
576.238	13749.43
576.599	13736.55
576.96	13827.84
577.32	13789.88
577.681	13835.07
578.042	13974.05
578.403	13929.08
578.763	13969.99
579.124	13913.94
579.485	13955.52
579.845	14035.29
580.206	14053.15
580.566	14066.03
580.927	14074.62
581.287	14102.19
581.648	14010.89
582.008	14158.68
582.368	14055.41
582.728	14186.48
583.089	14110.1
583.449	14098.8
583.809	14147.16
584.169	14188.96
584.529	14146.48
584.889	14167.04
585.249	14116.42
585.609	14119.36
585.969	14198.68
586.329	14226.02
586.688	14159.36
587.048	14294.72
587.408	14195.97
587.768	14142.64
588.127	14108.97
588.487	14252.92
588.846	14235.97
589.206	14180.15
589.565	14164.56
589.925	14268.96
590.284	14111
590.643	14234.39
591.003	14231.22
591.362	14248.17
591.721	14315.51
592.08	14204.1
592.44	14278.23
592.799	14294.72
593.158	14260.6
593.517	14230.54
593.876	14289.3
594.235	14242.97
594.593	14227.61
594.952	14307.6
595.311	14235.29
595.67	14277.1
596.029	14400.03
596.387	14413.59
596.746	14387.6
597.104	14331.11
597.463	14282.75
597.822	14395.06
598.18	14297.43
598.538	14416.08
598.897	14405.68
599.255	14350.99
599.613	14537.65
599.972	14475.06
600.33	14496.98
600.688	14460.59
601.046	14506.24
601.404	14557.99
601.762	14508.5
602.12	14501.72
602.478	14559.8
602.836	14628.05
603.194	14521.16
603.552	14588.27
603.91	14480.71
604.268	14590.99
604.625	14498.33
604.983	14635.28
605.341	14638.89
605.698	14699.91
606.056	14712.11
606.413	14778.78
606.771	14658.33
607.128	14748.72
607.485	14706.46
607.843	14721.6
608.2	14720.47
608.557	14834.14
608.914	14721.38
609.272	14846.57
609.629	14835.27
609.986	14857.42
610.343	14833.01
610.7	14926.8
611.057	14944.2
611.414	14835.27
611.771	14826.23
612.127	14971.99
612.484	14946.46
612.841	14953.24
613.198	14872.33
613.554	14932.9
613.911	15087.02
614.267	15038.43
614.624	15078.43
614.98	15112.33
615.337	15159.79
615.693	15112.78
616.05	15042.05
616.406	15167.69
616.762	15047.02
617.118	15057.19
617.475	15101.71
617.831	15119.11
618.187	15175.6
618.543	15189.84
618.899	15267.8
619.255	15228.48
619.611	15318.2
619.967	15260.35
620.323	15318.88
620.678	15282.27
621.034	15170.86
621.39	15227.13
621.746	15208.15
622.101	15406.33
622.457	15253.79
622.812	15231.65
623.168	15289.27
623.523	15342.83
623.879	15409.04
624.234	15264.87
624.589	15381.93
624.945	15333.11
625.3	15254.25
625.655	15222.38
626.01	15249.27
626.365	15264.64
626.72	15298.99
627.075	15316.62
627.43	15268.71
627.785	15231.42
628.14	15255.15
628.495	15287.92
628.85	15334.24
629.205	15183.29
629.559	15262.83
629.914	15186
630.269	15228.48
630.623	15108.26
630.978	15113.68
631.332	15121.82
631.687	15270.29
632.041	15164.3
632.396	15164.08
632.75	15046.34
633.104	15170.86
633.459	15054.93
633.813	15108.03
634.167	15074.36
634.521	15029.84
634.875	15016.06
635.229	15027.36
635.583	14921.83
635.937	14949.17
636.291	14971.99
636.645	14943.07
636.999	14879.11
637.352	15004.99
637.706	14833.01
638.06	14974.48
638.413	14921.6
638.767	14875.05
639.121	14828.04
639.474	14787.14
639.828	14767.93
640.181	14748.27
640.534	14822.39
640.888	14833.24
641.241	14664.2
641.594	14762.73
641.947	14778.55
642.301	14713.47
642.654	14741.49
643.007	14730.87
643.36	14709.18
643.713	14609.29
644.066	14658.78
644.419	14586.24
644.771	14521.61
645.124	14304.21
645.477	14292.69
645.83	14220.6
646.182	14160.72
646.535	14057.89
646.888	14183.99
647.24	14038.23
647.593	14123.88
647.945	14003.88
648.298	13976.54
648.65	13881.85
649.002	13928.18
649.355	13984.67
649.707	13896.99
650.059	14018.12
650.411	14158.68
650.763	14248.85
651.115	14340.6
651.467	14283.2
651.819	14245.68
652.171	14277.55
652.523	14254.95
652.875	14182.86
653.227	14126.37
653.578	14247.27
653.93	14116.42
654.282	14094.28
654.633	14137.89
654.985	14163.65
655.337	14158.68
655.688	14121.85
656.039	14141.28
656.391	13999.36
656.742	13976.77
657.094	14068.29
657.445	14135.86
657.796	14019.02
658.147	14051.11
658.498	14039.14
658.849	14004.79
659.2	13961.4
659.551	14065.58
659.902	14029.19
660.253	13979.93
660.604	13959.36
660.955	13984.45
661.306	13972.02
661.656	13970.21
662.007	13913.72
662.358	13987.39
662.708	13936.54
663.059	13878.69
663.409	13923.89
663.76	13990.32
664.11	13889.99
664.461	13915.52
664.811	13946.48
665.161	13911.91
665.511	13937.9
665.862	13984.22
666.212	13907.84
666.562	13913.49
666.912	13927.95
667.262	13870.1
667.612	13846.83
667.962	13895.19
668.312	13861.74
668.662	13939.48
669.011	13900.38
669.361	13828.29
669.711	13839.37
670.06	13832.81
670.41	13762.53
670.76	13725.92
671.109	13876.43
671.459	13837.33
671.808	13795.3
672.157	13798.69
672.507	13685.93
672.856	13733.16
673.205	13740.84
673.554	13805.92
673.904	13747.39
674.253	13784.91
674.602	13786.94
674.951	13587.62
675.3	13425.82
675.649	13671.69
675.998	13614.74
676.346	13683.67
676.695	13712.82
677.044	13513.27
677.393	13626.49
677.741	13678.02
678.09	13545.59
678.438	13604.12
678.787	13635.08
679.135	13578.13
679.484	13493.16
679.832	13568.87
680.181	13518.25
680.529	13563.67
680.877	13406.61
681.225	13431.24
681.573	13515.31
681.922	13471.47
682.27	13445.93
682.618	13349.89
682.966	13442.99
683.314	13483.44
683.661	13350.57
684.009	13303.34
684.357	13254.3
684.705	13309.21
685.053	13227.41
685.4	13259.27
685.748	13123
686.095	13175.88
686.443	13104.7
686.79	13072.61
687.138	13073.74
687.485	13089.1
687.832	12983.8
688.18	13077.58
688.527	12963.23
688.874	12911.93
689.221	12993.97
689.568	12845.95
689.915	12872.16
690.262	12837.13
690.609	12797.36
690.956	12779.73
691.303	12690.02
691.65	12700.64
691.997	12656.8
692.344	12656.57
692.69	12584.03
693.037	12633.3
693.383	12466.52
693.73	12545.62
694.077	12393.76
694.423	12509.69
694.769	12473.75
695.116	12477.14
695.462	12393.53
695.808	12347.88
696.155	12362.34
696.501	12290.26
696.847	12198.51
697.193	12131.39
697.539	12207.55
697.885	12035.35
698.231	12059.08
698.577	12041.45
698.923	12040.09
699.269	11986.54
699.614	11979.3
699.96	11921.45
700.306	11947.67
700.651	11861.34
700.997	11885.52
701.342	11787.22
701.688	11754.22
702.033	11724.62
702.379	11726.2
702.724	11692.53
703.069	11711.74
703.415	11628.8
703.76	11652.08
704.105	11586.77
704.45	11545.19
704.795	11548.13
705.14	11464.06
705.485	11513.78
705.83	11400.79
706.175	11413.22
706.52	11373.9
706.865	11374.8
707.209	11335.03
707.554	11299.32
707.899	11351.98
708.243	11172.55
708.588	11269.49
708.932	11172.55
709.277	11128.7
709.621	11212.32
709.966	11074.47
710.31	11133.45
710.654	11069.72
710.998	11082.83
711.342	11016.39
711.687	11027.24
712.031	10948.82
712.375	10914.47
712.719	10917.86
713.063	10944.53
713.407	10929.39
713.75	10888.94
714.094	10929.61
714.438	10794.93
714.782	10835.38
715.125	10743.18
715.469	10746.57
715.812	10734.36
716.156	10687.13
716.499	10789.73
716.843	10708.38
717.186	10599.23
717.53	10736.4
717.873	10587.48
718.216	10652.11
718.559	10626.8
718.902	10517.2
719.246	10656.85
719.589	10566.69
719.932	10530.53
720.275	10487.37
720.617	10457.31
720.96	10503.64
721.303	10433.13
721.646	10481.04
721.989	10372.34
722.331	10430.19
722.674	10339.8
723.016	10326.92
723.359	10344.77
723.701	10372.11
724.044	10257.54
724.386	10196.07
724.729	10301.38
725.071	10255.51
725.413	10245.34
725.755	10258.67
726.097	10237.65
726.439	10243.08
726.782	10148.17
727.124	10167.83
727.465	10169.86
727.807	10113.59
728.149	10185
728.491	10092.57
728.833	10095.96
729.175	10059.13
729.516	10100.26
729.858	9997.66
730.199	9992.24
730.541	9969.64
730.882	9983.88
731.224	10031.11
731.565	9923.09
731.906	9945.91
732.248	9980.03
732.589	9909.08
732.93	9932.35
733.271	9914.05
733.612	9810.55
733.953	9868.17
734.294	9849.87
734.635	9792.92
734.976	9838.79
735.317	9789.3
735.658	9815.29
735.999	9741.62
736.339	9813.48
736.68	9829.53
737.021	9750.66
737.361	9667.27
737.702	9780.94
738.042	9750.66
738.383	9688.06
738.723	9666.6
739.063	9680.61
739.404	9677.9
739.744	9728.06
740.084	9593.38
740.424	9584.79
740.764	9595.19
741.104	9625.47
741.444	9526.49
741.784	9526.03
742.124	9532.81
742.464	9508.41
742.804	9523.32
743.143	9486.04
743.483	9440.61
743.823	9466.15
744.162	9471.12
744.502	9422.53
744.841	9414.63
745.181	9379.82
745.52	9321.29
745.86	9402.65
746.199	9370.56
746.538	9385.93
746.877	9365.36
747.216	9407.62
747.556	9313.16
747.895	9342.99
748.234	9230.9
748.573	9307.74
748.911	9312.26
749.25	9281.97
749.589	9220.96
749.928	9208.3
750.267	9224.12
750.605	9177.34
750.944	9117.01
751.283	9124.92
751.621	9132.37
751.96	9068.19
752.298	9004.92
752.636	9065.93
752.975	9005.37
753.313	8987.52
753.651	9054.86
753.989	8926.73
754.327	8916.56
754.666	8924.47
755.004	8922.66
755.342	8881.31
755.679	8972.83
756.017	8812.83
756.355	8863.45
756.693	8803.79
757.031	8804.25
757.368	8693.97
757.706	8719.28
758.044	8712.72
758.381	8704.36
758.719	8623.23
759.056	8692.38
