Data from black_plastic_tray_FLMS001491_076.txt Node
Date: Tue Feb 07 10:40:35 GMT 2017
User: dcchb
Spectrometer: FLMS00149
Trigger mode: 0
Integration Time (sec): 2.000000E-2
Scans to average: 10
Electric dark correction enabled: true
Nonlinearity correction enabled: false
Boxcar width: 0
XAxis mode: Wavelengths
Number of Pixels in Spectrum: 2048
>>>>>Begin Spectral Data<<<<<
341.393	-4.92
341.776	-4.92
342.16	-4.92
342.543	-48.53
342.927	-81.3
343.31	-81.3
343.693	-75.87
344.077	-76.78
344.46	-54.86
344.843	-72.94
345.226	-41.07
345.61	-16.67
345.993	-32.94
346.376	7.51
346.759	17.01
347.142	31.47
347.525	50
347.908	70.34
348.291	55.87
348.674	99.26
349.057	120.96
349.44	142.88
349.823	131.58
350.206	163.89
350.588	178.36
350.971	205.7
351.354	215.19
351.737	228.75
352.119	238.69
352.502	257.45
352.884	252.71
353.267	282.08
353.65	297.22
354.032	286.15
354.414	311.91
354.797	315.98
355.179	318.24
355.562	320.5
355.944	305.36
356.326	323.44
356.709	338.35
357.091	333.38
357.473	338.8
357.855	319.14
358.238	325.92
358.62	322.08
359.002	362.53
359.384	345.13
359.766	342.19
360.148	331.35
360.53	340.16
360.912	352.59
361.294	345.13
361.676	346.49
362.057	308.07
362.439	318.01
362.821	328.41
363.203	317.79
363.584	312.59
363.966	339.26
364.348	325.47
364.729	327.28
365.111	307.39
365.493	317.11
365.874	320.27
366.256	295.19
366.637	315.08
367.019	308.07
367.4	294.06
367.781	308.75
368.163	328.64
368.544	322.08
368.925	314.4
369.306	326.15
369.688	306.49
370.069	334.28
370.45	298.35
370.831	323.89
371.212	319.37
371.593	318.69
371.974	303.55
372.355	321.63
372.736	310.33
373.117	317.34
373.498	315.53
373.879	324.57
374.26	312.36
374.641	319.82
375.021	316.43
375.402	332.93
375.783	336.77
376.163	324.79
376.544	340.39
376.925	340.61
377.305	353.04
377.686	339.48
378.066	335.41
378.447	333.83
378.827	330.44
379.208	336.77
379.588	340.61
379.968	330.67
380.349	349.65
380.729	344.68
381.109	348.52
381.489	352.59
381.87	367.96
382.25	363.44
382.63	371.8
383.01	372.02
383.39	344.68
383.77	377.45
384.15	341.29
384.53	363.44
384.91	366.15
385.29	379.71
385.67	359.82
386.049	364.11
386.429	374.28
386.809	368.86
387.189	369.99
387.568	380.39
387.948	361.85
388.328	341.74
388.707	383.32
389.087	385.36
389.466	396.88
389.846	384.23
390.225	413.15
390.605	391.23
390.984	377
391.363	386.71
391.743	399.59
392.122	422.19
392.501	384.91
392.881	400.95
393.26	382.19
393.639	399.37
394.018	415.64
394.397	405.47
394.776	429.65
395.155	411.57
395.534	412.93
395.913	421.74
396.292	409.54
396.671	419.93
397.05	456.09
397.429	445.92
397.808	422.87
398.186	440.04
398.565	431.23
398.944	432.14
399.323	443.21
399.701	450.21
400.08	445.24
400.458	435.98
400.837	448.18
401.215	452.7
401.594	452.02
401.972	472.13
402.351	450.21
402.729	457.45
403.107	471.68
403.486	490.67
403.864	482.3
404.242	465.13
404.62	483.66
404.999	466.03
405.377	495.18
405.755	503.09
406.133	492.7
406.511	508.97
406.889	496.77
407.267	503.55
407.645	517.78
408.023	521.4
408.401	525.01
408.779	529.99
409.156	525.69
409.534	539.25
409.912	544.67
410.29	535.41
410.667	528.86
411.045	536.31
411.422	548.52
411.8	578.57
412.178	553.94
412.555	569.53
412.933	586.71
413.31	583.32
413.687	578.57
414.065	572.47
414.442	587.84
414.819	593.94
415.197	600.94
415.574	623.54
415.951	586.71
416.328	608.4
416.705	615.18
417.082	611.79
417.46	626.03
417.837	644.56
418.214	633.71
418.591	598.91
418.967	617.67
419.344	647.72
419.721	650.21
420.098	680.49
420.475	657.44
420.852	654.05
421.228	682.75
421.605	666.93
421.982	671
422.358	704.67
422.735	694.95
423.111	709.87
423.488	706.7
423.864	703.54
424.241	685.01
424.617	695.63
424.994	722.3
425.37	714.16
425.746	723.43
426.123	755.97
426.499	758.91
426.875	754.61
427.251	771.56
427.627	810.66
428.003	776.99
428.379	788.96
428.756	782.86
429.132	763.88
429.507	798
429.883	833.71
430.259	826.7
430.635	866.47
431.011	823.76
431.387	841.84
431.763	880.49
432.138	864.89
432.514	884.78
432.89	877.77
433.265	893.59
433.641	918.9
434.016	908.96
434.392	921.16
434.767	937.66
435.143	936.3
435.518	933.37
435.894	960.03
436.269	937.43
436.644	992.12
437.02	988.51
437.395	971.1
437.77	976.53
438.145	1008.84
438.52	1006.36
438.895	1006.58
439.271	1040.26
439.646	1019.69
440.021	1059.69
440.395	1060.14
440.77	1017.66
441.145	1059.69
441.52	1045
441.895	1082.06
442.27	1055.62
442.645	1085.45
443.019	1105.11
443.394	1099.69
443.769	1091.78
444.143	1118.67
444.518	1127.26
444.892	1116.64
445.267	1138.33
445.641	1121.83
446.016	1118.67
446.39	1144.21
446.764	1150.99
447.139	1141.27
447.513	1178.33
447.887	1184.21
448.262	1167.48
448.636	1182.17
449.01	1201.83
449.384	1216.07
449.758	1204.54
450.132	1211.78
450.506	1240.48
450.88	1242.06
451.254	1236.41
451.628	1256.97
452.002	1260.36
452.376	1266.24
452.75	1268.5
453.123	1305.11
453.497	1328.38
453.871	1320.47
454.244	1346.46
454.618	1364.77
454.992	1376.29
455.365	1377.87
455.739	1397.08
456.112	1396.18
456.486	1424.88
456.859	1452.67
457.232	1456.06
457.606	1451.77
457.979	1472.56
458.352	1495.38
458.725	1519.34
459.099	1555.5
459.472	1553.91
459.845	1560.69
460.218	1582.84
460.591	1616.96
460.964	1596.85
461.337	1664.87
461.71	1670.97
462.083	1676.62
462.456	1676.85
462.829	1686.34
463.201	1687.24
463.574	1719.33
463.947	1757.75
464.32	1791.42
464.692	1786.9
465.065	1807.69
465.438	1824.19
465.81	1840.01
466.183	1908.03
466.555	1932.44
466.928	1917.29
467.3	1905.09
467.672	1973.34
468.045	2029.38
468.417	1971.53
468.789	2017.63
469.161	2042.26
469.534	2079.55
469.906	2109.83
470.278	2133.79
470.65	2122.94
471.022	2185.99
471.394	2223.27
471.766	2256.95
472.138	2282.71
472.51	2309.15
472.882	2320.9
473.253	2334.91
473.625	2387.79
473.997	2424.4
474.369	2470.73
474.74	2472.76
475.112	2529.03
475.484	2560.89
475.855	2609.25
476.227	2648.8
476.598	2670.49
476.97	2686.31
477.341	2732.19
477.713	2799.76
478.084	2815.58
478.455	2892.18
478.827	2941.22
479.198	3000.66
479.569	2990.49
479.94	3038.62
480.311	3119.75
480.682	3126.98
481.053	3212.18
481.424	3246.07
481.795	3286.52
482.166	3327.65
482.537	3372.62
482.908	3446.07
483.279	3517.7
483.65	3552.51
484.021	3568.1
484.391	3651.26
484.762	3657.81
485.133	3671.37
485.503	3743.69
485.874	3817.13
486.244	3888.54
486.615	3949.11
486.985	3930.57
487.356	4000.86
487.726	4085.82
488.097	4145.48
488.467	4154.52
488.837	4251.47
489.207	4344.12
489.578	4343.9
489.948	4426.38
490.318	4468.64
490.688	4443.1
491.058	4503.67
491.428	4537.79
491.798	4622.99
492.168	4705.24
492.538	4672.93
492.908	4752.25
493.278	4878.12
493.648	4861.85
494.017	4888.06
494.387	4942.75
494.757	4994.73
495.126	5022.07
495.496	5073.37
495.866	5131.67
496.235	5187.72
496.605	5205.57
496.974	5227.49
497.344	5275.4
497.713	5332.57
498.082	5339.35
498.452	5436.3
498.821	5408.28
499.19	5462.29
499.559	5507.93
499.928	5519.69
500.298	5554.03
500.667	5682.84
501.036	5682.39
501.405	5702.51
501.774	5689.17
502.143	5776.18
502.512	5781.83
502.88	5842.39
503.249	5815.5
503.618	5879.45
503.987	5926
504.356	5903.18
504.724	6053.23
505.093	6020.92
505.462	6083.29
505.83	6159.67
506.199	6164.41
506.567	6184.53
506.936	6230.85
507.304	6353.11
507.672	6273.79
508.041	6339.78
508.409	6456.16
508.777	6434.92
509.145	6467.91
509.514	6510.17
509.882	6603.95
510.25	6623.61
510.618	6647.57
510.986	6730.05
511.354	6787
511.722	6800.56
512.09	6889.59
512.458	6899.08
512.826	6911.51
513.193	6989.48
513.561	6969.82
513.929	7096.37
514.297	7130.26
514.664	7177.04
515.032	7193.99
515.4	7279.87
515.767	7297.94
516.135	7324.38
516.502	7373.65
516.869	7516.7
517.237	7447.09
517.604	7513.98
517.972	7544.94
518.339	7601.66
518.706	7653.87
519.073	7676.46
519.44	7774.77
519.808	7823.58
520.175	7853.18
520.542	7949.45
520.909	8027.42
521.276	8042.56
521.643	8130.01
522.009	8185.83
522.376	8180.18
522.743	8299.05
523.11	8366.62
523.477	8521.19
523.843	8404.81
524.21	8568.42
524.577	8626.72
524.943	8643.22
525.31	8716.21
525.676	8825.59
526.043	8814.74
526.409	8894.96
526.776	8923.21
527.142	9059.03
527.508	9061.29
527.874	9113.49
528.241	9135.86
528.607	9227.38
528.973	9311.22
529.339	9318.46
529.705	9447.94
530.071	9495.85
530.437	9521.16
530.803	9605
531.169	9742.4
531.535	9607.04
531.901	9616.3
532.267	9748.95
532.632	9862.4
532.998	9795.96
533.364	9896.52
533.73	9914.6
534.095	10045.89
534.461	9959.12
534.826	10093.58
535.192	10138.55
535.557	10202.95
535.923	10282.5
536.288	10265.78
536.653	10371.31
537.019	10231.65
537.384	10379.22
537.749	10414.02
538.114	10462.15
538.479	10445.88
538.845	10488.82
539.21	10509.61
539.575	10612.88
539.94	10609.72
540.305	10650.62
540.67	10671.19
541.034	10714.35
541.399	10764.97
541.764	10828.7
542.129	10845.65
542.494	10855.36
542.858	10906.66
543.223	10950.95
543.587	10967.9
543.952	11007.45
544.316	11079.54
544.681	11038.86
545.045	11162.25
545.41	11228.91
545.774	11249.48
546.138	11235.69
546.503	11326.31
546.867	11276.6
547.231	11416.48
547.595	11479.08
547.959	11421.68
548.324	11453.99
548.688	11508.68
549.052	11569.92
549.416	11577.83
549.779	11640.88
550.143	11648.11
550.507	11750.03
550.871	11690.6
551.235	11685.4
551.599	11787.09
551.962	11970.14
552.326	11856.02
552.689	12046.97
553.053	11944.15
553.417	12065.28
553.78	12150.92
554.143	12164.71
554.507	12224.82
554.87	12267.53
555.234	12380.07
555.597	12332.16
555.96	12316.79
556.323	12416.23
556.686	12426.85
557.05	12585.26
557.413	12585.26
557.776	12601.76
558.139	12705.03
558.502	12757.01
558.865	12772.38
559.228	12855.76
559.59	12841.53
559.953	12923.11
560.316	12979.15
560.679	13047.17
561.041	13105.25
561.404	13177.79
561.767	13208.97
562.129	13156.09
562.492	13360.38
562.854	13347.73
563.217	13423.88
563.579	13473.15
563.941	13549.3
564.304	13532.58
564.666	13703.65
565.028	13752.69
565.39	13725.57
565.753	13801.05
566.115	13817.77
566.477	13853.48
566.839	13960.82
567.201	14037.65
567.563	13975.96
567.925	14167.82
568.287	14133.7
568.648	14145.45
569.01	14234.94
569.372	14413.24
569.734	14328.95
570.095	14421.82
570.457	14436.97
570.819	14549.5
571.18	14519.9
571.542	14584.53
571.903	14626.79
572.265	14678.09
572.626	14730.74
572.987	14877.18
573.349	14821.59
573.71	14873.34
574.071	14894.81
574.432	14902.49
574.794	14998.08
575.155	14975.93
575.516	14919.21
575.877	15036.72
576.238	15066.33
576.599	15118.98
576.96	15077.17
577.32	15168.92
577.681	15146.55
578.042	15330.73
578.403	15296.83
578.763	15406.88
579.124	15394.23
579.485	15347.9
579.845	15385.19
580.206	15377.05
580.566	15301.8
580.927	15283.04
581.287	15333.44
581.648	15342.48
582.008	15450.27
582.368	15397.39
582.728	15512.19
583.089	15535.92
583.449	15382.02
583.809	15519.2
584.169	15457.5
584.529	15417.73
584.889	15610.95
585.249	15553.77
585.609	15518.97
585.969	15547.9
586.329	15535.69
586.688	15555.13
587.048	15483.04
587.408	15514
587.768	15526.2
588.127	15594.9
588.487	15546.09
588.846	15575.92
589.206	15383.61
589.565	15489.14
589.925	15485.98
590.284	15536.82
590.643	15548.12
591.003	15625.41
591.362	15575.01
591.721	15603.26
592.08	15508.8
592.44	15674.45
592.799	15587.67
593.158	15580.89
593.517	15663.6
593.876	15679.64
594.235	15680.32
594.593	15725.52
594.952	15821.56
595.311	15741.34
595.67	15740.43
596.029	15730.26
596.387	15706.08
596.746	15691.17
597.104	15716.25
597.463	15760.77
597.822	15741.79
598.18	15676.71
598.538	15842.8
598.897	15710.83
599.255	15715.8
599.613	15929.81
599.972	15792.41
600.33	15872.86
600.688	15797.61
601.046	15793.99
601.404	15893.2
601.762	15822.47
602.12	15924.38
602.478	15981.78
602.836	15946.08
603.194	15885.97
603.552	15894.55
603.91	15867.89
604.268	16000.31
604.625	15885.97
604.983	16003.93
605.341	15866.53
605.698	15907.66
606.056	15901.11
606.413	15966.64
606.771	15978.39
607.128	16059.3
607.485	15973.42
607.843	16001.9
608.2	16048.9
608.557	16176.81
608.914	16215.22
609.272	16174.32
609.629	16183.36
609.986	16204.83
610.343	16022.91
610.7	16227.88
611.057	16156.24
611.414	16212.74
611.771	16297.26
612.127	16257.93
612.484	16377.25
612.841	16315.79
613.198	16325.73
613.554	16374.54
613.911	16417.7
614.267	16404.14
614.624	16287.54
614.98	16268.78
615.337	16444.6
615.693	16398.95
616.05	16373.64
616.406	16475.33
616.762	16445.5
617.118	16457.93
617.475	16471.94
617.831	16395.78
618.187	16416.57
618.543	16510.36
618.899	16694.76
619.255	16669.22
619.611	16596.68
619.967	16666.96
620.323	16721.2
620.678	16580.64
621.034	16463.13
621.39	16611.82
621.746	16562.78
622.101	16777.02
622.457	16589.45
622.812	16673.97
623.168	16593.97
623.523	16678.94
623.879	16683.69
624.234	16528.21
624.589	16607.76
624.945	16645.95
625.3	16665.83
625.655	16665.16
626.01	16664.93
626.365	16690.92
626.72	16697.92
627.075	16695.44
627.43	16572.95
627.785	16676.68
628.14	16652.05
628.495	16672.16
628.85	16613.63
629.205	16601.43
629.559	16662.67
629.914	16526.63
630.269	16633.74
630.623	16560.3
630.978	16504.26
631.332	16601.88
631.687	16497.7
632.041	16450.25
632.396	16548.32
632.75	16528.89
633.104	16521.66
633.459	16401.21
633.813	16432.39
634.167	16381.09
634.521	16444.82
634.875	16312.4
635.229	16417.93
635.583	16293.19
635.937	16256.58
636.291	16238.27
636.645	16140.65
636.999	16083.93
637.352	16111.95
637.706	16032.18
638.06	16054.32
638.413	16122.12
638.767	16076.47
639.121	16071.95
639.474	16015
639.828	16057.04
640.181	16069.24
640.534	16055.45
640.888	15891.84
641.241	15966.64
641.594	15924.16
641.947	15974.1
642.301	15911.95
642.654	15841
643.007	15841.45
643.36	15806.19
643.713	15783.6
644.066	15866.76
644.419	15806.19
644.771	15694.79
645.124	15533.66
645.477	15505.86
645.83	15325.76
646.182	15331.63
646.535	15227
646.888	15280.78
647.24	15245.08
647.593	15313.78
647.945	15262.71
648.298	15153.56
648.65	15068.13
649.002	15096.38
649.355	15163.5
649.707	15092.77
650.059	15138.42
650.411	15324.17
650.763	15490.27
651.115	15552.87
651.467	15473.32
651.819	15508.12
652.171	15337.73
652.523	15377.28
652.875	15391.06
653.227	15393.55
653.578	15417.05
653.93	15393.78
654.282	15362.59
654.633	15301.35
654.985	15294.57
655.337	15428.58
655.688	15331.86
656.039	15370.05
656.391	15199.2
656.742	15157.85
657.094	15220.67
657.445	15340.67
657.796	15280.33
658.147	15291.86
658.498	15203.72
658.849	15271.75
659.2	15205.76
659.551	15265.19
659.902	15191.3
660.253	15210.96
660.604	15234.68
660.955	15170.73
661.306	15166.44
661.656	15115.37
662.007	15083.05
662.358	15109.49
662.708	15134.12
663.059	14980.23
663.409	14981.36
663.76	15024.52
664.11	15063.62
664.461	15052.54
664.811	15101.13
665.161	14970.28
665.511	14986.56
665.862	14928.03
666.212	15045.31
666.562	15070.62
666.912	14996.27
667.262	14916.05
667.612	14975.26
667.962	14905.88
668.312	14933.9
668.662	15001.7
669.011	15009.83
669.361	14964.86
669.711	14906.56
670.06	14880.8
670.41	14758.09
670.76	14856.16
671.109	14929.38
671.459	14844.86
671.808	14761.25
672.157	14850.29
672.507	14788.37
672.856	14730.52
673.205	14839.67
673.554	14836.05
673.904	14749.73
674.253	14791.76
674.602	14648.48
674.951	14554.48
675.3	14499.34
675.649	14711.31
675.998	14673.12
676.346	14706.56
676.695	14748.82
677.044	14686.68
677.393	14711.53
677.741	14580.46
678.09	14621.14
678.438	14435.38
678.787	14633.34
679.135	14558.09
679.484	14540.92
679.832	14572.55
680.181	14547.24
680.529	14506.12
680.877	14459.34
681.225	14422.73
681.573	14527.13
681.922	14442.39
682.27	14423.86
682.618	14369.62
682.966	14375.5
683.314	14438.32
683.661	14353.58
684.009	14310.19
684.357	14256.18
684.705	14232.22
685.053	14273.35
685.4	14320.58
685.748	14223.64
686.095	14180.25
686.443	14088.5
686.79	14024.55
687.138	14025.9
687.485	14099.57
687.832	14002.63
688.18	13999.46
688.527	13992.46
688.874	13966.24
689.221	13937.77
689.568	13849.64
689.915	13870.88
690.262	13835.62
690.609	13782.07
690.956	13735.51
691.303	13672.92
691.65	13648.06
691.997	13522.19
692.344	13511.11
692.69	13445.58
693.037	13447.39
693.383	13448.52
693.73	13461.62
694.077	13431.12
694.423	13512.92
694.769	13544.56
695.116	13403.55
695.462	13382.3
695.808	13320.38
696.155	13392.92
696.501	13225.02
696.847	13173.95
697.193	13103.67
697.539	13140.28
697.885	13071.58
698.231	12991.81
698.577	12972.37
698.923	12967.63
699.269	12982.77
699.614	12831.13
699.96	12692.38
700.306	12808.99
700.651	12793.84
700.997	12666.84
701.342	12685.82
701.688	12718.14
702.033	12631.14
702.379	12618.48
702.724	12590.69
703.069	12687.41
703.415	12591.59
703.76	12539.84
704.105	12473.63
704.45	12502.55
704.795	12417.13
705.14	12343.69
705.485	12375.32
705.83	12272.28
706.175	12326.96
706.52	12227.31
706.865	12242.67
707.209	12270.92
707.554	12179.4
707.899	12127.2
708.243	12094.2
708.588	12110.92
708.932	11958.61
709.277	12016.01
709.621	12048.33
709.966	11990.02
710.31	11969.69
710.654	11878.16
710.998	11940.53
711.342	11877.26
711.687	11900.99
712.031	11779.41
712.375	11777.83
712.719	11766.98
713.063	11749.35
713.407	11730.82
713.75	11641.11
714.094	11644.95
714.438	11609.69
714.782	11608.11
715.125	11557.04
715.469	11544.16
715.812	11494.22
716.156	11470.49
716.499	11383.49
716.843	11440.89
717.186	11427.55
717.53	11458.29
717.873	11376.48
718.216	11478.62
718.559	11359.31
718.902	11301.45
719.246	11332.64
719.589	11364.28
719.932	11252.42
720.275	11307.78
720.617	11266.2
720.96	11279.53
721.303	11235.02
721.646	11229.37
721.989	11095.58
722.331	11170.61
722.674	11110.72
723.016	11141.23
723.359	11129.48
723.701	11155.92
724.044	11070.5
724.386	11069.37
724.729	11007.9
725.071	10957.51
725.413	10970.62
725.755	10964.06
726.097	10880.45
726.439	10874.12
726.782	10879.54
727.124	10871.41
727.465	10794.8
727.807	10845.2
728.149	10837.51
728.491	10773.33
728.833	10849.71
729.175	10705.76
729.516	10756.61
729.858	10714.35
730.199	10694.46
730.541	10727.23
730.882	10697.4
731.224	10713.22
731.565	10630.74
731.906	10561.81
732.248	10645.65
732.589	10522.04
732.93	10589.61
733.271	10578.08
733.612	10567.46
733.953	10466.67
734.294	10496.73
734.635	10491.76
734.976	10500.57
735.317	10522.04
735.658	10471.87
735.999	10462.15
736.339	10478.2
736.68	10371.76
737.021	10359.33
737.361	10348.26
737.702	10380.57
738.042	10340.35
738.383	10311.2
738.723	10383.96
739.063	10329.28
739.404	10327.24
739.744	10301.25
740.084	10278.2
740.424	10279.11
740.764	10238.88
741.104	10253.8
741.444	10096.74
741.784	10186.23
742.124	10175.61
742.464	10126.12
742.804	10176.74
743.143	10121.6
743.483	10165.89
743.823	10121.15
744.162	10134.93
744.502	10117.3
744.841	10033.24
745.181	10068.49
745.52	9983.3
745.86	9984.2
746.199	10071.2
746.538	9933.35
746.877	9999.79
747.216	9928.61
747.556	9933.13
747.895	9941.49
748.234	9936.74
748.573	9882.06
748.911	9875.96
749.25	9901.72
749.589	9836.41
749.928	9841.38
750.267	9799.35
750.605	9830.31
750.944	9787.6
751.283	9758.67
751.621	9757.99
751.96	9689.75
752.298	9630.99
752.636	9689.52
752.975	9657.66
753.313	9573.59
753.651	9626.24
753.989	9600.26
754.327	9578.11
754.666	9496.76
755.004	9452.92
755.342	9506.02
755.679	9508.28
756.017	9349.19
756.355	9335.63
756.693	9364.33
757.031	9357.78
757.368	9296.54
757.706	9314.16
