Data from black_metal_pc_casing_FLMS001491_00067.txt Node
Date: Wed Feb 08 14:33:19 GMT 2017
User: dcchb
Spectrometer: FLMS00149
Trigger mode: 0
Integration Time (sec): 2.000000E-2
Scans to average: 10
Electric dark correction enabled: true
Nonlinearity correction enabled: false
Boxcar width: 0
XAxis mode: Wavelengths
Number of Pixels in Spectrum: 2048
>>>>>Begin Spectral Data<<<<<
341.393	-23.83
341.776	-23.83
342.16	-23.83
342.543	-48.23
342.927	-72.64
343.31	-68.57
343.693	-77.61
344.077	-63.15
344.46	-69.02
344.843	-50.94
345.226	-36.26
345.61	-36.26
345.993	-17.5
346.376	-7.56
346.759	7.81
347.142	46
347.525	52.1
347.908	46.68
348.291	61.14
348.674	108.82
349.057	104.31
349.44	133
349.823	137.52
350.206	161.7
350.588	168.48
350.971	184.76
351.354	203.06
351.737	224.75
352.119	230.86
352.502	251.65
352.884	257.52
353.267	274.24
353.65	287.58
354.032	247.8
354.414	319.44
354.797	296.16
355.179	312.89
355.562	306.56
355.944	314.47
356.326	337.07
356.709	327.8
357.091	325.99
357.473	323.73
357.855	342.04
358.238	321.02
358.62	323.96
359.002	312.89
359.384	344.98
359.766	324.64
360.148	339.55
360.53	325.77
360.912	334.58
361.294	325.54
361.676	312.21
362.057	321.02
362.439	325.09
362.821	326.67
363.203	342.94
363.584	321.25
363.966	313.34
364.348	308.82
364.729	305.66
365.111	300.91
365.493	318.31
365.874	302.94
366.256	302.94
366.637	292.77
367.019	311.98
367.4	304.75
367.781	294.13
368.163	283.06
368.544	324.41
368.925	298.88
369.306	314.92
369.688	303.62
370.069	306.33
370.45	313.11
370.831	290.06
371.212	288.71
371.593	274.92
371.974	322.83
372.355	318.31
372.736	312.89
373.117	318.31
373.498	305.66
373.879	324.41
374.26	306.33
374.641	320.57
375.021	274.92
375.402	305.43
375.783	333
376.163	312.21
376.544	325.32
376.925	315.6
377.305	303.85
377.686	296.62
378.066	317.63
378.447	339.1
378.827	334.36
379.208	330.29
379.588	323.06
379.968	320.12
380.349	323.28
380.729	335.49
381.109	327.58
381.489	343.85
381.87	340.68
382.25	320.57
382.63	343.17
383.01	356.5
383.39	342.27
383.77	346.11
384.15	344.07
384.53	346.33
384.91	338.42
385.29	356.73
385.67	344.98
386.049	346.78
386.429	337.29
386.809	349.72
387.189	379.33
387.568	354.24
387.948	367.12
388.328	346.33
388.707	367.12
389.087	360.8
389.466	373.9
389.846	386.56
390.225	390.17
390.605	380.68
390.984	354.47
391.363	349.72
391.743	378.2
392.122	376.16
392.501	402.83
392.881	376.39
393.26	389.04
393.639	403.51
394.018	363.73
394.397	410.96
394.776	410.29
395.155	387.91
395.534	380.46
395.913	390.17
396.292	404.64
396.671	411.64
397.05	402.83
397.429	419.78
397.808	416.16
398.186	404.41
398.565	416.16
398.944	408.93
399.323	430.62
399.701	415.94
400.08	410.06
400.458	428.82
400.837	441.7
401.215	446.9
401.594	416.39
401.972	439.44
402.351	436.05
402.729	447.12
403.107	436.05
403.486	425.43
403.864	447.57
404.242	448.93
404.62	435.6
404.999	460.45
405.377	453.22
405.755	437.18
406.133	461.36
406.511	461.13
406.889	462.26
407.267	457.29
407.645	471.75
408.023	462.94
408.401	486.89
408.779	481.24
409.156	475.37
409.534	482.37
409.912	504.97
410.29	484.41
410.667	489.38
411.045	531.86
411.422	510.4
411.8	522.6
412.178	506.55
412.555	524.41
412.933	535.25
413.31	536.61
413.687	540.68
414.065	518.98
414.442	527.8
414.819	554.69
415.197	531.64
415.574	558.08
415.951	538.87
416.328	558.3
416.705	550.62
417.082	571.64
417.46	561.92
417.837	564.86
418.214	545.65
418.591	550.85
418.967	573.22
419.344	571.41
419.721	598.53
420.098	563.28
420.475	584.29
420.852	608.25
421.228	610.96
421.605	571.41
421.982	609.15
422.358	605.08
422.735	605.31
423.111	608.7
423.488	615.48
423.864	645.76
424.241	650.73
424.617	634.01
424.994	648.7
425.37	653.22
425.746	648.92
426.123	652.31
426.499	652.77
426.875	657.28
427.251	656.38
427.627	692.76
428.003	674.01
428.379	687.34
428.756	711.07
429.132	711.97
429.507	708.36
429.883	703.84
430.259	715.36
430.635	723.05
431.011	735.25
431.387	736.6
431.763	760.56
432.138	742.25
432.514	747
432.89	747
433.265	774.34
433.641	778.41
434.016	783.61
434.392	792.65
434.767	802.14
435.143	808.24
435.518	831.07
435.894	805.53
436.269	848.69
436.644	831.74
437.02	851.18
437.395	830.61
437.77	848.47
438.145	864.51
438.52	855.7
438.895	870.61
439.271	832.65
439.646	883.49
440.021	886.66
440.395	897.28
440.77	893.44
441.145	908.8
441.52	931.4
441.895	908.58
442.27	897.96
442.645	916.71
443.019	950.16
443.394	921.23
443.769	930.05
444.143	927.11
444.518	952.87
444.892	960.55
445.267	975.69
445.641	977.5
446.016	963.49
446.39	972.3
446.764	985.86
447.139	969.37
447.513	991.74
447.887	987.67
448.262	961.46
448.636	1009.59
449.01	1018.18
449.384	1041.23
449.758	1012.98
450.132	1018.86
450.506	1026.31
450.88	1045.98
451.254	1047.56
451.628	1033.77
452.002	1054.56
452.376	1095.92
452.75	1091.4
453.123	1094.79
453.497	1095.69
453.871	1103.37
454.244	1125.07
454.618	1144.5
454.992	1160.32
455.365	1128.91
455.739	1176.82
456.112	1213.43
456.486	1182.02
456.859	1201.45
457.232	1234.44
457.606	1241.22
457.979	1233.54
458.352	1252.52
458.725	1252.75
459.099	1277.61
459.472	1288.23
459.845	1305.86
460.218	1307.44
460.591	1331.39
460.964	1345.18
461.337	1350.83
461.71	1350.15
462.083	1386.31
462.456	1385.18
462.829	1404.61
463.201	1429.02
463.574	1430.15
463.947	1449.13
464.32	1473.53
464.692	1483.93
465.065	1476.7
465.438	1512.86
465.81	1529.35
466.183	1541.1
466.555	1554.21
466.928	1571.61
467.3	1559.41
467.672	1585.4
468.045	1639.41
468.417	1615.68
468.789	1635.34
469.161	1662.68
469.534	1681.21
469.906	1716.24
470.278	1715.56
470.65	1731.38
471.022	1771.83
471.394	1784.94
471.766	1826.07
472.138	1838.72
472.51	1837.37
472.882	1910.36
473.253	1892.28
473.625	1930.25
473.997	1960.75
474.369	1953.97
474.74	2003.69
475.112	2002.33
475.484	2041.2
475.855	2111.03
476.227	2120.07
476.598	2165.49
476.97	2182.67
477.341	2184.48
477.713	2234.42
478.084	2222.22
478.455	2293.17
478.827	2323.46
479.198	2362.32
479.569	2394.19
479.94	2439.39
480.311	2488.42
480.682	2517.35
481.053	2589.44
481.424	2611.13
481.795	2594.86
482.166	2669.89
482.537	2665.82
482.908	2717.34
483.279	2767.74
483.65	2784.91
484.021	2853.39
484.391	2899.94
484.762	2903.78
485.133	2979.94
485.503	2966.83
485.874	3048.63
486.244	3061.29
486.615	3117.79
486.985	3133.38
487.356	3213.83
487.726	3223.09
488.097	3272.81
488.467	3311.45
488.837	3330.21
489.207	3394.16
489.578	3443.2
489.948	3490.2
490.318	3514.38
490.688	3527.04
491.058	3578.11
491.428	3621.27
491.798	3664.21
492.168	3725.45
492.538	3762.74
492.908	3809.07
493.278	3830.76
493.648	3849.74
494.017	3879.35
494.387	3889.97
494.757	3966.8
495.126	3988.27
495.496	4021.26
495.866	4080.7
496.235	4132.9
496.605	4088.83
496.974	4156.18
497.344	4182.62
497.713	4191.66
498.082	4267.36
498.452	4255.61
498.821	4332.67
499.19	4283.4
499.559	4375.61
499.928	4368.37
500.298	4385.77
500.667	4396.17
501.036	4477.75
501.405	4513.68
501.774	4529.73
502.143	4564.53
502.512	4574.24
502.88	4585.54
503.249	4583.74
503.618	4635.03
503.987	4685.43
504.356	4692.21
504.724	4762.49
505.093	4739.66
505.462	4760.45
505.83	4795.03
506.199	4838.64
506.567	4879.55
506.936	4887.91
507.304	4972.65
507.672	4987.11
508.041	5046.55
508.409	5019.2
508.777	5077.96
509.145	5106.21
509.514	5164.51
509.882	5164.74
510.25	5181.69
510.618	5230.5
510.986	5281.34
511.354	5288.58
511.722	5358.63
512.09	5348.91
512.458	5385.97
512.826	5430.27
513.193	5479.98
513.561	5522.92
513.929	5563.14
514.297	5605.18
514.664	5601.34
515.032	5662.8
515.4	5658.28
515.767	5715.91
516.135	5785.96
516.502	5708.23
516.869	5880.88
517.237	5876.36
517.604	5825.51
517.972	5949.12
518.339	5963.59
518.706	6044.49
519.073	6019.63
519.44	6079.97
519.808	6140.53
520.175	6131.49
520.542	6218.27
520.909	6261.66
521.276	6259.17
521.643	6344.14
522.009	6378.49
522.376	6467.08
522.743	6524.7
523.11	6534.64
523.477	6554.53
523.843	6597.92
524.21	6686.5
524.577	6767.41
524.943	6809.21
525.31	6830.46
525.676	6916.1
526.043	6868.42
526.409	6971.47
526.776	7070.22
527.142	7061.41
527.508	7088.75
527.874	7143.44
528.241	7265.02
528.607	7187.06
528.973	7274.29
529.339	7334.17
529.705	7375.75
530.071	7362.65
530.437	7418.92
530.803	7450.78
531.169	7526.71
531.535	7526.71
531.901	7596.99
532.267	7605.12
532.632	7672.02
532.998	7729.64
533.364	7741.39
533.73	7780.04
534.095	7844.21
534.461	7898.45
534.826	7853.25
535.192	7976.19
535.557	8018
535.923	8083.3
536.288	8025.23
536.653	8111.55
537.019	8117.88
537.384	8133.92
537.749	8127.37
538.114	8201.95
538.479	8193.81
538.845	8275.84
539.21	8266.8
539.575	8235.39
539.94	8292.34
540.305	8411.21
540.67	8340.7
541.034	8395.39
541.399	8454.14
541.764	8431.32
542.129	8486.23
542.494	8488.04
542.858	8513.12
543.223	8566.46
543.587	8618.66
543.952	8606.23
544.316	8595.16
544.681	8619.79
545.045	8728.94
545.41	8757.86
545.774	8810.06
546.138	8754.93
546.503	8775.49
546.867	8814.81
547.231	8866.79
547.595	8857.52
547.959	8967.12
548.324	9025.88
548.688	9003.51
549.052	9017.97
549.416	9055.48
549.779	9085.09
550.143	9077.18
550.507	9179.32
550.871	9157.17
551.235	9196.27
551.599	9226.33
551.962	9225.87
552.326	9367.56
552.689	9307
553.053	9304.29
553.417	9422.03
553.78	9449.14
554.143	9468.8
554.507	9505.64
554.87	9558.75
555.234	9659.08
555.597	9602.59
555.96	9654.79
556.323	9727.1
556.686	9729.81
557.05	9796.93
557.413	9720.1
557.776	9810.49
558.139	9843.71
558.502	9898.4
558.865	9877.38
559.228	10039.19
559.59	10004.61
559.953	10033.54
560.316	10131.16
560.679	10223.59
561.041	10144.04
561.404	10270.59
561.767	10379.52
562.129	10295.22
562.492	10442.11
562.854	10373.64
563.217	10396.01
563.579	10506.52
563.941	10524.14
564.304	10587.42
564.666	10630.36
565.028	10707.19
565.39	10679.62
565.753	10781.31
566.115	10714.87
566.477	10849.56
566.839	10878.71
567.201	10926.85
567.563	10989.44
567.925	10990.57
568.287	11071.02
568.648	11040.29
569.01	11176.33
569.372	11258.59
569.734	11216.33
570.095	11252.71
570.457	11231.47
570.819	11308.53
571.18	11311.24
571.542	11388.3
571.903	11393.5
572.265	11488.19
572.626	11517.34
572.987	11492.48
573.349	11561.63
573.71	11552.14
574.071	11590.56
574.432	11701.29
574.794	11794.17
575.155	11687.73
575.516	11695.19
575.877	11743.55
576.238	11789.87
576.599	11864.22
576.96	11800.27
577.32	11883.43
577.681	11876.88
578.042	11924.56
578.403	11882.98
578.763	11911.9
579.124	11927.05
579.485	11992.35
579.845	12000.94
580.206	11943.77
580.566	12005.69
580.927	12036.19
581.287	12181.5
581.648	12103.99
582.008	12058.79
582.368	12099.02
582.728	12035.97
583.089	12104.89
583.449	12129.53
583.809	12172.24
584.169	12143.31
584.529	12102.63
584.889	12187.38
585.249	12022.64
585.609	12068.74
585.969	12201.16
586.329	12136.98
586.688	12110.54
587.048	12158.9
587.408	12108.51
587.768	12142.41
588.127	12119.36
588.487	12135.85
588.846	12240.94
589.206	12133.82
589.565	12171.11
589.925	12198.45
590.284	12226.25
590.643	12176.98
591.003	12183.99
591.362	12279.58
591.721	12222.63
592.08	12270.76
592.44	12312.57
592.799	12289.97
593.158	12251.33
593.517	12220.6
593.876	12245.68
594.235	12259.01
594.593	12205
594.952	12282.29
595.311	12254.49
595.67	12276.41
596.029	12338.79
596.387	12285.45
596.746	12324.55
597.104	12320.48
597.463	12296.53
597.822	12311.89
598.18	12304.44
598.538	12338.56
598.897	12388.28
599.255	12268.51
599.613	12519.8
599.972	12374.27
600.33	12375.17
600.688	12356.19
601.046	12436.64
601.404	12535.84
601.762	12359.35
602.12	12443.42
602.478	12505.56
602.836	12570.42
603.194	12467.37
603.552	12432.57
603.91	12491.32
604.268	12474.83
604.625	12525
604.983	12523.19
605.341	12440.48
605.698	12598.44
606.056	12557.09
606.413	12646.35
606.771	12652.22
607.128	12550.76
607.485	12608.84
607.843	12609.74
608.2	12625.56
608.557	12700.13
608.914	12688.83
609.272	12755.5
609.629	12682.05
609.986	12739.91
610.343	12694.26
610.7	12690.19
611.057	12743.07
611.414	12819.23
611.771	12845.21
612.127	12824.2
612.484	12914.59
612.841	12880.69
613.198	12816.74
613.554	12845.89
613.911	12931.09
614.267	12966.11
614.624	12872.33
614.98	12888.15
615.337	13021.48
615.693	12965.89
616.05	12958.88
616.406	13064.42
616.762	12947.36
617.118	13033.46
617.475	12927.92
617.831	13080.24
618.187	12997.3
618.543	13007.02
618.899	13065.32
619.255	13073.68
619.611	13086.56
619.967	13139.67
620.323	13149.39
620.678	13102.61
621.034	13045.66
621.39	13067.58
621.746	13040.24
622.101	13239.55
622.457	13133.79
622.812	13092.44
623.168	13160.46
623.523	13161.14
623.879	13161.36
624.234	13033.23
624.589	13114.13
624.945	13139.44
625.3	13161.59
625.655	13149.84
626.01	13097.86
626.365	13148.03
626.72	13066.22
627.075	13121.82
627.43	13117.75
627.785	13018.09
628.14	13105.32
628.495	13131.99
628.85	13111.42
629.205	13030.52
629.559	13136.73
629.914	13074.81
630.269	13081.37
630.623	13089.05
630.978	12984.42
631.332	13051.99
631.687	13118.88
632.041	12993.23
632.396	13001.14
632.75	12957.53
633.104	12996.62
633.459	12974.48
633.813	12948.26
634.167	12977.19
634.521	12900.8
634.875	12944.19
635.229	12803.18
635.583	12822.39
635.937	12832.33
636.291	12863.97
636.645	12779.45
636.999	12778.1
637.352	12780.81
637.706	12764.76
638.06	12788.49
638.413	12801.15
638.767	12733.13
639.121	12778.32
639.474	12686.12
639.828	12582.85
640.181	12696.74
640.534	12703.75
640.888	12620.36
641.241	12600.7
641.594	12655.61
641.947	12689.28
642.301	12623.75
642.654	12568.61
643.007	12622.39
643.36	12582.85
643.713	12588.72
644.066	12661.49
644.419	12477.31
644.771	12424.89
645.124	12280.71
645.477	12262.4
645.83	12308.28
646.182	12111.22
646.535	12106.7
646.888	12047.27
647.24	12027.38
647.593	12138.11
647.945	12050.43
648.298	12009.08
648.65	12020.83
649.002	11974.95
649.355	12039.13
649.707	11975.86
650.059	12051.56
650.411	12277.32
650.763	12214.72
651.115	12290.88
651.467	12321.61
651.819	12353.25
652.171	12274.61
652.523	12272.8
652.875	12205.46
653.227	12250.65
653.578	12233.25
653.93	12174.5
654.282	12173.82
654.633	12171.56
654.985	12194.61
655.337	12199.58
655.688	12128.85
656.039	12202.29
656.391	12149.86
656.742	12119.36
657.094	12148.96
657.445	12132.69
657.796	12077.55
658.147	12087.27
658.498	12053.6
658.849	12088.85
659.2	12079.13
659.551	12084.78
659.902	12070.09
660.253	12079.13
660.604	12076.42
660.955	11985.57
661.306	12048.17
661.656	11992.58
662.007	12025.35
662.358	11950.1
662.708	12036.87
663.059	11957.55
663.409	11963.65
663.76	12051.11
664.11	11937.67
664.461	11972.02
664.811	11959.81
665.161	11999.59
665.511	11890.89
665.862	11870.1
666.212	11973.37
666.562	11927.72
666.912	11921.85
667.262	11913.71
667.612	11886.82
667.962	11966.14
668.312	11833.94
668.662	12050.66
669.011	11857.44
669.361	11868.29
669.711	11788.07
670.06	11860.38
670.41	11904.22
670.76	11865.35
671.109	11850.89
671.459	11885.01
671.808	11880.27
672.157	11869.19
672.507	11773.15
672.856	11711.23
673.205	11748.97
673.554	11772.02
673.904	11751.91
674.253	11774.73
674.602	11801.4
674.951	11638.01
675.3	11606.6
675.649	11792.13
675.998	11752.59
676.346	11680.27
676.695	11748.97
677.044	11662.42
677.393	11667.39
677.741	11661.74
678.09	11636.43
678.438	11666.04
678.787	11609.99
679.135	11694.28
679.484	11595.08
679.832	11625.13
680.181	11551.01
680.529	11624
680.877	11558.92
681.225	11573.16
681.573	11661.06
681.922	11508.75
682.27	11427.85
682.618	11414.29
682.966	11524.12
683.314	11471.92
683.661	11423.1
684.009	11257.91
684.357	11353.05
684.705	11350.34
685.053	11414.97
685.4	11260.17
685.748	11230.11
686.095	11241.64
686.443	11284.35
686.79	11224.01
687.138	11204.13
687.485	11195.31
687.832	11203.22
688.18	11158.48
688.527	11113.06
688.874	11131.81
689.221	11072.6
689.568	11105.15
689.915	10998.71
690.262	11015.2
690.609	10988.09
690.956	11021.76
691.303	10934.98
691.65	10874.19
691.997	10904.02
692.344	10828.09
692.69	10732.05
693.037	10862.21
693.383	10696.12
693.73	10754.65
694.077	10692.73
694.423	10724.82
694.769	10636.91
695.116	10645.95
695.462	10641.88
695.808	10584.48
696.155	10602.56
696.501	10568.66
696.847	10549.23
697.193	10407.99
697.539	10531.38
697.885	10424.49
698.231	10437.14
698.577	10433.53
698.923	10351.95
699.269	10263.13
699.614	10318.95
699.96	10283.7
700.306	10310.36
700.651	10212.29
700.997	10230.14
701.342	10156.47
701.688	10195.34
702.033	10088.9
702.379	10122.35
702.724	10100.65
703.069	10079.41
703.415	9977.49
703.76	10031.73
704.105	10067.43
704.45	10014.55
704.795	9995.34
705.14	9910.83
705.485	9859.53
705.83	9778.85
706.175	9816.37
706.52	9805.52
706.865	9837.38
707.209	9753.09
707.554	9746.54
707.899	9731.4
708.243	9667.9
708.588	9706.54
708.932	9631.06
709.277	9673.09
709.621	9663.6
709.966	9584.51
710.31	9607.11
710.654	9481.23
710.998	9574.11
711.342	9485.53
711.687	9530.72
712.031	9402.59
712.375	9409.6
712.719	9474.23
713.063	9392.65
713.407	9416.6
713.75	9344.74
714.094	9396.94
714.438	9373.44
714.782	9341.12
715.125	9334.12
715.469	9399.2
715.812	9328.7
716.156	9224.74
716.499	9259.32
716.843	9247.34
717.186	9266.55
717.53	9216.83
717.873	9203.73
718.216	9213.9
718.559	9166.21
718.902	9100.68
719.246	9159.66
719.589	9061.58
719.932	9026.56
720.275	9063.17
720.617	9056.39
720.96	9022.71
721.303	9002.38
721.646	9062.94
721.989	8962.6
722.331	8983.17
722.674	8960.12
723.016	8941.13
723.359	8929.61
723.701	8999.89
724.044	8862.27
724.386	8814.58
724.729	8847.8
725.071	8779.33
725.413	8853.68
725.755	8847.8
726.097	8837.18
726.439	8823.62
726.782	8765.77
727.124	8824.3
727.465	8754.02
727.807	8798.54
728.149	8667.92
728.491	8722.61
728.833	8667.47
729.175	8636.74
729.516	8583.63
729.858	8662.05
730.199	8614.59
730.541	8613.23
730.882	8606
731.224	8581.37
731.565	8537.3
731.906	8536.4
732.248	8559.45
732.589	8474.93
732.93	8476.74
733.271	8533.46
733.612	8463.41
733.953	8507.93
734.294	8495.27
734.635	8445.1
734.976	8514.93
735.317	8420.7
735.658	8409.62
735.999	8455.05
736.339	8329.63
736.68	8354.03
737.021	8400.36
737.361	8351.32
737.702	8349.51
738.042	8362.39
738.383	8276.29
738.723	8365.1
739.063	8326.91
739.404	8320.13
739.744	8305.9
740.084	8300.7
740.424	8227.03
740.764	8262.51
741.104	8340.25
741.444	8208.5
741.784	8162.62
742.124	8245.33
742.464	8211.89
742.804	8173.7
743.143	8161.72
743.483	8152.68
743.823	8094.38
744.162	8117.2
744.502	8140.25
744.841	8119.46
745.181	8124.43
745.52	8083.76
745.86	8057.54
746.199	8116.52
746.538	8036.07
746.877	8065.23
747.216	8049.86
747.556	8033.14
747.895	7932.35
748.234	7971.67
748.573	7947.04
748.911	7911.11
749.25	8014.15
749.589	7882.18
749.928	7913.59
750.267	7930.31
750.605	7863.2
750.944	7850.54
751.283	7824.1
751.621	7846.7
751.96	7796.53
752.298	7781.17
752.636	7818.45
752.975	7743.43
753.313	7728.96
753.651	7817.77
753.989	7721.51
754.327	7675.18
754.666	7604.9
755.004	7685.35
755.342	7687.38
755.679	7656.65
756.017	7647.84
756.355	7576.2
756.693	7572.58
757.031	7567.84
757.368	7576.88
757.706	7526.26
758.044	7592.02
758.381	7569.19
758.719	7487.61
759.056	7475.64
759.394	7491.91
759.731	7412.14
760.068	7382.98
760.405	7360.84
760.743	7340.5
761.08	7406.94
761.417	7308.86
761.754	7309.54
762.091	7307.28
