Data from black_plastic_tray_FLMS001491_001.txt Node
Date: Tue Feb 07 10:39:09 GMT 2017
User: dcchb
Spectrometer: FLMS00149
Trigger mode: 0
Integration Time (sec): 2.000000E-2
Scans to average: 10
Electric dark correction enabled: true
Nonlinearity correction enabled: false
Boxcar width: 0
XAxis mode: Wavelengths
Number of Pixels in Spectrum: 2048
>>>>>Begin Spectral Data<<<<<
341.393	-2.85
341.776	-2.85
342.16	-2.85
342.543	-54.38
342.927	-66.13
343.31	-49.86
343.693	-76.75
344.077	-54.15
344.46	-66.13
344.843	-51.89
345.226	-46.24
345.61	-45.79
345.993	-23.42
346.376	-2.85
346.759	12.74
347.142	15
347.525	37.82
347.908	50.03
348.291	88.67
348.674	101.55
349.057	111.27
349.44	118.05
349.823	120.53
350.206	164.15
350.588	162.11
350.971	201.66
351.354	215.45
351.737	219.97
352.119	219.06
352.502	247.08
352.884	258.16
353.267	285.27
353.65	250.7
354.032	302.45
354.414	288.44
354.797	300.19
355.179	304.94
355.562	300.19
355.944	299.29
356.326	319.85
356.709	310.59
357.091	323.69
357.473	320.75
357.855	333.18
358.238	316.01
358.62	333.64
359.002	352.84
359.384	322.56
359.766	310.36
360.148	346.74
360.53	318.49
360.912	316.01
361.294	312.17
361.676	322.56
362.057	341.77
362.439	312.39
362.821	321.43
363.203	301.77
363.584	309.46
363.966	297.93
364.348	320.53
364.729	330.92
365.111	334.99
365.493	316.91
365.874	300.64
366.256	301.55
366.637	305.61
367.019	317.59
367.4	322.11
367.781	318.49
368.163	318.49
368.544	297.25
368.925	302.9
369.306	318.49
369.688	316.23
370.069	285.73
370.45	297.93
370.831	299.06
371.212	293.64
371.593	315.33
371.974	333.41
372.355	309.23
372.736	331.6
373.117	304.03
373.498	302.45
373.879	311.94
374.26	291.15
374.641	304.71
375.021	311.49
375.402	294.99
375.783	335.67
376.163	326.18
376.544	328.66
376.925	315.56
377.305	332.96
377.686	306.07
378.066	302
378.447	303.81
378.827	328.44
379.208	352.17
379.588	345.61
379.968	342.45
380.349	329.57
380.729	316.69
381.109	358.49
381.489	322.34
381.87	315.56
382.25	332.51
382.63	342.45
383.01	344.48
383.39	341.32
383.77	329.79
384.15	347.42
384.53	348.78
384.91	341.54
385.29	366.4
385.67	354.43
386.049	368.89
386.429	344.03
386.809	351.04
387.189	361.88
387.568	355.33
387.948	350.58
388.328	366.63
388.707	352.17
389.087	339.96
389.466	371.37
389.846	366.18
390.225	356.46
390.605	360.53
390.984	380.87
391.363	368.44
391.743	376.35
392.122	389.23
392.501	391.71
392.881	386.29
393.26	391.49
393.639	378.83
394.018	392.62
394.397	386.29
394.776	369.11
395.155	391.71
395.534	396.23
395.913	400.53
396.292	382.9
396.671	402.11
397.05	390.58
397.429	404.37
397.808	409.79
398.186	416.34
398.565	421.09
398.944	424.03
399.323	430.13
399.701	408.89
400.08	419.96
400.458	419.28
400.837	408.44
401.215	440.75
401.594	399.17
401.972	438.72
402.351	433.97
402.729	422.9
403.107	414.76
403.486	431.26
403.864	461.99
404.242	445.04
404.62	438.27
404.999	450.69
405.377	429.45
405.755	460.41
406.133	453.41
406.511	462.9
406.889	473.29
407.267	435.1
407.645	469
408.023	475.1
408.401	459.28
408.779	469.22
409.156	470.13
409.534	472.39
409.912	473.97
410.29	490.02
410.667	485.95
411.045	484.37
411.422	509
411.8	497.25
412.178	508.32
412.555	519.39
412.933	491.6
413.31	524.36
413.687	522.33
414.065	512.16
414.442	534.31
414.819	543.8
415.197	534.53
415.574	538.15
415.951	545.83
416.328	551.93
416.705	561.65
417.082	540.41
417.46	569.11
417.837	577.7
418.214	544.93
418.591	561.43
418.967	585.83
419.344	578.6
419.721	572.73
420.098	584.48
420.475	603.01
420.852	579.96
421.228	581.99
421.605	591.93
421.982	629.45
422.358	598.26
422.735	587.64
423.111	588.77
423.488	617.24
423.864	598.26
424.241	634.42
424.617	618.15
424.994	617.02
425.37	641.88
425.746	639.16
426.123	633.97
426.499	660.41
426.875	650.92
427.251	663.57
427.627	682.33
428.003	685.26
428.379	678.94
428.756	687.98
429.132	701.54
429.507	694.53
429.883	715.77
430.259	710.35
430.635	711.93
431.011	722.55
431.387	743.12
431.763	741.31
432.138	729.78
432.514	757.58
432.89	763.91
433.265	765.49
433.641	781.76
434.016	759.61
434.392	760.52
434.767	795.54
435.143	798.26
435.518	794.87
435.894	806.62
436.269	831.25
436.644	833.06
437.02	810.23
437.395	857.46
437.77	847.29
438.145	848.2
438.52	852.27
438.895	878.93
439.271	875.09
439.646	886.16
440.021	879.61
440.395	883.68
440.77	876.9
441.145	878.25
441.52	907.18
441.895	877.58
442.27	908.31
442.645	905.82
443.019	916.44
443.394	920.51
443.769	922.55
444.143	914.19
444.518	947.4
444.892	955.31
445.267	968.65
445.641	950.12
446.016	978.36
446.39	974.52
446.764	979.27
447.139	970
447.513	970.68
447.887	987.63
448.262	1020.4
448.636	1016.56
449.01	990.12
449.384	1007.06
449.758	1019.27
450.132	996.44
450.506	1023.56
450.88	1052.26
451.254	1019.27
451.628	1073.95
452.002	1043.67
452.376	1084.35
452.75	1066.5
453.123	1094.07
453.497	1087.74
453.871	1097.91
454.244	1148.53
454.618	1141.3
454.992	1159.15
455.365	1148.3
455.739	1180.39
456.112	1175.87
456.486	1184.91
456.859	1186.27
457.232	1212.03
457.606	1225.59
457.979	1244.35
458.352	1235.76
458.725	1253.61
459.099	1268.75
459.472	1263.55
459.845	1285.25
460.218	1283.67
460.591	1299.49
460.964	1310.56
461.337	1344
461.71	1350.33
462.083	1392.36
462.456	1355.76
462.829	1414.51
463.201	1410.9
463.574	1432.59
463.947	1446.6
464.32	1440.95
464.692	1466.26
465.065	1486.15
465.438	1503.32
465.81	1515.07
466.183	1544.68
466.555	1558.24
466.928	1564.34
467.3	1531.8
467.672	1593.49
468.045	1626.26
468.417	1612.7
468.789	1630.1
469.161	1657.89
469.534	1693.37
469.906	1671.23
470.278	1716.65
470.65	1754.16
471.022	1782.64
471.394	1789.42
471.766	1814.73
472.138	1813.82
472.51	1835.29
472.882	1894.05
473.253	1903.09
473.625	1933.59
473.997	1958
474.369	1990.31
474.74	2004.78
475.112	2010.88
475.484	2019.69
475.855	2090.88
476.227	2101.27
476.598	2150.54
476.97	2135.17
477.341	2211.55
477.713	2227.14
478.084	2273.47
478.455	2312.34
478.827	2325.67
479.198	2371.77
479.569	2412.68
479.94	2448.83
480.311	2504.43
480.682	2534.48
481.053	2572.9
481.424	2587.36
481.795	2624.42
482.166	2646.12
482.537	2713.69
482.908	2752.33
483.279	2767.02
483.65	2826.68
484.021	2859.44
484.391	2870.97
484.762	2934.92
485.133	2957.3
485.503	2990.74
485.874	3047.91
486.244	3097.4
486.615	3133.56
486.985	3194.13
487.356	3174.92
487.726	3265.99
488.097	3303.27
488.467	3303.27
488.837	3328.13
489.207	3424.4
489.578	3429.37
489.948	3464.4
490.318	3484.74
490.688	3560.44
491.058	3615.81
491.428	3654.9
491.798	3680.89
492.168	3767.22
492.538	3784.39
492.908	3771.96
493.278	3824.84
493.648	3848.57
494.017	3886.99
494.387	3863.49
494.757	3962.47
495.126	4004.73
495.496	3985.29
495.866	4060.09
496.235	4056.7
496.605	4108
496.974	4121.33
497.344	4178.96
497.713	4191.16
498.082	4233.87
498.452	4284.49
498.821	4273.42
499.19	4312.29
499.559	4367.2
499.928	4363.59
500.298	4404.49
500.667	4419.63
501.036	4456.69
501.405	4480.64
501.774	4491.72
502.143	4543.02
502.512	4567.42
502.88	4586.18
503.249	4607.65
503.618	4656.91
503.987	4631.38
504.356	4725.38
504.724	4702.56
505.093	4768.09
505.462	4774.42
505.83	4794.99
506.199	4863.69
506.567	4940.75
506.936	4916.11
507.304	4970.58
507.672	4996.56
508.041	5028.43
508.409	5034.98
508.777	5081.53
509.145	5121.76
509.514	5132.83
509.882	5195.2
510.25	5148.88
510.618	5213.51
510.986	5274.97
511.354	5303
511.722	5375.76
512.09	5459.38
512.458	5371.92
512.826	5479.26
513.193	5484.91
513.561	5503.89
513.929	5590.67
514.297	5568.07
514.664	5658.24
515.032	5662.31
515.4	5707.73
515.767	5735.3
516.135	5764.68
516.502	5794.51
516.869	5807.84
517.237	5879.93
517.604	5906.14
517.972	5959.02
518.339	6013.03
518.706	5914.73
519.073	6021.4
519.44	6066.37
519.808	6098.46
520.175	6149.08
520.542	6203.54
520.909	6295.96
521.276	6243.76
521.643	6284.21
522.009	6429.52
522.376	6419.8
522.743	6483.3
523.11	6506.81
523.477	6563.08
523.843	6647.82
524.21	6737.76
524.577	6756.07
524.943	6764.43
525.31	6809.85
525.676	6841.03
526.043	6890.53
526.409	6930.75
526.776	6986.57
527.142	7071.54
527.508	7114.02
527.874	7116.51
528.241	7173
528.607	7145.43
528.973	7245.09
529.339	7281.02
529.705	7354.24
530.071	7374.58
530.437	7409.38
530.803	7472.66
531.169	7520.34
531.535	7490.51
531.901	7610.28
532.267	7663.16
532.632	7707.45
532.998	7693.44
533.364	7817.51
533.73	7835.36
534.095	7812.31
534.461	7862.25
534.826	7961.46
535.192	7873.55
535.557	7992.87
535.923	8043.04
536.288	8084.17
536.653	8069.25
537.019	8003.26
537.384	8122.81
537.749	8119.65
538.114	8164.16
538.479	8193.32
538.845	8201.45
539.21	8182.24
539.575	8292.97
539.94	8255.01
540.305	8288.68
540.67	8332.07
541.034	8324.39
541.399	8429.02
541.764	8412.07
542.129	8426.53
542.494	8499.3
542.858	8500.65
543.223	8532.52
543.587	8616.81
543.952	8671.72
544.316	8679.63
544.681	8652.51
545.045	8724.38
545.41	8728.67
545.774	8782
546.138	8758.72
546.503	8807.08
546.867	8836.01
547.231	8891.6
547.595	8941.09
547.959	8958.72
548.324	8944.71
548.688	8987.65
549.052	9009.34
549.416	9011.15
549.779	9009.57
550.143	9100.86
550.507	9120.07
550.871	9141.09
551.235	9172.95
551.599	9261.31
551.962	9198.71
552.326	9240.75
552.689	9314.19
553.053	9346.96
553.417	9297.69
553.78	9427.86
554.143	9450.68
554.507	9374.53
554.87	9490.23
555.234	9621.07
555.597	9497.01
555.96	9606.39
556.323	9620.4
556.686	9693.84
557.05	9754.4
557.413	9763.9
557.776	9873.5
558.139	9864.01
558.502	9872.37
558.865	9961.4
559.228	10033.49
559.59	10067.84
559.953	10004.12
560.316	10218.57
560.679	10166.6
561.041	10186.48
561.404	10204.56
561.767	10343.09
562.129	10270.32
562.492	10328.85
562.854	10314.84
563.217	10306.71
563.579	10453.14
563.941	10504.67
564.304	10501.73
564.666	10533.82
565.028	10565
565.39	10687.49
565.753	10610.2
566.115	10705.11
566.477	10663.31
566.839	10715.96
567.201	10879.35
567.563	10904.88
567.925	10877.76
568.287	10967.25
568.648	11007.48
569.01	11065.33
569.372	11149.62
569.734	11123.63
570.095	11205.89
570.457	11223.29
570.819	11222.16
571.18	11232.11
571.542	11403.17
571.903	11371.54
572.265	11339.22
572.626	11417.86
572.987	11431.42
573.349	11482.27
573.71	11512.55
574.071	11585.77
574.432	11573.79
574.794	11660.34
575.155	11630.29
575.516	11578.76
575.877	11655.37
576.238	11700.79
576.599	11729.04
576.96	11696.95
577.32	11676.84
577.681	11747.12
578.042	11865.99
578.403	11811.3
578.763	11759.32
579.124	11867.8
579.485	11932.88
579.845	11933.56
580.206	11906.66
580.566	11863.05
580.927	11888.81
581.287	11984.18
581.648	11942.6
582.008	11938.08
582.368	12013.1
582.728	12040.45
583.089	12023.95
583.449	11992.09
583.809	12113.21
584.169	12077.96
584.529	12092.2
584.889	12118.18
585.249	12060.33
585.609	11963.16
585.969	12139.88
586.329	12043.38
586.688	12121.35
587.048	12097.85
587.408	12021.92
587.768	12056.94
588.127	12079.77
588.487	12049.26
588.846	12021.92
589.206	11959.77
589.565	11960
589.925	12081.12
590.284	12024.63
590.643	11994.12
591.003	11981.24
591.362	12045.64
591.721	12015.14
592.08	11995.93
592.44	12080.45
592.799	12062.14
593.158	12042.25
593.517	12023.05
593.876	12058.98
594.235	12000
594.593	12011.97
594.952	12095.59
595.311	11966.55
595.67	12137.39
596.029	12132.65
596.387	12117.96
596.746	12141.91
597.104	12151.4
597.463	12162.25
597.822	12153.89
598.18	12061.91
598.538	12158.18
598.897	12211.74
599.255	12136.94
599.613	12349.82
599.972	12301.91
600.33	12267.78
600.688	12266.43
601.046	12290.16
601.404	12374.45
601.762	12305.75
602.12	12420.78
602.478	12322.25
602.836	12376.26
603.194	12324.73
603.552	12344.84
603.91	12236.15
604.268	12356.37
604.625	12323.83
604.983	12319.08
605.341	12265.98
605.698	12309.59
606.056	12417.84
606.413	12308.46
606.771	12317.5
607.128	12310.72
607.485	12260.1
607.843	12339.42
608.2	12388.23
608.557	12431.62
608.914	12340.55
609.272	12526.76
609.629	12480.66
609.986	12525.41
610.343	12461.45
610.7	12520.43
611.057	12639.53
611.414	12553.43
611.771	12612.18
612.127	12539.42
612.484	12575.35
612.841	12693.76
613.198	12713.42
613.554	12643.14
613.911	12705.06
614.267	12750.48
614.624	12739.41
614.98	12684.95
615.337	12773.53
615.693	12703.71
616.05	12713.2
616.406	12771.95
616.762	12706.42
617.118	12728.56
617.475	12695.57
617.831	12832.29
618.187	12821.67
618.543	12774.89
618.899	12875.45
619.255	12785.51
619.611	12842.68
619.967	12811.73
620.323	12867.77
620.678	12822.12
621.034	12829.13
621.39	12835
621.746	12770.82
622.101	12942.12
622.457	12783.93
622.812	12798.62
623.168	12846.75
623.523	12848.11
623.879	12909.35
624.234	12810.37
624.589	12864.38
624.945	12822.8
625.3	12886.98
625.655	12889.01
626.01	12815.57
626.365	12860.09
626.72	12850.14
627.075	12820.99
627.43	12861.22
627.785	12837.26
628.14	12887.88
628.495	12871.38
628.85	12840.2
629.205	12863.7
629.559	12961.78
629.914	12855.34
630.269	12860.31
630.623	12887.66
630.978	12827.32
631.332	12794.78
631.687	12868.45
632.041	12874.1
632.396	12715.23
632.75	12715.46
633.104	12710.03
633.459	12692.86
633.813	12581.45
634.167	12635.46
634.521	12657.83
634.875	12714.78
635.229	12582.58
635.583	12531.05
635.937	12536.25
636.291	12551.85
636.645	12547.33
636.999	12523.82
637.352	12581.9
637.706	12412.64
638.06	12453.77
638.413	12427.78
638.767	12435.46
639.121	12407.89
639.474	12404.05
639.828	12359.31
640.181	12422.81
640.534	12439.76
640.888	12396.14
641.241	12262.59
641.594	12291.51
641.947	12338.29
642.301	12256.71
642.654	12380.78
643.007	12332.87
643.36	12209.71
643.713	12270.95
644.066	12221.68
644.419	12181.01
644.771	12083.16
645.124	12059.65
645.477	12075.25
645.83	11958.19
646.182	11869.6
646.535	11841.81
646.888	11892.43
647.24	11725.65
647.593	11908.7
647.945	11786.89
648.298	11756.16
648.65	11699.89
649.002	11596.39
649.355	11680.23
649.707	11730.4
650.059	11780.57
650.411	11885.65
650.763	11889.49
651.115	12007.45
651.467	11997.96
651.819	11894.46
652.171	11868.02
652.523	11864.41
652.875	11882.94
653.227	11936.49
653.578	11911.41
653.93	11872.09
654.282	11810.17
654.633	11779.89
654.985	11822.37
655.337	11838.87
655.688	11876.16
656.039	11842.71
656.391	11732.66
656.742	11759.1
657.094	11768.36
657.445	11836.84
657.796	11820.11
658.147	11830.06
658.498	11799.1
658.849	11779.66
659.2	11854.01
659.551	11762.49
659.902	11755.93
660.253	11798.87
660.604	11797.51
660.955	11688.14
661.306	11794.58
661.656	11748.02
662.007	11760
662.358	11642.72
662.708	11675.26
663.059	11686.33
663.409	11635.94
663.76	11635.03
664.11	11655.37
664.461	11667.12
664.811	11581.02
665.161	11637.97
665.511	11629.61
665.862	11638.87
666.212	11542.61
666.562	11550.29
666.912	11571.31
667.262	11584.86
667.612	11560.68
667.962	11536.5
668.312	11385.32
668.662	11521.14
669.011	11494.7
669.361	11463.06
669.711	11497.64
670.06	11476.39
670.41	11433.91
670.76	11464.64
671.109	11490.86
671.459	11447.02
671.808	11430.97
672.157	11376.96
672.507	11393.91
672.856	11338.77
673.205	11398.66
673.554	11472.33
673.904	11445.66
674.253	11496.96
674.602	11372.22
674.951	11212.22
675.3	11193.46
675.649	11369.73
675.998	11415.6
676.346	11402.5
676.695	11498.77
677.044	11372.89
677.393	11423.97
677.741	11370.41
678.09	11229.85
678.438	11243.18
678.787	11348.03
679.135	11284.76
679.484	11240.69
679.832	11203.86
680.181	11193.24
680.529	11251.77
680.877	11176.74
681.225	11161.15
681.573	11169.73
681.922	11167.47
682.27	11176.97
682.618	11126.8
682.966	11043.18
683.314	11059
683.661	11067.36
684.009	11064.88
684.357	10953.24
684.705	10948.27
685.053	11043.64
685.4	10939.91
685.748	10880.02
686.095	10975.62
686.443	10817.65
686.79	10862.85
687.138	10818.11
687.485	10770.42
687.832	10753.02
688.18	10809.07
688.527	10754.15
688.874	10719.8
689.221	10696.07
689.568	10669.86
689.915	10641.16
690.262	10613.59
690.609	10604.55
690.956	10573.82
691.303	10579.47
691.65	10506.93
691.997	10528.17
692.344	10414.05
692.69	10456.76
693.037	10426.7
693.383	10362.3
693.73	10362.98
694.077	10361.62
694.423	10361.85
694.769	10359.81
695.116	10288.4
695.462	10250.21
695.808	10231.23
696.155	10216.77
696.501	10213.83
696.847	10137.67
697.193	10129.76
697.539	10156.65
697.885	10099.93
698.231	10071.91
698.577	9986.71
698.923	9969.77
699.269	9984
699.614	9942.87
699.96	9936.09
700.306	9941.97
700.651	9824.23
700.997	9768.64
701.342	9809.77
701.688	9795.99
702.033	9762.54
702.379	9698.36
702.724	9717.8
703.069	9738.13
703.415	9576.56
703.76	9624.01
704.105	9609.1
704.45	9598.93
704.795	9491.59
705.14	9542.66
705.485	9434.64
705.83	9428.09
706.175	9485.03
706.52	9427.18
706.865	9436.45
707.209	9381.53
707.554	9360.97
707.899	9374.75
708.243	9296.34
708.588	9306.28
708.932	9278.26
709.277	9249.79
709.621	9263.8
709.966	9156.68
710.31	9199.84
710.654	9163.69
710.998	9193.74
711.342	9226.28
711.687	9158.04
712.031	9109.22
712.375	9046.63
712.719	9145.61
713.063	9134.99
713.407	9132.73
713.75	9084.37
714.094	9021.54
714.438	8997.59
714.782	8993.75
715.125	8951.49
715.469	8940.64
715.812	8902.68
716.156	8879.85
716.499	8963.24
716.843	8898.83
717.186	8851.38
717.53	8846.41
717.873	8879.63
718.216	8778.39
718.559	8733.87
718.902	8760.31
719.246	8754.88
719.589	8725.73
719.932	8704.26
720.275	8706.97
720.617	8686.41
720.96	8660.87
721.303	8626.98
721.646	8633.08
721.989	8563.02
722.331	8511.27
722.674	8578.39
723.016	8552.18
723.359	8504.49
723.701	8502.23
724.044	8524.61
724.386	8424.95
724.729	8528.22
725.071	8476.02
725.413	8411.39
725.755	8520.76
726.097	8447.77
726.439	8394.44
726.782	8404.38
727.124	8450.48
727.465	8321.67
727.807	8345.63
728.149	8332.07
728.491	8323.03
728.833	8320.77
729.175	8274.22
729.516	8304.73
729.858	8287.78
730.199	8298.62
730.541	8259.3
730.882	8219.98
731.224	8226.54
731.565	8231.28
731.906	8210.04
732.248	8221.56
732.589	8217.5
732.93	8210.04
733.271	8148.35
733.612	8212.52
733.953	8158.74
734.294	8158.74
734.635	8104.73
734.976	8121.45
735.317	8088.46
735.658	8177.95
735.999	8062.7
736.339	8092.08
736.68	8072.19
737.021	8046.2
737.361	8020.21
737.702	8059.08
738.042	8004.17
738.383	7975.92
738.723	8022.7
739.063	7958.75
739.404	7990.84
739.744	7944.73
740.084	7907.9
740.424	7890.5
740.764	7846.21
741.104	7840.33
741.444	7883.49
741.784	7801.46
742.124	7905.19
742.464	7750.62
742.804	7762.37
743.143	7741.8
743.483	7794.68
743.823	7771.18
744.162	7762.59
744.502	7734.34
744.841	7715.59
745.181	7761.69
745.52	7689.83
745.86	7715.59
746.199	7674.23
746.538	7679.2
746.877	7664.52
747.216	7666.55
747.556	7643.95
747.895	7627
748.234	7558.76
748.573	7567.12
748.911	7570.28
749.25	7562.37
749.589	7566.21
749.928	7461.13
750.267	7557.17
750.605	7546.33
750.944	7550.39
751.283	7484.41
751.621	7486.89
751.96	7456.84
752.298	7439.44
752.636	7426.33
752.975	7437.86
753.313	7411.87
753.651	7417.52
753.989	7377.74
754.327	7388.82
754.666	7318.76
755.004	7339.1
755.342	7352.21
755.679	7246.67
756.017	7241.48
756.355	7270.18
756.693	7147.47
757.031	7231.98
757.368	7200.12
757.706	7157.64
758.044	7117.19
758.381	7133.23
758.719	7166
759.056	7123.74
759.394	7069.28
759.731	7075.83
760.068	7083.29
760.405	7001.03
760.743	6927.36
761.08	7034.25
761.417	6949.96
761.754	6989.28
762.091	7033.35
762.428	6921.71
762.765	6930.52
