Data from black_metal_pc_casing_FLMS001491_00053.txt Node
Date: Wed Feb 08 14:33:04 GMT 2017
User: dcchb
Spectrometer: FLMS00149
Trigger mode: 0
Integration Time (sec): 2.000000E-2
Scans to average: 10
Electric dark correction enabled: true
Nonlinearity correction enabled: false
Boxcar width: 0
XAxis mode: Wavelengths
Number of Pixels in Spectrum: 2048
>>>>>Begin Spectral Data<<<<<
341.393	7.73
341.776	7.73
342.16	7.73
342.543	-53.06
342.927	-49.45
343.31	-67.3
343.693	-74.53
344.077	-53.74
344.46	-56.45
344.843	-43.35
345.226	-56
345.61	-37.02
345.993	-18.26
346.376	4.34
346.759	1.4
347.142	27.39
347.525	42.08
347.908	36.88
348.291	82.53
348.674	97.89
349.057	114.16
349.44	137.89
349.823	141.06
350.206	152.81
350.588	190.09
350.971	220.38
351.354	231.67
351.737	236.19
352.119	242.97
352.502	252.92
352.884	262.18
353.267	271.22
353.65	286.59
354.032	283.42
354.414	296.31
354.797	308.06
355.179	297.44
355.562	298.34
355.944	330.66
356.326	322.07
356.709	339.02
357.091	328.4
357.473	347.6
357.855	319.36
358.238	332.91
358.62	342.41
359.002	338.34
359.384	338.34
359.766	329.75
360.148	329.53
360.53	325.91
360.912	312.8
361.294	329.75
361.676	336.98
362.057	325.23
362.439	329.98
362.821	323.42
363.203	329.3
363.584	305.57
363.966	316.19
364.348	317.77
364.729	307.6
365.111	327.27
365.493	319.58
365.874	311.67
366.256	303.09
366.637	301.05
367.019	320.26
367.4	339.92
367.781	309.19
368.163	309.64
368.544	286.36
368.925	297.21
369.306	324.33
369.688	288.62
370.069	307.15
370.45	302.18
370.831	323.42
371.212	314.16
371.593	318.23
371.974	309.64
372.355	291.56
372.736	324.78
373.117	311.67
373.498	325.68
373.879	312.8
374.26	306.93
374.641	306.25
375.021	311.45
375.402	309.19
375.783	309.41
376.163	348.51
376.544	349.64
376.925	320.26
377.305	330.2
377.686	321.16
378.066	349.86
378.447	313.25
378.827	348.51
379.208	323.65
379.588	321.16
379.968	336.08
380.349	335.17
380.729	336.76
381.109	341.05
381.489	332.91
381.87	360.94
382.25	361.84
382.63	325.68
383.01	368.39
383.39	351.22
383.77	352.12
384.15	362.52
384.53	369.75
384.91	364.55
385.29	347.6
385.67	349.64
386.049	395.51
386.429	361.84
386.809	358.68
387.189	362.29
387.568	379.69
387.948	368.62
388.328	375.85
388.707	366.36
389.087	371.33
389.466	379.24
389.846	377.43
390.225	365
390.605	392.35
390.984	393.25
391.363	394.83
391.743	388.05
392.122	379.92
392.501	383.31
392.881	405
393.26	400.71
393.639	386.92
394.018	391.22
394.397	417.88
394.776	396.19
395.155	405.91
395.534	419.69
395.913	407.94
396.292	411.33
396.671	422.63
397.05	415.62
397.429	435.29
397.808	438.67
398.186	427.38
398.565	435.74
398.944	427.6
399.323	433.48
399.701	430.31
400.08	448.62
400.458	431.44
400.837	431.44
401.215	430.54
401.594	416.75
401.972	438
402.351	442.74
402.729	444.78
403.107	472.57
403.486	467.6
403.864	469.18
404.242	459.24
404.62	468.73
404.999	470.31
405.377	470.99
405.755	474.15
406.133	471.67
406.511	477.32
406.889	483.19
407.267	449.52
407.645	500.14
408.023	490.42
408.401	500.59
408.779	487.94
409.156	506.92
409.534	504.89
409.912	521.84
410.29	530.42
410.667	525.68
411.045	546.92
411.422	519.12
411.8	539.24
412.178	519.35
412.555	553.93
412.933	555.73
413.31	557.54
413.687	534.72
414.065	538.79
414.442	546.92
414.819	564.1
415.197	583.53
415.574	581.72
415.951	566.13
416.328	577.65
416.705	595.28
417.082	593.02
417.46	579.69
417.837	581.95
418.214	600.25
418.591	597.99
418.967	614.26
419.344	601.83
419.721	612.46
420.098	621.04
420.475	632.79
420.852	630.99
421.228	618.56
421.605	636.64
421.982	627.6
422.358	651.55
422.735	641.16
423.111	634.6
423.488	669.4
423.864	659.46
424.241	675.96
424.617	671.21
424.994	665.34
425.37	673.25
425.746	663.75
426.123	682.74
426.499	706.01
426.875	708.05
427.251	715.28
427.627	689.06
428.003	719.57
428.379	729.51
428.756	741.94
429.132	728.16
429.507	741.49
429.883	752.34
430.259	758.67
430.635	789.17
431.011	771.55
431.387	769.97
431.763	763.64
432.138	795.28
432.514	791.66
432.89	781.94
433.265	818.1
433.641	841.15
434.016	832.79
434.392	826.01
434.767	871.21
435.143	849.29
435.518	866.91
435.894	868.04
436.269	858.55
436.644	882.05
437.02	873.69
437.395	870.08
437.77	882.96
438.145	917.08
438.52	897.87
438.895	905.56
439.271	898.78
439.646	960.47
440.021	959.79
440.395	965.67
440.77	937.42
441.145	953.01
441.52	984.2
441.895	967.93
442.27	982.84
442.645	980.13
443.019	986.91
443.394	994.59
443.769	979.68
444.143	996.63
444.518	1002.73
444.892	988.72
445.267	1035.27
445.641	1012.67
446.016	1018.77
446.39	1039.56
446.764	1043.86
447.139	1075.27
447.513	1053.35
447.887	1067.81
448.262	1042.73
448.636	1059.45
449.01	1051.31
449.384	1071.2
449.758	1092.89
450.132	1107.13
450.506	1112.78
450.88	1129.96
451.254	1128.6
451.628	1109.17
452.002	1166.57
452.376	1143.74
452.75	1146.68
453.123	1154.36
453.497	1172.21
453.871	1196.85
454.244	1209.73
454.618	1203.85
454.992	1249.73
455.365	1227.13
455.739	1265.77
456.112	1242.5
456.486	1275.49
456.859	1250.86
457.232	1271.65
457.606	1306.67
457.979	1329.27
458.352	1332.21
458.725	1336.96
459.099	1349.16
459.472	1379.67
459.845	1388.93
460.218	1406.56
460.591	1406.79
460.964	1380.8
461.337	1432.32
461.71	1467.57
462.083	1507.8
462.456	1494.47
462.829	1477.97
463.201	1512.32
463.574	1506.67
463.947	1533.56
464.32	1571.07
464.692	1557.52
465.065	1575.59
465.438	1596.16
465.81	1623.5
466.183	1640
466.555	1651.07
466.928	1674.57
467.3	1694.46
467.672	1703.95
468.045	1726.55
468.417	1775.81
468.789	1771.75
469.161	1778.07
469.534	1775.36
469.906	1841.58
470.278	1839.99
470.65	1874.57
471.022	1907.79
471.394	1932.65
471.766	1925.42
472.138	1971.06
472.51	1976.04
472.882	2044.06
473.253	2035.7
473.625	2092.87
473.997	2100.33
474.369	2125.41
474.74	2148.91
475.112	2184.39
475.484	2197.72
475.855	2251.28
476.227	2258.97
476.598	2312.3
476.97	2321.79
477.341	2377.38
477.713	2424.84
478.084	2398.4
478.455	2490.37
478.827	2530.37
479.198	2575.12
479.569	2571.27
479.94	2632.97
480.311	2645.85
480.682	2710.93
481.053	2729.24
481.424	2785.05
481.795	2810.59
482.166	2871.61
482.537	2902.34
482.908	2968.1
483.279	2975.78
483.65	3030.47
484.021	3076.35
484.391	3112.28
484.762	3150.02
485.133	3150.69
485.503	3231.6
485.874	3281.31
486.244	3300.52
486.615	3319.73
486.985	3354.3
487.356	3420.97
487.726	3478.37
488.097	3521.76
488.467	3531.47
488.837	3600.4
489.207	3657.8
489.578	3742.77
489.948	3780.51
490.318	3777.57
490.688	3832.48
491.058	3851.01
491.428	3890.79
491.798	3925.59
492.168	4002.42
492.538	4018.47
492.908	4077.45
493.278	4152.48
493.648	4110.67
494.017	4177.79
494.387	4202.19
494.757	4274.28
495.126	4281.74
495.496	4292.58
495.866	4325.35
496.235	4388.85
496.605	4405.12
496.974	4449.19
497.344	4446.48
497.713	4513.14
498.082	4539.36
498.452	4639.02
498.821	4578.23
499.19	4627.27
499.559	4679.92
499.928	4696.42
500.298	4763.31
500.667	4787.94
501.036	4789.07
501.405	4807.6
501.774	4850.54
502.143	4876.75
502.512	4877.2
502.88	4945.9
503.249	4948.16
503.618	4985.22
503.987	4994.26
504.356	5040.36
504.724	5041.72
505.093	5059.34
505.462	5077.65
505.83	5183.63
506.199	5231.77
506.567	5226.12
506.936	5219.79
507.304	5264.31
507.672	5352.44
508.041	5299.56
508.409	5425.44
508.777	5457.53
509.145	5508.15
509.514	5512.67
509.882	5541.37
510.25	5570.97
510.618	5617.97
510.986	5628.37
511.354	5678.99
511.722	5728.25
512.09	5788.82
512.458	5796.95
512.826	5790.17
513.193	5871.98
513.561	5896.16
513.929	5956.95
514.297	6020.9
514.664	6003.73
515.032	6031.52
515.4	6123.27
515.767	6166.43
516.135	6184.96
516.502	6187.22
516.869	6238.75
517.237	6371.63
517.604	6293.21
517.972	6397.84
518.339	6374.56
518.706	6402.59
519.073	6452.53
519.44	6517.39
519.808	6616.82
520.175	6608.68
520.542	6676.03
520.909	6690.94
521.276	6724.39
521.643	6760.77
522.009	6892.97
522.376	6868.79
522.743	6932.29
523.11	7031.72
523.477	7125.96
523.843	7104.49
524.21	7219.51
524.577	7251.15
524.943	7342.22
525.31	7332.73
525.676	7416.12
526.043	7452.95
526.409	7471.71
526.776	7521.65
527.142	7596.68
527.508	7644.14
527.874	7730.46
528.241	7758.71
528.607	7739.5
528.973	7820.85
529.339	7809.1
529.705	7891.13
530.071	7931.13
530.437	7984.24
530.803	8076.44
531.169	8137.23
531.535	8109.66
531.901	8168.42
532.267	8251.8
532.632	8266.04
532.998	8275.08
533.364	8352.14
533.73	8306.26
534.095	8452.7
534.461	8453.38
534.826	8511.23
535.192	8545.81
535.557	8619.7
535.923	8589.2
536.288	8660.38
536.653	8721.62
537.019	8741.06
537.384	8704.67
537.749	8820.83
538.114	8796.2
538.479	8832.58
538.845	8854.95
539.21	8883.88
539.575	8941.95
539.94	8974.5
540.305	9002.07
540.67	9123.87
541.034	9028.05
541.399	9081.39
541.764	9153.25
542.129	9120.25
542.494	9156.41
542.858	9223.53
543.223	9230.08
543.587	9290.19
543.952	9313.47
544.316	9346.01
544.681	9328.38
545.045	9389.17
545.41	9424.88
545.774	9487.02
546.138	9511.66
546.503	9501.71
546.867	9449.06
547.231	9663.52
547.595	9626
547.959	9684.53
548.324	9704.87
548.688	9736.51
549.052	9746.9
549.416	9743.74
549.779	9806.79
550.143	9796.39
550.507	9893.57
550.871	9911.42
551.235	9957.29
551.599	9969.95
551.962	9944.64
552.326	10030.29
552.689	10074.13
553.053	10041.13
553.417	10126.1
553.78	10238.42
554.143	10250.62
554.507	10292.65
554.87	10312.54
555.234	10441.35
555.597	10347.34
555.96	10371.3
556.323	10474.57
556.686	10486.77
557.05	10583.72
557.413	10589.59
557.776	10664.85
558.139	10673.89
558.502	10685.64
558.865	10733.09
559.228	10878.4
559.59	10817.39
559.953	10859.19
560.316	11022.8
560.679	10955.91
561.041	11032.29
561.404	11124.27
561.767	11173.76
562.129	11135.79
562.492	11293.08
562.854	11334.89
563.217	11297.82
563.579	11344.83
563.941	11432.51
564.304	11511.38
564.666	11567.87
565.028	11532.39
565.39	11626.63
565.753	11691.94
566.115	11717.93
566.477	11820.97
566.839	11863.23
567.201	11888.32
567.563	11867.53
567.925	11923.8
568.287	11928.54
568.648	12000.86
569.01	12068.88
569.372	12126.05
569.734	12154.3
570.095	12166.95
570.457	12245.82
570.819	12259.83
571.18	12316.78
571.542	12451.92
571.903	12419.15
572.265	12456.89
572.626	12502.09
572.987	12539.37
573.349	12573.72
573.71	12553.61
574.071	12562.65
574.432	12779.37
574.794	12759.48
575.155	12779.37
575.516	12709.76
575.877	12733.72
576.238	12820.5
576.599	12817.78
576.96	12861.17
577.32	12883.32
577.681	12946.37
578.042	12908.18
578.403	12999.02
578.763	12966.26
579.124	12964
579.485	12966.03
579.845	12981.17
580.206	13055.52
580.566	13066.82
580.927	13072.69
581.287	13003.32
581.648	13061.39
582.008	13133.93
582.368	13121.05
582.728	13173.26
583.089	13173.26
583.449	13111.11
583.809	13193.37
584.169	13223.2
584.529	13129.19
584.889	13281.95
585.249	13112.47
585.609	13150.21
585.969	13185.23
586.329	13194.72
586.688	13200.6
587.048	13223.88
587.408	13162.63
587.768	13127.38
588.127	13144.33
588.487	13176.65
588.846	13171
589.206	13191.79
589.565	13201.5
589.925	13270.88
590.284	13246.02
590.643	13208.51
591.003	13326.25
591.362	13233.14
591.721	13327.83
592.08	13368.96
592.44	13280.15
592.799	13296.42
593.158	13276.08
593.517	13371.67
593.876	13317.66
594.235	13325.79
594.593	13437.2
594.952	13372.57
595.311	13240.82
595.67	13306.36
596.029	13435.62
596.387	13365.57
596.746	13383.42
597.104	13342.97
597.463	13377.32
597.822	13397.66
598.18	13354.27
598.538	13299.81
598.897	13428.62
599.255	13284.44
599.613	13564.43
599.972	13462.51
600.33	13456.41
600.688	13511.33
601.046	13544.77
601.404	13488.73
601.762	13547.71
602.12	13587.03
602.478	13558.56
602.836	13512.68
603.194	13478.11
603.552	13600.81
603.91	13527.14
604.268	13603.75
604.625	13595.84
604.983	13679.23
605.341	13551.32
605.698	13617.54
606.056	13664.32
606.413	13582.74
606.771	13660.93
607.128	13688.04
607.485	13696.18
607.843	13629.97
608.2	13845.78
608.557	13774.82
608.914	13702.28
609.272	13759.91
609.629	13852.11
609.986	13829.51
610.343	13754.03
610.7	13898.21
611.057	13943.18
611.414	13862.05
611.771	13830.64
612.127	13972.1
612.484	13894.82
612.841	13965.1
613.198	13940.92
613.554	13926
613.911	13981.6
614.267	13997.19
614.624	13953.12
614.98	14020.24
615.337	14104.53
615.693	14062.27
616.05	14038.09
616.406	14152.44
616.762	14038.09
617.118	14072.44
617.475	14079.67
617.831	13953.35
618.187	14051.65
618.543	14078.77
618.899	14149.05
619.255	14194.02
619.611	14176.17
619.967	14260.01
620.323	14225.43
620.678	14218.65
621.034	14207.13
621.39	14208.48
621.746	14107.92
622.101	14288.25
622.457	14177.75
622.812	14201.02
623.168	14238.99
623.523	14229.5
623.879	14213.23
624.234	14193.57
624.589	14268.82
624.945	14273.11
625.3	14260.01
625.655	14247.58
626.01	14189.05
626.365	14210.74
626.72	14338.2
627.075	14213
627.43	14255.26
627.785	14180.23
628.14	14226.79
628.495	14289.38
628.85	14180.91
629.205	14206.45
629.559	14216.17
629.914	14087.58
630.269	14224.75
630.623	14203.96
630.978	14121.7
631.332	14146.79
631.687	14201.7
632.041	14080.8
632.396	14132.1
632.75	14102.04
633.104	14133.91
633.459	14034.93
633.813	14086
634.167	14102.27
634.521	14097.07
634.875	14069.28
635.229	14044.64
635.583	13995.83
635.937	14021.14
636.291	14052.33
636.645	13927.13
636.999	13949.51
637.352	13951.77
637.706	13833.58
638.06	13899.11
638.413	13808.94
638.767	13759.91
639.121	13749.96
639.474	13800.36
639.828	13774.82
640.181	13802.39
640.534	13821.37
640.888	13725.56
641.241	13747.48
641.594	13792.45
641.947	13777.76
642.301	13720.13
642.654	13716.74
643.007	13709.74
643.36	13675.16
643.713	13654.6
644.066	13718.55
644.419	13559.01
644.771	13520.36
645.124	13330.99
645.477	13344.78
645.83	13213.03
646.182	13196.53
646.535	13119.25
646.888	13162.18
647.24	13183.88
647.593	13119.25
647.945	13182.07
648.298	13073.37
648.65	13058.68
649.002	13144.78
649.355	13160.37
649.707	13142.07
650.059	13095.97
650.411	13305.68
650.763	13365.34
651.115	13414.6
651.467	13443.08
651.819	13305.23
652.171	13300.48
652.523	13280.6
652.875	13345.91
653.227	13147.72
653.578	13241.73
653.93	13227.49
654.282	13236.3
654.633	13237.43
654.985	13188.85
655.337	13193.82
655.688	13171.67
656.039	13222.07
656.391	13128.28
656.742	13112.24
657.094	13160.15
657.445	13177.32
657.796	13128.74
658.147	13182.75
658.498	13223.65
658.849	13064.11
659.2	13133.26
659.551	13131.45
659.902	13103.2
660.253	13054.39
660.604	13092.58
660.955	13055.97
661.306	13060.94
661.656	13034.73
662.007	12974.62
662.358	13121.73
662.708	12978.91
663.059	13022.52
663.409	12949.53
663.76	13091.9
664.11	12994.95
664.461	12993.37
664.811	13018.01
665.161	12962.64
665.511	12995.63
665.862	12929.42
666.212	13008.29
666.562	13057.33
666.912	12988.4
667.262	13005.8
667.612	13011.45
667.962	12998.34
668.312	12941.17
668.662	12998.34
669.011	12949.08
669.361	12952.47
669.711	12874.73
670.06	12805.36
670.41	12818.91
670.76	12802.87
671.109	12926.26
671.459	12897.78
671.808	12929.87
672.157	12929.87
672.507	12824.79
672.856	12828.86
673.205	12864.34
673.554	12845.35
673.904	12759.48
674.253	12888.52
674.602	12815.3
674.951	12635.42
675.3	12590.67
675.649	12767.16
675.998	12719.71
676.346	12778.92
676.695	12830.44
677.044	12730.56
677.393	12739.37
677.741	12713.83
678.09	12727.62
678.438	12628.41
678.787	12733.04
679.135	12713.15
679.484	12623.89
679.832	12619.37
680.181	12624.12
680.529	12631.35
680.877	12504.12
681.225	12540.96
681.573	12699.14
681.922	12457.79
682.27	12408.08
682.618	12534.18
682.966	12471.58
683.314	12444.23
683.661	12467.74
684.009	12420.73
684.357	12353.16
684.705	12442.2
685.053	12361.98
685.4	12350.9
685.748	12243.56
686.095	12324.46
686.443	12310.91
686.79	12189.55
687.138	12213.51
687.485	12204.24
687.832	12159.72
688.18	12143.68
688.527	12127.18
688.874	12070.69
689.221	12048.99
689.568	12094.87
689.915	12064.81
690.262	12057.58
690.609	11977.35
690.956	11961.76
691.303	11997.02
691.65	11863.01
691.997	11803.8
692.344	11745.5
692.69	11818.04
693.037	11860.52
693.383	11668.21
693.73	11696.01
694.077	11665.5
694.423	11595.9
694.769	11615.33
695.116	11568.55
695.462	11512.51
695.808	11519.97
696.155	11615.33
696.501	11436.13
696.847	11425.05
697.193	11339.18
697.539	11489.91
697.885	11321.78
698.231	11276.58
698.577	11294.66
698.923	11216.47
699.269	11241.33
699.614	11152.52
699.96	11148
700.306	11159.3
700.651	11149.81
700.997	11058.28
701.342	11026.65
701.688	11085.63
702.033	10988.68
702.379	11027.32
702.724	10941.45
703.069	11038.17
703.415	10871.17
703.76	10851.96
704.105	10805.18
704.45	10833.2
704.795	10735.13
705.14	10706.2
705.485	10668.01
705.83	10656.26
706.175	10710.27
706.52	10624.85
706.865	10606.77
707.209	10623.27
707.554	10565.41
707.899	10545.98
708.243	10529.48
708.588	10569.03
708.932	10476.83
709.277	10505.98
709.621	10487.45
709.966	10422.59
710.31	10395.7
710.654	10304.63
710.998	10353.89
711.342	10312.54
711.687	10269.38
712.031	10262.37
712.375	10254.91
712.719	10188.25
713.063	10236.84
713.407	10262.6
713.75	10163.84
714.094	10181.7
714.438	10094.01
714.782	10181.7
715.125	10071.87
715.469	10163.62
715.812	10065.09
716.156	10034.58
716.499	10019.21
716.843	9986.67
717.186	9988.71
717.53	10012.43
717.873	9993.9
718.216	10004.07
718.559	9886.79
718.902	9870.07
719.246	9870.07
719.589	9852.21
719.932	9852.66
720.275	9829.61
720.617	9828.26
720.96	9795.49
721.303	9824.42
721.646	9805.89
721.989	9731.76
722.331	9790.29
722.674	9733.12
723.016	9776.96
723.359	9666.68
723.701	9629.39
724.044	9653.35
724.386	9593.69
724.729	9609.96
725.071	9631.88
725.413	9644.99
725.755	9611.99
726.097	9585.33
726.439	9589.85
726.782	9522.73
727.124	9502.84
727.465	9500.58
727.807	9488.38
728.149	9460.13
728.491	9468.04
728.833	9501.94
729.175	9415.61
729.516	9406.35
729.858	9420.59
730.199	9411.77
730.541	9376.07
730.882	9331.55
731.224	9384.43
731.565	9274.6
731.906	9317.99
732.248	9399.12
732.589	9270.53
732.93	9267.37
733.271	9260.59
733.612	9225.56
733.953	9294.26
734.294	9212.23
734.635	9181.95
734.976	9191.89
735.317	9145.11
735.658	9203.64
735.999	9183.98
736.339	9171.33
736.68	9172.91
737.021	9184.66
737.361	9094.49
737.702	9118.67
738.042	9084.1
738.383	9041.16
738.723	9010.65
739.063	8981.28
739.404	9008.17
739.744	8989.86
740.084	8972.91
740.424	8964.33
740.764	9009.3
741.104	9007.49
741.444	8978.11
741.784	8938.56
742.124	8935.17
742.464	8908.06
742.804	8883.2
743.143	8886.14
743.483	8867.83
743.823	8814.27
744.162	8840.04
744.502	8838
744.841	8783.54
745.181	8815.18
745.52	8795.97
745.86	8839.13
746.199	8756.87
746.538	8720.04
746.877	8740.6
747.216	8783.09
747.556	8750.32
747.895	8775.4
748.234	8718.01
748.573	8687.95
748.911	8686.14
749.25	8654.05
749.589	8627.61
749.928	8625.35
750.267	8629.65
750.605	8631
750.944	8585.13
751.283	8481.85
751.621	8525.92
751.96	8532.7
752.298	8493.83
752.636	8496.54
752.975	8396.21
753.313	8420.16
753.651	8463.55
753.989	8454.06
754.327	8382.65
754.666	8379.94
755.004	8351.91
755.342	8349.2
755.679	8358.69
756.017	8233.95
756.355	8229.2
756.693	8263.1
757.031	8260.39
757.368	8204.35
757.706	8153.95
758.044	8193.05
758.381	8203.22
758.719	8153.95
759.056	8141.07
759.394	8022.88
759.731	8031.7
760.068	8100.62
760.405	8011.13
760.743	7993.5
761.08	7989.89
