Data from black_metal_pc_casing_FLMS001491_00024.txt Node
Date: Wed Feb 08 14:32:14 GMT 2017
User: dcchb
Spectrometer: FLMS00149
Trigger mode: 0
Integration Time (sec): 2.000000E-2
Scans to average: 10
Electric dark correction enabled: true
Nonlinearity correction enabled: false
Boxcar width: 0
XAxis mode: Wavelengths
Number of Pixels in Spectrum: 2048
>>>>>Begin Spectral Data<<<<<
341.393	0.32
341.776	0.32
342.16	0.32
342.543	-55.49
342.927	-66.34
343.31	-77.19
343.693	-66.11
344.077	-68.15
344.46	-48.94
344.843	-50.97
345.226	-47.13
345.61	-24.76
345.993	-15.27
346.376	1.68
346.759	-2.39
347.142	23.38
347.525	51.17
347.908	55.46
348.291	60.44
348.674	88.01
349.057	120.77
349.44	125.07
349.823	155.58
350.206	158.74
350.588	178.17
350.971	203.71
351.354	211.62
351.737	237.61
352.119	226.31
352.502	278.96
352.884	283.71
353.267	241.22
353.65	294.1
354.032	284.61
354.414	316.02
354.797	307.44
355.179	302.69
355.562	306.31
355.944	326.19
356.326	327.77
356.709	339.07
357.091	333.88
357.473	332.52
357.855	333.65
358.238	340.65
358.62	332.29
359.002	327.55
359.384	323.93
359.766	344.04
360.148	339.3
360.53	299.75
360.912	331.84
361.294	323.71
361.676	319.64
362.057	328
362.439	316.93
362.821	313.54
363.203	340.2
363.584	311.96
363.966	312.63
364.348	300.43
364.729	324.84
365.111	299.53
365.493	314.21
365.874	300.43
366.256	318.73
366.637	305.63
367.019	295.46
367.4	315.8
367.781	301.11
368.163	319.64
368.544	316.93
368.925	319.41
369.306	320.09
369.688	310.83
370.069	307.44
370.45	320.77
370.831	298.4
371.212	330.71
371.593	297.04
371.974	319.19
372.355	306.53
372.736	298.85
373.117	310.83
373.498	325.97
373.879	313.54
374.26	316.02
374.641	308.57
375.021	313.31
375.402	321.9
375.783	327.1
376.163	331.39
376.544	344.27
376.925	353.31
377.305	337.04
377.686	306.98
378.066	332.07
378.447	331.16
378.827	334.33
379.208	331.16
379.588	326.64
379.968	329.36
380.349	316.93
380.729	327.55
381.109	329.13
381.489	328.9
381.87	331.39
382.25	351.5
382.63	334.33
383.01	344.27
383.39	345.17
383.77	355.8
384.15	354.89
384.53	373.87
384.91	348.79
385.29	346.76
385.67	336.59
386.049	353.76
386.429	351.28
386.809	352.18
387.189	364.61
387.568	364.38
387.948	358.96
388.328	369.35
388.707	382.69
389.087	378.39
389.466	367.32
389.846	370.48
390.225	367.77
390.605	390.37
390.984	377.49
391.363	381.78
391.743	361.67
392.122	358.73
392.501	368.68
392.881	385.85
393.26	368.22
393.639	386.98
394.018	394.44
394.397	382.01
394.776	394.21
395.155	396.25
395.534	404.61
395.913	395.57
396.292	401.9
396.671	412.52
397.05	405.74
397.429	412.29
397.808	393.53
398.186	409.13
398.565	403.03
398.944	412.29
399.323	429.69
399.701	418.62
400.08	436.47
400.458	438.73
400.837	427.21
401.215	445.06
401.594	431.27
401.972	445.96
402.351	428.56
402.729	434.66
403.107	439.41
403.486	462.01
403.864	464.27
404.242	453.42
404.62	452.29
404.999	461.78
405.377	455.45
405.755	434.44
406.133	422.23
406.511	466.3
406.889	455.45
407.267	463.14
407.645	462.23
408.023	482.57
408.401	475.34
408.779	478.28
409.156	489.13
409.534	489.58
409.912	483.93
410.29	495.68
410.667	490.26
411.045	490.71
411.422	514.21
411.8	504.94
412.178	502.46
412.555	518.5
412.933	506.07
413.31	498.84
413.687	525.06
414.065	525.06
414.442	532.74
414.819	542.46
415.197	543.14
415.574	540.42
415.951	547.43
416.328	564.6
416.705	566.41
417.082	566.19
417.46	566.64
417.837	567.99
418.214	575.22
418.591	583.81
418.967	559.86
419.344	567.77
419.721	575
420.098	579.74
420.475	594.43
420.852	583.81
421.228	608.22
421.605	594.43
421.982	613.19
422.358	606.18
422.735	623.81
423.111	608.22
423.488	616.58
423.864	618.84
424.241	643.25
424.617	650.25
424.994	645.28
425.37	652.51
425.746	632.62
426.123	646.18
426.499	666.75
426.875	660.42
427.251	674.88
427.627	671.95
428.003	657.93
428.379	683.02
428.756	705.62
429.132	701.32
429.507	723.24
429.883	716.92
430.259	723.24
430.635	708.1
431.011	722.34
431.387	743.13
431.763	753.98
432.138	743.58
432.514	737.93
432.89	757.82
433.265	782.23
433.641	768.67
434.016	800.98
434.392	810.93
434.767	818.83
435.143	807.99
435.518	817.48
435.894	822
436.269	839.17
436.644	837.14
437.02	832.39
437.395	839.85
437.77	862
438.145	883.24
438.52	876.69
438.895	872.17
439.271	871.04
439.646	899.51
440.021	892.96
440.395	907.19
440.77	905.61
441.145	913.3
441.52	931.37
441.895	909.45
442.27	906.06
442.645	921.43
443.019	957.36
443.394	957.59
443.769	939.51
444.143	944.71
444.518	939.74
444.892	962.56
445.267	940.64
445.641	974.76
446.016	977.7
446.39	988.32
446.764	969.79
447.139	996
447.513	1007.98
447.887	974.76
448.262	1003.91
448.636	984.48
449.01	1054.76
449.384	1026.51
449.758	1059.73
450.132	1057.47
450.506	1032.39
450.88	1038.26
451.254	1073.97
451.628	1076.23
452.002	1101.99
452.376	1109.22
452.75	1085.04
453.123	1113.74
453.497	1116
453.871	1139.28
454.244	1156.45
454.618	1168.66
454.992	1156.23
455.365	1165.04
455.739	1177.7
456.112	1209.56
456.486	1227.41
456.859	1241.65
457.232	1247.52
457.606	1231.25
457.979	1252.27
458.352	1284.58
458.725	1277.35
459.099	1278.03
459.472	1317.8
459.845	1332.04
460.218	1329.33
460.591	1326.62
460.964	1353.96
461.337	1337.92
461.71	1367.29
462.083	1413.4
462.456	1398.71
462.829	1430.34
463.201	1465.6
463.574	1442.77
463.947	1489.33
464.32	1509.21
464.692	1494.3
465.065	1507.63
465.438	1525.03
465.81	1562.77
466.183	1551.47
466.555	1590.57
466.928	1606.84
467.3	1609.55
467.672	1626.95
468.045	1651.13
468.417	1673.5
468.789	1645.03
469.161	1666.72
469.534	1709.88
469.906	1738.81
470.278	1787.4
470.65	1796.44
471.022	1798.24
471.394	1856.55
471.766	1850.67
472.138	1889.09
472.51	1904.91
472.882	1938.13
473.253	1937
473.625	1955.75
473.997	1991.23
474.369	2002.76
474.74	2050.21
475.112	2057.67
475.484	2085.24
475.855	2153.49
476.227	2155.07
476.598	2195.52
476.97	2235.52
477.341	2267.84
477.713	2275.97
478.084	2305.35
478.455	2361.62
478.827	2403.88
479.198	2449.07
479.569	2455.63
479.94	2495.85
480.311	2539.69
480.682	2556.42
481.053	2639.8
481.424	2648.16
481.795	2687.71
482.166	2717.09
482.537	2735.62
482.908	2787.82
483.279	2845.22
483.65	2874.83
484.021	2929.97
484.391	2939.46
484.762	3012
485.133	3028.04
485.503	3049.74
485.874	3091.54
486.244	3169.96
486.615	3160.02
486.985	3226.68
487.356	3284.53
487.726	3279.11
488.097	3386.45
488.467	3396.39
488.837	3425.09
489.207	3470.52
489.578	3530.85
489.948	3601.13
490.318	3656.5
490.688	3635.03
491.058	3691.98
491.428	3728.14
491.798	3776.72
492.168	3851.07
492.538	3874.12
492.908	3921.13
493.278	3931.29
493.648	3946.66
494.017	3985.98
494.387	4083.61
494.757	4065.98
495.126	4122.02
495.496	4142.14
495.866	4162.48
496.235	4242.93
496.605	4232.08
496.974	4254
497.344	4303.26
497.713	4283.15
498.082	4361.34
498.452	4392.53
498.821	4410.15
499.19	4410.38
499.559	4478.85
499.928	4479.76
500.298	4569.02
500.667	4564.05
501.036	4579.64
501.405	4650.15
501.774	4653.76
502.143	4690.37
502.512	4715.46
502.88	4752.06
503.249	4755.68
503.618	4772.18
503.987	4821.89
504.356	4866.19
504.724	4883.13
505.093	4895.11
505.462	4943.47
505.83	4972.17
506.199	4989.12
506.567	5071.83
506.936	5076.58
507.304	5182.56
507.672	5170.58
508.041	5182.34
508.409	5194.09
508.777	5304.59
509.145	5297.59
509.514	5298.26
509.882	5320.86
510.25	5344.14
510.618	5432.95
510.986	5423.91
511.354	5456
511.722	5557.69
512.09	5573.96
512.458	5568.09
512.826	5594.3
513.193	5613.06
513.561	5673.62
513.929	5747.74
514.297	5803.34
514.664	5793.84
515.032	5816.9
515.4	5877.91
515.767	5917.91
516.135	5960.17
516.502	5892.6
516.869	6047.62
517.237	6021.64
517.604	6067.51
517.972	6098.47
518.339	6207.39
518.706	6213.72
519.073	6247.17
519.44	6312.48
519.808	6333.94
520.175	6363.32
520.542	6407.16
520.909	6484
521.276	6428.63
521.643	6561.51
522.009	6584.56
522.376	6634.95
522.743	6695.06
523.11	6709.08
523.477	6811.22
523.843	6823.2
524.21	6902.52
524.577	6977.32
524.943	7010.54
525.31	7026.35
525.676	7075.17
526.043	7197.42
526.409	7195.39
526.776	7255.28
527.142	7269.96
527.508	7303.18
527.874	7407.36
528.241	7373.92
528.607	7429.28
528.973	7473.35
529.339	7548.15
529.705	7606
530.071	7656.17
530.437	7691.42
530.803	7677.86
531.169	7812.55
531.535	7759.44
531.901	7808.93
532.267	7911.3
532.632	7945.88
532.998	7993.79
533.364	7984.52
533.73	8060.23
534.095	8135.7
534.461	8157.62
534.826	8220.22
535.192	8212.99
535.557	8244.63
535.923	8316.49
536.288	8294.12
536.653	8280.11
537.019	8359.2
537.384	8349.03
537.749	8428.8
538.114	8402.82
538.479	8459.54
538.845	8533.66
539.21	8493.89
539.575	8521.68
539.94	8582.92
540.305	8697.95
540.67	8616.6
541.034	8705.86
541.399	8699.08
541.764	8690.04
542.129	8728.46
542.494	8785.86
542.858	8782.24
543.223	8839.64
543.587	8896.81
543.952	8865.85
544.316	8913.99
544.681	8982.69
545.045	8945.63
545.41	9071.27
545.774	9090.03
546.138	9104.27
546.503	9154.43
546.867	9120.31
547.231	9197.37
547.595	9229.01
547.959	9233.3
548.324	9271.95
548.688	9302.91
549.052	9329.57
549.416	9337.03
549.779	9313.98
550.143	9392.85
550.507	9503.58
550.871	9464.26
551.235	9519.4
551.599	9589.23
551.962	9558.72
552.326	9629.9
552.689	9680.75
553.053	9633.52
553.417	9712.39
553.78	9790.8
554.143	9683.01
554.507	9841.65
554.87	9845.72
555.234	9951.93
555.597	9916.67
555.96	9916.22
556.323	9936.56
556.686	10014.07
557.05	10026.5
557.413	10080.29
557.776	10109.89
558.139	10193.28
558.502	10246.38
558.865	10223.78
559.228	10330.67
559.59	10365.7
559.953	10346.95
560.316	10468.75
560.679	10454.74
561.041	10508.07
561.404	10551.01
561.767	10666.26
562.129	10599.82
562.492	10751.45
562.854	10718.69
563.217	10742.42
563.579	10728.4
563.941	10808.4
564.304	10859.47
564.666	11002.07
565.028	10931.34
565.39	10980.15
565.753	11115.74
566.115	11175.85
566.477	11190.99
566.839	11141.95
567.201	11301.04
567.563	11308.73
567.925	11430.08
568.287	11375.84
568.648	11415.84
569.01	11546.24
569.372	11576.29
569.734	11451.1
570.095	11541.94
570.457	11671.88
570.819	11701.94
571.18	11615.39
571.542	11764.31
571.903	11750.98
572.265	11819.9
572.626	11856.28
572.987	11814.93
573.349	11874.59
573.71	11865.32
574.071	11972.67
574.432	11998.65
574.794	12125.43
575.155	12069.39
575.516	12021.25
575.877	12120.23
576.238	12154.13
576.599	12169.72
576.96	12215.37
577.32	12139.67
577.681	12299.89
578.042	12308.7
578.403	12227.35
578.763	12342.37
579.124	12296.5
579.485	12299.66
579.845	12424.86
580.206	12418.53
580.566	12400.45
580.927	12427.12
581.287	12496.04
581.648	12415.59
582.008	12408.36
582.368	12438.42
582.728	12420.79
583.089	12501.92
583.449	12466.21
583.809	12516.15
584.169	12513.44
584.529	12440.68
584.889	12602.93
585.249	12441.81
585.609	12470.73
585.969	12517.96
586.329	12503.27
586.688	12520
587.048	12589.6
587.408	12414.24
587.768	12476.83
588.127	12506.89
588.487	12534.01
588.846	12590.95
589.206	12532.42
589.565	12414.91
589.925	12605.19
590.284	12545.98
590.643	12568.58
591.003	12556.6
591.362	12621.01
591.721	12535.36
592.08	12608.81
592.44	12563.61
592.799	12563.84
593.158	12603.84
593.517	12598.41
593.876	12608.58
594.235	12541.69
594.593	12574.23
594.952	12614.68
595.311	12548.02
595.67	12665.75
596.029	12694.45
596.387	12756.37
596.746	12746.2
597.104	12664.4
597.463	12716.37
597.822	12670.73
598.18	12723.83
598.538	12710.73
598.897	12788.69
599.255	12732.87
599.613	12864.17
599.972	12721.8
600.33	12770.38
600.688	12769.03
601.046	12809.25
601.404	12797.05
601.762	12869.37
602.12	12883.6
602.478	12828.01
602.836	12839.76
603.194	12794.79
603.552	12795.47
603.91	12726.32
604.268	12906.43
604.625	12788.92
604.983	12921.57
605.341	12853.77
605.698	12916.37
606.056	12925.63
606.413	12884.05
606.771	12925.86
607.128	13047.89
607.485	12910.27
607.843	12988.68
608.2	13017.61
608.557	13073.88
608.914	13043.15
609.272	13112.07
609.629	13083.14
609.986	13119.98
610.343	13133.54
610.7	13198.62
611.057	13097.38
611.414	13130.15
611.771	13083.14
612.127	13254.44
612.484	13232.97
612.841	13285.63
613.198	13161.11
613.554	13272.97
613.911	13272.97
614.267	13279.3
614.624	13266.64
614.98	13326.98
615.337	13327.66
615.693	13380.54
616.05	13329.92
616.406	13422.12
616.762	13326.53
617.118	13375.57
617.475	13309.35
617.831	13364.72
618.187	13338.73
618.543	13397.03
618.899	13431.61
619.255	13458.05
619.611	13447.65
619.967	13463.47
620.323	13576.01
620.678	13481.78
621.034	13375.79
621.39	13409.69
621.746	13385.96
622.101	13606.75
622.457	13428.9
622.812	13365.4
623.168	13541.44
623.523	13447.43
623.879	13477.03
624.234	13464.15
624.589	13460.31
624.945	13525.62
625.3	13537.6
625.655	13519.07
626.01	13573.75
626.365	13487.65
626.72	13551.83
627.075	13471.38
627.43	13503.02
627.785	13481.55
628.14	13481.78
628.495	13512.74
628.85	13460.99
629.205	13416.7
629.559	13468.67
629.914	13443.81
630.269	13503.7
630.623	13356.81
630.978	13417.37
631.332	13383.25
631.687	13529.69
632.041	13401.78
632.396	13342.35
632.75	13246.98
633.104	13274.55
633.459	13330.82
633.813	13281.33
634.167	13302.12
634.521	13243.37
634.875	13239.75
635.229	13277.49
635.583	13205.4
635.937	13264.83
636.291	13190.03
636.645	13219.41
636.999	13145.97
637.352	13256.93
637.706	13019.87
638.06	13144.39
638.413	13182.8
638.767	13072.52
639.121	13157.04
639.474	13040.43
639.828	13124.95
640.181	13104.16
640.534	13046.76
640.888	13022.36
641.241	12983.03
641.594	12998.63
641.947	13041.11
642.301	12989.81
642.654	13013.09
643.007	12971.28
643.36	12964.73
643.713	12947.78
644.066	12932.87
644.419	12897.39
644.771	12824.62
645.124	12711.63
645.477	12729.03
645.83	12559.09
646.182	12503.27
646.535	12467.34
646.888	12475.25
647.24	12423.73
647.593	12445.42
647.945	12484.74
648.298	12349.15
648.65	12347.34
649.002	12368.14
649.355	12325.42
649.707	12380.11
650.059	12474.35
650.411	12595.93
650.763	12553.67
651.115	12703.27
651.467	12660.78
651.819	12609.94
652.171	12623.5
652.523	12639.54
652.875	12581.69
653.227	12480
653.578	12578.53
653.93	12578.3
654.282	12522.26
654.633	12489.94
654.985	12543.05
655.337	12471.86
655.688	12539.88
656.039	12483.39
656.391	12382.15
656.742	12476.61
657.094	12442.48
657.445	12536.04
657.796	12441.35
658.147	12461.01
658.498	12388.93
658.849	12461.92
659.2	12373.78
659.551	12393.22
659.902	12400.9
660.253	12345.99
660.604	12414.46
660.955	12288.36
661.306	12329.72
661.656	12364.75
662.007	12354.35
662.358	12415.14
662.708	12363.16
663.059	12297.4
663.409	12305.99
663.76	12414.69
664.11	12363.84
664.461	12290.4
664.811	12301.02
665.161	12289.27
665.511	12250.17
665.862	12289.04
666.212	12286.56
666.562	12255.37
666.912	12247.01
667.262	12243.17
667.612	12214.47
667.962	12300.57
668.312	12328.36
668.662	12263.28
669.011	12241.13
669.361	12160.68
669.711	12237.07
670.06	12177.41
670.41	12265.31
670.76	12206.78
671.109	12198.87
671.459	12208.59
671.808	12186.45
672.157	12189.38
672.507	12093.11
672.856	12099.67
673.205	12184.64
673.554	12125.66
673.904	12108.26
674.253	12215.6
674.602	12109.61
674.951	12017.86
675.3	11938.54
675.649	12041.59
675.998	12041.59
676.346	12029.16
676.695	12078.65
677.044	11984.87
677.393	11998.43
677.741	12056.28
678.09	12023.51
678.438	11953.23
678.787	12030.74
679.135	11983.74
679.484	11952.33
679.832	11959.11
680.181	11863.06
680.529	11972.21
680.877	11927.69
681.225	11909.84
681.573	11930.63
681.922	11887.02
682.27	11849.05
682.618	11871.88
682.966	11823.52
683.314	11863.52
683.661	11850.86
684.009	11728.38
684.357	11663.97
684.705	11701.71
685.053	11708.72
685.4	11683.18
685.748	11597.31
686.095	11614.71
686.443	11516.41
686.79	11569.06
687.138	11550.08
687.485	11529.97
687.832	11519.8
688.18	11559.12
688.527	11535.84
688.874	11466.69
689.221	11366.58
689.568	11332.23
689.915	11361.83
690.262	11304.21
690.609	11359.12
690.956	11301.95
691.303	11279.58
691.65	11203.19
691.997	11151.22
692.344	11117.09
692.69	11156.64
693.037	11139.92
693.383	11016.76
693.73	11143.76
694.077	11061.5
694.423	11017.89
694.769	11011.79
695.116	10978.34
695.462	10962.07
695.808	10944.9
696.155	10985.57
696.501	10844.33
696.847	10822.41
697.193	10760.27
697.539	10822.41
697.885	10713.94
698.231	10714.62
698.577	10728.18
698.923	10676.65
699.269	10630.33
699.614	10566.83
699.96	10622.87
700.306	10555.3
700.651	10483.89
700.997	10494.74
701.342	10430.33
701.688	10496.32
702.033	10409.99
702.379	10433.27
702.724	10382.65
703.069	10387.85
703.415	10326.16
703.76	10256.1
704.105	10282.99
704.45	10285.48
704.795	10254.52
705.14	10189.89
705.485	10074.86
705.83	10048.2
706.175	10125.71
706.52	10070.57
706.865	10046.16
707.209	10091.13
707.554	10007.52
707.899	10032.38
708.243	9991.47
708.588	9888.88
708.932	9910.12
709.277	9919.16
709.621	9939.05
709.966	9812.95
710.31	9751.48
710.654	9782.44
710.998	9786.51
711.342	9818.6
711.687	9746.28
712.031	9742.22
712.375	9697.25
712.719	9715.1
713.063	9688.88
713.407	9676.45
713.75	9597.13
714.094	9591.94
714.438	9554.88
714.782	9604.59
715.125	9522.33
715.469	9573.86
715.812	9506.97
716.156	9496.12
716.499	9445.05
716.843	9555.55
717.186	9388.78
717.53	9461.09
717.873	9492.73
718.216	9452.28
718.559	9427.42
718.902	9382.23
719.246	9344.49
719.589	9331.83
719.932	9295.9
720.275	9253.19
720.617	9276.24
720.96	9297.93
721.303	9269.46
721.646	9234.43
721.989	9181.33
722.331	9234.88
722.674	9193.53
723.016	9207.54
723.359	9214.32
723.701	9180.42
724.044	9103.14
724.386	9060.43
724.729	9121.89
725.071	9100.2
725.413	9091.84
725.755	9037.83
726.097	8986.3
726.439	8971.84
726.782	8945.17
727.124	9056.36
727.465	8981.11
727.807	8945.4
728.149	8949.47
728.491	8990.37
728.833	8906.08
729.175	8837.61
729.516	8868.57
729.858	8899.07
730.199	8826.31
730.541	8862.24
730.882	8810.94
731.224	8905.18
731.565	8826.53
731.906	8871.5
732.248	8810.04
732.589	8738.63
732.93	8730.04
733.271	8763.26
733.612	8762.81
733.953	8743.15
734.294	8779.98
734.635	8729.36
734.976	8768.46
735.317	8678.06
735.658	8658.18
735.999	8711.96
736.339	8670.61
736.68	8613.43
737.021	8619.31
737.361	8553.77
737.702	8610.95
738.042	8591.96
738.383	8577.95
738.723	8570.49
739.063	8563.49
739.404	8549.93
739.744	8518.07
740.084	8488.24
740.424	8521.46
740.764	8521.68
741.104	8498.63
741.444	8434.68
741.784	8393.1
742.124	8412.53
742.464	8440.1
742.804	8398.75
743.143	8377.51
743.483	8380.44
743.823	8345.87
744.162	8331.18
744.502	8375.92
744.841	8340.44
745.181	8345.42
745.52	8317.39
745.86	8296.6
746.199	8365.3
746.538	8306.32
746.877	8261.58
747.216	8255.25
747.556	8265.87
747.895	8235.36
748.234	8189.26
748.573	8196.49
748.911	8231.29
749.25	8179.54
749.589	8169.15
749.928	8160.79
750.267	8153.33
750.605	8108.59
750.944	8110.17
751.283	8016.16
751.621	8055.25
751.96	8031.07
752.298	7983.17
752.636	8022.71
752.975	7980.68
753.313	7971.87
753.651	7923.96
753.989	7890.74
754.327	7901.13
754.666	7844.19
755.004	7896.61
755.342	7852.1
755.679	7828.14
756.017	7843.73
756.355	7851.64
756.693	7837.86
757.031	7775.49
757.368	7703.4
757.706	7733.23
758.044	7707.01
758.381	7752.21
758.719	7670.63
759.056	7671.31
759.394	7685.32
759.731	7563.29
760.068	7556.96
760.405	7583.85
760.743	7578.2
761.08	7597.87
761.417	7517.19
761.754	7520.13
