Data from black_plastic_tray_FLMS001491_026.txt Node
Date: Tue Feb 07 10:39:31 GMT 2017
User: dcchb
Spectrometer: FLMS00149
Trigger mode: 0
Integration Time (sec): 2.000000E-2
Scans to average: 10
Electric dark correction enabled: true
Nonlinearity correction enabled: false
Boxcar width: 0
XAxis mode: Wavelengths
Number of Pixels in Spectrum: 2048
>>>>>Begin Spectral Data<<<<<
341.393	-16.12
341.776	-16.12
342.16	-16.12
342.543	-61.54
342.927	-74.42
343.31	-78.71
343.693	-58.83
344.077	-69.67
344.46	-52.5
344.843	-43.01
345.226	-19.05
345.61	-36.91
345.993	-21.54
346.376	-11.14
346.759	21.4
347.142	42.87
347.525	29.99
347.908	38.35
348.291	67.95
348.674	89.19
349.057	101.62
349.44	124.9
349.823	155.63
350.206	167.61
350.588	187.27
350.971	189.53
351.354	225.46
351.737	235.86
352.119	257.55
352.502	252.8
352.884	261.62
353.267	276.98
353.65	295.06
354.032	270.88
354.414	293.03
354.797	264.1
355.179	293.71
355.562	279.47
355.944	298.23
356.326	312.01
356.709	329.19
357.091	339.36
357.473	318.57
357.855	324.89
358.238	337.55
358.62	341.62
359.002	312.69
359.384	346.13
359.766	304.55
360.148	312.46
360.53	316.08
360.912	351.33
361.294	312.24
361.676	328.96
362.057	325.12
362.439	301.16
362.821	321.5
363.203	316.53
363.584	310.66
363.966	335.74
364.348	330.09
364.729	339.13
365.111	319.02
365.493	314.05
365.874	302.52
366.256	318.34
366.637	313.14
367.019	318.57
367.4	318.57
367.781	314.5
368.163	309.98
368.544	303.88
368.925	307.04
369.306	320.6
369.688	314.72
370.069	287.61
370.45	313.14
370.831	301.62
371.212	314.27
371.593	315.85
371.974	300.49
372.355	307.94
372.736	333.93
373.117	314.5
373.498	313.14
373.879	318.34
374.26	324.89
374.641	290.32
375.021	309.53
375.402	304.33
375.783	315.18
376.163	304.1
376.544	319.92
376.925	322.41
377.305	343.2
377.686	322.41
378.066	329.86
378.447	326.25
378.827	335.97
379.208	315.85
379.588	347.49
379.968	341.16
380.349	331.9
380.729	333.93
381.109	325.8
381.489	338
381.87	333.25
382.25	345.01
382.63	340.71
383.01	359.92
383.39	358.56
383.77	345.46
384.15	353.37
384.53	367.38
384.91	343.65
385.29	346.13
385.67	382.97
386.049	364.89
386.429	368.06
386.809	375.29
387.189	363.76
387.568	354.72
387.948	371.45
388.328	372.12
388.707	387.94
389.087	374.16
389.466	379.13
389.846	372.12
390.225	363.54
390.605	382.97
390.984	375.06
391.363	375.06
391.743	380.94
392.122	372.57
392.501	393.37
392.881	400.6
393.26	399.01
393.639	402.18
394.018	400.6
394.397	419.81
394.776	403.76
395.155	404.89
395.534	415.51
395.913	415.06
396.292	407.83
396.671	414.16
397.05	435.4
397.429	411.67
397.808	420.94
398.186	418.9
398.565	436.75
398.944	433.14
399.323	426.81
399.701	422.29
400.08	424.55
400.458	431.78
400.837	430.88
401.215	450.31
401.594	440.37
401.972	445.79
402.351	441.95
402.729	450.54
403.107	448.51
403.486	476.53
403.864	453.93
404.242	479.01
404.62	463.42
404.999	473.14
405.377	461.39
405.755	481.05
406.133	477.2
406.511	488.28
406.889	484.21
407.267	502.97
407.645	497.77
408.023	485.34
408.401	480.82
408.779	510.65
409.156	504.77
409.534	522.4
409.912	520.59
410.29	519.69
410.667	516.3
411.045	518.11
411.422	527.37
411.8	547.49
412.178	537.99
412.555	547.94
412.933	558.11
413.31	575.51
413.687	573.93
414.065	570.31
414.442	573.93
414.819	580.03
415.197	567.15
415.574	569.86
415.951	585.22
416.328	600.82
416.705	592.91
417.082	586.81
417.46	588.39
417.837	602.85
418.214	612.34
418.591	597.43
418.967	610.76
419.344	619.8
419.721	635.39
420.098	628.61
420.475	637.65
420.852	634.26
421.228	633.36
421.605	646.69
421.982	655.96
422.358	648.95
422.735	675.39
423.111	677.65
423.488	678.33
423.864	672.45
424.241	677.2
424.617	692.11
424.994	667.93
425.37	688.5
425.746	697.99
426.123	729.85
426.499	707.03
426.875	717.65
427.251	719.23
427.627	708.84
428.003	742.06
428.379	768.04
428.756	746.35
429.132	744.09
429.507	768.95
429.883	806.69
430.259	779.57
430.635	782.51
431.011	796.07
431.387	795.84
431.763	805.78
432.138	824.54
432.514	836.97
432.89	817.76
433.265	820.7
433.641	872.22
434.016	868.16
434.392	879
434.767	871.32
435.143	866.12
435.518	890.98
435.894	900.7
436.269	897.08
436.644	926.01
437.02	942.28
437.395	925.78
437.77	955.84
438.145	942.05
438.52	939.79
438.895	963.07
439.271	951.09
439.646	997.42
440.021	1007.13
440.395	975.27
440.77	981.6
441.145	996.29
441.52	1056.4
441.895	1010.52
442.27	1045.1
442.645	1047.59
443.019	1058.88
443.394	1045.1
443.769	1055.95
444.143	1029.96
444.518	1041.03
444.892	1028.38
445.267	1052.11
445.641	1087.13
446.016	1076.06
446.39	1103.86
446.764	1118.09
447.139	1085.1
447.513	1130.75
447.887	1101.6
448.262	1095.72
448.636	1126.91
449.01	1118.09
449.384	1154.25
449.758	1129.17
450.132	1156.06
450.506	1170.97
450.88	1164.42
451.254	1169.62
451.628	1201.71
452.002	1191.99
452.376	1209.84
452.75	1221.14
453.123	1214.36
453.497	1236.96
453.871	1264.08
454.244	1275.15
454.618	1264.3
454.992	1265.66
455.365	1265.43
455.739	1309.95
456.112	1348.82
456.486	1355.6
456.859	1352.89
457.232	1400.34
457.606	1367.8
457.979	1417.29
458.352	1426.33
458.725	1438.54
459.099	1435.37
459.472	1474.69
459.845	1476.95
460.218	1495.03
460.591	1536.16
460.964	1515.37
461.337	1541.81
461.71	1582.26
462.083	1575.03
462.456	1577.52
462.829	1599.66
463.201	1606.44
463.574	1623.16
463.947	1631.07
464.32	1688.92
464.692	1695.93
465.065	1687.12
465.438	1707
465.81	1752.65
466.183	1754.23
466.555	1787.68
466.928	1801.24
467.3	1788.81
467.672	1828.13
468.045	1859.77
468.417	1857.51
468.789	1857.51
469.161	1926.66
469.534	1939.54
469.906	1976.37
470.278	1994.91
470.65	1997.17
471.022	2036.71
471.394	2054.79
471.766	2101.57
472.138	2123.49
472.51	2138.4
472.882	2174.34
473.253	2203.71
473.625	2225.86
473.997	2298.4
474.369	2295.24
474.74	2312.86
475.112	2331.85
475.484	2377.95
475.855	2436.7
476.227	2393.31
476.598	2481.22
476.97	2517.38
477.341	2553.99
477.713	2581.78
478.084	2611.84
478.455	2672.4
478.827	2702.91
479.198	2760.31
479.569	2770.25
479.94	2853.19
480.311	2891.15
480.682	2924.15
481.053	2966.63
481.424	3026.97
481.795	3068.1
482.166	3072.16
482.537	3156.23
482.908	3181.54
483.279	3242.33
483.65	3278.49
484.021	3317.36
484.391	3380.18
484.762	3427.41
485.133	3437.35
485.503	3509.67
485.874	3584.24
486.244	3598.48
486.615	3674.41
486.985	3670.34
487.356	3768.64
487.726	3783.11
488.097	3855.42
488.467	3854.52
488.837	3903.78
489.207	3969.99
489.578	4007.28
489.948	4084.57
490.318	4132.48
490.688	4141.74
491.058	4213.6
491.428	4250.89
491.798	4285.24
492.168	4338.12
492.538	4337.44
492.908	4402.75
493.278	4466.48
493.648	4496.31
494.017	4525.46
494.387	4596.19
494.757	4599.81
495.126	4640.94
495.496	4707.83
495.866	4724.55
496.235	4768.84
496.605	4801.61
496.974	4878.45
497.344	4934.71
497.713	4925.45
498.082	4935.84
498.452	5007.93
498.821	4984.43
499.19	5012
499.559	5071.89
499.928	5126.35
500.298	5180.13
500.667	5214.48
501.036	5195.72
501.405	5250.41
501.774	5322.5
502.143	5267.81
502.512	5329.05
502.88	5387.36
503.249	5381.26
503.618	5439.79
503.987	5470.07
504.356	5480.92
504.724	5534.02
505.093	5536.73
505.462	5560.46
505.83	5659.89
506.199	5698.31
506.567	5769.27
506.936	5736.95
507.304	5811.53
507.672	5863.05
508.041	5893.56
508.409	5898.98
508.777	5897.4
509.145	5998.64
509.514	6003.61
509.882	6065.31
510.25	6108.92
510.618	6171.07
510.986	6131.52
511.354	6241.57
511.722	6275.47
512.09	6390.27
512.458	6354.34
512.826	6435.24
513.193	6401.79
513.561	6431.85
513.929	6497.61
514.297	6494
514.664	6596.37
515.032	6635.91
515.4	6697.83
515.767	6756.14
516.135	6769.69
516.502	6710.04
516.869	6862.12
517.237	6868.22
517.604	6862.8
517.972	6951.39
518.339	7027.99
518.706	7059.86
519.073	7113.19
519.44	7198.16
519.808	7148.22
520.175	7227.54
520.542	7293.52
520.909	7312.05
521.276	7419.62
521.643	7441.77
522.009	7522.9
522.376	7572.61
522.743	7604.7
523.11	7671.59
523.477	7806.73
523.843	7816
524.21	7915.65
524.577	7928.31
524.943	7924.92
525.31	8015.99
525.676	8096.89
526.043	8060.51
526.409	8195.65
526.776	8277.23
527.142	8293.95
527.508	8361.52
527.874	8379.14
528.241	8477.45
528.607	8476.09
528.973	8501.63
529.339	8588.18
529.705	8683.99
530.071	8769.19
530.437	8798.57
530.803	8834.73
531.169	8903.2
531.535	8841.73
531.901	8953.59
532.267	8935.29
532.632	8998.56
532.998	8982.74
533.364	9110.65
533.73	9141.84
534.095	9180.7
534.461	9254.6
534.826	9376.86
535.192	9306.58
535.557	9375.5
535.923	9391.55
536.288	9507.02
536.653	9494.59
537.019	9444.2
537.384	9499.79
537.749	9578.89
538.114	9605.1
538.479	9669.96
538.845	9676.29
539.21	9697.98
539.575	9724.65
539.94	9721.26
540.305	9824.76
540.67	9836.51
541.034	9828.15
541.399	9892.1
541.764	9973.45
542.129	10043.51
542.494	9961.48
542.858	10014.58
543.223	9977.29
543.587	10036.5
543.952	10100.68
544.316	10157.18
544.681	10217.29
545.045	10199.66
545.41	10276.27
545.774	10283.73
546.138	10312.43
546.503	10315.82
546.867	10295.93
547.231	10436.04
547.595	10446.66
547.959	10492.99
548.324	10492.99
548.688	10554.91
549.052	10565.3
549.416	10534.79
549.779	10599.42
550.143	10634.45
550.507	10703.15
550.871	10734.11
551.235	10722.59
551.599	10831.28
551.962	10875.8
552.326	10940.66
552.689	10938.85
553.053	10968.23
553.417	10928.68
553.78	11074.44
554.143	11132.07
554.507	11170.94
554.87	11159.86
555.234	11306.98
555.597	11217.94
555.96	11295.45
556.323	11271.95
556.686	11404.6
557.05	11417.48
557.413	11446.18
557.776	11486.86
558.139	11544.48
558.502	11608.44
558.865	11621.32
559.228	11782.67
559.59	11768.89
559.953	11819.51
560.316	11908.54
560.679	11939.95
561.041	11960.52
561.404	12004.81
561.767	11999.16
562.129	11967.75
562.492	12179.5
562.854	12202.55
563.217	12235.54
563.579	12366.61
563.941	12414.07
564.304	12412.48
564.666	12425.82
565.028	12427.17
565.39	12468.98
565.753	12518.47
566.115	12625.13
566.477	12626.04
566.839	12647.05
567.201	12836.2
567.563	12866.03
567.925	12866.26
568.287	12977.44
568.648	12917.33
569.01	12945.13
569.372	13129.98
569.734	12970.44
570.095	13163.88
570.457	13089.53
570.819	13221.73
571.18	13175.4
571.542	13363.19
571.903	13383.53
572.265	13406.36
572.626	13376.3
572.987	13435.06
573.349	13426.02
573.71	13490.65
574.071	13449.52
574.432	13561.38
574.794	13673.92
575.155	13691.32
575.516	13633.92
575.877	13688.16
576.238	13604.32
576.599	13717.76
576.96	13781.94
577.32	13778.78
577.681	13796.4
578.042	13885.21
578.403	13946
578.763	14001.37
579.124	13898.1
579.485	13908.49
579.845	13999.56
580.206	13941.26
580.566	13993.69
580.927	14003.18
581.287	13964.08
581.648	13873.91
582.008	14018.09
582.368	13953.23
582.728	14127.69
583.089	14077.75
583.449	14145.32
583.809	14045.44
584.169	14073.46
584.529	14093.8
584.889	14223.06
585.249	14075.49
585.609	14033.01
585.969	14073.46
586.329	14071.42
586.688	14114.59
587.048	14111.87
587.408	14074.14
587.768	14057.41
588.127	14084.3
588.487	14071.2
588.846	14162.72
589.206	14050.41
589.565	13994.14
589.925	14155.49
590.284	14155.04
590.643	14055.83
591.003	14188.03
591.362	14198.88
591.721	14080.92
592.08	14078.88
592.44	14188.93
592.799	14259.44
593.158	14212.66
593.517	14130.41
593.876	14287.92
594.235	14205.21
594.593	14124.98
594.952	14190.29
595.311	14109.84
595.67	14215.83
596.029	14197.07
596.387	14164.3
596.746	14253.57
597.104	14212.44
597.463	14195.94
597.822	14150.07
598.18	14133.12
598.538	14285.43
598.897	14311.87
599.255	14160.01
599.613	14336.05
599.972	14281.81
600.33	14331.76
600.688	14310.97
601.046	14227.8
601.404	14453.56
601.762	14341.25
602.12	14340.57
602.478	14455.14
602.836	14419.44
603.194	14339.44
603.552	14399.1
603.91	14379.66
604.268	14359.1
604.625	14309.84
604.983	14434.35
605.341	14373.34
605.698	14449.72
606.056	14428.7
606.413	14422.6
606.771	14429.38
607.128	14473
607.485	14425.31
607.843	14471.64
608.2	14544.18
608.557	14556.61
608.914	14550.73
609.272	14595.03
609.629	14590.73
609.986	14556.16
610.343	14585.99
610.7	14729.03
611.057	14665.98
611.414	14681.13
611.771	14640.9
612.127	14729.71
612.484	14719.77
612.841	14666.66
613.198	14750.95
613.554	14746.43
613.911	14874.34
614.267	14776.94
614.624	14730.39
614.98	14754.8
615.337	14836.6
615.693	14789.37
616.05	14782.14
616.406	14818.3
616.762	14856.04
617.118	14894.68
617.475	14887.45
617.831	14941.46
618.187	14949.59
618.543	14904.85
618.899	14947.33
619.255	14968.35
619.611	14917.96
619.967	15008.35
620.323	15007.22
620.678	14974.45
621.034	14887.22
621.39	14915.24
621.746	14845.41
622.101	15065.07
622.457	14959.76
622.812	14979.2
623.168	15037.73
623.523	15008.12
623.879	15103.49
624.234	14955.69
624.589	15015.35
624.945	15035.01
625.3	15061.68
625.655	15000.21
626.01	14941.23
626.365	15023.49
626.72	15048.57
627.075	15001.79
627.43	15000.66
627.785	14968.58
628.14	15020.55
628.495	15079.31
628.85	15008.35
629.205	14892.42
629.559	14961.57
629.914	15015.81
630.269	15061
630.623	14920.22
630.978	14893.32
631.332	14941.01
631.687	14936.94
632.041	14881.57
632.396	14944.62
632.75	14828.24
633.104	14858.07
633.459	14778.52
633.813	14722.48
634.167	14813.78
634.521	14756.6
634.875	14757.96
635.229	14827.79
635.583	14664.85
635.937	14640.22
636.291	14560.9
636.645	14631.86
636.999	14507.8
637.352	14533.11
637.706	14453.11
638.06	14571.3
638.413	14465.31
638.767	14493.11
639.121	14503.73
639.474	14388.7
639.828	14544.63
640.181	14430.28
640.534	14435.48
640.888	14451.07
641.241	14344.18
641.594	14347.12
641.947	14422.15
642.301	14338.31
642.654	14354.58
643.007	14303.73
643.36	14280.68
643.713	14246.56
644.066	14333.79
644.419	14302.38
644.771	14114.81
645.124	14073.91
645.477	14022.84
645.83	13945.55
646.182	13776.74
646.535	13734.94
646.888	13715.5
647.24	13686.12
647.593	13843.18
647.945	13699.68
648.298	13626.92
648.65	13630.31
649.002	13604.32
649.355	13652.68
649.707	13642.51
650.059	13678.21
650.411	13848.83
650.763	13966.57
651.115	13999.79
651.467	13936.29
651.819	13983.52
652.171	13812
652.523	13830.75
652.875	13905.55
653.227	13884.99
653.578	13950.97
653.93	13860.58
654.282	13781.26
654.633	13715.73
654.985	13835.72
655.337	13727.7
655.688	13873.46
656.039	13823.29
656.391	13678.21
656.742	13677.31
657.094	13870.75
657.445	13823.29
657.796	13783.3
658.147	13729.29
658.498	13718.89
658.849	13746.69
659.2	13764.77
659.551	13746.69
659.902	13685.22
660.253	13668.04
660.604	13783.3
660.955	13652.23
661.306	13650.64
661.656	13585.33
662.007	13551.44
662.358	13561.83
662.708	13586.92
663.059	13549.63
663.409	13520.93
663.76	13618.78
664.11	13605.67
664.461	13655.62
664.811	13678.21
665.161	13657.42
665.511	13649.06
665.862	13618.55
666.212	13588.72
666.562	13667.37
666.912	13510.31
667.262	13518.44
667.612	13527.71
667.962	13542.17
668.312	13527.71
668.662	13581.49
669.011	13424.44
669.361	13401.61
669.711	13416.98
670.06	13436.64
670.41	13372.46
670.76	13412.01
671.109	13385.11
671.459	13390.09
671.808	13372.69
672.157	13376.3
672.507	13251.78
672.856	13389.18
673.205	13317.32
673.554	13333.36
673.904	13326.13
674.253	13313.25
674.602	13296.98
674.951	13149.19
675.3	13027.38
675.649	13331.78
675.998	13285.23
676.346	13294.04
676.695	13431.21
677.044	13223.54
677.393	13243.42
677.741	13280.94
678.09	13112.13
678.438	13158
678.787	13153.93
679.135	13082.52
679.484	13101.05
679.832	13104.9
680.181	12973.6
680.529	13009.08
680.877	13103.54
681.225	12974.73
681.573	13121.62
681.922	12922.98
682.27	12950.78
682.618	12923.21
682.966	12898.8
683.314	12959.14
683.661	13021.96
684.009	12883.66
684.357	12787.84
684.705	12864.45
685.053	12843.89
685.4	12789.42
685.748	12779.03
686.095	12758.01
686.443	12622.87
686.79	12593.27
687.138	12643.66
687.485	12642.08
687.832	12634.17
688.18	12611.8
688.527	12526.61
688.874	12485.25
689.221	12500.84
689.568	12403.45
689.915	12525.25
690.262	12360.73
690.609	12351.02
690.956	12410.22
691.303	12290
691.65	12164.81
691.997	12218.37
692.344	12171.13
692.69	12147.41
693.037	12177.01
693.383	12095.43
693.73	12118.48
694.077	12063.57
694.423	12109.44
694.769	12051.14
695.116	11998.48
695.462	11986.28
695.808	11899.05
696.155	11931.59
696.501	11821.77
696.847	11888.2
697.193	11720.98
697.539	11854.76
697.885	11772.73
698.231	11693.63
698.577	11663.13
698.923	11684.37
699.269	11544.94
699.614	11496.8
699.96	11469.01
700.306	11529.34
700.651	11345.39
700.997	11420.87
701.342	11372.29
701.688	11387.65
702.033	11325.73
702.379	11341.55
702.724	11342.91
703.069	11350.37
703.415	11197.6
703.76	11167.09
704.105	11196.02
704.45	11172.97
704.795	11112.86
705.14	11102.91
705.485	11085.06
705.83	10996.93
706.175	10937.04
706.52	10981.11
706.865	10932.52
707.209	10945.63
707.554	10925.07
707.899	10925.97
708.243	10887.78
708.588	10841.45
708.932	10794
709.277	10759.65
709.621	10833.32
709.966	10722.36
710.31	10785.63
710.654	10688.24
710.998	10726.2
711.342	10685.3
711.687	10598.29
712.031	10628.12
712.375	10557.84
712.719	10545.64
713.063	10515.59
713.407	10603.72
713.75	10434.91
714.094	10467.45
714.438	10382.71
714.782	10463.84
715.125	10307.45
715.469	10399.43
715.812	10339.09
716.156	10153.79
716.499	10262.71
716.843	10304.07
717.186	10218.87
717.53	10286.89
717.873	10289.15
718.216	10251.86
718.559	10186.55
718.902	10209.83
719.246	10187.68
719.589	10216.16
719.932	10193.11
720.275	10142.26
720.617	10054.81
720.96	10072.21
721.303	10116.73
721.646	10071.75
721.989	10022.72
722.331	10137.97
722.674	9981.14
723.016	9984.75
723.359	9996.05
723.701	10019.55
724.044	9986.33
724.386	9868.82
724.729	9964.41
725.071	9852.55
725.413	9772.33
725.755	9817.07
726.097	9781.82
726.439	9738.2
726.782	9807.13
727.124	9794.7
727.465	9712.67
727.807	9702.95
728.149	9675.16
728.491	9730.97
728.833	9738.2
729.175	9639.22
729.516	9655.95
729.858	9590.19
730.199	9682.16
730.541	9603.74
730.882	9521.94
731.224	9586.12
731.565	9519
731.906	9525.33
732.248	9486.69
732.589	9441.49
732.93	9523.97
733.271	9492.11
733.612	9468.83
733.953	9467.93
734.294	9434.26
734.635	9375.73
734.976	9420.02
735.317	9377.99
735.658	9399.68
735.999	9344.99
736.339	9278.78
736.68	9304.32
737.021	9339.34
737.361	9231.1
737.702	9252.12
738.042	9246.01
738.383	9242.62
738.723	9211.66
739.063	9192.23
739.404	9199.46
739.744	9188.39
740.084	9113.14
740.424	9172.12
740.764	9167.15
741.104	9211.66
741.444	9141.38
741.784	9117.43
742.124	9060.03
742.464	9041.05
742.804	9058
743.143	9008.05
743.483	9040.6
743.823	8975.74
744.162	9011.67
744.502	8983.42
744.841	8999.69
745.181	9053.93
745.52	9059.35
745.86	9039.01
746.199	8935.51
746.538	8956.98
746.877	8912.46
747.216	8879.47
747.556	8889.64
747.895	8869.98
748.234	8771.22
748.573	8824.56
748.911	8825.01
749.25	8868.4
749.589	8713.15
749.928	8799.25
750.267	8771.45
750.605	8752.69
750.944	8727.38
751.283	8631.57
751.621	8740.94
751.96	8702.3
752.298	8643.32
752.636	8655.3
752.975	8684.9
753.313	8547.05
753.651	8646.03
753.989	8545.92
754.327	8544.79
754.666	8536.2
755.004	8577.78
755.342	8548.41
755.679	8476.32
756.017	8441.74
756.355	8457.33
756.693	8339.6
757.031	8387.73
757.368	8335.53
757.706	8401.74
758.044	8276.55
758.381	8311.58
758.719	8272.48
759.056	8236.1
759.394	8272.93
759.731	8183.67
760.068	8194.29
