Data from black_metal_pc_casing_FLMS001491_00080.txt Node
Date: Wed Feb 08 14:33:30 GMT 2017
User: dcchb
Spectrometer: FLMS00149
Trigger mode: 0
Integration Time (sec): 2.000000E-2
Scans to average: 10
Electric dark correction enabled: true
Nonlinearity correction enabled: false
Boxcar width: 0
XAxis mode: Wavelengths
Number of Pixels in Spectrum: 2048
>>>>>Begin Spectral Data<<<<<
341.393	-18.36
341.776	-18.36
342.16	-18.36
342.543	-57.46
342.927	-65.82
343.31	-61.52
343.693	-71.69
344.077	-58.59
344.46	-73.5
344.843	-58.81
345.226	-46.38
345.61	-40.96
345.993	-27.63
346.376	0.62
346.759	10.34
347.142	23.45
347.525	38.13
347.908	75.65
348.291	91.69
348.674	91.47
349.057	107.74
349.44	129.43
349.823	143.67
350.206	166.49
350.588	178.7
350.971	202.88
351.354	219.6
351.737	237.45
352.119	237.68
352.502	248.75
352.884	263.89
353.267	273.38
353.65	282.2
354.032	285.36
354.414	288.98
354.797	312.48
355.179	298.24
355.562	321.07
355.944	321.97
356.326	315.87
356.709	320.61
357.091	318.81
357.473	324.23
357.855	331.23
358.238	341.18
358.62	341.4
359.002	339.14
359.384	346.83
359.766	336.66
360.148	350.89
360.53	322.42
360.912	329.43
361.294	336.66
361.676	330.56
362.057	333.72
362.439	321.74
362.821	323.1
363.203	325.58
363.584	318.58
363.966	326.94
364.348	321.52
364.729	295.3
365.111	332.82
365.493	312.03
365.874	307.73
366.256	301.86
366.637	317.68
367.019	320.61
367.4	317.68
367.781	304.12
368.163	300.5
368.544	312.48
368.925	308.86
369.306	323.78
369.688	309.54
370.069	313.83
370.45	346.15
370.831	317.45
371.212	313.16
371.593	307.05
371.974	288.98
372.355	323.55
372.736	329.65
373.117	323.1
373.498	335.53
373.879	313.83
374.26	319.48
374.641	310.9
375.021	323.55
375.402	323.1
375.783	310.67
376.163	325.58
376.544	320.39
376.925	333.95
377.305	339.82
377.686	324
378.066	329.43
378.447	342.31
378.827	341.63
379.208	327.62
379.588	330.78
379.968	349.31
380.349	339.6
380.729	345.47
381.109	347.73
381.489	341.18
381.87	332.59
382.25	357.22
382.63	368.52
383.01	359.26
383.39	368.3
383.77	341.4
384.15	361.97
384.53	360.61
384.91	342.76
385.29	354.74
385.67	368.75
386.049	374.4
386.429	368.97
386.809	366.49
387.189	380.72
387.568	373.49
387.948	365.58
388.328	388.41
388.707	390.89
389.087	399.03
389.466	389.09
389.846	390.89
390.225	386.37
390.605	395.19
390.984	396.77
391.363	381.18
391.743	411.23
392.122	397.45
392.501	406.49
392.881	379.82
393.26	420.05
393.639	403.32
394.018	417.79
394.397	417.33
394.776	394.51
395.155	411.46
395.534	410.1
395.913	419.59
396.292	430.89
396.671	427.73
397.05	416.66
397.429	438.12
397.808	422.53
398.186	432.7
398.565	446.71
398.944	430.67
399.323	447.16
399.701	431.12
400.08	453.72
400.458	432.93
400.837	470.67
401.215	458.24
401.594	448.07
401.972	467.05
402.351	462.53
402.729	453.04
403.107	470.89
403.486	463.43
403.864	451.68
404.242	460.04
404.62	488.74
404.999	475.64
405.377	485.35
405.755	483.32
406.133	482.19
406.511	482.19
406.889	482.87
407.267	521.74
407.645	512.25
408.023	514.28
408.401	514.05
408.779	520.61
409.156	526.03
409.534	508.63
409.912	514.73
410.29	529.87
410.667	549.53
411.045	553.38
411.422	526.48
411.8	548.86
412.178	541.17
412.555	571.91
412.933	533.94
413.31	582.75
413.687	582.3
414.065	566.93
414.442	568.52
414.819	585.01
415.197	579.14
415.574	592.92
415.951	598.35
416.328	595.63
416.705	599.02
417.082	606.48
417.46	584.56
417.837	626.59
418.214	603.09
418.591	620.49
418.967	638.12
419.344	621.85
419.721	654.84
420.098	635.41
420.475	635.18
420.852	648.06
421.228	629.31
421.605	659.14
421.982	661.85
422.358	675.41
422.735	672.47
423.111	683.99
423.488	689.42
423.864	709.3
424.241	694.61
424.617	698.68
424.994	681.51
425.37	716.99
425.746	702.75
426.123	713.37
426.499	697.33
426.875	721.28
427.251	741.17
427.627	747.95
428.003	741.84
428.379	745.46
428.756	750.21
429.132	785.23
429.507	775.06
429.883	784.33
430.259	798.11
430.635	798.34
431.011	797.66
431.387	808.74
431.763	814.61
432.138	824.33
432.514	826.59
432.89	841.05
433.265	848.73
433.641	866.81
434.016	872.46
434.392	898
434.767	885.34
435.143	906.36
435.518	893.03
435.894	901.84
436.269	933.25
436.644	915.63
437.02	900.48
437.395	912.69
437.77	940.48
438.145	975.74
438.52	932.8
438.895	953.14
439.271	956.75
439.646	995.17
440.021	997.66
440.395	988.17
440.77	1006.47
441.145	992.46
441.52	1018
441.895	985.91
442.27	1036.75
442.645	1003.98
443.019	1031.55
443.394	1028.39
443.769	1077.66
444.143	1060.71
444.518	1057.54
444.892	1060.03
445.267	1041.5
445.641	1050.31
446.016	1062.74
446.39	1077.43
446.764	1088.28
447.139	1123.3
447.513	1117.43
447.887	1111.55
448.262	1138.9
448.636	1113.13
449.01	1139.57
449.384	1115.85
449.758	1171.21
450.132	1185
450.506	1161.72
450.88	1167.6
451.254	1179.8
451.628	1153.81
452.002	1229.97
452.376	1218.44
452.75	1221.61
453.123	1229.97
453.497	1226.58
453.871	1237.65
454.244	1240.36
454.618	1307.03
454.992	1290.08
455.365	1289.18
455.739	1302.51
456.112	1340.02
456.486	1347.7
456.859	1345.44
457.232	1392.22
457.606	1380.92
457.979	1382.96
458.352	1411.43
458.725	1396.97
459.099	1421.15
459.472	1449.85
459.845	1473.8
460.218	1472.22
460.591	1498.66
460.964	1483.97
461.337	1554.93
461.71	1564.87
462.083	1567.81
462.456	1571.2
462.829	1598.77
463.201	1613.69
463.574	1611.43
463.947	1634.02
464.32	1646
464.692	1666.34
465.065	1702.72
465.438	1710.18
465.81	1751.76
466.183	1743.4
466.555	1762.16
466.928	1794.7
467.3	1773.46
467.672	1786.34
468.045	1826.56
468.417	1856.39
468.789	1868.14
469.161	1910.85
469.534	1921.47
469.906	1975.48
470.278	1934.81
470.65	1978.42
471.022	2009.16
471.394	2029.27
471.766	2074.69
472.138	2088.25
472.51	2169.83
472.882	2128.7
473.253	2180.9
473.625	2217.06
473.997	2257.74
474.369	2266.78
474.74	2288.92
475.112	2341.35
475.484	2358.3
475.855	2387.23
476.227	2431.07
476.598	2488.47
476.97	2477.39
477.341	2534.11
477.713	2562.36
478.084	2563.04
478.455	2617.05
478.827	2642.81
479.198	2745.18
479.569	2733.66
479.94	2806.42
480.311	2815.01
480.682	2882.81
481.053	2943.59
481.424	2975.91
481.795	3004.16
482.166	3042.12
482.537	3094.33
482.908	3123.7
483.279	3141.33
483.65	3224.27
484.021	3247.77
484.391	3353.08
484.762	3346.52
485.133	3391.04
485.503	3447.76
485.874	3483.24
486.244	3533.41
486.615	3636.01
486.985	3577.48
487.356	3676.91
487.726	3712.16
488.097	3776.79
488.467	3814.08
488.837	3853.18
489.207	3889.56
489.578	3976.56
489.948	4003.45
490.318	4044.81
490.688	4063.34
491.058	4123.22
491.428	4172.04
491.798	4216.78
492.168	4303.11
492.538	4351.47
492.908	4353.28
493.278	4370.68
493.648	4408.87
494.017	4499.26
494.387	4542.87
494.757	4548.98
495.126	4637.11
495.496	4594.17
495.866	4653.83
496.235	4693.38
496.605	4776.77
496.974	4786.94
497.344	4774.96
497.713	4844.11
498.082	4887.95
498.452	4944.9
498.821	4990.32
499.19	4944.22
499.559	4990.09
499.928	5052.92
500.298	5107.83
500.667	5137.21
501.036	5137.66
501.405	5166.81
501.774	5187.83
502.143	5248.85
502.512	5295.85
502.88	5324.32
503.249	5343.76
503.618	5368.39
503.987	5411.55
504.356	5433.02
504.724	5474.83
505.093	5480.93
505.462	5494.49
505.83	5579.23
506.199	5584.43
506.567	5629.4
506.936	5683.41
507.304	5733.58
507.672	5718.44
508.041	5759.79
508.409	5822.84
508.777	5859.68
509.145	5925.21
509.514	5961.82
509.882	5924.08
510.25	6008.6
510.618	6085.66
510.986	6079.11
511.354	6085.43
511.722	6138.99
512.09	6193.9
512.458	6238.88
512.826	6316.61
513.193	6307.12
513.561	6311.42
513.929	6415.37
514.297	6511.18
514.664	6524.52
515.032	6552.09
515.4	6590.28
515.767	6583.5
516.135	6680.67
516.502	6627.11
516.869	6723.38
517.237	6791.86
517.604	6766.77
517.972	6867.11
518.339	6902.36
518.706	6945.52
519.073	7015.58
519.44	7049.93
519.808	7054.45
520.175	7076.59
520.542	7181.68
520.909	7199.98
521.276	7278.4
521.643	7290.6
522.009	7416.25
522.376	7419.41
522.743	7472.29
523.11	7558.16
523.477	7626.64
523.843	7704.6
524.21	7726.75
524.577	7802.22
524.943	7854.2
525.31	7919.96
525.676	7997.25
526.043	8014.87
526.409	8072.05
526.776	8164.7
527.142	8141.2
527.508	8223.46
527.874	8280.63
528.241	8310.46
528.607	8360.4
528.973	8461.87
529.339	8419.16
529.705	8534.63
530.071	8627.51
530.437	8619.15
530.803	8681.52
531.169	8712.71
531.535	8735.53
531.901	8729.88
532.267	8801.29
532.632	8863.44
532.998	8946.83
533.364	8933.49
533.73	9023.44
534.095	9070.44
534.461	9078.57
534.826	9141.4
535.192	9239.93
535.557	9287.61
535.923	9243.54
536.288	9296.42
536.653	9344.56
537.019	9332.35
537.384	9432.46
537.749	9449.19
538.114	9456.87
538.479	9471.78
538.845	9587.26
539.21	9588.84
539.575	9561.73
539.94	9655.51
540.305	9671.33
540.67	9690.31
541.034	9707.94
541.399	9776.86
541.764	9755.39
542.129	9864.99
542.494	9874.71
542.858	9911.77
543.223	9929.85
543.587	9993.35
543.952	9909.06
544.316	10068.61
544.681	10030.19
545.045	10133.46
545.41	10154.93
545.774	10149.73
546.138	10194.93
546.503	10271.99
546.867	10234.25
547.231	10305.89
547.595	10379.56
547.959	10413
548.324	10367.58
548.688	10401.93
549.052	10419.33
549.416	10527.58
549.779	10490.74
550.143	10510.85
550.507	10696.61
550.871	10650.28
551.235	10655.93
551.599	10776.61
551.962	10756.04
552.326	10819.77
552.689	10923.5
553.053	10891.41
553.417	10866.78
553.78	11114.23
554.143	10941.35
554.507	11029.48
554.87	11080.56
555.234	11195.13
555.597	11156.03
555.96	11247.11
556.323	11228.57
556.686	11269.7
557.05	11321.91
557.413	11332.3
557.776	11390.83
558.139	11483.94
558.502	11519.41
558.865	11516.25
559.228	11644.16
559.59	11709.69
559.953	11727.32
560.316	11820.2
560.679	11789.24
561.041	11862.68
561.404	11869.24
561.767	12018.84
562.129	11972.06
562.492	12071.26
562.854	12163.69
563.217	12087.76
563.579	12157.59
563.941	12257.7
564.304	12309.9
564.666	12340.86
565.028	12453.4
565.39	12554.19
565.753	12619.95
566.115	12574.53
566.477	12606.84
566.839	12736.78
567.201	12754.86
567.563	12796.67
567.925	12870.34
568.287	12915.31
568.648	12871.7
569.01	13027.85
569.372	13044.12
569.734	12998.7
570.095	13092.71
570.457	13098.58
570.819	13174.29
571.18	13168.18
571.542	13274.85
571.903	13278.46
572.265	13340.16
572.626	13457.22
572.987	13439.36
573.349	13452.7
573.71	13508.29
574.071	13619.7
574.432	13567.95
574.794	13571.56
575.155	13665.8
575.516	13628.29
575.877	13694.05
576.238	13708.74
576.599	13795.06
576.96	13808.85
577.32	13793.71
577.681	13869.18
578.042	13859.92
578.403	13861.27
578.763	13908.28
579.124	13925.23
579.485	13924.32
579.845	14046.58
580.206	14002.29
580.566	14057.43
580.927	14021.04
581.287	14103.3
581.648	14045.9
582.008	14155.28
582.368	14127.26
582.728	14151.66
583.089	14096.07
583.449	14161.38
583.809	14082.06
584.169	14167.48
584.529	14115.5
584.889	14166.58
585.249	14121.83
585.609	14067.6
585.969	14156.63
586.329	14111.21
586.688	14262.17
587.048	14144.66
587.408	14175.84
587.768	14197.76
588.127	14255.84
588.487	14171.32
588.846	14286.57
589.206	14172.23
589.565	14177.65
589.925	14250.19
590.284	14139.46
590.643	14175.62
591.003	14274.14
591.362	14269.85
591.721	14232.11
592.08	14256.97
592.44	14303.75
592.799	14313.92
593.158	14257.42
593.517	14308.04
593.876	14245.22
594.235	14305.56
594.593	14325.89
594.952	14224.2
595.311	14245.22
595.67	14270.3
596.029	14370.41
596.387	14364.99
596.746	14421.71
597.104	14301.26
597.463	14374.93
597.822	14378.77
598.18	14381.94
598.538	14338.1
598.897	14438.21
599.255	14386.91
599.613	14620.35
599.972	14459.9
600.33	14510.52
600.688	14506
601.046	14491.09
601.404	14535.61
601.762	14430.98
602.12	14599.79
602.478	14577.19
602.836	14589.84
603.194	14549.17
603.552	14463.97
603.91	14504.87
604.268	14593.68
604.625	14584.64
604.983	14606.34
605.341	14592.33
605.698	14630.75
606.056	14729.05
606.413	14628.26
606.771	14760.69
607.128	14717.07
607.485	14686.56
607.843	14660.12
608.2	14741.7
608.557	14825.54
608.914	14751.87
609.272	14847.91
609.629	14846.78
609.986	14941.47
610.343	14751.42
610.7	14916.61
611.057	14945.77
611.414	14839.78
611.771	14873.45
612.127	14983.5
612.484	14941.7
612.841	14978.08
613.198	14896.5
613.554	14983.73
613.911	15028.25
614.267	15011.98
614.624	15025.99
614.98	15143.5
615.337	15121.13
615.693	15131.3
616.05	15142.6
616.406	15170.62
616.762	15125.2
617.118	15098.98
617.475	15249.03
617.831	15087
618.187	15180.11
618.543	15187.34
618.899	15299.43
619.255	15227.11
619.611	15214.46
619.967	15270.95
620.323	15340.56
620.678	15295.36
621.034	15213.55
621.39	15223.27
621.746	15215.59
622.101	15337.85
622.457	15148.92
622.812	15281.12
623.168	15264.17
623.523	15264.4
623.879	15420.78
624.234	15292.2
624.589	15402.48
624.945	15312.54
625.3	15330.61
625.655	15251.97
626.01	15275.02
626.365	15346.43
626.72	15291.07
627.075	15377.84
627.43	15240.45
627.785	15205.19
628.14	15359.31
628.495	15261.24
628.85	15228.7
629.205	15133.56
629.559	15307.11
629.914	15152.31
630.269	15251.97
630.623	15124.29
630.978	15165.87
631.332	15218.98
631.687	15243.61
632.041	15195.7
632.396	15195.48
632.75	15041.36
633.104	15065.54
633.459	15026.67
633.813	15121.13
634.167	15044.29
634.521	15039.55
634.875	15082.48
635.229	15038.19
635.583	14945.77
635.937	15021.24
636.291	15058.76
636.645	14937.63
636.999	14965.43
637.352	15026.89
637.706	14896.05
638.06	15000
638.413	14849.27
638.767	14889.27
639.121	14728.37
639.474	14751.87
639.828	14802.04
640.181	14817.86
640.534	14739.44
640.888	14790.74
641.241	14733.12
641.594	14818.08
641.947	14684.53
642.301	14769.72
642.654	14731.31
643.007	14723.17
643.36	14718.2
643.713	14575.83
644.066	14787.8
644.419	14529.05
644.771	14411.32
645.124	14368.83
645.477	14313.47
645.83	14240.92
646.182	14220.36
646.535	14103.75
646.888	14172
647.24	14028.95
647.593	14095.17
647.945	14130.42
648.298	14030.31
648.65	13975.4
649.002	13980.59
649.355	13984.89
649.707	13927.94
650.059	14034.15
650.411	14100.59
650.763	14161.38
651.115	14384.42
651.467	14277.31
651.819	14377.19
652.171	14265.33
652.523	14313.92
652.875	14197.31
653.227	14143.07
653.578	14198.67
653.93	14171.77
654.282	14182.85
654.633	14041.16
654.985	14169.97
655.337	14111.89
655.688	14069.4
656.039	14251.09
656.391	14030.54
656.742	14162.28
657.094	14099.91
657.445	14104.21
657.796	14056.52
658.147	13967.71
658.498	14044.77
658.849	14100.14
659.2	14022.85
659.551	14039.35
659.902	14083.19
660.253	14024.21
660.604	14026.02
660.955	13981.04
661.306	13955.51
661.656	13906.92
662.007	13997.09
662.358	14042.96
662.708	13989.41
663.059	14012
663.409	13925
663.76	14000.03
664.11	13922.97
664.461	13945.79
664.811	13944.44
665.161	13919.35
665.511	13866.47
665.862	13915.06
666.212	13929.07
666.562	13953.47
666.912	13940.14
667.262	13870.09
667.612	13839.13
667.962	13905.79
668.312	13879.35
668.662	13924.32
669.011	13844.33
669.361	13933.59
669.711	13889.3
670.06	13896.08
670.41	13841.84
670.76	13781.95
671.109	13850.2
671.459	13828.28
671.808	13783.31
672.157	13763.88
672.507	13692.01
672.856	13803.65
673.205	13754.61
673.554	13809.98
673.904	13746.02
674.253	13870.77
674.602	13758.68
674.951	13573.37
675.3	13482.3
675.649	13690.21
675.998	13698.57
676.346	13737.89
676.695	13715.52
677.044	13611.11
677.393	13666.48
677.741	13571.11
678.09	13595.74
678.438	13563.88
678.787	13551.68
679.135	13599.81
679.484	13452.47
679.832	13486.82
680.181	13409.76
680.529	13504
680.877	13474.39
681.225	13483.66
681.573	13556.2
681.922	13444.79
682.27	13488.4
682.618	13466.03
682.966	13419.7
683.314	13377.67
683.661	13230.1
684.009	13242.99
684.357	13268.52
684.705	13329.31
685.053	13275.75
685.4	13202.31
685.748	13168.18
686.095	13069.2
686.443	13101.75
686.79	13132.03
687.138	13114.63
687.485	13045.93
687.832	13052.26
688.18	13092.25
688.527	12935.65
688.874	12931.58
689.221	12964.57
689.568	12932.48
689.915	12837.12
690.262	12860.62
690.609	12823.11
690.956	12752.38
691.303	12850.45
691.65	12693.62
691.997	12706.95
692.344	12541.08
692.69	12587.18
693.037	12606.62
693.383	12546.51
693.73	12569.33
694.077	12430.8
694.423	12492.04
694.769	12471.03
695.116	12429.9
695.462	12396.45
695.808	12317.36
696.155	12407.98
696.501	12253.41
696.847	12195.78
697.193	12176.12
697.539	12227.64
697.885	12112.85
698.231	12054.99
698.577	12087.31
698.923	12052.96
699.269	12040.3
699.614	11858.61
699.96	11921.44
700.306	11879.86
700.651	11922.12
700.997	11824.49
701.342	11816.13
701.688	11778.84
702.033	11727.09
702.379	11760.09
702.724	11715.12
703.069	11822.01
703.415	11630.15
703.76	11666.08
704.105	11607.32
704.45	11591.28
704.795	11494.56
705.14	11438.51
705.485	11443.26
705.83	11462.47
706.175	11426.99
706.52	11375.46
706.865	11370.49
707.209	11452.07
707.554	11298.86
707.899	11318.29
708.243	11325.3
708.588	11243.04
708.932	11186.32
709.277	11239.2
709.621	11206.88
709.966	11116.71
710.31	11122.59
710.654	11022.25
710.998	11077.62
711.342	11082.14
711.687	11027.68
712.031	10984.29
712.375	10938.41
712.719	10977.28
713.063	10926.66
713.407	10988.81
713.75	10924.85
714.094	10864.97
714.438	10775.71
714.782	10846.21
715.125	10825.42
715.469	10760.79
715.812	10754.46
716.156	10722.83
716.499	10693.22
716.843	10759.43
717.186	10588.82
717.53	10623.62
717.873	10692.77
718.216	10687.12
718.559	10666.33
718.902	10498.65
719.246	10526.9
719.589	10549.27
719.932	10440.57
720.275	10539.33
720.617	10491.87
720.96	10450.29
721.303	10425.21
721.646	10451.19
721.989	10381.14
722.331	10391.31
722.674	10413.23
723.016	10381.82
723.359	10364.19
723.701	10359.67
724.044	10328.26
724.386	10356.51
724.729	10377.07
725.071	10335.26
725.413	10288.49
725.755	10218.43
726.097	10203.52
726.439	10142.05
726.782	10196.29
727.124	10192.9
727.465	10142.95
727.807	10101.82
728.149	10084.88
728.491	10095.05
728.833	10115.38
729.175	10076.74
729.516	10117.42
729.858	10013.92
730.199	10052.79
730.541	10009.62
730.882	9947.48
731.224	10109.96
731.565	9878.55
731.906	9947.93
732.248	9988.83
732.589	9924.65
732.93	9870.87
733.271	9925.33
733.612	9904.32
733.953	9892.34
734.294	9812.34
734.635	9791.32
734.976	9932.56
735.317	9772.57
735.658	9816.41
735.999	9831.78
736.339	9773.92
736.68	9776.64
737.021	9766.01
737.361	9678.79
737.702	9726.47
738.042	9720.37
738.383	9722.85
738.723	9725.79
739.063	9662.74
739.404	9660.48
739.744	9674.04
740.084	9580.03
740.424	9577.09
740.764	9561.73
741.104	9591.33
741.444	9548.62
741.784	9471.56
742.124	9511.33
742.464	9540.71
742.804	9482.41
743.143	9424.33
743.483	9487.38
743.823	9415.97
744.162	9420.49
744.502	9460.03
744.841	9425.68
745.181	9411.45
745.52	9393.37
745.86	9404.44
746.199	9349.75
746.538	9325.35
746.877	9374.84
747.216	9360.6
747.556	9274.95
747.895	9299.13
748.234	9361.96
748.573	9246.48
748.911	9176.88
749.25	9221.4
749.589	9232.92
749.928	9282.41
750.267	9158.35
750.605	9209.64
750.944	9154.28
751.283	9107.27
751.621	9169.42
751.96	9098.01
752.298	9034.73
752.636	9077.44
752.975	9008.07
753.313	9001.06
753.651	9028.41
753.989	8985.92
754.327	8938.47
754.666	8907.05
755.004	8893.72
755.342	8889.2
755.679	8924.68
756.017	8810.79
756.355	8942.08
756.693	8882.65
757.031	8789.54
757.368	8811.01
757.706	8774.4
758.044	8718.36
758.381	8777.11
758.719	8657.57
759.056	8761.97
759.394	8627.06
