Data from black_metal_pc_casing_FLMS001491_00009.txt Node
Date: Wed Feb 08 14:31:51 GMT 2017
User: dcchb
Spectrometer: FLMS00149
Trigger mode: 0
Integration Time (sec): 2.000000E-2
Scans to average: 10
Electric dark correction enabled: true
Nonlinearity correction enabled: false
Boxcar width: 0
XAxis mode: Wavelengths
Number of Pixels in Spectrum: 2048
>>>>>Begin Spectral Data<<<<<
341.393	-16.86
341.776	-16.86
342.16	-16.86
342.543	-43.08
342.927	-56.86
343.31	-83.98
343.693	-73.36
344.077	-65.22
344.46	-49.86
344.843	-44.21
345.226	-37.88
345.61	-47.6
345.993	-31.55
346.376	-7.15
346.759	26.75
347.142	39.41
347.525	52.74
347.908	64.94
348.291	54.55
348.674	100.2
349.057	102.23
349.44	116.69
349.823	135.67
350.206	156.69
350.588	158.5
350.971	199.85
351.354	221.55
351.737	212.73
352.119	244.15
352.502	245.28
352.884	238.95
353.267	271.04
353.65	299.96
354.032	280.76
354.414	301.09
354.797	303.81
355.179	302.68
355.562	306.52
355.944	301.77
356.326	297.25
356.709	320.75
357.091	302.45
357.473	324.37
357.855	332.05
358.238	327.99
358.62	343.8
359.002	318.49
359.384	314.65
359.766	328.44
360.148	308.78
360.53	312.39
360.912	323.01
361.294	319.62
361.676	306.74
362.057	311.49
362.439	334.77
362.821	308.55
363.203	317.59
363.584	306.29
363.966	302.45
364.348	289.12
364.729	306.52
365.111	297.25
365.493	308.1
365.874	298.83
366.256	330.92
366.637	316.69
367.019	302
367.4	297.03
367.781	294.99
368.163	293.86
368.544	309
368.925	316.46
369.306	314.2
369.688	305.16
370.069	299.96
370.45	313.52
370.831	317.59
371.212	306.52
371.593	296.8
371.974	302.45
372.355	311.26
372.736	306.52
373.117	313.52
373.498	300.87
373.879	319.17
374.26	300.19
374.641	302.22
375.021	305.16
375.402	284.82
375.783	314.2
376.163	324.6
376.544	317.82
376.925	318.95
377.305	294.99
377.686	325.05
378.066	337.93
378.447	329.79
378.827	315.78
379.208	341.54
379.588	326.18
379.968	339.96
380.349	315.33
380.729	290.47
381.109	318.95
381.489	316.23
381.87	339.06
382.25	325.05
382.63	350.13
383.01	363.47
383.39	342.22
383.77	339.06
384.15	313.52
384.53	339.96
384.91	332.73
385.29	348.32
385.67	348.32
386.049	340.41
386.429	375.22
386.809	366.18
387.189	340.64
387.568	330.92
387.948	334.54
388.328	337.93
388.707	361.21
389.087	358.95
389.466	372.73
389.846	349
390.225	372.28
390.605	357.82
390.984	344.48
391.363	372.5
391.743	353.07
392.122	386.29
392.501	356.01
392.881	389.23
393.26	382.9
393.639	385.16
394.018	356.91
394.397	382.45
394.776	398.94
395.155	387.65
395.534	375.44
395.913	383.8
396.292	401.88
396.671	406.4
397.05	416.8
397.429	404.59
397.808	401.88
398.186	402.33
398.565	379.06
398.944	403.24
399.323	395.1
399.701	409.34
400.08	381.32
400.458	393.07
400.837	405.27
401.215	416.8
401.594	415.67
401.972	431.03
402.351	416.12
402.729	403.69
403.107	423.8
403.486	429.9
403.864	443.69
404.242	436.46
404.62	447.3
404.999	432.84
405.377	418.6
405.755	447.53
406.133	425.38
406.511	445.72
406.889	434.2
407.267	443.91
407.645	445.72
408.023	473.29
408.401	456.8
408.779	458.15
409.156	460.64
409.534	467.19
409.912	475.1
410.29	453.41
410.667	494.31
411.045	492.05
411.422	472.39
411.8	486.63
412.178	494.76
412.555	488.21
412.933	514.2
413.31	509.9
413.687	498.83
414.065	519.62
414.442	512.39
414.819	506.74
415.197	520.52
415.574	527.08
415.951	510.81
416.328	518.72
416.705	531.82
417.082	530.92
417.46	518.04
417.837	543.35
418.214	547.19
418.591	551.93
418.967	541.99
419.344	558.49
419.721	547.41
420.098	564.59
420.475	555.1
420.852	553.74
421.228	570.47
421.605	580.18
421.982	600.07
422.358	566.4
422.735	595.55
423.111	596.45
423.488	590.35
423.864	583.35
424.241	595.78
424.617	598.49
424.994	588.77
425.37	600.97
425.746	614.98
426.123	628.54
426.499	590.8
426.875	634.64
427.251	631.03
427.627	638.26
428.003	638.26
428.379	645.04
428.756	660.63
429.132	648.66
429.507	664.47
429.883	679.16
430.259	679.16
430.635	669.9
431.011	676.68
431.387	693.4
431.763	715.09
432.138	706.05
432.514	718.03
432.89	719.61
433.265	747.18
433.641	723.91
434.016	766.39
434.392	725.49
434.767	754.64
435.143	732.49
435.518	751.48
435.894	765.26
436.269	786.05
436.644	790.57
437.02	788.54
437.395	791.02
437.77	799.16
438.145	800.97
438.52	788.09
438.895	805.04
439.271	817.01
439.646	844.58
440.021	855.2
440.395	835.77
440.77	822.44
441.145	856.11
441.52	861.08
441.895	871.47
442.27	864.47
442.645	869.21
443.019	888.65
443.394	880.06
443.769	892.04
444.143	863.11
444.518	913.28
444.892	881.64
445.267	899.27
445.641	909.44
446.016	940.62
446.39	903.79
446.764	914.19
447.139	940.17
447.513	922.77
447.887	955.99
448.262	945.14
448.636	925.94
449.01	931.13
449.384	944.24
449.758	959.61
450.132	956.67
450.506	999.61
450.88	963.68
451.254	978.14
451.628	991.92
452.002	1002.32
452.376	1015.43
452.75	1026.72
453.123	1038.25
453.497	1048.64
453.871	1028.98
454.244	1083.22
454.618	1064.92
454.992	1076.44
455.365	1074.86
455.739	1107.4
456.112	1114.41
456.486	1093.84
456.859	1103.33
457.232	1132.26
457.606	1149.43
457.979	1146.04
458.352	1177.68
458.725	1191.24
459.099	1196.89
459.472	1218.81
459.845	1229.43
460.218	1236.89
460.591	1225.14
460.964	1254.74
461.337	1267.62
461.71	1303.33
462.083	1278.7
462.456	1306.04
462.829	1293.16
463.201	1320.28
463.574	1342.2
463.947	1355.98
464.32	1371.35
464.692	1395.3
465.065	1383.55
465.438	1405.92
465.81	1430.56
466.183	1424.91
466.555	1469.65
466.928	1476.43
467.3	1471.46
467.672	1501.51
468.045	1505.81
468.417	1527.05
468.789	1515.53
469.161	1571.12
469.534	1573.38
469.906	1595.97
470.278	1652.92
470.65	1639.36
471.022	1624.67
471.394	1709.87
471.766	1687.27
472.138	1710.32
472.51	1736.54
472.882	1765.24
473.253	1797.1
473.625	1812.69
473.997	1842.3
474.369	1842.97
474.74	1881.17
475.112	1897.66
475.484	1921.84
475.855	1962.75
476.227	1985.57
476.598	2017.21
476.97	2050.2
477.341	2064.44
477.713	2081.61
478.084	2068.73
478.455	2165
478.827	2180.82
479.198	2252.91
479.569	2257.2
479.94	2266.69
480.311	2313.47
480.682	2350.31
481.053	2406.58
481.424	2426.24
481.795	2458.1
482.166	2482.05
482.537	2529.51
482.908	2544.42
483.279	2574.25
483.65	2642.05
484.021	2669.62
484.391	2657.42
484.762	2701.03
485.133	2761.37
485.503	2764.08
485.874	2858.99
486.244	2887.24
486.615	2917.75
486.985	2926.34
487.356	2981.48
487.726	2983.51
488.097	3040
488.467	3054.47
488.837	3129.49
489.207	3165.88
489.578	3205.2
489.948	3260.79
490.318	3268.25
490.688	3277.06
491.058	3348.7
491.428	3396.61
491.798	3419.66
492.168	3463.04
492.538	3487
492.908	3545.98
493.278	3541.69
493.648	3592.76
494.017	3596.6
494.387	3625.07
494.757	3690.38
495.126	3746.88
495.496	3740.78
495.866	3727.67
496.235	3823.94
496.605	3845.63
496.974	3853.99
497.344	3870.49
497.713	3899.42
498.082	3910.72
498.452	3990.71
498.821	4050.6
499.19	3992.52
499.559	4039.3
499.928	4043.59
500.298	4086.3
500.667	4115.23
501.036	4157.04
501.405	4223.25
501.774	4187.09
502.143	4225.51
502.512	4205.4
502.88	4275.68
503.249	4259.18
503.618	4306.86
503.987	4312.97
504.356	4387.54
504.724	4379.18
505.093	4411.95
505.462	4406.3
505.83	4544.15
506.199	4515.45
506.567	4547.76
506.936	4567.87
507.304	4608.78
507.672	4660.08
508.041	4621.66
508.409	4669.11
508.777	4730.81
509.145	4752.5
509.514	4813.52
509.882	4814.87
510.25	4798.38
510.618	4832.73
510.986	4870.01
511.354	4908.66
511.722	4961.99
512.09	5084.92
512.458	5026.85
512.826	5129.89
513.193	5106.84
513.561	5106.17
513.929	5160.18
514.297	5204.92
514.664	5251.47
515.032	5266.61
515.4	5321.3
515.767	5295.54
516.135	5378.93
516.502	5352.03
516.869	5472.71
517.237	5450.11
517.604	5489.88
517.972	5505.02
518.339	5583.44
518.706	5570.79
519.073	5594.06
519.44	5669.99
519.808	5689.43
520.175	5762.87
520.542	5780.05
520.909	5792.7
521.276	5799.48
521.643	5888.07
522.009	5966.93
522.376	5961.51
522.743	6011.9
523.11	6080.6
523.477	6171.45
523.843	6121.28
524.21	6215.29
524.577	6292.8
524.943	6279.24
525.31	6297.09
525.676	6404.44
526.043	6439.46
526.409	6458.22
526.776	6487.15
527.142	6567.6
527.508	6567.82
527.874	6633.36
528.241	6645.56
528.607	6725.56
528.973	6767.14
529.339	6745.22
529.705	6766.01
530.071	6883.29
530.437	6864.31
530.803	6925.1
531.169	6973.23
531.535	6942.95
531.901	7060.69
532.267	7064.76
532.632	7089.39
532.998	7133.23
533.364	7201.25
533.73	7199.44
534.095	7274.24
534.461	7307.69
534.826	7402.38
535.192	7347.91
535.557	7466.33
535.923	7387.69
536.288	7461.36
536.653	7503.16
537.019	7444.86
537.384	7519.66
537.749	7495.25
538.114	7585.42
538.479	7554.46
538.845	7662.71
539.21	7658.19
539.575	7656.83
539.94	7744.06
540.305	7758.3
540.67	7814.57
541.034	7713.1
541.399	7782.48
541.764	7811.18
542.129	7887.79
542.494	7881.23
542.858	7884.17
543.223	7923.94
543.587	8012.53
543.952	7979.31
544.316	8017.5
544.681	8013.66
545.045	8082.81
545.41	8128.68
545.774	8170.04
546.138	8125.97
546.503	8166.2
546.867	8175.46
547.231	8258.85
547.595	8268.12
547.959	8292.3
548.324	8354.89
548.688	8339.3
549.052	8324.61
549.416	8404.61
549.779	8371.62
550.143	8435.8
550.507	8471.05
550.871	8468.79
551.235	8508.34
551.599	8530.71
551.962	8645.51
552.326	8629.46
552.689	8702.91
553.053	8599.63
553.417	8657.94
553.78	8783.13
554.143	8801.89
554.507	8797.14
554.87	8837.37
555.234	8989.68
555.597	8874.2
555.96	8909.46
556.323	8960.08
556.686	8944.26
557.05	9001.2
557.413	9016.8
557.776	9102.9
558.139	9165.49
558.502	9222.44
558.865	9174.98
559.228	9322.1
559.59	9239.16
559.953	9272.61
560.316	9405.49
560.679	9379.27
561.041	9445.94
561.404	9491.81
561.767	9542.21
562.129	9560.74
562.492	9598.48
562.854	9588.08
563.217	9641.64
563.579	9740.62
563.941	9731.13
564.304	9854.51
564.666	9825.82
565.028	9795.99
565.39	9938.13
565.753	10021.06
566.115	10040.27
566.477	10053.15
566.839	10063.77
567.201	10138.8
567.563	10139.48
567.925	10220.38
568.287	10227.84
568.648	10313.49
569.01	10300.6
569.372	10413.37
569.734	10375.63
570.095	10499.24
570.457	10524.1
570.819	10512.58
571.18	10573.82
571.542	10506.25
571.903	10589.41
572.265	10629.41
572.626	10641.84
572.987	10703.76
573.349	10753.25
573.71	10777.65
574.071	10761.61
574.432	10933.81
574.794	10858.33
575.155	10809.74
575.516	10809.29
575.877	10938.78
576.238	10882.96
576.599	10948.5
576.96	10902.17
577.32	10895.84
577.681	11065.33
578.042	11052.22
578.403	11027.14
578.763	11051.55
579.124	11011.77
579.485	11152.11
579.845	11107.14
580.206	11132.45
580.566	11127.02
580.927	11162.28
581.287	11190.75
581.648	11171.09
582.008	11198.43
582.368	11160.24
582.728	11138.1
583.089	11225.33
583.449	11223.97
583.809	11197.08
584.169	11202.95
584.529	11242.28
584.889	11304.19
585.249	11228.94
585.609	11153.01
585.969	11310.52
586.329	11270.97
586.688	11251.09
587.048	11291.77
587.408	11216.74
587.768	11314.14
588.127	11260.81
588.487	11248.83
588.846	11321.82
589.206	11186.23
589.565	11232.11
589.925	11282.95
590.284	11333.8
590.643	11251.77
591.003	11360.01
591.362	11295.61
591.721	11331.99
592.08	11289.05
592.44	11305.78
592.799	11354.36
593.158	11265.1
593.517	11312.56
593.876	11427.13
594.235	11286.57
594.593	11370.18
594.952	11425.55
595.311	11403.63
595.67	11404.3
596.029	11422.38
596.387	11451.08
596.746	11466.9
597.104	11425.32
597.463	11411.31
597.822	11478.2
598.18	11376.73
598.538	11346.45
598.897	11444.98
599.255	11375.83
599.613	11506
599.972	11437.52
600.33	11554.81
600.688	11432.33
601.046	11536.96
601.404	11522.49
601.762	11583.06
602.12	11590.51
602.478	11613.56
602.836	11495.6
603.194	11526.11
603.552	11569.72
603.91	11561.81
604.268	11630.97
604.625	11581.02
604.983	11619.44
605.341	11644.52
605.698	11681.13
606.056	11712.55
606.413	11605.43
606.771	11709.38
607.128	11687.01
607.485	11641.36
607.843	11673.22
608.2	11709.61
608.557	11737.63
608.914	11773.33
609.272	11753.67
609.629	11865.76
609.986	11923.16
610.343	11874.35
610.7	11848.13
611.057	11818.76
611.414	11844.29
611.771	11836.38
612.127	11862.37
612.484	11893.11
612.841	11995.93
613.198	11941.92
613.554	11915.03
613.911	12055.81
614.267	11889.72
614.624	11906.89
614.98	11958.41
615.337	12064.17
615.693	12008.36
616.05	11938.75
616.406	12052.65
616.762	12009.03
617.118	11980.56
617.475	12066.89
617.831	11991.41
618.187	11963.61
618.543	11983.5
618.899	12171.52
619.255	12129.71
619.611	12099.2
619.967	12135.58
620.323	12115.47
620.678	12138.07
621.034	12022.37
621.39	12127
621.746	12075.93
622.101	12229.14
622.457	12092.42
622.812	12172.19
623.168	12223.49
623.523	12149.14
623.879	12243.6
624.234	12079.09
624.589	12190.72
624.945	12127
625.3	12167.22
625.655	12194.57
626.01	12163.61
626.365	12191.18
626.72	12166.32
627.075	12175.36
627.43	12161.57
627.785	12127.45
628.14	12117.96
628.495	12196.37
628.85	12111.63
629.205	12068.69
629.559	12192.08
629.914	12162.25
630.269	12084.06
630.623	12079.32
630.978	12062.82
631.332	12064.17
631.687	12108.24
632.041	12056.94
632.396	12200.44
632.75	12042.25
633.104	12064.85
633.459	11941.24
633.813	11990.28
634.167	11988.47
634.521	11899.21
634.875	12064.85
635.229	12004.06
635.583	11964.06
635.937	11937.4
636.291	11970.39
636.645	11879.55
636.999	11809.04
637.352	11882.03
637.706	11797.29
638.06	11803.62
638.413	11840
638.767	11758.42
639.121	11835.71
639.474	11766.1
639.828	11813.56
640.181	11743.73
640.534	11782.83
640.888	11756.84
641.241	11679.1
641.594	11719.1
641.947	11711.42
642.301	11659.44
642.654	11617.41
643.007	11745.09
643.36	11617.18
643.713	11679.33
644.066	11698.99
644.419	11610.63
644.771	11463.29
645.124	11408.37
645.477	11336.74
645.83	11282.95
646.182	11246.34
646.535	11238.21
646.888	11329.05
647.24	11163.41
647.593	11218.32
647.945	11235.72
648.298	11136.97
648.65	11158.44
649.002	11115.72
649.355	11175.38
649.707	11157.53
650.059	11119.11
650.411	11296.06
650.763	11295.83
651.115	11342.39
651.467	11380.12
651.819	11258.55
652.171	11431.87
652.523	11333.57
652.875	11354.81
653.227	11273.01
653.578	11311.88
653.93	11298.54
654.282	11315.04
654.633	11257.19
654.985	11174.71
655.337	11296.96
655.688	11290.86
656.039	11403.4
656.391	11200.47
656.742	11224.87
657.094	11188.94
657.445	11195.72
657.796	11151.2
658.147	11151.88
658.498	11204.31
658.849	11175.84
659.2	11163.63
659.551	11214.03
659.902	11163.63
660.253	11147.81
660.604	11174.48
660.955	11097.42
661.306	11136.06
661.656	11147.59
662.007	11149.62
662.358	11174.48
662.708	11189.85
663.059	11060.58
663.409	11092.9
663.76	11108.49
664.11	11138.55
664.461	11074.14
664.811	11114.14
665.161	11135.84
665.511	11058.33
665.862	11079.57
666.212	11088.61
666.562	11049.96
666.912	11083.64
667.262	11047.25
667.612	11049.74
667.962	11092.22
668.312	11069.85
668.662	11182.39
669.011	11135.16
669.361	11037.31
669.711	11016.52
670.06	11027.14
670.41	11049.51
670.76	10995.5
671.109	11007.03
671.459	10960.25
671.808	10973.58
672.157	10947.82
672.507	10871.44
672.856	10912.79
673.205	10873.47
673.554	10951.89
673.904	10912.11
674.253	10975.84
674.602	10927.26
674.951	10858.78
675.3	10794.15
675.649	10920.48
675.998	10859.01
676.346	10867.82
676.695	10956.18
677.044	10853.58
677.393	10899.23
677.741	10881.61
678.09	10820.59
678.438	10780.14
678.787	10808.61
679.135	10785.56
679.484	10806.81
679.832	10753.25
680.181	10782.85
680.529	10775.62
680.877	10756.64
681.225	10735.62
681.573	10764.77
681.922	10762.06
682.27	10636.42
682.618	10610.88
682.966	10573.82
683.314	10705.79
683.661	10645
684.009	10646.13
684.357	10636.19
684.705	10456.31
685.053	10514.38
685.4	10509.19
685.748	10439.13
686.095	10457.89
686.443	10442.07
686.79	10422.64
687.138	10443.2
687.485	10449.75
687.832	10410.66
688.18	10409.3
688.527	10384.67
688.874	10317.78
689.221	10303.09
689.568	10241.62
689.915	10208.4
690.262	10167.28
690.609	10173.15
690.956	10154.17
691.303	10183.09
691.65	10121.4
691.997	10163.43
692.344	10028.07
692.69	10038.01
693.037	10077.56
693.383	9982.2
693.73	10005.25
694.077	9981.52
694.423	9960.27
694.769	9876.66
695.116	9996.66
695.462	9857.68
695.808	9786.95
696.155	9808.19
696.501	9827.4
696.847	9811.35
697.193	9726.16
697.539	9784.69
697.885	9636.22
698.231	9632.15
698.577	9715.54
698.923	9657.23
699.269	9623.56
699.614	9580.62
699.96	9564.13
700.306	9500.63
700.651	9472.83
700.997	9522.32
701.342	9450.01
701.688	9385.37
702.033	9405.26
702.379	9463.11
702.724	9393.06
703.069	9369.78
703.415	9276
703.76	9371.59
704.105	9335.88
704.45	9263.57
704.795	9193.29
705.14	9270.58
705.485	9197.36
705.83	9149.67
706.175	9167.3
706.52	9136.79
706.865	9066.96
707.209	9072.16
707.554	9073.74
707.899	9076.91
708.243	8993.52
708.588	8996.23
708.932	8959.4
709.277	8890.47
709.621	8982.9
709.966	8811.6
710.31	8930.92
710.654	8840.76
710.998	8879.4
711.342	8899.06
711.687	8859.96
712.031	8801.44
712.375	8661.33
712.719	8770.7
713.063	8729.57
713.407	8775.67
713.75	8650.48
714.094	8683.25
714.438	8659.74
714.782	8723.25
715.125	8638.73
715.469	8622.68
715.812	8659.74
716.156	8567.32
716.499	8582.01
716.843	8594.21
717.186	8556.92
717.53	8566.19
717.873	8553.31
718.216	8532.97
718.559	8525.96
718.902	8484.61
719.246	8477.83
719.589	8395.57
719.932	8433.76
720.275	8394.21
720.617	8404.84
720.96	8409.81
721.303	8380.88
721.646	8379.3
721.989	8269.47
722.331	8375.91
722.674	8326.87
723.016	8330.71
723.359	8349.47
723.701	8337.94
724.044	8252.07
724.386	8150.38
724.729	8256.14
725.071	8223.15
725.413	8208
725.755	8221.34
726.097	8156.25
726.439	8107.89
726.782	8219.53
727.124	8139.76
727.465	8118.97
727.807	8059.08
728.149	8151.96
728.491	8046.43
728.833	8127.55
729.175	8079.19
729.516	8063.38
729.858	8008.01
730.199	7995.35
730.541	7970.27
730.882	7981.57
731.224	8066.54
731.565	7918.52
731.906	8002.81
732.248	8001.68
732.589	7934.79
732.93	7996.94
733.271	7909.48
733.612	7874.68
733.953	7896.15
734.294	7885.08
734.635	7873.55
734.976	7864.51
735.317	7853.89
735.658	7898.63
735.999	7863.15
736.339	7853.21
736.68	7868.8
737.021	7794.46
737.361	7740.22
737.702	7799.43
738.042	7783.38
738.383	7782.7
738.723	7779.54
739.063	7729.37
739.404	7720.56
739.744	7685.53
740.084	7738.19
740.424	7669.49
740.764	7666.78
741.104	7689.83
741.444	7640.56
741.784	7576.38
742.124	7620.45
742.464	7669.49
742.804	7565.54
743.143	7559.89
743.483	7622.48
743.823	7566.21
744.162	7564.63
744.502	7510.4
744.841	7496.38
745.181	7534.58
745.52	7462.71
745.86	7498.64
746.199	7436.27
746.538	7492.09
746.877	7516.95
747.216	7492.32
747.556	7499.77
747.895	7524.41
748.234	7445.99
748.573	7409.61
748.911	7354.92
749.25	7429.49
749.589	7320.8
749.928	7298.42
750.267	7354.92
750.605	7383.39
750.944	7259.55
751.283	7293.23
751.621	7248.93
751.96	7247.8
752.298	7223.62
752.636	7241.7
752.975	7220.01
753.313	7174.13
753.651	7236.28
753.989	7216.17
754.327	7154.47
754.666	7131.65
755.004	7099.56
755.342	7169.39
755.679	7097.98
756.017	7056.85
756.355	7073.35
756.693	7111.54
757.031	7151.76
757.368	7033.57
757.706	7009.62
758.044	7011.65
758.381	6990.18
758.719	6922.16
759.056	6896.85
759.394	6922.84
759.731	6880.36
760.068	6890.3
760.405	6886.46
760.743	6783.41
761.08	6825.67
761.417	6776.18
761.754	6806.91
762.091	6791.54
762.428	6713.58
762.765	6721.26
763.102	6686.24
763.438	6674.49
