Data from black_metal_pc_casing_FLMS001491_00032.txt Node
Date: Wed Feb 08 14:32:34 GMT 2017
User: dcchb
Spectrometer: FLMS00149
Trigger mode: 0
Integration Time (sec): 2.000000E-2
Scans to average: 10
Electric dark correction enabled: true
Nonlinearity correction enabled: false
Boxcar width: 0
XAxis mode: Wavelengths
Number of Pixels in Spectrum: 2048
>>>>>Begin Spectral Data<<<<<
341.393	1.12
341.776	1.12
342.16	1.12
342.543	-49.96
342.927	-77.75
343.31	-44.76
343.693	-55.38
344.077	-66.91
344.46	-56.96
344.843	-63.52
345.226	-53.57
345.61	-38.66
345.993	-21.03
346.376	-16.06
346.759	7.67
347.142	16.26
347.525	45.63
347.908	61.68
348.291	61.68
348.674	112.3
349.057	111.62
349.44	128.34
349.823	143.94
350.206	175.12
350.588	195.91
350.971	207.44
351.354	215.8
351.737	234.1
352.119	223.71
352.502	257.15
352.884	262.58
353.267	266.19
353.65	281.79
354.032	276.81
354.414	291.5
354.797	309.58
355.179	287.66
355.562	313.42
355.944	323.37
356.326	308.9
356.709	336.47
357.091	298.06
357.473	327.89
357.855	317.94
358.238	323.59
358.62	324.27
359.002	341.9
359.384	340.09
359.766	325.4
360.148	323.37
360.53	323.14
360.912	321.11
361.294	326.3
361.676	311.84
362.057	323.37
362.439	324.72
362.821	325.85
363.203	311.16
363.584	309.58
363.966	336.02
364.348	324.27
364.729	323.59
365.111	324.05
365.493	321.33
365.874	313.2
366.256	303.71
366.637	329.69
367.019	296.02
367.4	298.28
367.781	307.55
368.163	313.42
368.544	323.14
368.925	303.93
369.306	312.52
369.688	308
370.069	304.61
370.45	312.75
370.831	311.16
371.212	298.28
371.593	324.5
371.974	311.62
372.355	312.52
372.736	305.06
373.117	323.14
373.498	315.68
373.879	305.29
374.26	293.76
374.641	319.07
375.021	311.62
375.402	321.79
375.783	301.45
376.163	333.99
376.544	334.67
376.925	313.65
377.305	355.23
377.686	309.58
378.066	301.67
378.447	345.06
378.827	323.82
379.208	329.92
379.588	341.67
379.968	347.55
380.349	347.1
380.729	342.35
381.109	334.89
381.489	338.73
381.87	339.86
382.25	355.91
382.63	357.04
383.01	334.67
383.39	334.89
383.77	317.72
384.15	357.49
384.53	340.99
384.91	353.2
385.29	351.62
385.67	336.7
386.049	360.88
386.429	366.76
386.809	364.04
387.189	347.77
387.568	337.38
387.948	374.89
388.328	361.78
388.707	366.98
389.087	344.16
389.466	364.27
389.846	376.25
390.225	359.52
390.605	391.16
390.984	387.55
391.363	374.44
391.743	376.25
392.122	391.39
392.501	378.51
392.881	372.63
393.26	390.26
393.639	376.93
394.018	384.83
394.397	400.43
394.776	381.67
395.155	375.8
395.534	371.5
395.913	402.24
396.292	399.52
396.671	398.17
397.05	376.7
397.429	399.07
397.808	405.17
398.186	432.74
398.565	405.85
398.944	407.43
399.323	416.25
399.701	419.86
400.08	391.84
400.458	410.14
400.837	422.57
401.215	413.08
401.594	424.16
401.972	434.1
402.351	424.38
402.729	438.17
403.107	438.17
403.486	437.04
403.864	425.74
404.242	434.1
404.62	430.93
404.999	433.87
405.377	454.89
405.755	446.08
406.133	464.38
406.511	450.14
406.889	449.24
407.267	453.76
407.645	465.28
408.023	461.44
408.401	459.86
408.779	455.79
409.156	481.78
409.534	479.07
409.912	493.53
410.29	501.44
410.667	477.26
411.045	481.78
411.422	491.72
411.8	495.79
412.178	489.69
412.555	490.37
412.933	498.73
413.31	499.41
413.687	521.1
414.065	524.94
414.442	516.36
414.819	531.72
415.197	528.33
415.574	510.48
415.951	525.85
416.328	560.88
416.705	527.66
417.082	556.36
417.46	551.38
417.837	547.99
418.214	547.99
418.591	558.84
418.967	564.94
419.344	571.27
419.721	552.51
420.098	565.85
420.475	594.09
420.852	583.02
421.228	564.72
421.605	578.28
421.982	602.91
422.358	608.78
422.735	598.61
423.111	601.33
423.488	622.12
423.864	599.74
424.241	592.51
424.617	625.96
424.994	622.79
425.37	621.66
425.746	630.03
426.123	654.88
426.499	623.02
426.875	635.68
427.251	659.18
427.627	688.56
428.003	664.38
428.379	677.48
428.756	668.67
429.132	688.56
429.507	677.71
429.883	707.31
430.259	717.71
430.635	710.7
431.011	722.23
431.387	699.85
431.763	707.09
432.138	726.97
432.514	738.72
432.89	724.26
433.265	757.03
433.641	755.9
434.016	730.36
434.392	741.66
434.767	779.63
435.143	772.62
435.518	773.07
435.894	792.73
436.269	821.89
436.644	792.06
437.02	833.86
437.395	790.7
437.77	824.6
438.145	825.05
438.52	804.71
438.895	833.41
439.271	842
439.646	844.94
440.021	861.88
440.395	865.73
440.77	871.38
441.145	852.39
441.52	853.52
441.895	901.66
442.27	877.93
442.645	903.92
443.019	877.93
443.394	889.23
443.769	899.17
444.143	904.82
444.518	912.96
444.892	884.48
445.267	927.87
445.641	937.81
446.016	925.61
446.39	929.45
446.764	965.84
447.139	949.34
447.513	954.76
447.887	942.33
448.262	956.34
448.636	974.65
449.01	976.46
449.384	955.44
449.758	989.34
450.132	989.34
450.506	978.72
450.88	1007.19
451.254	1020.3
451.628	1009.22
452.002	1013.97
452.376	1018.49
452.75	1044.25
453.123	1062.78
453.497	1062.1
453.871	1073.86
454.244	1046.29
454.618	1053.74
454.992	1106.4
455.365	1101.65
455.739	1119.96
456.112	1137.13
456.486	1128.77
456.859	1157.47
457.232	1172.16
457.606	1157.92
457.979	1178.94
458.352	1188.88
458.725	1216
459.099	1198.37
459.472	1255.77
459.845	1230.91
460.218	1233.85
460.591	1269.11
460.964	1240.86
461.337	1302.1
461.71	1305.04
462.083	1299.61
462.456	1303.68
462.829	1326.28
463.201	1343.23
463.574	1370.12
463.947	1393.62
464.32	1413.28
464.692	1382.55
465.065	1415.99
465.438	1409.89
465.81	1465.03
466.183	1447.86
466.555	1480.17
466.928	1485.82
467.3	1519.04
467.672	1522.66
468.045	1583.67
468.417	1536.44
468.789	1538.7
469.161	1571.47
469.534	1558.36
469.906	1615.08
470.278	1654.63
470.65	1631.36
471.022	1707.06
471.394	1690.56
471.766	1719.71
472.138	1715.65
472.51	1719.26
472.882	1803.55
473.253	1801.75
473.625	1827.51
473.997	1853.27
474.369	1856.43
474.74	1885.81
475.112	1901.86
475.484	1967.62
475.855	1955.64
476.227	1967.17
476.598	2057.11
476.97	2036.32
477.341	2063.66
477.713	2110.44
478.084	2100.27
478.455	2152.25
478.827	2165.13
479.198	2261.4
479.569	2265.01
479.94	2300.26
480.311	2330.77
480.682	2335.52
481.053	2404.22
481.424	2435.4
481.795	2454.38
482.166	2476.3
482.537	2502.07
482.908	2595.62
483.279	2629.75
483.65	2650.31
484.021	2683.08
484.391	2680.37
484.762	2765.56
485.133	2761.72
485.503	2781.16
485.874	2838.33
486.244	2866.13
486.615	2907.48
486.985	2948.16
487.356	3028.83
487.726	3047.36
488.097	3071.09
488.467	3105.21
488.837	3151.54
489.207	3188.15
489.578	3196.51
489.948	3269.5
490.318	3273.35
490.688	3301.82
491.058	3352.44
491.428	3451.42
491.798	3421.82
492.168	3482.15
492.538	3504.07
492.908	3584.07
493.278	3579.55
493.648	3607.12
494.017	3633.34
494.387	3680.79
494.757	3745.2
495.126	3763.95
495.496	3730.51
495.866	3780.9
496.235	3779.77
496.605	3847.57
496.974	3881.69
497.344	3928.02
497.713	3922.14
498.082	3927.11
498.452	3967.11
498.821	3983.61
499.19	4008.69
499.559	4049.14
499.928	4047.11
500.298	4119.2
500.667	4118.07
501.036	4148.13
501.405	4186.77
501.774	4188.35
502.143	4243.04
502.512	4270.16
502.88	4278.07
503.249	4286.88
503.618	4297.73
503.987	4343.37
504.356	4332.98
504.724	4410.72
505.093	4449.59
505.462	4432.86
505.83	4500.21
506.199	4499.53
506.567	4531.62
506.936	4609.13
507.304	4630.6
507.672	4658.62
508.041	4672.63
508.409	4725.96
508.777	4761.22
509.145	4805.06
509.514	4787.43
509.882	4833.98
510.25	4842.8
510.618	4880.99
510.986	4914.43
511.354	4957.6
511.722	4962.57
512.09	5004.37
512.458	5033.98
512.826	5037.14
513.193	5063.36
513.561	5123.02
513.929	5161.88
514.297	5178.83
514.664	5266.51
515.032	5261.77
515.4	5302.45
515.767	5292.95
516.135	5343.35
516.502	5351.71
516.869	5473.74
517.237	5455.21
517.604	5441.2
517.972	5509.9
518.339	5558.03
518.706	5571.82
519.073	5622.44
519.44	5656.79
519.808	5709.89
520.175	5673.51
520.542	5786.95
520.909	5852.49
521.276	5895.2
521.643	5899.49
522.009	5968.19
522.376	5976.55
522.743	6031.24
523.11	6052.26
523.477	6149.65
523.843	6135.19
524.21	6213.38
524.577	6229.88
524.943	6304.45
525.31	6289.31
525.676	6394.39
526.043	6453.6
526.409	6469.65
526.776	6542.64
527.142	6576.99
527.508	6593.48
527.874	6647.27
528.241	6670.54
528.607	6712.13
528.973	6761.62
529.339	6819.47
529.705	6839.58
530.071	6860.37
530.437	6903.76
530.803	6937.43
531.169	7020.82
531.535	6959.35
531.901	7057.88
532.267	7046.35
532.632	7120.02
532.998	7111.44
533.364	7165.9
533.73	7234.6
534.095	7331.77
534.461	7282.51
534.826	7337.65
535.192	7371.54
535.557	7423.07
535.923	7401.15
536.288	7441.15
536.653	7506
537.019	7479.11
537.384	7578.32
537.749	7542.84
538.114	7623.51
538.479	7702.16
538.845	7671.42
539.21	7645.89
539.575	7740.35
539.94	7749.61
540.305	7756.84
540.67	7815.15
541.034	7783.51
541.399	7857.18
541.764	7864.86
542.129	7893.34
542.494	7945.09
542.858	7979.89
543.223	7965.88
543.587	8026.44
543.952	8011.75
544.316	8106.89
544.681	8117.51
545.045	8165.42
545.41	8201.58
545.774	8241.8
546.138	8221.01
546.503	8243.38
546.867	8280.22
547.231	8344.85
547.595	8346.66
547.959	8333.33
548.324	8372.87
548.688	8350.73
549.052	8497.39
549.416	8503.27
549.779	8501.01
550.143	8501.46
550.507	8510.72
550.871	8612.87
551.235	8575.35
551.599	8691.28
551.962	8665.29
552.326	8768.12
552.689	8762.47
553.053	8822.8
553.417	8781.9
553.78	8879.3
554.143	8817.83
554.507	8885.85
554.87	8911.84
555.234	9046.53
555.597	9021.9
555.96	9004.27
556.323	9037.04
556.686	9102.12
557.05	9200.2
557.413	9229.8
557.776	9199.97
558.139	9216.92
558.502	9298.95
558.865	9336.92
559.228	9476.12
559.59	9453.97
559.953	9432.51
560.316	9573.29
560.679	9533.52
561.041	9564.71
561.404	9638.83
561.767	9719.28
562.129	9639.51
562.492	9772.84
562.854	9776
563.217	9761.09
563.579	9901.65
563.941	9865.26
564.304	9982.1
564.666	9985.94
565.028	10001.76
565.39	10043.34
565.753	10144.58
566.115	10134.86
566.477	10215.76
566.839	10224.8
567.201	10315.87
567.563	10298.47
567.925	10415.31
568.287	10402.42
568.648	10467.51
569.01	10518.81
569.372	10542.53
569.734	10470.22
570.095	10674.28
570.457	10702.3
570.819	10660.27
571.18	10723.77
571.542	10792.92
571.903	10812.13
572.265	10810.1
572.626	10838.34
572.987	10905.01
573.349	10936.42
573.71	10928.96
574.071	10969.87
574.432	11053.93
574.794	11109.52
575.155	11047.15
575.516	11098.45
575.877	11120.37
576.238	11086.93
576.599	11239.92
576.96	11189.75
577.32	11182.06
577.681	11260.71
578.042	11262.51
578.403	11282.18
578.763	11290.31
579.124	11314.72
579.485	11319.69
579.845	11340.25
580.206	11383.19
580.566	11402.85
580.927	11388.39
581.287	11449.85
581.648	11300.25
582.008	11466.13
582.368	11376.86
582.728	11415.05
583.089	11440.14
583.449	11363.98
583.809	11474.03
584.169	11448.27
584.529	11414.38
584.889	11509.97
585.249	11379.35
585.609	11444.2
585.969	11457.31
586.329	11441.27
586.688	11511.32
587.048	11471.55
587.408	11502.51
587.768	11464.77
588.127	11437.2
588.487	11467.25
588.846	11554.26
589.206	11483.75
589.565	11512
589.925	11478.55
590.284	11463.87
590.643	11532.79
591.003	11565.56
591.362	11591.32
591.721	11542.96
592.08	11516.52
592.44	11553.81
592.799	11546.57
593.158	11575.05
593.517	11587.93
593.876	11641.49
594.235	11622.73
594.593	11585.44
594.952	11587.7
595.311	11569.63
595.67	11586.57
596.029	11600.13
596.387	11611.88
596.746	11670.19
597.104	11577.53
597.463	11637.65
597.822	11674.48
598.18	11600.58
598.538	11624.99
598.897	11692.56
599.255	11587.93
599.613	11785.21
599.972	11698.89
600.33	11699.57
600.688	11652.11
601.046	11651.43
601.404	11775.72
601.762	11751.09
602.12	11802.39
602.478	11784.31
602.836	11778.66
603.194	11794.7
603.552	11805.55
603.91	11826.79
604.268	11812.33
604.625	11822.05
604.983	11854.14
605.341	11843.29
605.698	11877.41
606.056	11915.6
606.413	11867.7
606.771	11911.54
607.128	11915.6
607.485	11990.86
607.843	11985.66
608.2	11945.43
608.557	11964.19
608.914	11971.2
609.272	12071.76
609.629	12095.94
609.986	12159.67
610.343	12049.39
610.7	12118.09
611.057	12042.16
611.414	12149.72
611.771	12095.71
612.127	12078.31
612.484	12196.95
612.841	12082.61
613.198	12122.83
613.554	12196.05
613.911	12257.29
614.267	12220.23
614.624	12178.42
614.98	12136.16
615.337	12213.68
615.693	12318.31
616.05	12297.97
616.406	12345.42
616.762	12313.79
617.118	12262.04
617.475	12253
617.831	12372.09
618.187	12339.32
618.543	12322.83
618.899	12387
619.255	12401.92
619.611	12379.1
619.967	12405.08
620.323	12425.65
620.678	12392.88
621.034	12441.01
621.39	12366.21
621.746	12387.68
622.101	12530.05
622.457	12390.62
622.812	12396.95
623.168	12420.22
623.523	12435.14
623.879	12441.24
624.234	12372.77
624.589	12505.87
624.945	12457.74
625.3	12431.52
625.655	12448.02
626.01	12400.56
626.365	12494.8
626.72	12469.71
627.075	12435.14
627.43	12447.79
627.785	12363.5
628.14	12419.32
628.495	12464.06
628.85	12375.93
629.205	12326.22
629.559	12441.47
629.914	12356.27
630.269	12393.33
630.623	12361.92
630.978	12349.04
631.332	12339.32
631.687	12376.16
632.041	12304.3
632.396	12324.41
632.75	12329.38
633.104	12376.16
633.459	12203.51
633.813	12259.78
634.167	12239.21
634.521	12285.76
634.875	12239.89
635.229	12169.61
635.583	12113.11
635.937	12150.17
636.291	12212.55
636.645	12193.34
636.999	12255.48
637.352	12249.16
637.706	12101.14
638.06	12147.24
638.413	12074.24
638.767	12137.07
639.121	12108.82
639.474	12031.53
639.828	12000.12
640.181	12050.29
640.534	12064.08
640.888	11993.79
641.241	11940.24
641.594	11894.81
641.947	12027.69
642.301	11981.14
642.654	11922.38
643.007	11894.81
643.36	11913.34
643.713	11911.76
644.066	11920.12
644.419	11866.57
644.771	11751.99
645.124	11653.01
645.477	11643.97
645.83	11535.28
646.182	11502.06
646.535	11478.78
646.888	11589.74
647.24	11471.1
647.593	11536.86
647.945	11480.14
648.298	11423.41
648.65	11457.31
649.002	11435.39
649.355	11435.84
649.707	11389.97
650.059	11452.57
650.411	11555.39
650.763	11672.9
651.115	11708.15
651.467	11669.51
651.819	11668.83
652.171	11652.79
652.523	11612.11
652.875	11603.3
653.227	11533.47
653.578	11602.62
653.93	11591.55
654.282	11602.17
654.633	11545.67
654.985	11563.3
655.337	11529.4
655.688	11463.41
656.039	11555.16
656.391	11430.65
656.742	11496.18
657.094	11432.23
657.445	11577.99
657.796	11515.62
658.147	11507.71
658.498	11400.36
658.849	11433.58
659.2	11437.2
659.551	11458.22
659.902	11434.49
660.253	11488.5
660.604	11414.83
660.955	11439.23
661.306	11469.51
661.656	11401.72
662.007	11436.07
662.358	11501.15
662.708	11381.61
663.059	11436.07
663.409	11328.95
663.76	11363.75
664.11	11405.11
664.461	11448.95
664.811	11433.81
665.161	11388.61
665.511	11380.93
665.862	11280.14
666.212	11341.16
666.562	11309.74
666.912	11359.69
667.262	11311.33
667.612	11287.37
667.962	11313.36
668.312	11323.98
668.662	11375.73
669.011	11245.79
669.361	11274.72
669.711	11289.63
670.06	11319.46
670.41	11327.37
670.76	11252.57
671.109	11243.53
671.459	11256.41
671.808	11160.6
672.157	11234.72
672.507	11188.84
672.856	11182.29
673.205	11208.96
673.554	11270.2
673.904	11178.9
674.253	11263.64
674.602	11155.4
674.951	10989.53
675.3	10954.5
675.649	11139.81
675.998	11148.62
676.346	11141.16
676.695	11149.3
677.044	11031.56
677.393	11077.89
677.741	11154.49
678.09	11065.68
678.438	11044.22
678.787	11028.4
679.135	11095.29
679.484	10957.66
679.832	11031.33
680.181	10929.64
680.529	11002.63
680.877	11013.48
681.225	10938.91
681.573	10947.27
681.922	10908.17
682.27	10938.46
682.618	10956.08
682.966	10938.91
683.314	10867.27
683.661	10849.42
684.009	10877.89
684.357	10841.73
684.705	10806.93
685.053	10787.05
685.4	10840.15
685.748	10845.58
686.095	10740.27
686.443	10680.83
686.79	10606.49
687.138	10705.02
687.485	10642.19
687.832	10627.28
688.18	10616.43
688.527	10587.05
688.874	10539.14
689.221	10536.43
689.568	10515.42
689.915	10548.41
690.262	10501.18
690.609	10491.46
690.956	10397.68
691.303	10412.82
691.65	10421.41
691.997	10455.98
692.344	10304.8
692.69	10203.11
693.037	10298.25
693.383	10121.98
693.73	10197.46
694.077	10170.34
694.423	10207.18
694.769	10138.93
695.116	10174.86
695.462	10086.05
695.808	10116.33
696.155	10137.12
696.501	10034.07
696.847	10017.35
697.193	9920.85
697.539	10038.82
697.885	9933.74
698.231	9897.58
698.577	9873.4
698.923	9815.55
699.269	9849.22
699.614	9773.74
699.96	9775.1
700.306	9772.38
700.651	9674.76
700.997	9654.65
701.342	9702.1
701.688	9665.27
702.033	9701.2
702.379	9657.36
702.724	9618.26
703.069	9630.02
703.415	9543.24
703.76	9533.97
704.105	9600.19
704.45	9514.31
704.795	9423.24
705.14	9435.44
705.485	9450.13
705.83	9349.57
706.175	9328.1
706.52	9406.07
706.865	9331.27
707.209	9373.07
707.554	9296.69
707.899	9244.94
708.243	9238.16
708.588	9200.87
708.932	9163.81
709.277	9119.29
709.621	9184.83
709.966	9094.44
710.31	9132.4
710.654	9126.3
710.998	9095.11
711.342	9121.33
711.687	9038.39
712.031	9049.69
712.375	9011.27
712.719	8977.6
713.063	8971.95
713.407	9012.63
713.75	8987.09
714.094	8993.42
714.438	8832.07
714.782	8936.47
715.125	8966.08
715.469	8944.38
715.812	8904.84
716.156	8814.22
716.499	8873.2
716.843	8820.54
717.186	8816.7
717.53	8804.05
717.873	8797.04
718.216	8855.57
718.559	8707.78
718.902	8685.18
719.246	8640.89
719.589	8579.42
719.932	8639.53
720.275	8610.15
720.617	8609.03
720.96	8595.47
721.303	8545.75
721.646	8597.5
721.989	8531.51
722.331	8581.46
722.674	8516.6
723.016	8553.21
723.359	8552.53
723.701	8471.63
724.044	8475.02
724.386	8399.09
724.729	8474.11
725.071	8474.79
725.413	8435.92
725.755	8396.15
726.097	8395.7
726.439	8346.21
726.782	8304.85
727.124	8372.65
727.465	8326.55
727.807	8351.86
728.149	8320.9
728.491	8282.48
728.833	8329.48
729.175	8279.32
729.516	8264.85
729.858	8223.95
730.199	8284.97
730.541	8200.9
730.882	8200.9
731.224	8267.57
731.565	8199.09
731.906	8098.53
732.248	8183.5
732.589	8145.08
732.93	8143.73
733.271	8076.84
733.612	8135.37
733.953	8185.31
734.294	8061.69
734.635	8065.31
734.976	8063.28
735.317	8101.47
735.658	8125.2
735.999	8065.08
736.339	8018.98
736.68	8049.49
737.021	8051.3
737.361	7960.23
737.702	7996.84
738.042	7969.27
738.383	7946.9
738.723	7896.95
739.063	7896.73
739.404	7926.33
739.744	7903.51
740.084	7910.96
740.424	7862.83
740.764	7856.95
741.104	7877.97
741.444	7807.69
741.784	7898.31
742.124	7824.86
742.464	7872.32
742.804	7815.83
743.143	7785.77
743.483	7825.32
743.823	7746.45
744.162	7719.33
744.502	7748.71
744.841	7676.17
745.181	7793
745.52	7691.76
745.86	7695.83
746.199	7739.9
746.538	7734.25
746.877	7699.9
747.216	7719.78
747.556	7683.63
747.895	7708.94
748.234	7652.67
748.573	7626.9
748.911	7564.53
749.25	7555.27
749.589	7507.36
749.928	7551.88
750.267	7609.5
750.605	7510.97
750.944	7580.8
751.283	7533.57
751.621	7577.19
751.96	7449.51
752.298	7481.15
752.636	7447.93
752.975	7412.67
753.313	7338.78
753.651	7389.85
753.989	7372.9
754.327	7380.58
754.666	7323.41
755.004	7324.99
755.342	7269.4
755.679	7248.38
756.017	7306.69
756.355	7297.2
756.693	7212.23
757.031	7240.25
757.368	7192.11
757.706	7166.8
758.044	7196.18
758.381	7213.81
758.719	7186.69
759.056	7157.09
759.394	7088.84
759.731	7077.31
760.068	7057.43
760.405	7059.91
760.743	7033.47
761.08	7035.06
761.417	7002.29
761.754	6932.01
762.091	6923.65
762.428	6893.36
762.765	6916.87
763.102	6958.45
