Data from black_plastic_tray_FLMS001491_028.txt Node
Date: Tue Feb 07 10:39:31 GMT 2017
User: dcchb
Spectrometer: FLMS00149
Trigger mode: 0
Integration Time (sec): 2.000000E-2
Scans to average: 10
Electric dark correction enabled: true
Nonlinearity correction enabled: false
Boxcar width: 0
XAxis mode: Wavelengths
Number of Pixels in Spectrum: 2048
>>>>>Begin Spectral Data<<<<<
341.393	-13.32
341.776	-13.32
342.16	-13.32
342.543	-64.62
342.927	-68.46
343.31	-49.02
343.693	-73.66
344.077	-71.85
344.46	-75.24
344.843	-36.37
345.226	-28.46
345.61	-25.75
345.993	-11.96
346.376	-10.38
346.759	8.15
347.142	2.5
347.525	52.22
347.908	56.28
348.291	68.03
348.674	92.89
349.057	102.61
349.44	124.3
349.823	143.97
350.206	139.22
350.588	188.71
350.971	196.85
351.354	209.95
351.737	220.35
352.119	227.8
352.502	246.56
352.884	260.35
353.267	253.79
353.65	275.26
354.032	270.52
354.414	273.91
354.797	297.41
355.179	277.52
355.562	297.41
355.944	318.42
356.326	315.71
356.709	332.66
357.091	314.58
357.473	342.83
357.855	325.66
358.238	355.26
358.62	354.36
359.002	314.36
359.384	319.55
359.766	316.16
360.148	302.83
360.53	322.94
360.912	324.07
361.294	305.32
361.676	308.93
362.057	324.75
362.439	315.71
362.821	310.74
363.203	294.24
363.584	313.9
363.966	298.31
364.348	331.53
364.729	300.8
365.111	315.94
365.493	301.25
365.874	320.46
366.256	315.26
366.637	310.51
367.019	315.26
367.4	306.9
367.781	312.77
368.163	315.71
368.544	312.1
368.925	298.99
369.306	318.42
369.688	294.02
370.069	282.04
370.45	293.11
370.831	308.71
371.212	308.25
371.593	304.41
371.974	308.71
372.355	306.22
372.736	307.58
373.117	329.05
373.498	330.4
373.879	287.46
374.26	287.24
374.641	325.2
375.021	297.18
375.402	309.38
375.783	312.55
376.163	341.25
376.544	322.72
376.925	320.23
377.305	329.27
377.686	320.01
378.066	309.61
378.447	328.82
378.827	321.36
379.208	313
379.588	311.87
379.968	321.36
380.349	331.3
380.729	334.69
381.109	326.33
381.489	338.54
381.87	334.24
382.25	326.56
382.63	354.13
383.01	340.57
383.39	358.65
383.77	344.41
384.15	334.02
384.53	331.98
384.91	341.02
385.29	346.67
385.67	348.25
386.049	360.23
386.429	368.59
386.809	344.86
387.189	362.04
387.568	365.88
387.948	365.88
388.328	372.89
388.707	360.91
389.087	366.78
389.466	378.31
389.846	371.53
390.225	369.27
390.605	400.68
390.984	404.3
391.363	388.25
391.743	383.73
392.122	391.64
392.501	406.56
392.881	379.67
393.26	383.51
393.639	385.54
394.018	389.61
394.397	411.08
394.776	393.9
395.155	410.62
395.534	412.21
395.913	403.17
396.292	389.83
396.671	423.96
397.05	411.3
397.429	423.51
397.808	400.91
398.186	409.27
398.565	402.04
398.944	412.43
399.323	411.98
399.701	427.12
400.08	431.42
400.458	439.78
400.837	448.59
401.215	433.9
401.594	425.77
401.972	445.43
402.351	469.15
402.729	450.62
403.107	432.77
403.486	435.03
403.864	448.59
404.242	444.07
404.62	466.89
404.999	479.1
405.377	459.21
405.755	449.95
406.133	470.51
406.511	463.96
406.889	472.54
407.267	474.35
407.645	485.43
408.023	514.12
408.401	492.66
408.779	472.54
409.156	530.85
409.534	519.1
409.912	489.04
410.29	512.54
410.667	516.16
411.045	522.03
411.422	514.8
411.8	558.87
412.178	542.15
412.555	522.03
412.933	537.18
413.31	538.98
413.687	554.35
414.065	557.51
414.442	554.12
414.819	574.24
415.197	563.62
415.574	587.8
415.951	584.18
416.328	574.91
416.705	583.28
417.082	578.76
417.46	611.07
417.837	578.76
418.214	609.94
418.591	596.83
418.967	600.45
419.344	603.84
419.721	621.01
420.098	599.09
420.475	637.96
420.852	632.31
421.228	638.64
421.605	646.78
421.982	642.03
422.358	651.75
422.735	667.79
423.111	640.45
423.488	669.6
423.864	661.01
424.241	684.74
424.617	681.58
424.994	691.52
425.37	681.13
425.746	693.78
426.123	702.37
426.499	701.01
426.875	717.51
427.251	699.2
427.627	730.62
428.003	726.55
428.379	731.75
428.756	757.73
429.132	777.39
429.507	761.35
429.883	775.81
430.259	789.82
430.635	784.63
431.011	797.51
431.387	807.9
431.763	825.53
432.138	813.55
432.514	842.93
432.89	820.11
433.265	853.55
433.641	837.96
434.016	864.17
434.392	870.5
434.767	874.57
435.143	865.75
435.518	881.35
435.894	915.02
436.269	897.17
436.644	888.13
437.02	936.49
437.395	905.53
437.77	928.13
438.145	937.84
438.52	962.47
438.895	972.87
439.271	956.37
439.646	978.52
440.021	976.03
440.395	1014
440.77	971.97
441.145	1003.38
441.52	1005.86
441.895	1020.1
442.27	1009.93
442.645	1018.52
443.019	1038.18
443.394	1014.9
443.769	1046.77
444.143	1039.31
444.518	1070.49
444.892	1051.29
445.267	1049.25
445.641	1069.14
446.016	1084.51
446.39	1077.95
446.764	1087.9
447.139	1088.35
447.513	1120.89
447.887	1070.04
448.262	1109.14
448.636	1104.84
449.01	1127.89
449.384	1153.66
449.758	1156.14
450.132	1144.62
450.506	1163.15
450.88	1158.85
451.254	1158.4
451.628	1176.03
452.002	1199.76
452.376	1202.92
452.75	1199.98
453.123	1220.32
453.497	1246.54
453.871	1263.71
454.244	1228.68
454.618	1294.22
454.992	1305.52
455.365	1287.89
455.739	1321.56
456.112	1370.6
456.486	1327.89
456.859	1340.32
457.232	1373.54
457.606	1370.15
457.979	1377.83
458.352	1378.06
458.725	1412.41
459.099	1422.8
459.472	1454.67
459.845	1478.17
460.218	1490.37
460.591	1516.58
460.964	1510.03
461.337	1557.26
461.71	1551.84
462.083	1543.48
462.456	1620.99
462.829	1577.15
463.201	1605.62
463.574	1619.41
463.947	1636.36
464.32	1656.92
464.692	1663.02
465.065	1672.96
465.438	1698.27
465.81	1751.15
466.183	1744.6
466.555	1778.95
466.928	1811.72
467.3	1783.7
467.672	1787.76
468.045	1885.84
468.417	1897.59
468.789	1882.45
469.161	1925.16
469.534	1931.26
469.906	1974.65
470.278	1982.33
470.65	2002.67
471.022	2004.48
471.394	2091.48
471.766	2084.25
472.138	2101.65
472.51	2129.9
472.882	2204.48
473.253	2165.83
473.625	2267.75
473.997	2284.25
474.369	2307.07
474.74	2298.94
475.112	2350.69
475.484	2410.12
475.855	2388.43
476.227	2431.59
476.598	2494.41
476.97	2513.17
477.341	2551.36
477.713	2574.64
478.084	2599.27
478.455	2706.61
478.827	2700.51
479.198	2755.2
479.569	2762.2
479.94	2847.17
480.311	2874.51
480.682	2953.16
481.053	2973.04
481.424	3004.23
481.795	3064.34
482.166	3081.29
482.537	3138.69
482.908	3199.03
483.279	3224.79
483.65	3273.15
484.021	3326.03
484.391	3391.11
484.762	3392.69
485.133	3440.83
485.503	3441.73
485.874	3566.25
486.244	3599.69
486.615	3649.86
486.985	3652.12
487.356	3744.1
487.726	3798.33
488.097	3861.83
488.467	3867.94
488.837	3956.75
489.207	3958.55
489.578	4002.17
489.948	4020.25
490.318	4136.63
490.688	4146.57
491.058	4162.62
491.428	4237.87
491.798	4264.08
492.168	4352.89
492.538	4400.35
492.908	4432.67
493.278	4446
493.648	4504.75
494.017	4544.53
494.387	4598.09
494.757	4600.8
495.126	4660.68
495.496	4674.47
495.866	4722.83
496.235	4756.95
496.605	4808.93
496.974	4881.92
497.344	4915.59
497.713	4859.55
498.082	4942.03
498.452	4952.2
498.821	4982.71
499.19	5085.53
499.559	5088.24
499.928	5104.06
500.298	5179.99
500.667	5259.31
501.036	5182.7
501.405	5274.9
501.774	5245.07
502.143	5299.54
502.512	5336.6
502.88	5416.14
503.249	5404.17
503.618	5452.53
503.987	5473.77
504.356	5525.29
504.724	5544.5
505.093	5586.76
505.462	5575.01
505.83	5611.17
506.199	5700.66
506.567	5770.71
506.936	5752.86
507.304	5761.44
507.672	5824.49
508.041	5913.3
508.409	5929.35
508.777	5963.02
509.145	6056.35
509.514	6041.89
509.882	6054.32
510.25	6059.74
510.618	6118.05
510.986	6140.19
511.354	6207.99
511.722	6311.03
512.09	6371.6
512.458	6347.87
512.826	6369.79
513.193	6443.23
513.561	6429.68
513.929	6506.74
514.297	6560.75
514.664	6611.82
515.032	6663.12
515.4	6674.41
515.767	6694.08
516.135	6742.89
516.502	6651.82
516.869	6831.25
517.237	6847.07
517.604	6845.48
517.972	6965.71
518.339	6975.88
518.706	6981.3
519.073	7089.09
519.44	7096.32
519.808	7197.11
520.175	7187.62
520.542	7285.92
520.909	7346.71
521.276	7366.83
521.643	7412.25
522.009	7510.78
522.376	7581.74
522.743	7581.28
523.11	7683.43
523.477	7774.05
523.843	7807.27
524.21	7839.13
524.577	7844.33
524.943	7936.75
525.31	7964.32
525.676	8095.85
526.043	8127.48
526.409	8170.19
526.776	8206.13
527.142	8304.88
527.508	8299.68
527.874	8412.22
528.241	8455.39
528.607	8428.49
528.973	8555.72
529.339	8562.73
529.705	8664.42
530.071	8706.68
530.437	8720.01
530.803	8839.56
531.169	8916.39
531.535	8846.56
531.901	8927.24
532.267	9002.04
532.632	9046.33
532.998	9093.33
533.364	9094.46
533.73	9151.64
534.095	9182.6
534.461	9183.28
534.826	9294.23
535.192	9305.31
535.557	9419.2
535.923	9411.29
536.288	9463.27
536.653	9420.33
537.019	9419.2
537.384	9506.88
537.749	9600.67
538.114	9556.82
538.479	9667.1
538.845	9639.76
539.21	9609.7
539.575	9718.63
539.94	9776.48
540.305	9848.12
540.67	9776.48
541.034	9861.22
541.399	9898.28
541.764	9889.92
542.129	9955.23
542.494	9981.9
542.858	10034.78
543.223	10004.95
543.587	10141.22
543.952	10064.38
544.316	10125.17
544.681	10127.88
545.045	10241.78
545.41	10306.86
545.774	10282.68
546.138	10264.83
546.503	10324.04
546.867	10293.75
547.231	10487.42
547.595	10444.94
547.959	10525.61
548.324	10534.2
548.688	10556.12
549.052	10553.63
549.416	10589.11
549.779	10654.65
550.143	10637.47
550.507	10772.61
550.871	10803.12
551.235	10764.93
551.599	10841.54
551.962	10919.28
552.326	10878.82
552.689	10957.24
553.053	10898.48
553.417	11027.07
553.78	11178.25
554.143	11088.54
554.507	11146.84
554.87	11150.68
555.234	11338.25
555.597	11242.88
555.96	11306.84
556.323	11324.24
556.686	11393.16
557.05	11482.65
557.413	11476.55
557.776	11441.97
558.139	11588.64
558.502	11597
558.865	11604.45
559.228	11761.51
559.59	11783.43
559.953	11815.3
560.316	11943.2
560.679	11842.41
561.041	11985.69
561.404	12003.31
561.767	12035.4
562.129	12089.87
562.492	12152.01
562.854	12189.52
563.217	12150.88
563.579	12250.31
563.941	12278.34
564.304	12396.52
564.666	12487.6
565.028	12475.62
565.39	12432.68
565.753	12664.99
566.115	12609.17
566.477	12612.34
566.839	12729.4
567.201	12779.11
567.563	12843.29
567.925	12874.48
568.287	12925.32
568.648	12845.55
569.01	13029.73
569.372	13025.66
569.734	13051.87
570.095	13196.28
570.457	13182.94
570.819	13187.92
571.18	13212.32
571.542	13351.75
571.903	13278.54
572.265	13410.51
572.626	13390.85
572.987	13427.68
573.349	13454.58
573.71	13461.13
574.071	13526.21
574.432	13554.69
574.794	13633.78
575.155	13600.11
575.516	13544.06
575.877	13639.88
576.238	13681.24
576.599	13685.08
576.96	13739.54
577.32	13768.24
577.681	13878.29
578.042	13926.65
578.403	13882.59
578.763	13978.86
579.124	14046.42
579.485	13967.33
579.845	13951.06
580.206	13951.51
580.566	13954.22
580.927	14014.56
581.287	13984.51
581.648	13976.37
582.008	14075.12
582.368	14021.11
582.728	13993.77
583.089	14118.29
583.449	14020.21
583.809	14118.74
584.169	14117.38
584.529	14021.79
584.889	14180.66
585.249	14092.52
585.609	14024.28
585.969	14059.76
586.329	14086.88
586.688	14139.98
587.048	14117.61
587.408	14039.19
587.768	13998.97
588.127	14052.53
588.487	14076.93
588.846	14120.55
589.206	14079.19
589.565	14039.42
589.925	14115.35
590.284	14150.15
590.643	14085.29
591.003	14066.76
591.362	14158.74
591.721	14109.25
592.08	14159.64
592.44	14205.52
592.799	14217.49
593.158	14177.27
593.517	14190.6
593.876	14248.45
594.235	14210.49
594.593	14181.34
594.952	14197.61
595.311	14108.34
595.67	14114.45
596.029	14246.42
596.387	14248
596.746	14189.47
597.104	14212.97
597.463	14137.5
597.822	14189.7
598.18	14156.48
598.538	14150.38
598.897	14328.9
599.255	14205.74
599.613	14437.6
599.972	14328
600.33	14316.25
600.688	14220.43
601.046	14300.66
601.404	14310.6
601.762	14384.95
602.12	14382.69
602.478	14380.43
602.836	14350.6
603.194	14339.98
603.552	14357.6
603.91	14282.58
604.268	14398.73
604.625	14394.21
604.983	14374.78
605.341	14351.5
605.698	14404.38
606.056	14487.32
606.413	14470.37
606.771	14443.93
607.128	14459.29
607.485	14409.8
607.843	14384.27
608.2	14415.23
608.557	14619.06
608.914	14583.36
609.272	14562.12
609.629	14608.9
609.986	14563.02
610.343	14451.84
610.7	14655.45
611.057	14659.29
611.414	14624.49
611.771	14676.46
612.127	14703.36
612.484	14689.8
612.841	14816.35
613.198	14742.45
613.554	14671.94
613.911	14862
614.267	14762.56
614.624	14809.79
614.98	14728.67
615.337	14829
615.693	14711.49
616.05	14879.85
616.406	14879.62
616.762	14816.12
617.118	14916.23
617.475	14954.88
617.831	14887.76
618.187	14835.78
618.543	14980.41
618.899	14996.23
619.255	15034.65
619.611	14921.88
619.967	15104.48
620.323	15035.78
620.678	14990.13
621.034	14917.36
621.39	14887.08
621.746	14893.63
622.101	15084.14
622.457	14916.68
622.812	15006.17
623.168	15018.83
623.523	15007.3
623.879	15015.44
624.234	15073.97
624.589	14953.07
624.945	15044.82
625.3	15063.35
625.655	15027.64
626.01	14982.22
626.365	14991.48
626.72	15026.06
627.075	15008.89
627.43	15013.63
627.785	14990.13
628.14	14940.86
628.495	14956.91
628.85	14955.1
629.205	15009.34
629.559	15040.75
629.914	14964.59
630.269	14942.67
630.623	14943.8
630.978	14915.1
631.332	14904.26
631.687	14934.99
632.041	14933.41
632.396	14952.84
632.75	14866.97
633.104	14837.82
633.459	14719.18
633.813	14756.91
634.167	14788.33
634.521	14810.7
634.875	14721.89
635.229	14736.35
635.583	14597.82
635.937	14582
636.291	14544.04
636.645	14647.54
636.999	14535
637.352	14600.99
637.706	14499.07
638.06	14572.51
638.413	14454.1
638.767	14498.84
639.121	14498.62
639.474	14455
639.828	14484.38
640.181	14423.82
640.534	14461.33
640.888	14414.32
641.241	14400.99
641.594	14364.16
641.947	14419.3
642.301	14398.05
642.654	14262.01
643.007	14322.8
643.36	14302.46
643.713	14271.5
644.066	14379.98
644.419	14273.54
644.771	14139.3
645.124	14011.4
645.477	13976.82
645.83	13879.42
646.182	13826.54
646.535	13859.31
646.888	13799.65
647.24	13660.67
647.593	13730.27
647.945	13774.79
648.298	13596.94
648.65	13634.91
649.002	13618.87
649.355	13633.55
649.707	13577.96
650.059	13697.06
650.411	13912.87
650.763	13894.56
651.115	14049.14
651.467	13983.38
651.819	13971.85
652.171	13820.22
652.523	13913.09
652.875	13918.07
653.227	13776.6
653.578	13897.05
653.93	13780.89
654.282	13775.02
654.633	13711.07
654.985	13841.46
655.337	13693.44
655.688	13781.8
656.039	13768.69
656.391	13601.92
656.742	13701.8
657.094	13681.01
657.445	13806.2
657.796	13687.34
658.147	13715.36
658.498	13622.03
658.849	13684.17
659.2	13752.42
659.551	13685.08
659.902	13750.84
660.253	13719.65
660.604	13652.99
660.955	13628.36
661.306	13575.93
661.656	13577.28
662.007	13550.62
662.358	13546.55
662.708	13535.03
663.059	13561.01
663.409	13430.4
663.76	13600.56
664.11	13614.35
664.461	13629.49
664.811	13661.58
665.161	13612.76
665.511	13561.24
665.862	13567.57
666.212	13578.64
666.562	13502.48
666.912	13554.01
667.262	13453.9
667.612	13477.85
667.962	13578.64
668.312	13457.29
668.662	13449.15
669.011	13399.44
669.361	13400.11
669.711	13397.63
670.06	13408.48
670.41	13307.01
670.76	13337.06
671.109	13458.64
671.459	13402.6
671.808	13321.25
672.157	13359.44
672.507	13271.08
672.856	13314.24
673.205	13319.44
673.554	13331.64
673.904	13351.75
674.253	13321.7
674.602	13266.56
674.951	13094.81
675.3	13010.97
675.649	13258.2
675.998	13249.16
676.346	13302.04
676.695	13275.82
677.044	13195.37
677.393	13223.17
677.741	13244.86
678.09	13200.12
678.438	13162.61
678.787	13158.54
679.135	13142.04
679.484	12970.52
679.832	13054.36
680.181	12960.58
680.529	13052.1
680.877	13018.65
681.225	13135.94
681.573	13058.2
681.922	12939.79
682.27	12909.96
682.618	12968.49
682.966	12927.81
683.314	12959
683.661	12955.83
684.009	12790.64
684.357	12840.81
684.705	12872.44
685.053	12903.86
685.4	12890.75
685.748	12719
686.095	12719.23
686.443	12548.84
686.79	12639
687.138	12609.85
687.485	12613.69
687.832	12620.47
688.18	12555.39
688.527	12516.3
688.874	12533.92
689.221	12488.05
689.568	12436.98
689.915	12399.24
690.262	12399.01
690.609	12405.34
690.956	12411.21
691.303	12246.92
691.65	12206.92
691.997	12259.8
692.344	12158.56
692.69	12145.01
693.037	12127.38
693.383	12074.05
693.73	12097.1
694.077	11980.94
694.423	12082.41
694.769	12025.01
695.116	11928.97
695.462	11895.29
695.808	11920.83
696.155	11972.81
696.501	11892.36
696.847	11817.1
697.193	11745.92
697.539	11835.18
697.885	11669.76
698.231	11654.4
698.577	11696.2
698.923	11580.95
699.269	11493.5
699.614	11463.67
699.96	11417.34
700.306	11450.11
700.651	11429.32
700.997	11366.95
701.342	11318.59
701.688	11328.53
702.033	11346.83
702.379	11333.28
702.724	11393.61
703.069	11352.48
703.415	11171.92
703.76	11218.25
704.105	11212.15
704.45	11180.96
704.795	11064.13
705.14	11087.86
705.485	11069.1
705.83	11079.72
706.175	11020.52
706.52	10996.56
706.865	11037.92
707.209	10932.38
707.554	10830.01
707.899	10957.92
708.243	10827.3
708.588	10893.51
708.932	10830.46
709.277	10822.33
709.621	10819.84
709.966	10638.15
710.31	10789.33
710.654	10757.47
710.998	10730.13
711.342	10685.38
711.687	10610.13
712.031	10490.59
712.375	10541.66
712.719	10514.09
713.063	10571.26
713.407	10519.29
713.75	10411.94
714.094	10456.46
714.438	10395
714.782	10406.52
715.125	10324.49
715.469	10383.92
715.812	10315.45
716.156	10212.4
716.499	10237.94
716.843	10287.65
717.186	10207.2
717.53	10280.2
717.873	10228.45
718.216	10242
718.559	10254.43
718.902	10115
719.246	10218.05
719.589	10179.63
719.932	10074.33
720.275	10089.92
720.617	10090.37
720.96	10077.72
721.303	10049.02
721.646	10097.38
721.989	10107.77
722.331	10049.47
722.674	9978.06
723.016	9926.76
723.359	9967.44
723.701	9966.76
724.044	9908.91
724.386	9847.66
724.729	9869.81
725.071	9876.14
725.413	9891.28
725.755	9768.8
726.097	9702.81
726.439	9744.39
726.782	9719.08
727.124	9803.37
727.465	9710.49
727.807	9771.28
728.149	9665.07
728.491	9744.16
728.833	9776.71
729.175	9722.02
729.516	9628.46
729.858	9623.26
730.199	9663.94
730.541	9582.36
730.882	9501.91
731.224	9613.77
731.565	9533.55
731.906	9532.87
732.248	9529.03
732.589	9473.44
732.93	9469.82
733.271	9513.66
733.612	9419.65
733.953	9391.86
734.294	9351.18
734.635	9413.78
734.976	9457.84
735.317	9424.63
735.658	9429.82
735.999	9408.35
736.339	9307.34
736.68	9343.05
737.021	9231.41
737.361	9281.8
737.702	9292.65
738.042	9263.95
738.383	9256.95
738.723	9273.89
739.063	9248.58
739.404	9232.09
739.744	9136.27
740.084	9112.09
740.424	9157.51
740.764	9153.67
741.104	9184.86
741.444	9094.24
741.784	9074.8
742.124	9117.06
742.464	9046.1
742.804	8994.35
743.143	9073
743.483	9078.42
743.823	9001.59
744.162	8987.8
744.502	9003.39
744.841	8984.86
745.181	9030.06
745.52	9000
745.86	8946.22
746.199	8887.24
746.538	8907.35
746.877	8954.35
747.216	8842.49
747.556	8814.7
747.895	8908.71
748.234	8870.52
748.573	8799.33
748.911	8816.96
749.25	8769.73
749.589	8793.46
749.928	8788.71
750.267	8803.85
750.605	8797.75
750.944	8724.53
751.283	8671.42
751.621	8733.12
751.96	8721.14
752.298	8615.38
752.636	8719.56
752.975	8576.29
753.313	8586.23
753.651	8653.35
753.989	8619.9
754.327	8557.08
754.666	8552.11
755.004	8536.29
755.342	8569.28
755.679	8466.23
756.017	8420.13
756.355	8407.93
756.693	8382.17
757.031	8434.14
757.368	8297.42
757.706	8433.01
758.044	8329.06
758.381	8280.93
758.719	8275.05
759.056	8233.47
759.394	8210.65
759.731	8239.8
760.068	8139.01
760.405	8088.62
