Data from black_plastic_tray_FLMS001491_006.txt Node
Date: Tue Feb 07 10:39:10 GMT 2017
User: dcchb
Spectrometer: FLMS00149
Trigger mode: 0
Integration Time (sec): 2.000000E-2
Scans to average: 10
Electric dark correction enabled: true
Nonlinearity correction enabled: false
Boxcar width: 0
XAxis mode: Wavelengths
Number of Pixels in Spectrum: 2048
>>>>>Begin Spectral Data<<<<<
341.393	-18.08
341.776	-18.08
342.16	-18.08
342.543	-59.21
342.927	-65.76
343.31	-63.73
343.693	-51.3
344.077	-74.35
344.46	-75.93
344.843	-51.75
345.226	-39.77
345.61	-29.6
345.993	-22.6
346.376	-3.16
346.759	19.43
347.142	13.11
347.525	37.97
347.908	61.69
348.291	94.23
348.674	72.99
349.057	112.77
349.44	124.29
349.823	124.74
350.206	164.06
350.588	167.45
350.971	190.28
351.354	219.66
351.737	211.75
352.119	232.08
352.502	235.02
352.884	242.25
353.267	256.26
353.65	269.6
354.032	274.12
354.414	296.26
354.797	305.08
355.179	317.05
355.562	302.82
355.944	298.3
356.326	310.27
356.709	318.86
357.091	292.65
357.473	327.22
357.855	345.98
358.238	324.29
358.62	325.19
359.002	320.67
359.384	328.58
359.766	310.95
360.148	322.7
360.53	325.64
360.912	309.6
361.294	306.21
361.676	312.53
362.057	319.31
362.439	319.77
362.821	323.38
363.203	316.6
363.584	314.57
363.966	303.49
364.348	309.6
364.729	296.04
365.111	299.43
365.493	288.13
365.874	313.89
366.256	321.35
366.637	309.14
367.019	290.39
367.4	307.34
367.781	299.43
368.163	288.58
368.544	305.75
368.925	308.92
369.306	305.08
369.688	289.48
370.069	324.51
370.45	310.73
370.831	297.39
371.212	311.4
371.593	314.57
371.974	304.85
372.355	298.3
372.736	286.32
373.117	303.72
373.498	293.78
373.879	317.96
374.26	320.22
374.641	312.53
375.021	321.57
375.402	338.97
375.783	317.28
376.163	320.67
376.544	318.18
376.925	318.86
377.305	327.22
377.686	329.26
378.066	335.36
378.447	327.9
378.827	339.2
379.208	343.72
379.588	341.69
379.968	340.56
380.349	324.74
380.729	327.22
381.109	342.82
381.489	341.46
381.87	350.73
382.25	350.27
382.63	320.22
383.01	328.8
383.39	331.29
383.77	333.78
384.15	354.57
384.53	343.04
384.91	325.42
385.29	343.27
385.67	330.16
386.049	353.66
386.429	332.42
386.809	371.74
387.189	361.12
387.568	349.6
387.948	356.37
388.328	357.5
388.707	364.74
389.087	370.61
389.466	358.86
389.846	361.57
390.225	344.85
390.605	364.06
390.984	396.37
391.363	394.34
391.743	361.57
392.122	381.91
392.501	370.16
392.881	371.06
393.26	367.67
393.639	376.04
394.018	378.07
394.397	398.86
394.776	380.55
395.155	392.76
395.534	378.52
395.913	397.28
396.292	409.03
396.671	374.68
397.05	378.52
397.429	395.24
397.808	398.63
398.186	406.77
398.565	405.87
398.944	394.79
399.323	399.99
399.701	420.55
400.08	399.31
400.458	426.66
400.837	435.02
401.215	415.81
401.594	425.98
401.972	409.93
402.351	423.27
402.729	438.86
403.107	426.2
403.486	409.25
403.864	435.24
404.242	424.4
404.62	438.41
404.999	408.8
405.377	431.4
405.755	449.03
406.133	440.21
406.511	449.93
406.889	475.69
407.267	459.42
407.645	453.32
408.023	468.01
408.401	464.62
408.779	461.46
409.156	487.67
409.534	496.94
409.912	485.64
410.29	477.5
410.667	505.07
411.045	476.15
411.422	470.5
411.8	516.14
412.178	502.13
412.555	507.56
412.933	520.89
413.31	522.25
413.687	519.53
414.065	515.47
414.442	548.01
414.819	521.57
415.197	536.03
415.574	509.59
415.951	544.39
416.328	534.68
416.705	548.91
417.082	523.38
417.46	543.04
417.837	540.32
418.214	575.13
418.591	569.25
418.967	561.34
419.344	576.26
419.721	557.95
420.098	583.71
420.475	573.77
420.852	587.56
421.228	607.22
421.605	593.66
421.982	570.61
422.358	597.05
422.735	609.25
423.111	599.98
423.488	617.16
423.864	619.19
424.241	618.06
424.617	596.14
424.994	640.89
425.37	637.05
425.746	630.72
426.123	629.14
426.499	628.46
426.875	649.93
427.251	667.78
427.627	655.58
428.003	653.54
428.379	686.31
428.756	675.46
429.132	699.87
429.507	683.37
429.883	688.8
430.259	702.58
430.635	701.22
431.011	697.61
431.387	724.5
431.763	739.19
432.138	759.3
432.514	750.71
432.89	756.82
433.265	759.3
433.641	775.57
434.016	778.51
434.392	768.79
434.767	771.96
435.143	804.72
435.518	799.75
435.894	807.21
436.269	823.03
436.644	798.17
437.02	830.26
437.395	831.84
437.77	827.32
438.145	856.25
438.52	862.8
438.895	837.27
439.271	848.57
439.646	853.54
440.021	868.68
440.395	869.81
440.77	853.31
441.145	884.04
441.52	891.28
441.895	879.07
442.27	906.64
442.645	904.38
443.019	888.56
443.394	929.69
443.769	908.68
444.143	924.72
444.518	944.38
444.892	943.93
445.267	957.71
445.641	935.79
446.016	964.72
446.39	933.08
446.764	993.19
447.139	942.8
447.513	983.03
447.887	997.26
448.262	976.92
448.636	988
449.01	1003.59
449.384	1020.54
449.758	1000.43
450.132	1009.24
450.506	1009.69
450.88	1031.39
451.254	1031.84
451.628	1027.32
452.002	1054.66
452.376	1048.11
452.75	1090.37
453.123	1067.54
453.497	1100.08
453.871	1111.38
454.244	1124.49
454.618	1121.1
454.992	1143.92
455.365	1144.15
455.739	1165.39
456.112	1160.2
456.486	1160.42
456.859	1214.88
457.232	1215.34
457.606	1216.92
457.979	1235.45
458.352	1229.12
458.725	1247.42
459.099	1273.41
459.472	1293.53
459.845	1299.4
460.218	1305.05
460.591	1313.86
460.964	1320.42
461.337	1327.2
461.71	1356.35
462.083	1370.59
462.456	1402.45
462.829	1384.6
463.201	1390.7
463.574	1374.65
463.947	1427.76
464.32	1464.37
464.692	1468.89
465.065	1480.41
465.438	1458.94
465.81	1527.19
466.183	1490.81
466.555	1550.92
466.928	1567.19
467.3	1552.95
467.672	1584.37
468.045	1622.1
468.417	1599.51
468.789	1627.98
469.161	1662.1
469.534	1704.36
469.906	1715.66
470.278	1698.49
470.65	1703.68
471.022	1781.87
471.394	1811.25
471.766	1807.64
472.138	1829.78
472.51	1837.24
472.882	1881.31
473.253	1881.76
473.625	1912.27
473.997	1967.41
474.369	1956.11
474.74	1997.46
475.112	2030.46
475.484	2030.91
475.855	2088.98
476.227	2084.24
476.598	2151.81
476.97	2158.36
477.341	2184.12
477.713	2241.75
478.084	2246.72
478.455	2340.05
478.827	2341.41
479.198	2369.43
479.569	2402.87
479.94	2437.9
480.311	2445.59
480.682	2500.05
481.053	2561.74
481.424	2578.46
481.795	2633.6
482.166	2666.82
482.537	2695.3
482.908	2739.59
483.279	2742.75
483.65	2822.3
484.021	2842.19
484.391	2909.3
484.762	2922.64
485.133	2950.66
485.503	3018.68
485.874	3034.95
486.244	3061.84
486.615	3115.85
486.985	3111.1
487.356	3201.05
487.726	3222.06
488.097	3314.04
488.467	3304.55
488.837	3390.65
489.207	3409.63
489.578	3443.98
489.948	3480.81
490.318	3544.09
490.688	3545.44
491.058	3569.85
491.428	3641.03
491.798	3657.3
492.168	3732.78
492.538	3734.37
492.908	3765.32
493.278	3768.49
493.648	3798.32
494.017	3872.21
494.387	3927.58
494.757	3961.48
495.126	3987.92
495.496	3999.89
495.866	4030.63
496.235	4053.68
496.605	4051.42
496.974	4115.15
497.344	4189.04
497.713	4162.83
498.082	4252.77
498.452	4294.35
498.821	4252.32
499.19	4302.26
499.559	4328.7
499.928	4377.51
500.298	4395.14
500.667	4446.66
501.036	4402.6
501.405	4536.83
501.774	4489.15
502.143	4570.95
502.512	4546.32
502.88	4577.51
503.249	4620.44
503.618	4646.66
503.987	4681.91
504.356	4679.88
504.724	4725.75
505.093	4734.79
505.462	4789.25
505.83	4820.44
506.199	4876.03
506.567	4873.09
506.936	4914.22
507.304	4976.37
507.672	4955.8
508.041	5001
508.409	5025.18
508.777	5029.02
509.145	5135.91
509.514	5107.44
509.882	5190.82
510.25	5130.49
510.618	5240.99
510.986	5259.3
511.354	5305.85
511.722	5372.97
512.09	5372.06
512.458	5393.53
512.826	5455.22
513.193	5470.14
513.561	5556.92
513.929	5519.63
514.297	5614.99
514.664	5645.73
515.032	5654.77
515.4	5683.01
515.767	5725.05
516.135	5743.58
516.502	5710.13
516.869	5824.93
517.237	5901.54
517.604	5868.77
517.972	5939.73
518.339	5926.62
518.706	5966.17
519.073	6020.41
519.44	6044.59
519.808	6122.32
520.175	6148.31
520.542	6184.7
520.909	6225.37
521.276	6280.96
521.643	6350.79
522.009	6331.81
522.376	6423.11
522.743	6524.8
523.11	6560.73
523.477	6588.08
523.843	6652.71
524.21	6636.44
524.577	6722.08
524.943	6727.96
525.31	6786.04
525.676	6849.54
526.043	6920.95
526.409	6959.59
526.776	7024.22
527.142	7050.44
527.508	7056.99
527.874	7148.06
528.241	7159.13
528.607	7209.75
528.973	7289.3
529.339	7216.76
529.705	7289.98
530.071	7347.38
530.437	7467.6
530.803	7459.24
531.169	7459.46
531.535	7468.28
531.901	7557.77
532.267	7608.61
532.632	7663.75
532.998	7729.74
533.364	7762.06
533.73	7797.76
534.095	7863.75
534.461	7845.22
534.826	7905.55
535.192	7950.3
535.557	8014.48
535.923	7946.46
536.288	8009.96
536.653	8067.13
537.019	8098.09
537.384	8099.9
537.749	8127.47
538.114	8166.79
538.479	8180.12
538.845	8199.33
539.21	8177.86
539.575	8256.28
539.94	8303.96
540.305	8310.74
540.67	8284.75
541.034	8308.26
541.399	8354.36
541.764	8405.43
542.129	8496.73
542.494	8475.71
542.858	8461.02
543.223	8512.54
543.587	8538.76
543.952	8592.99
544.316	8619.89
544.681	8659.89
545.045	8742.59
545.41	8783.05
545.774	8820.33
546.138	8783.05
546.503	8829.37
546.867	8792.09
547.231	8870.95
547.595	8955.02
547.959	8935.13
548.324	8954.79
548.688	9010.84
549.052	8984.4
549.416	9001.57
549.779	9023.49
550.143	9026.66
550.507	9073.43
550.871	9137.84
551.235	9177.16
551.599	9228.91
551.962	9266.65
552.326	9255.12
552.689	9344.84
553.053	9225.07
553.417	9281.56
553.78	9456.02
554.143	9317.5
554.507	9489.69
554.87	9478.85
555.234	9595.45
555.597	9575.34
555.96	9578.73
556.323	9607.21
556.686	9643.81
557.05	9707.77
557.413	9755.9
557.776	9766.97
558.139	9888.33
558.502	9878.61
558.865	9970.36
559.228	9980.3
559.59	10014.65
559.953	10086.06
560.316	10214.65
560.679	10165.83
561.041	10227.98
561.404	10281.09
561.767	10301.2
562.129	10249
562.492	10354.3
562.854	10346.62
563.217	10307.53
563.579	10433.85
563.941	10502.32
564.304	10459.84
564.666	10533.73
565.028	10567.18
565.39	10598.14
565.753	10639.49
566.115	10728.98
566.477	10755.2
566.839	10710.23
567.201	10891.69
567.563	10824.12
567.925	11035.19
568.287	10909.77
568.648	11008.3
569.01	11077.22
569.372	11156.32
569.734	11112.25
570.095	11160.16
570.457	11292.36
570.819	11285.35
571.18	11319.25
571.542	11267.95
571.903	11368.97
572.265	11422.07
572.626	11385.46
572.987	11454.84
573.349	11422.07
573.71	11512.01
574.071	11540.49
574.432	11604.44
574.794	11622.97
575.155	11609.19
575.516	11518.12
575.877	11644.89
576.238	11679.24
576.599	11707.04
576.96	11703.65
577.32	11667.26
577.681	11682.86
578.042	11737.32
578.403	11827.49
578.763	11889.86
579.124	11785.45
579.485	11890.31
579.845	11912
580.206	11838.11
580.566	11825.68
580.927	11862.29
581.287	11951.78
581.648	11854.15
582.008	11937.54
582.368	11928.95
582.728	11950.65
583.089	11996.97
583.449	12003.3
583.809	12009.85
584.169	12018.67
584.529	11999.68
584.889	12107.25
585.249	12065.9
585.609	12031.55
585.969	12087.14
586.329	12021.6
586.688	12003.75
587.048	12040.59
587.408	12081.49
587.768	12015.5
588.127	12000.81
588.487	11944.54
588.846	12030.42
589.206	11940.25
589.565	11942.28
589.925	11982.28
590.284	12067.71
590.643	12010.76
591.003	12086.24
591.362	12044.66
591.721	12022.28
592.08	12002.4
592.44	12049.4
592.799	12018.89
593.158	11961.95
593.517	12074.48
593.876	12076.29
594.235	11992.45
594.593	12088.5
594.952	12004.66
595.311	12060.02
595.67	12090.53
596.029	12101.38
596.387	12241.94
596.746	12191.77
597.104	12087.37
597.463	12136.63
597.822	12191.54
598.18	12167.36
598.538	12187.93
598.897	12280.36
599.255	12119
599.613	12336.17
599.972	12224.99
600.33	12303.63
600.688	12205.55
601.046	12278.77
601.404	12293.24
601.762	12294.82
602.12	12334.82
602.478	12361.71
602.836	12409.39
603.194	12285.1
603.552	12295.95
603.91	12249.17
604.268	12297.76
604.625	12273.12
604.983	12348.6
605.341	12265.44
605.698	12259.34
606.056	12258.21
606.413	12237.64
606.771	12317.64
607.128	12329.62
607.485	12302.5
607.843	12317.64
608.2	12370.07
608.557	12420.46
608.914	12437.19
609.272	12468.37
609.629	12546.34
609.986	12516.28
610.343	12504.3
610.7	12569.84
611.057	12561.93
611.414	12575.71
611.771	12454.14
612.127	12587.69
612.484	12638.09
612.841	12643.74
613.198	12638.09
613.554	12691.87
613.911	12659.1
614.267	12661.14
614.624	12693.45
614.98	12696.16
615.337	12723.06
615.693	12752.21
616.05	12663.85
616.406	12797.4
616.762	12729.83
617.118	12707.69
617.475	12688.25
617.831	12761.7
618.187	12717.63
618.543	12651.87
618.899	12846.22
619.255	12823.62
619.611	12887.8
619.967	12883.28
620.323	12835.37
620.678	12740.23
621.034	12783.62
621.39	12781.13
621.746	12678.08
622.101	12790.62
622.457	12775.94
622.812	12799.66
623.168	12838.08
623.523	12829.95
623.879	12943.61
624.234	12780.91
624.589	12789.95
624.945	12836.72
625.3	12845.99
625.655	12805.76
626.01	12852.54
626.365	12805.31
626.72	12786.56
627.075	12855.93
627.43	12894.12
627.785	12784.3
628.14	12849.38
628.495	12888.93
628.85	12798.53
629.205	12829.04
629.559	12902.94
629.914	12794.01
630.269	12856.84
630.623	12815.48
630.978	12819.1
631.332	12919.66
631.687	12793.56
632.041	12734.81
632.396	12785.43
632.75	12694.13
633.104	12703.85
633.459	12663.62
633.813	12614.36
634.167	12583.17
634.521	12625.43
634.875	12695.94
635.229	12618.65
635.583	12532.55
635.937	12550.4
636.291	12501.59
636.645	12589.73
636.999	12493.68
637.352	12483.29
637.706	12416.85
638.06	12407.58
638.413	12409.84
638.767	12420.24
639.121	12397.41
639.474	12343.86
639.828	12300.47
640.181	12384.76
640.534	12330.52
640.888	12268.38
641.241	12221.83
641.594	12273.35
641.947	12368.94
642.301	12295.95
642.654	12340.24
643.007	12234.48
643.36	12248.49
643.713	12173.24
644.066	12197.65
644.419	12144.09
644.771	12097.99
645.124	12099.34
645.477	12011.21
645.83	11953.36
646.182	11870.2
646.535	11757.66
646.888	11795.62
647.24	11824.32
647.593	11838.33
647.945	11713.14
648.298	11786.13
648.65	11654.83
649.002	11611.67
649.355	11724.66
649.707	11781.61
650.059	11764.21
650.411	11911.1
650.763	11905.9
651.115	12023.19
651.467	11932.57
651.819	11843.98
652.171	11894.38
652.523	11824.55
652.875	11870.65
653.227	11814.38
653.578	11927.37
653.93	11911.55
654.282	11799.46
654.633	11769.18
654.985	11727.38
655.337	11800.59
655.688	11796.07
656.039	11860.25
656.391	11689.18
656.742	11725.57
657.094	11775.06
657.445	11768.05
657.796	11795.62
658.147	11805.57
658.498	11783.19
658.849	11893.02
659.2	11792.46
659.551	11695.06
659.902	11836.52
660.253	11827.94
660.604	11715.4
660.955	11640.37
661.306	11723.31
661.656	11655.06
662.007	11675.17
662.358	11675.17
662.708	11660.94
663.059	11666.36
663.409	11589.98
663.76	11698.68
664.11	11563.76
664.461	11664.78
664.811	11659.58
665.161	11578.68
665.511	11567.15
665.862	11566.02
666.212	11626.13
666.562	11556.53
666.912	11546.82
667.262	11538.68
667.612	11509.3
667.962	11531.22
668.312	11492.58
668.662	11523.76
669.011	11584.55
669.361	11514.5
669.711	11468.17
670.06	11429.08
670.41	11458.23
670.76	11408.74
671.109	11437.67
671.459	11481.05
671.808	11427.5
672.157	11397.44
672.507	11322.41
672.856	11407.16
673.205	11413.94
673.554	11436.99
673.904	11392.24
674.253	11510.43
674.602	11450.32
674.951	11257.33
675.3	11180.5
675.649	11361.74
675.998	11358.35
676.346	11385.46
676.695	11493.48
677.044	11273.15
677.393	11349.76
677.741	11374.62
678.09	11229.76
678.438	11259.59
678.787	11309.08
679.135	11225.69
679.484	11209.87
679.832	11193.83
680.181	11156.77
680.529	11187.5
680.877	11206.26
681.225	11222.98
681.573	11209.2
681.922	11124.91
682.27	11103.66
682.618	11104.11
682.966	11045.13
683.314	11129.65
683.661	11139.82
684.009	11025.02
684.357	10951.35
684.705	10946.38
685.053	10989.54
685.4	10937.11
685.748	10841.3
686.095	10792.26
686.443	10806.04
686.79	10823.67
687.138	10815.08
687.485	10881.52
687.832	10741.64
688.18	10794.97
688.527	10673.39
688.874	10678.36
689.221	10713.39
689.568	10643.79
689.915	10643.34
690.262	10642.66
690.609	10630
690.956	10636.78
691.303	10622.55
691.65	10503.45
691.997	10459.16
692.344	10418.71
692.69	10441.08
693.037	10421.19
693.383	10418.94
693.73	10381.42
694.077	10383.46
694.423	10399.73
694.769	10344.81
695.116	10329.22
695.462	10200.18
695.808	10238.6
696.155	10237.7
696.501	10101.88
696.847	10213.29
697.193	10101.66
697.539	10197.92
697.885	10128.77
698.231	10016.69
698.577	10056.91
698.923	9999.51
699.269	9964.94
699.614	9925.61
699.96	9841.55
700.306	9964.48
700.651	9812.62
700.997	9824.15
701.342	9786.86
701.688	9777.14
702.033	9700.31
702.379	9728.56
702.724	9627.32
703.069	9738.73
703.415	9536.92
703.76	9564.72
704.105	9552.52
704.45	9525.63
704.795	9502.12
705.14	9587.77
705.485	9471.84
705.83	9405.4
706.175	9487.66
706.52	9407.66
706.865	9389.36
707.209	9363.6
707.554	9342.81
707.899	9333.99
708.243	9263.49
708.588	9366.31
708.932	9296.48
709.277	9262.36
709.621	9289.7
709.966	9192.07
710.31	9247.89
710.654	9111.62
710.998	9187.1
711.342	9158.86
711.687	9155.01
712.031	9144.17
712.375	9062.13
712.719	9043.38
713.063	9166.31
713.407	9066.88
713.75	9070.27
714.094	9055.58
714.438	9021.46
714.782	9011.97
715.125	8973.1
715.469	8922.03
715.812	8919.31
716.156	8885.19
716.499	8913.66
716.843	8875.47
717.186	8869.15
717.53	8915.02
717.873	8863.5
718.216	8846.77
718.559	8813.78
718.902	8714.35
719.246	8732.43
719.589	8690.84
719.932	8642.03
720.275	8632.54
720.617	8681.35
720.96	8636.84
721.303	8634.12
721.646	8586.44
721.989	8578.08
722.331	8600
722.674	8587.57
723.016	8523.17
723.359	8534.01
723.701	8546.89
724.044	8480
724.386	8470.74
724.729	8533.33
725.071	8465.31
725.413	8493.11
725.755	8427.12
726.097	8413.34
726.439	8364.07
726.782	8382.15
727.124	8393.45
727.465	8388.03
727.807	8354.58
728.149	8329.27
728.491	8335.37
728.833	8309.61
729.175	8276.84
729.516	8261.48
729.858	8301.48
730.199	8274.36
730.541	8218.31
730.882	8259.22
731.224	8292.66
731.565	8244.53
731.906	8177.41
732.248	8262.38
732.589	8254.47
732.93	8152.78
733.271	8174.7
733.612	8086.12
733.953	8152.78
734.294	8087.24
734.635	8122.27
734.976	8186.45
735.317	8089.28
735.658	8086.12
735.999	8045.21
736.339	8039.34
736.68	8032.33
737.021	8045.21
737.361	7985.78
737.702	7992.78
738.042	7981.49
738.383	7986.91
738.723	7962.95
739.063	7911.2
739.404	7958.66
739.744	7899.91
740.084	7853.8
740.424	7889.28
740.764	7865.1
741.104	7864.88
741.444	7868.72
741.784	7830.08
742.124	7864.65
742.464	7828.72
742.804	7822.85
743.143	7764.77
743.483	7797.08
743.823	7724.77
744.162	7738.55
744.502	7710.98
744.841	7671.89
745.181	7774.48
745.52	7693.36
745.86	7739.23
746.199	7643.64
746.538	7671.44
746.877	7599.12
747.216	7568.39
747.556	7628.27
747.895	7653.36
748.234	7664.43
748.573	7572
748.911	7588.28
749.25	7589.63
749.589	7520.93
749.928	7592.34
750.267	7574.49
750.605	7540.59
750.944	7468.73
751.283	7496.75
751.621	7461.95
751.96	7460.37
752.298	7439.8
752.636	7407.04
752.975	7398.22
753.313	7400.94
753.651	7448.17
753.989	7468.5
754.327	7356.19
754.666	7313.03
755.004	7298.57
755.342	7306.02
755.679	7253.82
756.017	7248.4
756.355	7215.63
756.693	7178.34
757.031	7233.71
757.368	7145.57
757.706	7180.15
758.044	7102.41
758.381	7127.72
758.719	7138.34
759.056	7107.16
759.394	7074.39
759.731	7075.52
760.068	7074.84
760.405	7002.98
760.743	6951.68
761.08	7013.6
761.417	6996.65
761.754	6979.25
762.091	6947.61
762.428	6932.25
