Data from black_plastic_tray_FLMS001491_081.txt Node
Date: Tue Feb 07 10:40:51 GMT 2017
User: dcchb
Spectrometer: FLMS00149
Trigger mode: 0
Integration Time (sec): 2.000000E-2
Scans to average: 10
Electric dark correction enabled: true
Nonlinearity correction enabled: false
Boxcar width: 0
XAxis mode: Wavelengths
Number of Pixels in Spectrum: 2048
>>>>>Begin Spectral Data<<<<<
341.393	-18.7
341.776	-18.7
342.16	-18.7
342.543	-54.41
342.927	-76.33
343.31	-72.71
343.693	-68.87
344.077	-60.51
344.46	-69.32
344.843	-48.76
345.226	-48.76
345.61	-28.42
345.993	-8.53
346.376	2.99
346.759	24.69
347.142	15.65
347.525	46.83
347.908	41.64
348.291	86.16
348.674	79.83
349.057	108.08
349.44	115.53
349.823	138.13
350.206	159.83
350.588	162.76
350.971	228.3
351.354	207.96
351.737	230.78
352.119	245.47
352.502	224.23
352.884	244.34
353.267	261.07
353.65	287.51
354.032	283.66
354.414	295.64
354.797	304
355.179	302.65
355.562	310.33
355.944	301.52
356.326	320.27
356.709	325.02
357.091	307.39
357.473	300.61
357.855	300.61
358.238	338.58
358.62	322.08
359.002	325.7
359.384	338.8
359.766	336.09
360.148	314.85
360.53	317.79
360.912	330.9
361.294	316.88
361.676	320.27
362.057	310.56
362.439	320.95
362.821	323.89
363.203	322.99
363.584	311.91
363.966	285.02
364.348	331.12
364.729	318.24
365.111	309.88
365.493	306.04
365.874	324.34
366.256	300.16
366.637	310.1
367.019	324.79
367.4	319.37
367.781	295.42
368.163	298.81
368.544	296.55
368.925	299.94
369.306	318.01
369.688	315.3
370.069	309.43
370.45	327.73
370.831	309.65
371.212	313.27
371.593	290.44
371.974	297
372.355	311.01
372.736	322.31
373.117	315.53
373.498	311.01
373.879	311.23
374.26	317.11
374.641	320.27
375.021	306.49
375.402	316.43
375.783	327.05
376.163	336.54
376.544	327.05
376.925	337.45
377.305	320.5
377.686	311.69
378.066	322.53
378.447	334.96
378.827	345.13
379.208	328.41
379.588	331.12
379.968	322.53
380.349	333.61
380.729	342.65
381.109	319.82
381.489	332.7
381.87	337.22
382.25	356.88
382.63	348.75
383.01	346.94
383.39	352.82
383.77	334.28
384.15	334.96
384.53	351.01
384.91	363.21
385.29	339.03
385.67	363.66
386.049	364.34
386.429	343.55
386.809	356.21
387.189	360.72
387.568	365.7
387.948	362.76
388.328	377.9
388.707	364.57
389.087	367.73
389.466	345.81
389.846	368.41
390.225	389.65
390.605	393.72
390.984	403.44
391.363	361.85
391.743	382.42
392.122	423.1
392.501	386.71
392.881	379.71
393.26	388.75
393.639	377
394.018	376.54
394.397	395.3
394.776	398.69
395.155	405.24
395.534	413.15
395.913	412.7
396.292	407.96
396.671	406.37
397.05	433.27
397.429	412.25
397.808	425.81
398.186	420.16
398.565	440.95
398.944	424.9
399.323	435.53
399.701	429.2
400.08	438.92
400.458	426.03
400.837	429.42
401.215	421.29
401.594	422.64
401.972	451.8
402.351	465.13
402.729	448.18
403.107	460.61
403.486	447.73
403.864	464.45
404.242	451.12
404.62	480.5
404.999	490.89
405.377	474.39
405.755	453.6
406.133	475.52
406.511	466.94
406.889	483.43
407.267	479.59
407.645	483.21
408.023	492.7
408.401	478.24
408.779	493.15
409.156	503.32
409.534	513.94
409.912	516.88
410.29	520.49
410.667	531.12
411.045	512.36
411.422	520.95
411.8	526.37
412.178	530.21
412.555	526.6
412.933	527.73
413.31	547.16
413.687	539.48
414.065	555.3
414.442	552.36
414.819	560.27
415.197	584
415.574	563.66
415.951	569.53
416.328	577.89
416.705	557.33
417.082	597.1
417.46	598.23
417.837	596.65
418.214	604.56
418.591	595.75
418.967	617.44
419.344	623.77
419.721	617.44
420.098	618.57
420.475	621.28
420.852	631.68
421.228	643.66
421.605	633.49
421.982	628.51
422.358	647.27
422.735	627.61
423.111	670.32
423.488	642.53
423.864	652.69
424.241	672.81
424.617	677.78
424.994	687.04
425.37	697.89
425.746	687.04
426.123	673.94
426.499	690.89
426.875	677.78
427.251	698.8
427.627	714.84
428.003	720.04
428.379	737.89
428.756	762.75
429.132	739.25
429.507	752.81
429.883	714.61
430.259	767.49
430.635	785.57
431.011	779.7
431.387	781.73
431.763	808.4
432.138	788.51
432.514	824.67
432.89	808.17
433.265	833.03
433.641	839.13
434.016	852.69
434.392	833.03
434.767	842.29
435.143	855.85
435.518	873.25
435.894	855.63
436.269	875.74
436.644	887.04
437.02	896.76
437.395	913.7
437.77	926.59
438.145	929.07
438.52	953.03
438.895	946.7
439.271	950.54
439.646	974.72
440.021	969.75
440.395	968.39
440.77	942.86
441.145	966.58
441.52	972.91
441.895	974.95
442.27	984.21
442.645	985.79
443.019	990.31
443.394	1018.33
443.769	1003.87
444.143	1038.9
444.518	1040.03
444.892	1036.19
445.267	1039.58
445.641	1040.93
446.016	1041.16
446.39	1072.34
446.764	1097.88
447.139	1071.89
447.513	1070.08
447.887	1064.89
448.262	1061.27
448.636	1075.51
449.01	1082.74
449.384	1102.85
449.758	1107.37
450.132	1131.33
450.506	1135.39
450.88	1114.38
451.254	1153.02
451.628	1149.63
452.002	1151.21
452.376	1169.07
452.75	1181.04
453.123	1170.42
453.497	1201.61
453.871	1210.42
454.244	1233.02
454.618	1274.37
454.992	1264.2
455.365	1248.39
455.739	1280.93
456.112	1304.88
456.486	1339.91
456.859	1288.61
457.232	1311.89
457.606	1316.63
457.979	1352.56
458.352	1371.09
458.725	1383.52
459.099	1406.35
459.472	1430.98
459.845	1433.47
460.218	1450.19
460.591	1442.96
460.964	1479.57
461.337	1483.63
461.71	1507.36
462.083	1523.18
462.456	1512.56
462.829	1529.51
463.201	1563.86
463.574	1544.87
463.947	1589.85
464.32	1638.88
464.692	1607.02
465.065	1684.53
465.438	1669.84
465.81	1711.88
466.183	1687.47
466.555	1750.52
466.928	1731.54
467.3	1764.53
467.672	1786.45
468.045	1797.3
468.417	1815.15
468.789	1821.25
469.161	1841.36
469.534	1895.15
469.906	1927.01
470.278	1922.04
470.65	1936.73
471.022	1975.15
471.394	1989.61
471.766	2014.69
472.138	2030.06
472.51	2031.64
472.882	2097.4
473.253	2129.49
473.625	2150.28
473.997	2217.4
474.369	2189.15
474.74	2236.16
475.112	2287.68
475.484	2292.2
475.855	2355.47
476.227	2353.21
476.598	2416.26
476.97	2430.28
477.341	2485.64
477.713	2518.86
478.084	2506.66
478.455	2610.38
478.827	2609.25
479.198	2675.01
479.569	2674.11
479.94	2760.44
480.311	2785.29
480.682	2825.29
481.053	2879.53
481.424	2909.81
481.795	2975.12
482.166	2997.72
482.537	3074.33
482.908	3071.16
483.279	3119.75
483.65	3159.3
484.021	3217.15
484.391	3267.77
484.762	3299.63
485.133	3328.1
485.503	3394.77
485.874	3471.15
486.244	3468.89
486.615	3545.73
486.985	3550.7
487.356	3650.36
487.726	3693.52
488.097	3751.6
488.467	3684.03
488.837	3787.3
489.207	3855.1
489.578	3885.38
489.948	3895.77
490.318	4000.63
490.688	3998.14
491.058	4059.84
491.428	4130.57
491.798	4155.43
492.168	4217.35
492.538	4232.94
492.908	4271.81
493.278	4314.29
493.648	4330.79
494.017	4418.7
494.387	4428.64
494.757	4491.69
495.126	4479.49
495.496	4510.9
495.866	4594.29
496.235	4648.75
496.605	4693.94
496.974	4665.92
497.344	4765.13
497.713	4764
498.082	4827.95
498.452	4855.97
498.821	4860.27
499.19	4842.42
499.559	4930.77
499.928	4956.76
500.298	5014.39
500.667	5043.31
501.036	5078.12
501.405	5060.94
501.774	5107.49
502.143	5215.74
502.512	5231.56
502.88	5249.64
503.249	5223.2
503.618	5291.67
503.987	5306.58
504.356	5326.7
504.724	5412.34
505.093	5412.57
505.462	5415.28
505.83	5404.66
506.199	5495.28
506.567	5629.74
506.936	5629.29
507.304	5619.8
507.672	5690.08
508.041	5710.41
508.409	5777.76
508.777	5757.19
509.145	5884.42
509.514	5806.91
509.882	5886.46
510.25	5919.67
510.618	5938.21
510.986	5975.72
511.354	6073.34
511.722	6111.99
512.09	6186.56
512.458	6200.12
512.826	6237.63
513.193	6278.08
513.561	6239.89
513.929	6295.03
514.297	6381.36
514.664	6405.54
515.032	6433.79
515.4	6534.35
515.767	6547.45
516.135	6613.89
516.502	6583.61
516.869	6697.06
517.237	6678.75
517.604	6720.56
517.972	6757.39
518.339	6835.13
518.706	6877.39
519.073	6934.34
519.44	6945.86
519.808	7065.86
520.175	7060.44
520.542	7154.44
520.909	7169.59
521.276	7194.67
521.643	7262.69
522.009	7315.12
522.376	7414.32
522.743	7359.64
523.11	7486.41
523.477	7573.42
523.843	7570.03
524.21	7676.92
524.577	7757.59
524.943	7807.31
525.31	7716.24
525.676	7890.92
526.043	7911.03
526.409	7971.82
526.776	8091.6
527.142	8065.61
527.508	8170.24
527.874	8225.83
528.241	8273.74
528.607	8294.75
528.973	8335.88
529.339	8375.88
529.705	8453.85
530.071	8508.31
530.437	8588.76
530.803	8618.81
531.169	8735.65
531.535	8670.56
531.901	8694.74
532.267	8698.81
532.632	8829.88
532.998	8839.6
533.364	8886.6
533.73	8944.45
534.095	9028.75
534.461	9124.11
534.826	9058.35
535.192	9131.57
535.557	9217.44
535.923	9243.2
536.288	9288.63
536.653	9291.34
537.019	9245.69
537.384	9337.66
537.749	9409.98
538.114	9370.43
538.479	9379.7
538.845	9449.3
539.21	9509.86
539.575	9574.95
539.94	9640.03
540.305	9663.76
540.67	9613.14
541.034	9668.28
541.399	9698.56
541.764	9714.83
542.129	9768.61
542.494	9854.49
542.858	9828.5
543.223	9819.69
543.587	9911.89
543.952	9862.4
544.316	9978.33
544.681	9900.14
545.045	9986.91
545.41	10071.43
545.774	10102.16
546.138	10024.65
546.503	10149.85
546.867	10132.22
547.231	10239.56
547.595	10239.79
547.959	10228.04
548.324	10297.86
548.688	10272.55
549.052	10375.6
549.416	10290.41
549.779	10453.11
550.143	10454.47
550.507	10504.64
550.871	10497.63
551.235	10615.82
551.599	10645.2
551.962	10755.48
552.326	10697.18
552.689	10735.14
553.053	10836.61
553.417	10736.5
553.78	10956.6
554.143	10851.97
554.507	10969.03
554.87	10972.2
555.234	11091.52
555.597	11014
555.96	11109.82
556.323	11195.24
556.686	11131.74
557.05	11331.06
557.413	11294
557.776	11312.53
558.139	11400.66
558.502	11471.85
558.865	11487.44
559.228	11553.65
559.59	11566.31
559.953	11644.72
560.316	11795
560.679	11705.06
561.041	11806.98
561.404	11910.25
561.767	11976.24
562.129	11945.51
562.492	12003.13
562.854	11982.34
563.217	12054.43
563.579	12158.15
563.941	12299.62
564.304	12264.37
564.666	12332.16
565.028	12327.19
565.39	12346.62
565.753	12470.24
566.115	12489.67
566.477	12511.59
566.839	12572.83
567.201	12679.72
567.563	12716.11
567.925	12744.58
568.287	12750
568.648	12788.42
569.01	12853.05
569.372	12974.18
569.734	12885.59
570.095	13048.53
570.457	12978.47
570.819	13138.47
571.18	13121.07
571.542	13240.39
571.903	13192.48
572.265	13275.41
572.626	13291.46
572.987	13370.55
573.349	13375.52
573.71	13422.3
574.071	13414.62
574.432	13482.64
574.794	13645.8
575.155	13574.16
575.516	13487.39
575.877	13579.81
576.238	13632.01
576.599	13694.16
576.96	13658
577.32	13618.68
577.681	13676.08
578.042	13747.72
578.403	13760.82
578.763	13813.25
579.124	13825.91
579.485	13792.91
579.845	13874.72
580.206	13863.87
580.566	13867.71
580.927	13847.83
581.287	13930.31
581.648	13847.6
582.008	13904.1
582.368	13929.18
582.728	14063.64
583.089	14011.89
583.449	13966.92
583.809	13993.81
584.169	14062.96
584.529	14024.32
584.889	14099.57
585.249	14024.77
585.609	14046.24
585.969	14032
586.329	14019.8
586.688	14061.83
587.048	14047.14
587.408	13972.57
587.768	13945.9
588.127	13999.24
588.487	13979.58
588.846	14152.68
589.206	13913.81
589.565	13966.47
589.925	14036.52
590.284	13968.28
590.643	14022.74
591.003	14080.36
591.362	14065
591.721	14059.12
592.08	14104.09
592.44	14186.35
592.799	14099.12
593.158	14010.31
593.517	14053.25
593.876	14194.71
594.235	14089.18
594.593	14060.48
594.952	14122.85
595.311	14038.33
595.67	14081.27
596.029	14302.96
596.387	14166.24
596.746	14203.75
597.104	14178.21
597.463	14156.52
597.822	14162.4
598.18	14150.87
598.538	14129.18
598.897	14180.02
599.255	14135.28
599.613	14296.86
599.972	14280.13
600.33	14358.77
600.688	14214.15
601.046	14319.91
601.404	14408.04
601.762	14266.57
602.12	14389.06
602.478	14445.78
602.836	14373.01
603.194	14371.88
603.552	14376.63
603.91	14316.74
604.268	14501.37
604.625	14357.65
604.983	14453.46
605.341	14375.05
605.698	14438.77
606.056	14434.25
606.413	14415.27
606.771	14492.33
607.128	14467.25
607.485	14520.35
607.843	14532.78
608.2	14626.34
608.557	14608.49
608.914	14631.54
609.272	14678.09
609.629	14633.34
609.986	14633.34
610.343	14599.22
610.7	14729.39
611.057	14670.86
611.414	14634.25
611.771	14791.76
612.127	14833.79
612.484	14710.18
612.841	14819.33
613.198	14819.78
613.554	14851.87
613.911	14861.81
614.267	14831.3
614.624	14876.73
614.98	14848.03
615.337	14899.78
615.693	14896.16
616.05	14821.81
616.406	14996.27
616.762	14831.08
617.118	14966.67
617.475	15011.19
617.831	15056.38
618.187	14996.5
618.543	14966.67
618.899	15005.76
619.255	15101.35
619.611	14984.07
619.967	15081.02
620.323	15090.73
620.678	14977.74
621.034	14979.1
621.39	15058.87
621.746	14985.43
622.101	15218.87
622.457	15015.71
622.812	15024.52
623.168	15131.64
623.523	15029.27
623.879	15092.09
624.234	14922.83
624.589	15116.95
624.945	15082.82
625.3	15043.28
625.655	15081.92
626.01	15141.81
626.365	14994.24
626.72	15151.75
627.075	14996.72
627.43	15020.45
627.785	14989.72
628.14	14967.57
628.495	15021.13
628.85	14991.53
629.205	14944.97
629.559	15024.29
629.914	14917.4
630.269	14926.44
630.623	14841.02
630.978	14952.88
631.332	14925.31
631.687	15070.62
632.041	14902.26
632.396	14995.82
632.75	14902.04
633.104	14886.67
633.459	14817.97
633.813	14796.28
634.167	14843.73
634.521	14828.82
634.875	14848.03
635.229	14763.51
635.583	14705.88
635.937	14708.14
636.291	14695.04
636.645	14711.53
636.999	14583.63
637.352	14653.68
637.706	14550.63
638.06	14565.1
638.413	14624.53
638.767	14634.02
639.121	14590.18
639.474	14476.51
639.828	14519.9
640.181	14554.7
640.534	14503.18
640.888	14399.45
641.241	14385.44
641.594	14407.81
641.947	14417.76
642.301	14387.47
642.654	14439.22
643.007	14400.36
643.36	14283.97
643.713	14314.48
644.066	14308.61
644.419	14271.55
644.771	14179.34
645.124	14082.62
645.477	14053.47
645.83	13980.71
646.182	13862.06
646.535	13774.38
646.888	13877.43
647.24	13844.44
647.593	13828.62
647.945	13762.63
648.298	13709.53
648.65	13714.27
649.002	13665.46
649.355	13770.99
649.707	13635.18
650.059	13709.3
650.411	13934.83
650.763	13943.87
651.115	14049.86
651.467	14059.35
651.819	14012.34
652.171	14051.44
652.523	13995.17
652.875	13945.45
653.227	13910.88
653.578	14014.38
653.93	13952.68
654.282	13925.79
654.633	13874.72
654.985	13852.8
655.337	13860.93
655.688	13867.26
656.039	13902.29
656.391	13755.18
656.742	13763.76
657.094	13805.8
657.445	13914.72
657.796	13834.72
658.147	13876.08
658.498	13807.6
658.849	13862.06
659.2	13861.61
659.551	13778
659.902	13812.8
660.253	13770.09
660.604	13824.78
660.955	13662.07
661.306	13802.41
661.656	13623.65
662.007	13645.8
662.358	13688.74
662.708	13660.26
663.059	13590.89
663.409	13541.62
663.76	13643.31
664.11	13719.92
664.461	13642.64
664.811	13698
665.161	13667.49
665.511	13563.99
665.862	13654.16
666.212	13683.31
666.562	13693.48
666.912	13679.24
667.262	13571
667.612	13644.9
667.962	13599.47
668.312	13574.16
668.662	13693.93
669.011	13590.43
669.361	13531.9
669.711	13549.08
670.06	13591.34
670.41	13574.84
670.76	13508.18
671.109	13577.33
671.459	13550.66
671.808	13530.32
672.157	13552.02
672.507	13502.53
672.856	13395.86
673.205	13499.81
673.554	13504.79
673.904	13461.4
674.253	13545.24
674.602	13464.79
674.951	13199.03
675.3	13207.17
675.649	13415.97
675.998	13426.6
676.346	13481.96
676.695	13463.66
677.044	13361.74
677.393	13355.41
677.741	13391.34
678.09	13293.27
678.438	13283.1
678.787	13309.99
679.135	13280.39
679.484	13263.89
679.832	13328.52
680.181	13221.18
680.529	13345.47
680.877	13129.88
681.225	13200.16
681.573	13318.12
681.922	13243.32
682.27	13221.18
682.618	13081.52
682.966	13065.93
683.314	13119.26
683.661	13075.64
684.009	13038.36
684.357	12978.02
684.705	13011.47
685.053	12966.04
685.4	12902.32
685.748	12867.29
686.095	12849.89
686.443	12771.25
686.79	12796.78
687.138	12785.03
687.485	12775.77
687.832	12724.69
688.18	12747.97
688.527	12705.94
688.874	12597.01
689.221	12647.63
689.568	12528.54
689.915	12558.6
690.262	12493.06
690.609	12471.82
690.956	12380.07
691.303	12348.66
691.65	12318.83
691.997	12345.72
692.344	12180.08
692.69	12257.36
693.037	12217.81
693.383	12166.52
693.73	12210.36
694.077	12134.43
694.423	12247.87
694.769	12094.88
695.116	12061.66
695.462	12110.7
695.808	12089.68
696.155	12048.33
696.501	11903.25
696.847	11979.4
697.193	11856.24
697.539	11881.33
697.885	11773.31
698.231	11765.4
698.577	11742.12
698.923	11719.75
699.269	11737.37
699.614	11732.18
699.96	11622.8
700.306	11611.5
700.651	11519.75
700.997	11563.59
701.342	11507.1
701.688	11504.16
702.033	11520.66
702.379	11415.58
702.724	11420.77
703.069	11457.61
703.415	11313.88
703.76	11272.3
704.105	11284.73
704.45	11235.92
704.795	11185.75
705.14	11215.81
705.485	11123.38
705.83	11122.48
706.175	11140.1
706.52	11122.25
706.865	11054.68
707.209	11046.09
707.554	11068.01
707.899	10957.28
708.243	10971.97
708.588	10985.98
708.932	10922.71
709.277	10906.21
709.621	10949.83
709.966	10832.54
710.31	10891.3
710.654	10704.18
710.998	10858.08
711.342	10765.65
711.687	10742.15
712.031	10758.42
712.375	10634.13
712.719	10734.92
713.063	10665.99
713.407	10698.53
713.75	10679.32
714.094	10655.82
714.438	10533.56
714.782	10590.51
715.125	10500.57
715.469	10591.64
715.812	10485.2
716.156	10407.69
716.499	10523.4
716.843	10453.34
717.186	10449.5
717.53	10484.07
717.873	10449.5
718.216	10460.57
718.559	10346.68
718.902	10314.36
719.246	10416.51
719.589	10381.93
719.932	10387.58
720.275	10316.62
720.617	10268.04
720.96	10226
721.303	10246.11
721.646	10246.79
721.989	10172.9
722.331	10179.45
722.674	10211.54
723.016	10199.34
723.359	10180.13
723.701	10139.22
724.044	10111.43
724.386	10068.27
724.729	10084.09
725.071	10093.8
725.413	10043.41
725.755	9990.08
726.097	9891.32
726.439	9984.88
726.782	9930.42
727.124	9979
727.465	9913.02
727.807	9949.17
728.149	9882.73
728.491	9902.39
728.833	9886.35
729.175	9836.63
729.516	9801.15
729.858	9819.23
730.199	9829.85
730.541	9768.16
730.882	9780.82
731.224	9791.44
731.565	9709.86
731.906	9735.17
732.248	9646.81
732.589	9673.47
732.93	9660.82
733.271	9647.26
733.612	9711.44
733.953	9644.32
734.294	9575.85
734.635	9621.5
734.976	9603.42
735.317	9587.83
735.658	9511.67
735.999	9552.57
736.339	9565.91
736.68	9534.72
737.021	9486.81
737.361	9472.12
737.702	9512.57
738.042	9465.12
738.383	9428.96
738.723	9433.48
739.063	9395.97
739.404	9380.15
739.744	9310.55
740.084	9295.86
740.424	9386.25
740.764	9325.01
741.104	9380.6
741.444	9316.2
741.784	9182.64
742.124	9350.32
742.464	9166.14
742.804	9183.32
743.143	9202.98
743.483	9117.33
743.823	9236.65
744.162	9184.9
744.502	9195.97
744.841	9147.16
745.181	9175.41
745.52	9214.73
745.86	9156.65
746.199	9140.61
746.538	9134.28
746.877	9100.38
747.216	9024.9
747.556	9018.35
747.895	9033.72
748.234	9041.63
748.573	9011.12
748.911	8951.69
749.25	9050.67
749.589	8913.27
749.928	8986.94
750.267	8870.11
750.605	8962.08
750.944	8894.74
751.283	8859.94
751.621	8884.34
751.96	8833.27
752.298	8803.44
752.636	8795.31
752.975	8723.22
753.313	8745.14
753.651	8834.17
753.989	8730.22
754.327	8715.99
754.666	8694.97
755.004	8675.76
755.342	8684.35
755.679	8666.5
756.017	8516.89
756.355	8532.94
756.693	8471.7
757.031	8501.3
757.368	8529.55
757.706	8477.8
758.044	8469.44
758.381	8472.6
758.719	8431.7
759.056	8388.99
759.394	8447.29
759.731	8338.37
760.068	8317.13
760.405	8347.18
