Data from black_plastic_tray_FLMS001491_043.txt Node
Date: Tue Feb 07 10:39:56 GMT 2017
User: dcchb
Spectrometer: FLMS00149
Trigger mode: 0
Integration Time (sec): 2.000000E-2
Scans to average: 10
Electric dark correction enabled: true
Nonlinearity correction enabled: false
Boxcar width: 0
XAxis mode: Wavelengths
Number of Pixels in Spectrum: 2048
>>>>>Begin Spectral Data<<<<<
341.393	-29.07
341.776	-29.07
342.16	-29.07
342.543	-63.64
342.927	-60.03
343.31	-78.78
343.693	-70.65
344.077	-48.05
344.46	-62.06
344.843	-49.41
345.226	-46.69
345.61	-31.55
345.993	-3.08
346.376	5.28
346.759	2.8
347.142	14.32
347.525	18.84
347.908	60.42
348.291	87.77
348.674	98.16
349.057	102.68
349.44	130.25
349.823	140.42
350.206	171.38
350.588	206.86
350.971	191.72
351.354	218.38
351.737	214.32
352.119	246.41
352.502	262.22
352.884	280.98
353.267	271.94
353.65	267.87
354.032	307.87
354.414	302
354.797	319.85
355.179	333.86
355.562	317.82
355.944	324.37
356.326	337.25
356.709	345.84
357.091	351.26
357.473	321.88
357.855	345.61
358.238	323.24
358.62	354.65
359.002	342.22
359.384	350.36
359.766	343.8
360.148	338.61
360.53	350.58
360.912	347.42
361.294	325.95
361.676	351.71
362.057	311.94
362.439	330.92
362.821	336.35
363.203	331.6
363.584	336.8
363.966	322.11
364.348	317.14
364.729	310.13
365.111	335.67
365.493	320.08
365.874	307.2
366.256	335.9
366.637	327.53
367.019	333.18
367.4	328.21
367.781	320.75
368.163	322.56
368.544	319.85
368.925	332.73
369.306	335.22
369.688	330.7
370.069	324.14
370.45	337.25
370.831	331.6
371.212	318.95
371.593	319.62
371.974	335.67
372.355	346.29
372.736	331.6
373.117	317.59
373.498	327.53
373.879	330.02
374.26	336.8
374.641	316.01
375.021	336.8
375.402	349.45
375.783	352.39
376.163	360.98
376.544	348.1
376.925	351.71
377.305	367.53
377.686	339.28
378.066	338.38
378.447	350.13
378.827	362.11
379.208	377.25
379.588	361.21
379.968	348.32
380.349	359.17
380.729	354.88
381.109	375.22
381.489	369.11
381.87	363.92
382.25	367.08
382.63	389.68
383.01	362.11
383.39	404.37
383.77	375.44
384.15	386.97
384.53	392.39
384.91	383.58
385.29	398.72
385.67	391.94
386.049	395.55
386.429	426.29
386.809	417.7
387.189	410.02
387.568	413.41
387.948	405.05
388.328	415.89
388.707	415.67
389.087	425.61
389.466	421.77
389.846	438.72
390.225	421.09
390.605	423.8
390.984	429
391.363	438.72
391.743	434.42
392.122	459.28
392.501	460.86
392.881	432.62
393.26	458.6
393.639	445.04
394.018	458.6
394.397	459.73
394.776	466.29
395.155	471.26
395.534	478.49
395.913	474.65
396.292	477.13
396.671	483.01
397.05	461.32
397.429	467.42
397.808	485.27
398.186	481.65
398.565	498.38
398.944	505.38
399.323	507.19
399.701	497.92
400.08	502.67
400.458	504.25
400.837	525.04
401.215	502.44
401.594	518.04
401.972	542.67
402.351	540.18
402.729	559.17
403.107	556.23
403.486	557.58
403.864	539.28
404.242	556.45
404.62	559.84
404.999	543.57
405.377	557.36
405.755	561.43
406.133	575.66
406.511	562.56
406.889	599.39
407.267	568.21
407.645	611.59
408.023	596
408.401	608.2
408.779	620.18
409.156	634.87
409.534	609.33
409.912	615.21
410.29	637.58
410.667	608.88
411.045	669.22
411.422	675.1
411.8	687.52
412.178	674.19
412.555	686.17
412.933	679.61
413.31	692.95
413.687	699.95
414.065	704.25
414.442	707.18
414.819	718.71
415.197	684.13
415.574	730.91
415.951	722.78
416.328	710.57
416.705	741.76
417.082	743.79
417.46	743.34
417.837	742.21
418.214	743.79
418.591	794.41
418.967	793.96
419.344	787.41
419.721	780.86
420.098	799.39
420.475	797.58
420.852	803.23
421.228	810.46
421.605	809.1
421.982	833.06
422.358	843.9
422.735	836.67
423.111	840.74
423.488	842.1
423.864	874.19
424.241	856.79
424.617	885.94
424.994	905.6
425.37	903.56
425.746	908.54
426.123	913.73
426.499	900.63
426.875	939.5
427.251	919.38
427.627	951.47
428.003	980.17
428.379	998.25
428.756	981.3
429.132	1007.52
429.507	996.67
429.883	1002.54
430.259	1019.49
430.635	1052.49
431.011	1069.66
431.387	1067.85
431.763	1104.91
432.138	1081.41
432.514	1101.07
432.89	1108.53
433.265	1136.33
433.641	1155.31
434.016	1161.41
434.392	1162.77
434.767	1174.29
435.143	1183.33
435.518	1180.62
435.894	1199.6
436.269	1202.54
436.644	1216.78
437.02	1285.25
437.395	1258.36
437.77	1266.04
438.145	1279.37
438.52	1296.32
438.895	1309.88
439.271	1313.5
439.646	1313.72
440.021	1336.77
440.395	1359.82
440.77	1361.86
441.145	1372.03
441.52	1365.02
441.895	1380.61
442.27	1374.29
442.645	1390.78
443.019	1417.22
443.394	1406.6
443.769	1414.28
444.143	1426.26
444.518	1422.42
444.892	1450.22
445.267	1468.52
445.641	1476.2
446.016	1448.41
446.39	1479.59
446.764	1492.7
447.139	1482.76
447.513	1523.66
447.887	1534.06
448.262	1527.28
448.636	1551.23
449.01	1545.81
449.384	1573.15
449.758	1569.31
450.132	1605.01
450.506	1590.78
450.88	1621.06
451.254	1620.16
451.628	1666.93
452.002	1667.61
452.376	1668.97
452.75	1706.48
453.123	1680.04
453.497	1728.4
453.871	1753.94
454.244	1791.9
454.618	1789.42
454.992	1837.32
455.365	1800.04
455.739	1827.83
456.112	1866.25
456.486	1877.55
456.859	1899.02
457.232	1908.96
457.606	1973.82
457.979	1967.72
458.352	1991.22
458.725	2008.39
459.099	2021.27
459.472	2079.13
459.845	2064.66
460.218	2122.74
460.591	2142.18
460.964	2139.69
461.337	2182.63
461.71	2191.21
462.083	2218.11
462.456	2250.87
462.829	2252
463.201	2261.72
463.574	2288.61
463.947	2353.7
464.32	2388.5
464.692	2400.02
465.065	2399.12
465.438	2480.02
465.81	2471.21
466.183	2495.16
466.555	2558.89
466.928	2583.07
467.3	2600.69
467.672	2618.32
468.045	2660.35
468.417	2682.5
468.789	2658.09
469.161	2706.23
469.534	2774.7
469.906	2874.13
470.278	2838.88
470.65	2891.08
471.022	2951.87
471.394	2954.13
471.766	3021.47
472.138	3010.4
472.51	3032.32
472.882	3098.31
473.253	3162.49
473.625	3193.67
473.997	3282.71
474.369	3305.76
474.74	3332.43
475.112	3396.61
475.484	3457.17
475.855	3532.2
476.227	3530.61
476.598	3613.32
476.97	3627.79
477.341	3743.72
477.713	3767.44
478.084	3797.27
478.455	3930.38
478.827	3900.1
479.198	4084.27
479.569	4028.23
479.94	4159.52
480.311	4186.64
480.682	4265.96
481.053	4366.75
481.424	4419.4
481.795	4470.25
482.166	4514.54
482.537	4602.22
482.908	4645.16
483.279	4709.79
483.65	4788.89
484.021	4881.99
484.391	4884.93
484.762	4967.64
485.133	5020.07
485.503	5124.92
485.874	5192.94
486.244	5229.55
486.615	5320.4
486.985	5425.03
487.356	5467.29
487.726	5562.88
488.097	5630.9
488.467	5698.47
488.837	5815.3
489.207	5859.82
489.578	5902.08
489.948	5952.24
490.318	6036.76
490.688	6119.25
491.058	6158.34
491.428	6260.49
491.798	6289.41
492.168	6401.95
492.538	6424.77
492.908	6535.51
493.278	6632.23
493.648	6618.89
494.017	6715.39
494.387	6736.18
494.757	6799.45
495.126	6956.29
495.496	6927.13
495.866	6997.41
496.235	7102.72
496.605	7130.74
496.974	7190.4
497.344	7228.82
497.713	7324.19
498.082	7317.63
498.452	7378.87
498.821	7432.21
499.19	7432.88
499.559	7511.98
499.928	7647.79
500.298	7651.63
500.667	7744.06
501.036	7725.53
501.405	7816.83
501.774	7815.92
502.143	7872.19
502.512	7916.03
502.88	8034.68
503.249	8098.63
503.618	8150.83
503.987	8107.67
504.356	8177.72
504.724	8245.74
505.093	8230.6
505.462	8403.71
505.83	8383.37
506.199	8437.83
506.567	8575
506.936	8603.47
507.304	8728.67
507.672	8738.84
508.041	8764.37
508.409	8800.98
508.777	8912.84
509.145	8986.74
509.514	8949.45
509.882	9039.17
510.25	9166.4
510.618	9135.66
510.986	9179.28
511.354	9351.03
511.722	9375.21
512.09	9467.41
512.458	9437.35
512.826	9520.96
513.193	9628.08
513.561	9624.01
513.929	9791.47
514.297	9818.13
514.664	9859.94
515.032	9892.93
515.4	10045.47
515.767	10048.63
516.135	10107.62
516.502	9995.98
516.869	10278.01
517.237	10240.95
517.604	10228.06
517.972	10404.33
518.339	10452.69
518.706	10458.79
519.073	10628.28
519.44	10680.48
519.808	10850.19
520.175	10827.37
520.542	10935.62
520.909	11052.45
521.276	11114.82
521.643	11153.92
522.009	11242.73
522.376	11273.46
522.743	11366.34
523.11	11508.03
523.477	11636.61
523.843	11729.95
524.21	11725.65
524.577	11772.88
524.943	11961.8
525.31	12006.32
525.676	12129.03
526.043	12136.26
526.409	12248.8
526.776	12339.65
527.142	12386.2
527.508	12526.99
527.874	12573.54
528.241	12692.18
528.607	12678.62
528.973	12775.34
529.339	12936.92
529.705	12985.28
530.071	13070.7
530.437	13157.03
530.803	13263.69
531.169	13362.22
531.535	13309.11
531.901	13391.82
532.267	13469.56
532.632	13563.57
532.998	13682.66
533.364	13707.52
533.73	13756.79
534.095	13814.64
534.461	13852.83
534.826	13910.91
535.192	14018.93
535.557	14123.56
535.923	14118.58
536.288	14232.25
536.653	14279.03
537.019	14241.07
537.384	14317.45
537.749	14451.23
538.114	14455.3
538.479	14412.14
538.845	14570.32
539.21	14490.78
539.575	14612.58
539.94	14662.3
540.305	14718.34
540.67	14705.01
541.034	14810.99
541.399	14846.7
541.764	15004.44
542.129	15052.57
542.494	15061.38
542.858	15037.2
543.223	15094.6
543.587	15134.83
543.952	15177.09
544.316	15122.62
544.681	15280.36
545.045	15354.94
545.41	15436.97
545.774	15429.96
546.138	15487.81
546.503	15485.33
546.867	15488.49
547.231	15714.47
547.595	15728.48
547.959	15823.85
548.324	15789.05
548.688	15893
549.052	15918.08
549.416	15950.17
549.779	15942.72
550.143	16106.33
550.507	16166.67
550.871	16168.7
551.235	16206.89
551.599	16321.46
551.962	16358.52
552.326	16401.24
552.689	16541.34
553.053	16436.26
553.417	16566.43
553.78	16765.97
554.143	16714.9
554.507	16717.16
554.87	16807.33
555.234	17066.3
555.597	16961.67
555.96	17005.51
556.323	17156.02
556.686	17104.04
557.05	17251.16
557.413	17235.79
557.776	17327.31
558.139	17379.51
558.502	17486.4
558.865	17530.7
559.228	17743.35
559.59	17691.82
559.953	17784.7
560.316	17952.38
560.679	17901.99
561.041	18037.35
561.404	18021.31
561.767	18125.94
562.129	18189.89
562.492	18331.81
562.854	18262.2
563.217	18452.93
563.579	18553.95
563.941	18639.59
564.304	18754.39
564.666	18779.93
565.028	18801.4
565.39	18890.44
565.753	18975.63
566.115	19019.47
566.477	19065.8
566.839	19114.84
567.201	19268.96
567.563	19248.84
567.925	19488.16
568.287	19462.17
568.648	19497.65
569.01	19690.19
569.372	19732
569.734	19645.67
570.095	19819.22
570.457	20020.58
570.819	20003.17
571.18	19962.72
571.542	20193.45
571.903	20161.14
572.265	20238.42
572.626	20332.43
572.987	20250.17
573.349	20267.8
573.71	20381.7
574.071	20417.18
574.432	20557.51
574.794	20719.31
575.155	20630.73
575.516	20578.75
575.877	20561.58
576.238	20569.94
576.599	20702.37
576.96	20664.17
577.32	20788.92
577.681	20896.26
578.042	21078.4
578.403	21018.74
578.763	21082.24
579.124	21075.24
579.485	21116.37
579.845	21173.77
580.206	21094.9
580.566	21048.12
580.927	21141
581.287	21109.81
581.648	21061
582.008	21316.59
582.368	21174.9
582.728	21156.36
583.089	21223.03
583.449	21096.71
583.809	21211.5
584.169	21235.68
584.529	21065.75
584.889	21333.54
585.249	21213.99
585.609	21160.43
585.969	21289.92
586.329	21153.43
586.688	21261.45
587.048	21205.18
587.408	21174.44
587.768	21179.64
588.127	21220.77
588.487	21214.22
588.846	21430.93
589.206	21138.74
589.565	21078.4
589.925	21228.45
590.284	21201.56
590.643	21207.44
591.003	21235.46
591.362	21277.49
591.721	21228.23
592.08	21296.93
592.44	21383.48
592.799	21292.86
593.158	21304.16
593.517	21243.82
593.876	21422.8
594.235	21310.48
594.593	21311.61
594.952	21433.65
595.311	21370.37
595.67	21427.54
596.029	21523.59
596.387	21534.21
596.746	21531.95
597.104	21515.9
597.463	21473.87
597.822	21397.71
598.18	21419.41
598.538	21333.31
598.897	21495.56
599.255	21437.94
599.613	21693.75
599.972	21529.24
600.33	21505.06
600.688	21503.47
601.046	21575.34
601.404	21638.16
601.762	21624.37
602.12	21600.65
602.478	21705.95
602.836	21811.26
603.194	21624.37
603.552	21657.37
603.91	21656.24
604.268	21738.27
604.625	21688.78
604.983	21679.74
605.341	21569.69
605.698	21737.59
606.056	21733.3
606.413	21668.89
606.771	21693.07
607.128	21757.93
607.485	21743.69
607.843	21724.26
608.2	21869.34
608.557	21925.61
608.914	21934.2
609.272	21990.02
609.629	22005.38
609.986	22022.33
610.343	21921.99
610.7	22098.49
611.057	22096.68
611.414	22032.95
611.771	22137.58
612.127	22241.99
612.484	22199.73
612.841	22269.1
613.198	22243.34
613.554	22293.06
613.911	22410.79
614.267	22288.31
614.624	22195.66
614.98	22188.88
615.337	22372.38
615.693	22299.84
616.05	22238.14
616.406	22391.36
616.762	22371.02
617.118	22363.11
617.475	22423.9
617.831	22420.96
618.187	22465.48
618.543	22412.83
618.899	22732.14
619.255	22601.07
619.611	22583.45
619.967	22771.46
620.323	22663.22
620.678	22658.7
621.034	22473.39
621.39	22614.63
621.746	22559.04
622.101	22740.28
622.457	22625.48
622.812	22695.76
623.168	22672.71
623.523	22636.33
623.879	22734.63
624.234	22511.81
624.589	22709.54
624.945	22607.4
625.3	22764.46
625.655	22641.3
626.01	22679.71
626.365	22652.6
626.72	22551.36
627.075	22477.91
627.43	22568.08
627.785	22517.23
628.14	22595.65
628.495	22609.21
628.85	22607.4
629.205	22573.5
629.559	22732.14
629.914	22580.73
630.269	22590
630.623	22466.39
630.978	22418.03
631.332	22615.76
631.687	22589.55
632.041	22463.9
632.396	22468.42
632.75	22369.21
633.104	22419.16
633.459	22345.94
633.813	22213.06
634.167	22309.55
634.521	22252.83
634.875	22214.19
635.229	22185.94
635.583	22009.9
635.937	22078.6
636.291	21916.12
636.645	21990.47
636.999	21854.65
637.352	22019.17
637.706	21931.49
638.06	21880.19
638.413	21862.33
638.767	21927.42
639.121	21833.41
639.474	21675.9
639.828	21780.75
640.181	21931.03
640.534	21707.08
640.888	21629.57
641.241	21547.31
641.594	21628.44
641.947	21599.06
642.301	21553.19
642.654	21530.37
643.007	21444.04
643.36	21441.78
643.713	21414.44
644.066	21507.54
644.419	21426.64
644.771	21298.96
645.124	21095.35
645.477	21010.15
645.83	20867.33
646.182	20733.32
646.535	20682.25
646.888	20698.75
647.24	20503.95
647.593	20743.49
647.945	20724.29
648.298	20562.93
648.65	20467.8
649.002	20482.48
649.355	20574.23
649.707	20433.45
650.059	20625.31
650.411	20804.74
650.763	21013.54
651.115	21285.4
651.467	21118.63
651.819	21033.66
652.171	20995.69
652.523	20951.85
652.875	20971.96
653.227	20791.85
653.578	21084.05
653.93	20846.77
654.282	20774.68
654.633	20714.79
654.985	20677.96
655.337	20818.97
655.688	20734.45
656.039	20815.36
656.391	20601.8
656.742	20586.89
657.094	20595.48
657.445	20803.83
657.796	20714.79
658.147	20699.43
658.498	20663.04
658.849	20668.92
659.2	20655.36
659.551	20695.13
659.902	20799.76
660.253	20592.31
660.604	20626.44
660.955	20524.97
661.306	20618.75
661.656	20487.46
662.007	20435.03
662.358	20440.9
662.708	20462.82
663.059	20450.39
663.409	20243.62
663.76	20490.17
664.11	20461.92
664.461	20502.14
664.811	20456.95
665.161	20471.64
665.511	20329.72
665.862	20421.02
666.212	20326.33
666.562	20310.96
666.912	20302.83
667.262	20329.72
667.612	20336.27
667.962	20303.73
668.312	20350.51
668.662	20362.26
669.011	20239.55
669.361	20221.47
669.711	20276.84
670.06	20074.13
670.41	20124.75
670.76	20067.58
671.109	20056.51
671.459	20124.3
671.808	20095.83
672.157	20127.69
672.507	19947.58
672.856	19935.83
673.205	20023.97
673.554	20028.48
673.904	19989.62
674.253	20016.28
674.602	19878.88
674.951	19623.52
675.3	19596.18
675.649	19792.33
675.998	19851.99
676.346	19901.48
676.695	20003.85
677.044	19884.76
677.393	19887.25
677.741	19894.48
678.09	19718.21
678.438	19687.02
678.787	19728.61
679.135	19773.35
679.484	19627.59
679.832	19703.52
680.181	19643.64
680.529	19690.19
680.877	19679.12
681.225	19609.29
681.573	19658.55
681.922	19396.86
682.27	19434.83
682.618	19513.47
682.966	19293.14
683.314	19445.9
683.661	19350.08
684.009	19159.35
684.357	19240.93
684.705	19162.52
685.053	19201.84
685.4	19222.86
685.748	19080.71
686.095	19085.01
686.443	18912.36
686.79	18897.89
687.138	18889.98
687.485	18888.63
687.832	18832.81
688.18	18800.04
688.527	18660.61
688.874	18677.79
689.221	18700.38
689.568	18560.95
689.915	18495.19
690.262	18595.98
690.609	18386.49
690.956	18437.11
691.303	18311.92
691.65	18235.76
691.997	18204.8
692.344	18142.66
692.69	18150.34
693.037	18244.35
693.383	18148.08
693.73	18144.69
694.077	18062.66
694.423	18119.38
694.769	17981.53
695.116	17883
695.462	17881.87
695.808	17883.23
696.155	17724.36
696.501	17687.53
696.847	17672.39
697.193	17550.81
697.539	17653.63
697.885	17456.12
698.231	17400.53
698.577	17413.86
698.923	17380.42
699.269	17361.44
699.614	17256.35
699.96	17160.76
700.306	17192.18
700.651	17062.69
700.997	17083.7
701.342	16990.82
701.688	16950.37
702.033	16910.83
702.379	17015
702.724	16894.1
703.069	17078.51
703.415	16816.37
703.76	16726.2
704.105	16724.84
704.45	16811.85
704.795	16616.82
705.14	16654.79
705.485	16595.81
705.83	16423.16
706.175	16483.27
706.52	16402.37
706.865	16365.76
707.209	16302.48
707.554	16231.3
707.899	16288.47
708.243	16212.54
708.588	16207.12
708.932	16145.2
709.277	16041.7
709.621	16053.9
709.966	16106.78
710.31	16100.9
710.654	15845.77
710.998	15927.8
711.342	15979.78
711.687	15897.52
712.031	15769.84
712.375	15673.57
712.719	15620.69
713.063	15622.05
713.407	15674.7
713.75	15516.51
714.094	15541.6
714.438	15411.88
714.782	15547.02
715.125	15474.48
715.469	15496.85
715.812	15439.45
716.156	15239.46
716.499	15268.16
716.843	15348.61
717.186	15174.6
717.53	15304.32
717.873	15383.41
718.216	15326.69
718.559	15210.76
718.902	15073.81
719.246	15197.43
719.589	15015.28
719.932	15105.68
720.275	15091.67
720.617	14979.35
720.96	15002.63
721.303	14878.79
721.646	14907.94
721.989	14756.76
722.331	14886.92
722.674	14803.76
723.016	14786.81
723.359	14704.1
723.701	14801.28
724.044	14666.59
724.386	14648.97
724.729	14678.12
725.071	14606.03
725.413	14601.96
725.755	14430.89
726.097	14505.24
726.439	14440.16
726.782	14373.27
727.124	14416.88
727.465	14394.73
727.807	14316.77
728.149	14382.53
728.491	14300.05
728.833	14372.36
729.175	14305.92
729.516	14293.27
729.858	14273.38
730.199	14343.21
730.541	14292.14
730.882	14110
731.224	14189.99
731.565	14041.98
731.906	14074.06
732.248	14046.27
732.589	13941.64
732.93	14021.19
733.271	14109.77
733.612	14031.58
733.953	13984.12
734.294	13906.16
734.635	13885.37
734.976	13965.82
735.317	13886.05
735.658	13945.25
735.999	13848.31
736.339	13780.29
736.68	13779.61
737.021	13742.77
737.361	13629.78
737.702	13663.45
738.042	13623.68
738.383	13655.32
738.723	13664.13
739.063	13569.9
739.404	13709.1
739.744	13615.77
740.084	13495.1
740.424	13539.39
740.764	13527.86
741.104	13521.76
741.444	13479.28
741.784	13402.22
742.124	13432.5
742.464	13371.03
742.804	13431.6
743.143	13387.3
743.483	13376.23
743.823	13343.24
744.162	13342.56
744.502	13372.84
744.841	13255.56
745.181	13298.94
745.52	13337.14
745.86	13318.15
746.199	13269.79
746.538	13195.44
746.877	13199.96
747.216	13077.03
747.556	13125.16
747.895	13145.05
748.234	13069.12
748.573	13050.82
748.911	13022.79
749.25	12964.04
749.589	12862.57
749.928	12933.53
750.267	12964.04
750.605	12856.02
750.944	12921.78
751.283	12806.98
751.621	12877.71
751.96	12764.95
752.298	12816.7
752.636	12831.39
752.975	12770.14
753.313	12674.55
753.651	12719.3
753.989	12628.91
754.327	12610.83
754.666	12471.17
755.004	12584.16
755.342	12498.29
755.679	12459.87
756.017	12370.83
