Data from blue_clamp_base_FLMS001491_00038.txt Node
Date: Wed Feb 08 15:15:56 GMT 2017
User: dcchb
Spectrometer: FLMS00149
Trigger mode: 0
Integration Time (sec): 2.000000E-2
Scans to average: 10
Electric dark correction enabled: true
Nonlinearity correction enabled: false
Boxcar width: 0
XAxis mode: Wavelengths
Number of Pixels in Spectrum: 2048
>>>>>Begin Spectral Data<<<<<
341.393	-15.37
341.776	-15.37
342.16	-15.37
342.543	-62.15
342.927	-78.64
343.31	-68.02
343.693	-79.77
344.077	-51.3
344.46	-68.7
344.843	-48.59
345.226	-49.94
345.61	-21.02
345.993	-35.71
346.376	11.98
346.759	35.71
347.142	30.96
347.525	13.11
347.908	63.73
348.291	73.9
348.674	91.75
349.057	101.92
349.44	127.23
349.823	136.04
350.206	162.48
350.588	198.19
350.971	213.55
351.354	222.59
351.737	227.79
352.119	251.29
352.502	275.47
352.884	285.42
353.267	287.9
353.65	302.82
354.032	291.74
354.414	301.69
354.797	322.7
355.179	317.05
355.562	332.42
355.944	334.23
356.326	332.19
356.709	327.22
357.091	341.69
357.473	360.44
357.855	338.97
358.238	349.37
358.62	347.56
359.002	343.95
359.384	358.18
359.766	323.16
360.148	332.42
360.53	330.61
360.912	326.32
361.294	338.75
361.676	331.29
362.057	336.04
362.439	346.66
362.821	328.35
363.203	318.18
363.584	338.97
363.966	316.83
364.348	331.52
364.729	324.74
365.111	335.58
365.493	339.65
365.874	302.14
366.256	321.8
366.637	324.06
367.019	345.53
367.4	339.43
367.781	327.45
368.163	335.36
368.544	308.47
368.925	323.16
369.306	315.47
369.688	299.2
370.069	329.26
370.45	338.75
370.831	324.29
371.212	330.61
371.593	322.03
371.974	328.58
372.355	327
372.736	326.55
373.117	322.93
373.498	334.68
373.879	335.36
374.26	323.16
374.641	327.9
375.021	333.78
375.402	312.31
375.783	341.23
376.163	353.21
376.544	340.56
376.925	352.76
377.305	353.66
377.686	320.9
378.066	362.7
378.447	329.71
378.827	343.72
379.208	339.65
379.588	339.88
379.968	345.3
380.349	363.15
380.729	349.82
381.109	358.41
381.489	372.19
381.87	386.43
382.25	366.77
382.63	381.23
383.01	369.26
383.39	375.36
383.77	368.35
384.15	359.09
384.53	368.35
384.91	372.65
385.29	355.47
385.67	365.64
386.049	391.63
386.429	374.23
386.809	398.18
387.189	395.7
387.568	390.05
387.948	399.76
388.328	402.93
388.707	372.42
389.087	381.91
389.466	416.71
389.846	399.54
390.225	404.96
390.605	412.87
390.984	400.89
391.363	429.82
391.743	417.16
392.122	415.13
392.501	403.83
392.881	425.53
393.26	421.01
393.639	417.16
394.018	433.43
394.397	446.54
394.776	435.92
395.155	450.16
395.534	447.9
395.913	450.61
396.292	456.71
396.671	452.87
397.05	470.04
397.429	493.77
397.808	463.49
398.186	472.76
398.565	482.25
398.944	471.63
399.323	487.22
399.701	484.06
400.08	487.44
400.458	505.98
400.837	501
401.215	512.3
401.594	504.39
401.972	544.39
402.351	521.34
402.729	526.77
403.107	558.4
403.486	538.74
403.864	564.5
404.242	554.79
404.62	560.21
404.999	553.21
405.377	573.09
405.755	572.19
406.133	589.59
406.511	601.11
406.889	597.72
407.267	617.38
407.645	604.28
408.023	606.99
408.401	638.63
408.779	600.89
409.156	637.05
409.534	645.86
409.912	658.29
410.29	670.26
410.667	663.94
411.045	665.97
411.422	693.77
411.8	686.31
412.178	709.81
412.555	711.85
412.933	713.43
413.31	734.9
413.687	733.77
414.065	745.97
414.442	741.45
414.819	752.52
415.197	761.34
415.574	788.45
415.951	768.79
416.328	769.47
416.705	769.7
417.082	808.34
417.46	807.89
417.837	809.47
418.214	824.84
418.591	834.55
418.967	814.44
419.344	831.16
419.721	866.42
420.098	850.37
420.475	872.75
420.852	861.9
421.228	888.11
421.605	872.97
421.982	872.52
422.358	906.64
422.735	933.08
423.111	923.59
423.488	929.69
423.864	944.16
424.241	935.12
424.617	980.31
424.994	972.4
425.37	973.76
425.746	966.3
426.123	989.8
426.499	999.97
426.875	1023.25
427.251	1037.71
427.627	1029.58
428.003	1032.97
428.379	1087.66
428.756	1082.01
429.132	1099.63
429.507	1122
429.883	1145.96
430.259	1162.68
430.635	1157.94
431.011	1164.26
431.387	1185.05
431.763	1221.66
432.138	1201.1
432.514	1221.44
432.89	1274.54
433.265	1266.63
433.641	1267.09
434.016	1299.4
434.392	1277.48
434.767	1304.37
435.143	1324.71
435.518	1354.09
435.894	1335.78
436.269	1370.13
436.644	1374.2
437.02	1398.83
437.395	1417.59
437.77	1445.84
438.145	1480.41
438.52	1467.31
438.895	1467.76
439.271	1496.68
439.646	1525.61
440.021	1547.98
440.395	1574.42
440.77	1517.93
441.145	1558.83
441.52	1574.2
441.895	1609
442.27	1597.7
442.645	1622.56
443.019	1644.48
443.394	1641.99
443.769	1649.45
444.143	1642.67
444.518	1681.99
444.892	1681.54
445.267	1710.01
445.641	1729.67
446.016	1737.13
446.39	1766.06
446.764	1757.24
447.139	1769.67
447.513	1803.79
447.887	1792.5
448.262	1784.59
448.636	1830.01
449.01	1829.56
449.384	1833.62
449.758	1841.99
450.132	1891.7
450.506	1883.79
450.88	1941.64
451.254	1913.4
451.628	1941.64
452.002	1985.71
452.376	2008.99
452.75	1993.39
453.123	2024.81
453.497	2027.07
453.871	2058.02
454.244	2076.33
454.618	2107.52
454.992	2138.25
455.365	2142.77
455.739	2190.45
456.112	2194.74
456.486	2226.83
456.859	2239.04
457.232	2290.56
457.606	2285.36
457.979	2302.54
458.352	2351.35
458.725	2361.52
459.099	2379.82
459.472	2411.69
459.845	2456.88
460.218	2452.59
460.591	2527.62
460.964	2490.1
461.337	2540.27
461.71	2574.85
462.083	2609.2
462.456	2601.06
462.829	2631.8
463.201	2652.81
463.574	2702.3
463.947	2745.46
464.32	2769.64
464.692	2802.19
465.065	2792.02
465.438	2847.83
465.81	2877.44
466.183	2939.36
466.555	2972.35
466.928	2961.5
467.3	2981.62
467.672	3000.37
468.045	3122.18
468.417	3075.63
468.789	3098.9
469.161	3168.96
469.534	3203.98
469.906	3250.76
470.278	3242.63
470.65	3286.47
471.022	3378.89
471.394	3448.72
471.766	3433.58
472.138	3456.41
472.51	3527.36
472.882	3562.84
473.253	3601.71
473.625	3636.51
473.997	3709.51
474.369	3705.21
474.74	3746.57
475.112	3818.2
475.484	3863.63
475.855	3907.69
476.227	3983.85
476.598	4034.24
476.97	4078.08
477.341	4176.84
477.713	4235.82
478.084	4272.88
478.455	4330.28
478.827	4340.45
479.198	4463.39
479.569	4453.22
479.94	4545.19
480.311	4564.63
480.682	4667
481.053	4757.39
481.424	4856.14
481.795	4881
482.166	4896.82
482.537	4965.29
482.908	5065.86
483.279	5111.5
483.65	5182.91
484.021	5239.41
484.391	5268.34
484.762	5297.26
485.133	5338.16
485.503	5424.04
485.874	5493.64
486.244	5521.21
486.615	5618.61
486.985	5665.61
487.356	5763.24
487.726	5791.03
488.097	5858.38
488.467	5850.24
488.837	5950.58
489.207	6057.92
489.578	6109.22
489.948	6113.06
490.318	6168.2
490.688	6176.33
491.058	6263.79
491.428	6241.19
491.798	6338.59
492.168	6422.43
492.538	6424.69
492.908	6530.45
493.278	6550.11
493.648	6569.09
494.017	6646.83
494.387	6678.24
494.757	6696.1
495.126	6734.06
495.496	6680.28
495.866	6767.96
496.235	6776.54
496.605	6869.2
496.974	6893.83
497.344	6946.94
497.713	6958.01
498.082	6990.78
498.452	7020.38
498.821	6996.65
499.19	7019.25
499.559	7083.88
499.928	7162.3
500.298	7179.92
500.667	7181.28
501.036	7199.13
501.405	7199.13
501.774	7227.15
502.143	7260.15
502.512	7297.66
502.88	7364.78
503.249	7329.52
503.618	7329.75
503.987	7381.05
504.356	7367.49
504.724	7444.78
505.093	7487.49
505.462	7513.47
505.83	7489.75
506.199	7495.17
506.567	7616.75
506.936	7634.83
507.304	7677.99
507.672	7647.93
508.041	7722.96
508.409	7702.62
508.777	7805.67
509.145	7800.7
509.514	7803.41
509.882	7808.38
510.25	7838.44
510.618	7859.68
510.986	7866.23
511.354	7953.01
511.722	7925.67
512.09	8010.18
512.458	8033.24
512.826	8029.85
513.193	8123.4
513.561	8091.09
513.929	8153.68
514.297	8203.17
514.664	8220.57
515.032	8284.08
515.4	8305.54
515.767	8260.57
516.135	8361.81
516.502	8259.44
516.869	8394.81
517.237	8395.71
517.604	8357.75
517.972	8434.58
518.339	8456.95
518.706	8470.51
519.073	8483.84
519.44	8587.57
519.808	8651.52
520.175	8635.93
520.542	8710.05
520.909	8704.18
521.276	8745.31
521.643	8753.67
522.009	8802.48
522.376	8826.21
522.743	8816.27
523.11	8918.86
523.477	8994.34
523.843	9023.27
524.21	9100.78
524.577	9103.94
524.943	9137.84
525.31	9221.45
525.676	9251.06
526.043	9303.71
526.409	9232.53
526.776	9388.45
527.142	9416.25
527.508	9454.67
527.874	9538.96
528.241	9584.15
528.607	9539.18
528.973	9647.43
529.339	9582.12
529.705	9665.96
530.071	9722.46
530.437	9838.39
530.803	9825.96
531.169	9910.02
531.535	9871.83
531.901	9882.23
532.267	9916.35
532.632	10062.33
532.998	10048.32
533.364	10020.53
533.73	10146.4
534.095	10179.62
534.461	10152.28
534.826	10222.56
535.192	10287.64
535.557	10347.07
535.923	10342.78
536.288	10363.34
536.653	10362.67
537.019	10329.67
537.384	10403.12
537.749	10438.82
538.114	10533.51
538.479	10440.86
538.845	10597.69
539.21	10530.34
539.575	10640.17
539.94	10628.2
540.305	10656.44
540.67	10662.09
541.034	10668.87
541.399	10755.2
541.764	10759.04
542.129	10846.49
542.494	10836.55
542.858	10791.35
543.223	10840.84
543.587	10916.78
543.952	10778.02
544.316	10928.75
544.681	10927.4
545.045	11040.16
545.41	11049.2
545.774	11032.7
546.138	11046.04
546.503	11078.35
546.867	11141.18
547.231	11169.42
547.595	11163.55
547.959	11170.55
548.324	11244.45
548.688	11275.41
549.052	11305.92
549.416	11334.62
549.779	11323.77
550.143	11361.06
550.507	11420.26
550.871	11417.33
551.235	11391.56
551.599	11482.41
551.962	11480.15
552.326	11561.5
552.689	11524.89
553.053	11557.66
553.417	11608.06
553.78	11809.41
554.143	11646.25
554.507	11722.4
554.87	11757.88
555.234	11818.9
555.597	11835.85
555.96	11774.15
556.323	11952.23
556.686	11846.24
557.05	11876.98
557.413	11939.35
557.776	11910.65
558.139	12012.34
558.502	12024.77
558.865	12063.41
559.228	12148.16
559.59	12173.47
559.953	12172.79
560.316	12289.85
560.679	12328.72
561.041	12346.12
561.404	12406
561.767	12375.95
562.129	12476.51
562.492	12602.15
562.854	12533.46
563.217	12487.36
563.579	12639.67
563.941	12628.37
564.304	12702.04
564.666	12807.8
565.028	12803.51
565.39	12756.05
565.753	12888.47
566.115	12969.83
566.477	12981.35
566.839	12961.92
567.201	13064.74
567.563	13089.37
567.925	13211.86
568.287	13162.37
568.648	13174.57
569.01	13165.53
569.372	13313.1
569.734	13292.98
570.095	13409.59
570.457	13461.79
570.819	13562.81
571.18	13482.13
571.542	13572.98
571.903	13540.43
572.265	13633.09
572.626	13689.58
572.987	13690.71
573.349	13787.89
573.71	13752.63
574.071	13841.9
574.432	13888.67
574.794	13936.58
575.155	13985.17
575.516	13903.82
575.877	13963.02
576.238	14029.91
576.599	14094.77
576.96	14065.84
577.32	14053.64
577.681	14201.66
578.042	14190.81
578.403	14248.21
578.763	14301.09
579.124	14185.62
579.485	14264.48
579.845	14362.79
580.206	14364.37
580.566	14335.44
580.927	14342.9
581.287	14464.93
581.648	14423.8
582.008	14453.18
582.368	14462.9
582.728	14450.69
583.089	14440.3
583.449	14452.73
583.809	14494.31
584.169	14566.4
584.529	14462.22
584.889	14643.91
585.249	14530.01
585.609	14455.89
585.969	14596
586.329	14552.61
586.688	14545.15
587.048	14600.52
587.408	14541.99
587.768	14580.63
588.127	14601.42
588.487	14575.44
588.846	14747.63
589.206	14626.28
589.565	14697.69
589.925	14683
590.284	14636.68
590.643	14641.65
591.003	14680.52
591.362	14730.69
591.721	14690.46
592.08	14737.24
592.44	14779.72
592.799	14738.6
593.158	14818.37
593.517	14709.22
593.876	14811.36
594.235	14726.39
594.593	14824.69
594.952	14800.51
595.311	14764.13
595.67	14799.84
596.029	14860.17
596.387	14884.58
596.746	14882.55
597.104	14746.73
597.463	14794.87
597.822	14893.62
598.18	14814.98
598.538	14929.78
598.897	14948.99
599.255	14750.8
599.613	14945.6
599.972	14834.64
600.33	14875.32
600.688	14803.45
601.046	14957.12
601.404	14985.37
601.762	14920.29
602.12	15046.16
602.478	14995.09
602.836	15034.63
603.194	14955.76
603.552	15066.72
603.91	14966.84
604.268	15090.9
604.625	14940.62
604.983	15026.05
605.341	14979.27
605.698	15110.79
606.056	15061.3
606.413	15074.63
606.771	15227.4
607.128	15136.78
607.485	15025.14
607.843	15153.5
608.2	15164.12
608.557	15208.41
608.914	15178.81
609.272	15282.99
609.629	15317.34
609.986	15286.38
610.343	15301.52
610.7	15367.73
611.057	15333.83
611.414	15332.7
611.771	15353.72
612.127	15390.78
612.484	15434.62
612.841	15432.81
613.198	15395.3
613.554	15353.04
613.911	15511.91
614.267	15497.45
614.624	15595.07
614.98	15576.09
615.337	15569.08
615.693	15519.82
616.05	15595.75
616.406	15628.74
616.762	15488.86
617.118	15607.27
617.475	15532.25
617.831	15594.62
618.187	15749.19
618.543	15649.98
618.899	15749.19
619.255	15736.08
619.611	15717.1
619.967	15769.53
620.323	15853.37
620.678	15752.81
621.034	15675.97
621.39	15758
621.746	15708.97
622.101	15871.67
622.457	15799.13
622.812	15788.06
623.168	15884.55
623.523	15921.16
623.879	15933.82
624.234	15882.07
624.589	15906.25
624.945	15926.59
625.3	15898.11
625.655	15853.59
626.01	15918.68
626.365	16053.59
626.72	15902.86
627.075	15955.29
627.43	15945.12
627.785	15906.02
628.14	15945.12
628.495	16024.44
628.85	16014.49
629.205	16012.23
629.559	16049.3
629.914	16004.55
630.269	16028.96
630.623	16077.32
630.978	16041.39
631.332	16152.34
631.687	16143.98
632.041	15942.41
632.396	16200.25
632.75	16061.95
633.104	16081.16
633.459	15980.37
633.813	16022.86
634.167	16200.7
634.521	16071.89
634.875	16174.04
635.229	16107.6
635.583	15995.06
635.937	16181.5
636.291	16114.6
636.645	16168.16
636.999	16116.86
637.352	16067.37
637.706	16169.07
638.06	16260.82
638.413	16103.53
638.767	16126.81
639.121	16071.44
639.474	16061.72
639.828	16050.65
640.181	16057.43
640.534	16198.22
640.888	16109.41
641.241	16130.88
641.594	16089.29
641.947	16161.61
642.301	16200.93
642.654	16187.82
643.007	16155.06
643.36	16174.04
643.713	16245.22
644.066	16222.17
644.419	16230.53
644.771	16112.12
645.124	15907.15
645.477	16006.81
645.83	15784.67
646.182	15770.88
646.535	15746.25
646.888	15815.63
647.24	15856.98
647.593	15933.37
647.945	15922.29
648.298	15867.15
648.65	15821.05
649.002	15815.86
649.355	15906.93
649.707	15894.05
650.059	15955.29
650.411	16153.7
650.763	16146.69
651.115	16329.74
651.467	16311.89
651.819	16392.56
652.171	16392.34
652.523	16350.53
652.875	16353.92
653.227	16265.34
653.578	16451.77
653.93	16372.68
654.282	16438.21
654.633	16294.03
654.985	16395.73
655.337	16342.62
655.688	16325.9
656.039	16525.89
656.391	16362.28
656.742	16447.25
657.094	16421.72
657.445	16436.4
657.796	16554.37
658.147	16453.8
658.498	16439.34
658.849	16521.37
659.2	16462.84
659.551	16475.5
659.902	16468.49
660.253	16496.06
660.604	16523.63
660.955	16447.93
661.306	16527.93
661.656	16570.19
662.007	16659.67
662.358	16542.84
662.708	16551.43
663.059	16533.12
663.409	16450.41
663.76	16608.83
664.11	16532.67
664.461	16548.49
664.811	16624.42
665.161	16543.75
665.511	16556.85
665.862	16567.25
666.212	16591.43
666.562	16585.78
666.912	16514.37
667.262	16493.58
667.612	16500.81
667.962	16444.54
668.312	16506.01
668.662	16538.55
669.011	16464.43
669.361	16478.66
669.711	16455.84
670.06	16472.34
670.41	16421.49
670.76	16429.4
671.109	16401.15
671.459	16399.57
671.808	16394.6
672.157	16360.25
672.507	16274.6
672.856	16230.76
673.205	16200.03
673.554	16314.83
673.904	16125
674.253	16244.09
674.602	16265.79
674.951	15960.94
675.3	15890.2
675.649	16134.04
675.998	16138.11
676.346	16061.27
676.695	16070.54
677.044	16001.16
677.393	16019.01
677.741	16031.89
678.09	15908.96
678.438	15881.84
678.787	15887.72
679.135	15935.17
679.484	15789.87
679.832	15788.29
680.181	15772.47
680.529	15811.79
680.877	15744.9
681.225	15688.63
681.573	15752.81
681.922	15653.15
682.27	15617.89
682.618	15600.04
682.966	15489.76
683.314	15552.36
683.661	15603.21
684.009	15459.25
684.357	15344.91
684.705	15326.15
685.053	15321.86
685.4	15367.96
685.748	15296.77
686.095	15278.02
686.443	15321.18
686.79	15228.07
687.138	15282.54
687.485	15210.45
687.832	15162.99
688.18	15147.4
688.527	15148.53
688.874	15061.07
689.221	15002.32
689.568	15002.09
689.915	14978.36
690.262	14957.35
690.609	14972.04
690.956	14940.62
691.303	14965.03
691.65	14906.5
691.997	14847.52
692.344	14797.8
692.69	14831.7
693.037	14839.38
693.383	14706.05
693.73	14737.69
694.077	14665.6
694.423	14672.16
694.769	14724.58
695.116	14628.32
695.462	14538.83
695.808	14580.86
696.155	14598.94
696.501	14592.84
696.847	14554.65
697.193	14466.06
697.539	14480.98
697.885	14440.52
698.231	14418.83
698.577	14372.28
698.923	14429.9
699.269	14329.11
699.614	14276.69
699.96	14304.26
700.306	14299.51
700.651	14118.95
700.997	14173.64
701.342	14124.37
701.688	14151.27
702.033	14224.26
702.379	14129.35
702.724	14087.54
703.069	14168.67
703.415	14034.43
703.76	14066.97
704.105	14011.16
704.45	13985.17
704.795	13956.24
705.14	13952.4
705.485	13937.49
705.83	13919.86
706.175	13868.34
706.52	13880.09
706.865	13867.43
707.209	13914.44
707.554	13859.07
707.899	13842.12
708.243	13791.28
708.588	13822.01
708.932	13678.06
709.277	13740.43
709.621	13787.21
709.966	13618.17
710.31	13833.76
710.654	13615.01
710.998	13665.18
711.342	13661.79
711.687	13676.25
712.031	13624.5
712.375	13503.37
712.719	13670.15
713.063	13637.83
713.407	13706.98
713.75	13523.26
714.094	13611.85
714.438	13580.21
714.782	13656.59
715.125	13568.68
715.469	13558.97
715.812	13448.01
716.156	13370.5
716.499	13484.39
716.843	13528.01
717.186	13400.33
717.53	13611.62
717.873	13504.96
718.216	13472.64
718.559	13453.21
718.902	13355.81
719.246	13409.59
719.589	13391.74
719.932	13337.28
720.275	13382.02
720.617	13338.63
720.96	13287.11
721.303	13395.81
721.646	13381.57
721.989	13257.28
722.331	13367.78
722.674	13263.61
723.016	13309.48
723.359	13255.02
723.701	13370.72
724.044	13194.23
724.386	13119.2
724.729	13244.85
725.071	13227.9
725.413	13209.14
725.755	13219.09
726.097	13108.58
726.439	13183.83
726.782	13156.49
727.124	13233.1
727.465	13199.65
727.807	13132.31
728.149	13134.34
728.491	13043.72
728.833	13189.03
729.175	13105.64
729.516	13107
729.858	13075.36
730.199	13242.14
730.541	13148.81
730.882	13031.75
731.224	13192.87
731.565	13181.12
731.906	13126.21
732.248	13126.66
732.589	13050.73
732.93	13072.2
733.271	13097.51
733.612	13172.99
733.953	13199.65
734.294	13085.98
734.635	13139.32
734.976	13180.67
735.317	13081.46
735.658	13149.26
735.999	13095.25
736.339	13206.66
736.68	13187.22
737.021	13199.2
737.361	13165.53
737.702	13275.58
738.042	13281.23
738.383	13285.3
738.723	13248.47
739.063	13311.97
739.404	13344.28
739.744	13357.16
740.084	13359.42
740.424	13324.62
740.764	13292.08
741.104	13397.84
741.444	13359.2
741.784	13421.79
742.124	13365.3
742.464	13499.76
742.804	13381.34
743.143	13436.03
743.483	13515.58
743.823	13453.66
744.162	13468.12
744.502	13602.35
744.841	13483.04
745.181	13622.92
745.52	13556.03
745.86	13630.83
746.199	13677.38
746.538	13629.02
746.877	13697.04
747.216	13680.32
747.556	13711.73
747.895	13641.45
748.234	13689.58
748.573	13730.26
748.911	13835.79
749.25	13873.08
749.589	13764.16
749.928	13870.82
750.267	13819.98
750.605	13913.08
750.944	13851.84
751.283	13951.27
751.621	13944.49
751.96	13923.25
752.298	13893.87
752.636	13989.01
752.975	13901.78
753.313	13965.28
753.651	14012.51
753.989	13984.94
754.327	14023.36
754.666	13960.99
755.004	14088.22
755.342	14170.47
755.679	14038.73
756.017	14104.49
756.355	14181.32
