Data from blue_chair_FLMS001491_00064.txt Node
Date: Wed Feb 08 10:31:33 GMT 2017
User: dcchb
Spectrometer: FLMS00149
Trigger mode: 0
Integration Time (sec): 2.000000E-2
Scans to average: 10
Electric dark correction enabled: true
Nonlinearity correction enabled: false
Boxcar width: 0
XAxis mode: Wavelengths
Number of Pixels in Spectrum: 2048
>>>>>Begin Spectral Data<<<<<
341.393	-15.55
341.776	-15.55
342.16	-15.55
342.543	-64.59
342.927	-71.14
343.31	-69.56
343.693	-67.07
344.077	-72.72
344.46	-49.67
344.843	-69.33
345.226	-51.71
345.61	-25.27
345.993	-5.83
346.376	-0.41
346.759	-4.48
347.142	27.39
347.525	51.57
347.908	47.95
348.291	77.78
348.674	90.66
349.057	120.72
349.44	119.14
349.823	149.87
350.206	161.62
350.588	195.97
350.971	206.36
351.354	198
351.737	216.53
352.119	221.73
352.502	238.91
352.884	261.28
353.267	259.47
353.65	252.01
354.032	286.59
354.414	288.62
354.797	299.02
355.179	288.4
355.562	314.84
355.944	308.73
356.326	300.6
356.709	316.19
357.091	306.25
357.473	318.23
357.855	317.1
358.238	318.23
358.62	304.89
359.002	313.25
359.384	301.5
359.766	326.59
360.148	310.77
360.53	330.43
360.912	318
361.294	333.59
361.676	327.04
362.057	303.76
362.439	310.09
362.821	287.72
363.203	328.62
363.584	298.79
363.966	302.41
364.348	311.22
364.729	301.96
365.111	315.06
365.493	272.35
365.874	291.11
366.256	317.77
366.637	307.15
367.019	302.18
367.4	285.01
367.781	292.92
368.163	304.67
368.544	322.97
368.925	284.78
369.306	285.68
369.688	298.57
370.069	290.88
370.45	297.66
370.831	309.64
371.212	288.85
371.593	276.19
371.974	283.88
372.355	279.13
372.736	287.27
373.117	287.94
373.498	291.11
373.879	293.82
374.26	309.19
374.641	284.78
375.021	296.53
375.402	312.12
375.783	284.55
376.163	298.11
376.544	297.21
376.925	277.55
377.305	290.66
377.686	300.15
378.066	296.53
378.447	312.58
378.827	305.8
379.208	314.84
379.588	315.74
379.968	307.15
380.349	302.41
380.729	277.78
381.109	309.41
381.489	315.51
381.87	316.19
382.25	318.45
382.63	317.32
383.01	310.09
383.39	302.41
383.77	319.36
384.15	296.76
384.53	293.59
384.91	306.02
385.29	300.83
385.67	312.58
386.049	337.89
386.429	315.51
386.809	319.36
387.189	310.32
387.568	328.85
387.948	320.49
388.328	321.84
388.707	323.88
389.087	297.44
389.466	312.8
389.846	315.51
390.225	320.49
390.605	321.84
390.984	312.8
391.363	311.67
391.743	311.67
392.122	331.56
392.501	315.29
392.881	303.54
393.26	336.53
393.639	311.45
394.018	323.65
394.397	337.43
394.776	325.23
395.155	303.31
395.534	311.45
395.913	328.85
396.292	331.11
396.671	355.51
397.05	339.92
397.429	325.91
397.808	326.81
398.186	347.83
398.565	344.89
398.944	339.02
399.323	348.06
399.701	322.97
400.08	353.71
400.458	336.53
400.837	359.81
401.215	353.03
401.594	341.73
401.972	351.45
402.351	365.91
402.729	345.8
403.107	353.71
403.486	362.07
403.864	359.13
404.242	354.38
404.62	338.79
404.999	391.67
405.377	365
405.755	390.31
406.133	373.59
406.511	363.65
406.889	377.43
407.267	363.87
407.645	381.73
408.023	382.18
408.401	374.04
408.779	378.56
409.156	393.03
409.534	381.28
409.912	396.64
410.29	398.9
410.667	395.74
411.045	381.05
411.422	422.18
411.8	401.61
412.178	414.72
412.555	411.11
412.933	406.59
413.31	426.25
413.687	397.55
414.065	425.34
414.442	452.91
414.819	423.08
415.197	419.24
415.574	442.29
415.951	431.22
416.328	444.1
416.705	429.64
417.082	442.06
417.46	411.33
417.837	443.87
418.214	441.61
418.591	448.84
418.967	434.38
419.344	443.65
419.721	448.17
420.098	448.84
420.475	471.67
420.852	453.14
421.228	453.82
421.605	471.22
421.982	464.66
422.358	490.2
422.735	478.22
423.111	487.04
423.488	469.86
423.864	474.38
424.241	484.1
424.617	484.1
424.994	485.91
425.37	515.28
425.746	499.69
426.123	492.01
426.499	483.65
426.875	502.63
427.251	527.94
427.627	522.74
428.003	524.55
428.379	509.41
428.756	535.17
429.132	546.92
429.507	533.81
429.883	558.22
430.259	556.19
430.635	562.97
431.011	568.39
431.387	535.4
431.763	573.13
432.138	585.56
432.514	549.41
432.89	575.17
433.265	568.84
433.641	582.63
434.016	621.72
434.392	594.6
434.767	597.54
435.143	600.03
435.518	607.71
435.894	600.48
436.269	626.24
436.644	655.39
437.02	634.83
437.395	648.84
437.77	650.87
438.145	675.28
438.52	686.35
438.895	690.87
439.271	681.83
439.646	681.61
440.021	708.5
440.395	710.98
440.77	684.77
441.145	721.15
441.52	703.75
441.895	727.03
442.27	719.12
442.645	740.36
443.019	733.58
443.394	746.24
443.769	749.85
444.143	738.78
444.518	761.6
444.892	773.58
445.267	783.75
445.641	745.33
446.016	778.78
446.39	789.4
446.764	783.3
447.139	787.59
447.513	780.36
447.887	797.54
448.262	821.26
448.636	798.44
449.01	824.88
449.384	839.79
449.758	817.2
450.132	845.9
450.506	833.69
450.88	849.29
451.254	838.21
451.628	858.32
452.002	855.61
452.376	888.38
452.75	871.43
453.123	868.49
453.497	868.95
453.871	905.78
454.244	893.35
454.618	907.82
454.992	917.53
455.365	905.56
455.739	930.64
456.112	953.46
456.486	972.9
456.859	946.46
457.232	958.44
457.606	971.32
457.979	978.77
458.352	990.52
458.725	985.1
459.099	993.01
459.472	992.11
459.845	1014.48
460.218	1023.29
460.591	1027.81
460.964	1037.76
461.337	1036.17
461.71	1019.68
462.083	1069.39
462.456	1087.02
462.829	1056.74
463.201	1077.53
463.574	1085.21
463.947	1099.9
464.32	1111.65
464.692	1114.14
465.065	1116.4
465.438	1129.5
465.81	1155.94
466.183	1143.74
466.555	1156.62
466.928	1154.59
467.3	1150.52
467.672	1177.64
468.045	1186.9
468.417	1186
468.789	1204.98
469.161	1203.4
469.534	1240.46
469.906	1241.14
470.278	1254.7
470.65	1260.8
471.022	1275.94
471.394	1279.56
471.766	1299.9
472.138	1254.47
472.51	1283.85
472.882	1332.89
473.253	1311.87
473.625	1374.7
473.997	1408.59
474.369	1362.94
474.74	1379.89
475.112	1390.29
475.484	1421.02
475.855	1400.91
476.227	1428.03
476.598	1474.13
476.97	1448.37
477.341	1472.77
477.713	1518.87
478.084	1505.54
478.455	1521.13
478.827	1524.52
479.198	1556.16
479.569	1556.61
479.94	1580.79
480.311	1580.79
480.682	1616.05
481.053	1617.63
481.424	1632.54
481.795	1647
482.166	1679.77
482.537	1656.95
482.908	1694.24
483.279	1691.98
483.65	1730.84
484.021	1736.72
484.391	1757.06
484.762	1763.84
485.133	1770.84
485.503	1788.92
485.874	1791.18
486.244	1809.03
486.615	1791.18
486.985	1823.5
487.356	1825.53
487.726	1838.41
488.097	1828.92
488.467	1862.82
488.837	1898.52
489.207	1899.43
489.578	1900.33
489.948	1925.19
490.318	1912.99
490.688	1904.63
491.058	1913.89
491.428	1905.98
491.798	1914.34
492.168	1960.67
492.538	1966.09
492.908	1956.15
493.278	1978.52
493.648	1941.46
494.017	1996.15
494.387	1989.37
494.757	1999.99
495.126	1951.86
495.496	2002.93
495.866	1959.54
496.235	1983.27
496.605	1969.48
496.974	1997.73
497.344	1994.11
497.713	1969.26
498.082	1985.07
498.452	1993.66
498.821	1954.57
499.19	1990.95
499.559	1967.67
499.928	1961.35
500.298	1969.48
500.667	1976.94
501.036	1992.53
501.405	1953.21
501.774	1931.07
502.143	1959.99
502.512	1991.4
502.88	1962.7
503.249	1981.01
503.618	1957.51
503.987	1973.1
504.356	1940.56
504.724	1961.57
505.093	1968.58
505.462	1940.78
505.83	1967.22
506.199	1934.91
506.567	1940.33
506.936	1957.73
507.304	1934
507.672	1949.6
508.041	1947.56
508.409	1937.39
508.777	1927
509.145	1952.99
509.514	1939.43
509.882	1927
510.25	1934
510.618	1919.77
510.986	1927.22
511.354	1911.18
511.722	1914.57
512.09	1921.8
512.458	1936.94
512.826	1919.09
513.193	1882.48
513.561	1879.54
513.929	1892.65
514.297	1933.78
514.664	1887
515.032	1879.77
515.4	1884.29
515.767	1872.76
516.135	1889.48
516.502	1849.71
516.869	1850.84
517.237	1852.2
517.604	1860.56
517.972	1844.06
518.339	1824.18
518.706	1850.16
519.073	1827.11
519.44	1842.48
519.808	1829.37
520.175	1803.38
520.542	1807.45
520.909	1837.73
521.276	1810.16
521.643	1820.56
522.009	1807.68
522.376	1821.24
522.743	1812.65
523.11	1800.9
523.477	1802.25
523.843	1781.01
524.21	1832.54
524.577	1824.85
524.943	1811.29
525.31	1796.38
525.676	1808.81
526.043	1783.95
526.409	1837.28
526.776	1832.31
527.142	1797.74
527.508	1817.62
527.874	1808.36
528.241	1808.13
528.607	1799.09
528.973	1815.81
529.339	1805.64
529.705	1835.47
530.071	1801.8
530.437	1806.32
530.803	1788.7
531.169	1814.23
531.535	1807
531.901	1815.14
532.267	1794.8
532.632	1757.28
532.998	1785.31
533.364	1809.26
533.73	1784.18
534.095	1831.63
534.461	1807.68
534.826	1818.3
535.192	1813.55
535.557	1825.76
535.923	1808.36
536.288	1781.24
536.653	1772.65
537.019	1759.32
537.384	1789.6
537.749	1782.37
538.114	1807
538.479	1806.32
538.845	1807.68
539.21	1762.48
539.575	1814.91
539.94	1775.14
540.305	1761.8
540.67	1778.07
541.034	1769.94
541.399	1788.92
541.764	1775.14
542.129	1803.16
542.494	1784.18
542.858	1767.91
543.223	1779.88
543.587	1741.01
543.952	1760.9
544.316	1749.37
544.681	1790.05
545.045	1782.82
545.41	1732.65
545.774	1741.24
546.138	1747.12
546.503	1769.94
546.867	1752.31
547.231	1780.56
547.595	1735.59
547.959	1721.13
548.324	1767.45
548.688	1746.66
549.052	1729.49
549.416	1745.53
549.779	1727.68
550.143	1745.31
550.507	1728.13
550.871	1706.21
551.235	1709.15
551.599	1723.61
551.962	1695.14
552.326	1736.72
552.689	1729.04
553.053	1727.23
553.417	1708.47
553.78	1730.62
554.143	1713.44
554.507	1727.68
554.87	1724.06
555.234	1723.39
555.597	1689.94
555.96	1731.52
556.323	1712.54
556.686	1688.81
557.05	1697.4
557.413	1709.6
557.776	1703.95
558.139	1691.3
558.502	1706.44
558.865	1708.7
559.228	1711.18
559.59	1721.13
559.953	1665.31
560.316	1727.45
560.679	1725.19
561.041	1733.78
561.404	1704.18
561.767	1724.52
562.129	1717.74
562.492	1727.23
562.854	1721.35
563.217	1741.92
563.579	1733.56
563.941	1720
564.304	1702.14
564.666	1728.58
565.028	1744.4
565.39	1738.98
565.753	1725.87
566.115	1767.45
566.477	1753.22
566.839	1764.74
567.201	1764.06
567.563	1775.14
567.925	1761.35
568.287	1743.27
568.648	1778.07
569.01	1790.5
569.372	1770.17
569.734	1756.15
570.095	1799.54
570.457	1786.66
570.819	1788.92
571.18	1816.27
571.542	1791.18
571.903	1831.86
572.265	1793.44
572.626	1780.33
572.987	1809.26
573.349	1811.29
573.71	1851.29
574.071	1844.51
574.432	1855.59
574.794	1865.76
575.155	1858.3
575.516	1850.16
575.877	1856.04
576.238	1831.86
576.599	1863.72
576.96	1850.16
577.32	1882.7
577.681	1897.17
578.042	1867.56
578.403	1873.21
578.763	1870.05
579.124	1864.4
579.485	1878.41
579.845	1901.01
580.206	1894
580.566	1885.64
580.927	1912.76
581.287	1909.37
581.648	1872.54
582.008	1920.44
582.368	1918.64
582.728	1919.54
583.089	1898.07
583.449	1938.52
583.809	1924.29
584.169	1922.93
584.529	1935.36
584.889	1946.21
585.249	1918.41
585.609	1940.78
585.969	1944.17
586.329	1917.28
586.688	1952.99
587.048	1921.35
587.408	1934.68
587.768	1945.98
588.127	1948.24
588.487	1948.92
588.846	1952.08
589.206	1952.53
589.565	1957.51
589.925	1970.16
590.284	1952.31
590.643	1942.59
591.003	1913.89
591.362	1970.61
591.721	1952.76
592.08	1938.07
592.44	1945.3
592.799	1979.88
593.158	1957.96
593.517	1945.75
593.876	1911.63
594.235	1957.73
594.593	1962.02
594.952	1981.23
595.311	1944.62
595.67	1966.77
596.029	1962.7
596.387	1977.62
596.746	1950.05
597.104	1913.44
597.463	1934
597.822	1943.95
598.18	1970.39
598.538	1970.16
598.897	1956.38
599.255	1936.04
599.613	2004.28
599.972	1960.89
600.33	1997.73
600.688	1954.34
601.046	1965.19
601.404	1965.19
601.762	1963.83
602.12	1975.81
602.478	1994.11
602.836	1985.53
603.194	1936.71
603.552	1936.94
603.91	1957.96
604.268	1967.9
604.625	1967
604.983	1956.15
605.341	1937.39
605.698	1946.88
606.056	1951.18
606.413	1969.26
606.771	1972.19
607.128	1976.04
607.485	1954.12
607.843	1982.82
608.2	1927.9
608.557	1958.63
608.914	1984.4
609.272	1990.95
609.629	1976.04
609.986	1974.45
610.343	1959.31
610.7	1970.16
611.057	2001.12
611.414	1970.39
611.771	1955.25
612.127	1990.95
612.484	1984.85
612.841	1979.65
613.198	1988.46
613.554	1994.79
613.911	1989.14
614.267	2007.9
614.624	1999.99
614.98	1987.33
615.337	2005.19
615.693	2025.07
616.05	2024.62
616.406	1998.18
616.762	2001.12
617.118	1992.08
617.475	1969.48
617.831	1998.63
618.187	2029.37
618.543	2011.74
618.899	2028.01
619.255	2020.1
619.611	1991.85
619.967	1988.92
620.323	2018.07
620.678	2013.1
621.034	2005.64
621.39	2033.89
621.746	1999.09
622.101	2016.71
622.457	2004.28
622.812	2023.49
623.168	2007.22
623.523	2018.29
623.879	2005.64
624.234	2009.71
624.589	2007.22
624.945	2008.58
625.3	2042.7
625.655	2009.26
626.01	2025.07
626.365	2025.98
626.72	2030.27
627.075	2005.19
627.43	2000.44
627.785	2027.79
628.14	2027.33
628.495	2008.58
628.85	2033.44
629.205	2019.42
629.559	2033.89
629.914	1984.85
630.269	2055.81
630.623	2024.4
630.978	2022.59
631.332	2068.24
631.687	2041.8
632.041	2021.91
632.396	2026.43
632.75	2016.49
633.104	2010.84
633.459	2028.24
633.813	2046.32
634.167	2035.7
634.521	2029.59
634.875	1999.99
635.229	2016.49
635.583	2002.02
635.937	2010.38
636.291	2042.93
636.645	2030.5
636.999	2018.29
637.352	2004.51
637.706	2015.13
638.06	2011.06
638.413	2032.98
638.767	2033.21
639.121	2039.08
639.474	2016.49
639.828	2016.94
640.181	2045.41
640.534	2064.62
640.888	2028.69
641.241	2021.68
641.594	2026.66
641.947	2035.7
642.301	2039.76
642.654	2033.21
643.007	2066.2
643.36	2058.75
643.713	2035.24
644.066	2030.05
644.419	2036.6
644.771	2046.32
645.124	2016.71
645.477	1998.18
645.83	1983.72
646.182	2006.77
646.535	1998.18
646.888	2009.03
647.24	2018.29
647.593	2016.71
647.945	2022.59
648.298	1994.34
648.65	2018.52
649.002	1993.89
649.355	2015.36
649.707	2015.13
650.059	2014.45
650.411	2059.42
650.763	2047.22
651.115	2072.3
651.467	2059.88
651.819	2042.93
652.171	2107.56
652.523	2099.65
652.875	2036.37
653.227	2084.06
653.578	2064.39
653.93	2116.6
654.282	2050.16
654.633	2090.38
654.985	2109.59
655.337	2079.08
655.688	2098.07
656.039	2097.16
656.391	2106.65
656.742	2105.52
657.094	2091.51
657.445	2126.31
657.796	2090.61
658.147	2117.73
658.498	2116.6
658.849	2132.87
659.2	2095.81
659.551	2124.51
659.902	2105.3
660.253	2155.01
660.604	2143.49
660.955	2128.8
661.306	2142.81
661.656	2105.07
662.007	2138.74
662.358	2148.01
662.708	2119.99
663.059	2124.73
663.409	2122.47
663.76	2156.14
664.11	2105.75
664.461	2134.9
664.811	2132.64
665.161	2146.2
665.511	2124.28
665.862	2111.63
666.212	2121.79
666.562	2140.78
666.912	2154.34
667.262	2157.5
667.612	2149.59
667.962	2141.45
668.312	2122.92
668.662	2126.99
669.011	2091.29
669.361	2132.42
669.711	2103.04
670.06	2152.53
670.41	2119.76
670.76	2146.88
671.109	2136.71
671.459	2099.87
671.808	2164.51
672.157	2117.27
672.507	2114.34
672.856	2101.91
673.205	2105.98
673.554	2124.51
673.904	2094.45
674.253	2094.68
674.602	2088.35
674.951	2070.04
675.3	2088.35
675.649	2088.35
675.998	2081.57
676.346	2081.8
676.695	2051.51
677.044	2083.6
677.393	2085.41
677.741	2078.86
678.09	2068.24
678.438	2059.65
678.787	2034.34
679.135	2038.86
679.484	2052.42
679.832	2058.29
680.181	2044.28
680.529	2072.53
680.877	2051.97
681.225	2078.41
681.573	2045.86
681.922	2069.14
682.27	2020.33
682.618	2030.72
682.966	2041.12
683.314	2028.46
683.661	2003.38
684.009	1993.44
684.357	2047.22
684.705	2049.03
685.053	1989.59
685.4	1955.02
685.748	1959.31
686.095	1967.45
686.443	1974.45
686.79	1970.16
687.138	1963.83
687.485	1939.88
687.832	1953.89
688.18	1956.38
688.527	1959.76
688.874	1962.25
689.221	1977.84
689.568	1930.39
689.915	1955.47
690.262	1947.34
690.609	1931.74
690.956	1927.68
691.303	1901.24
691.65	1901.69
691.997	1913.44
692.344	1877.06
692.69	1883.61
693.037	1882.48
693.383	1858.3
693.73	1861.69
694.077	1863.04
694.423	1882.48
694.769	1872.08
695.116	1870.95
695.462	1866.21
695.808	1836.6
696.155	1856.72
696.501	1846.55
696.847	1862.82
697.193	1837.73
697.539	1815.14
697.885	1837.06
698.231	1807.9
698.577	1823.05
698.923	1803.38
699.269	1777.85
699.614	1803.16
699.96	1771.97
700.306	1779.43
700.651	1778.75
700.997	1780.56
701.342	1776.94
701.688	1763.16
702.033	1795.02
702.379	1757.74
702.724	1752.09
703.069	1755.48
703.415	1764.74
703.76	1751.63
704.105	1771.97
704.45	1749.6
704.795	1749.6
705.14	1758.87
705.485	1747.34
705.83	1753.67
706.175	1748.92
706.52	1709.15
706.865	1737.62
707.209	1741.01
707.554	1700.11
707.899	1767.45
708.243	1742.37
708.588	1735.59
708.932	1712.31
709.277	1739.43
709.621	1731.52
709.966	1735.82
710.31	1724.06
710.654	1725.87
710.998	1690.17
711.342	1712.09
711.687	1743.05
712.031	1740.34
712.375	1676.61
712.719	1735.59
713.063	1712.54
713.407	1736.04
713.75	1737.85
714.094	1769.26
714.438	1723.61
714.782	1738.98
715.125	1739.21
715.469	1731.97
715.812	1741.47
716.156	1714.57
716.499	1742.37
716.843	1771.07
717.186	1750.96
717.53	1787.11
717.873	1763.16
718.216	1756.15
718.559	1776.72
718.902	1738.08
719.246	1774.46
719.589	1789.37
719.932	1776.04
720.275	1788.24
720.617	1770.62
720.96	1792.76
721.303	1803.38
721.646	1792.31
721.989	1811.75
722.331	1822.14
722.674	1828.47
723.016	1811.29
723.359	1804.97
723.701	1805.42
724.044	1781.69
724.386	1809.49
724.729	1811.75
725.071	1811.52
725.413	1869.6
725.755	1822.14
726.097	1871.63
726.439	1840.22
726.782	1877.28
727.124	1907.34
727.465	1897.39
727.807	1893.1
728.149	1880.9
728.491	1891.07
728.833	1878.19
729.175	1926.32
729.516	1926.32
729.858	1941.01
730.199	1922.25
730.541	1945.3
730.882	1935.36
731.224	1942.14
731.565	1966.32
731.906	1972.42
732.248	2006.77
732.589	1961.12
732.93	1984.17
733.271	2027.11
733.612	2051.97
733.953	2038.41
734.294	2036.6
734.635	2037.95
734.976	2039.99
735.317	2041.12
735.658	2044.06
735.999	2090.38
736.339	2098.97
736.68	2134.45
737.021	2113.89
737.361	2114.79
737.702	2144.62
738.042	2134.22
738.383	2151.17
738.723	2195.69
739.063	2238.4
739.404	2208.35
739.744	2227.33
740.084	2264.62
740.424	2246.31
740.764	2293.32
741.104	2303.26
741.444	2276.14
741.784	2307.78
742.124	2370.15
742.464	2390.71
742.804	2394.1
743.143	2404.27
743.483	2436.81
743.823	2403.59
744.162	2506.19
744.502	2493.08
744.841	2502.12
745.181	2578.73
745.52	2577.6
745.86	2640.2
746.199	2623.7
746.538	2697.15
746.877	2742.8
747.216	2724.04
747.556	2786.86
747.895	2815.79
748.234	2870.48
748.573	2907.31
748.911	2932.85
749.25	2937.37
749.589	2964.48
749.928	3014.88
750.267	3071.15
750.605	3098.04
750.944	3120.41
751.283	3148.43
751.621	3264.82
751.96	3272.5
752.298	3339.16
752.636	3396.79
752.975	3435.88
753.313	3457.35
753.651	3502.1
753.989	3601.08
754.327	3614.41
754.666	3664.13
755.004	3745.25
755.342	3757.91
755.679	3881.07
756.017	3887.17
756.355	3920.84
756.693	4006.72
757.031	4043.55
757.368	4091.01
757.706	4155.87
758.044	4201.74
758.381	4249.65
758.719	4340.72
759.056	4402.64
759.394	4470.21
759.731	4459.59
760.068	4524.22
760.405	4585.01
760.743	4675.4
761.08	4753.36
761.417	4784.32
761.754	4813.7
762.091	4912.68
762.428	4923.75
762.765	4972.79
763.102	5027.71
763.438	5094.6
763.775	5098.89
764.112	5221.6
764.449	5211.2
764.785	5267.02
765.122	5293.46
765.458	5331.43
765.795	5406.91
766.131	5461.59
766.467	5487.13
766.804	5529.39
767.14	5521.25
767.476	5668.14
767.812	5692.55
768.148	5707.24
768.485	5761.25
768.821	5760.79
769.157	5815.03
769.492	5806.22
769.828	5833.79
770.164	5954.24
770.5	5928.25
770.836	5957.85
771.171	5975.03
771.507	6028.36
