Data from blue_chair_FLMS001491_00032.txt Node
Date: Wed Feb 08 10:30:36 GMT 2017
User: dcchb
Spectrometer: FLMS00149
Trigger mode: 0
Integration Time (sec): 2.000000E-2
Scans to average: 10
Electric dark correction enabled: true
Nonlinearity correction enabled: false
Boxcar width: 0
XAxis mode: Wavelengths
Number of Pixels in Spectrum: 2048
>>>>>Begin Spectral Data<<<<<
341.393	-32.63
341.776	-32.63
342.16	-32.63
342.543	-63.36
342.927	-55.68
343.31	-70.37
343.693	-69.91
344.077	-73.98
344.46	-40.31
344.843	-63.59
345.226	-49.35
345.61	-26.52
345.993	-28.78
346.376	-7.77
346.759	21.16
347.142	22.51
347.525	45.56
347.908	55.06
348.291	66.13
348.674	114.71
349.057	105.45
349.44	108.16
349.823	143.19
350.206	144.77
350.588	156.97
350.971	209.18
351.354	212.11
351.737	229.74
352.119	237.42
352.502	235.16
352.884	240.59
353.267	255.28
353.65	255.95
354.032	279.46
354.414	285.56
354.797	293.24
355.179	294.82
355.562	304.31
355.944	286.46
356.326	300.92
356.709	293.47
357.091	323.52
357.473	299.79
357.855	308.61
358.238	319.45
358.62	319.45
359.002	309.06
359.384	318.55
359.766	291.88
360.148	304.09
360.53	311.55
360.912	309.06
361.294	306.8
361.676	305.67
362.057	292.34
362.439	296.86
362.821	305.9
363.203	281.72
363.584	285.56
363.966	294.82
364.348	307.25
364.729	287.14
365.111	311.77
365.493	272
365.874	287.59
366.256	282.17
366.637	285.56
367.019	290.76
367.4	289.17
367.781	267.03
368.163	299.57
368.544	290.08
368.925	283.52
369.306	282.85
369.688	284.2
370.069	265.67
370.45	304.99
370.831	306.35
371.212	300.7
371.593	280.81
371.974	281.49
372.355	280.36
372.736	290.3
373.117	264.09
373.498	264.99
373.879	280.13
374.26	283.75
374.641	283.07
375.021	277.87
375.402	296.4
375.783	294.37
376.163	279.68
376.544	274.94
376.925	284.2
377.305	283.52
377.686	274.71
378.066	282.39
378.447	273.13
378.827	295.95
379.208	324.43
379.588	297.99
379.968	292.11
380.349	275.16
380.729	281.04
381.109	297.76
381.489	284.88
381.87	309.06
382.25	300.25
382.63	267.25
383.01	287.82
383.39	319
383.77	300.02
384.15	289.17
384.53	292.79
384.91	295.27
385.29	312.45
385.67	297.08
386.049	306.12
386.429	323.07
386.809	315.84
387.189	300.02
387.568	314.03
387.948	320.36
388.328	322.84
388.707	288.27
389.087	308.38
389.466	280.36
389.846	296.18
390.225	319.91
390.605	322.39
390.984	307.7
391.363	306.35
391.743	288.95
392.122	326.91
392.501	307.25
392.881	309.96
393.26	302.05
393.639	303.86
394.018	330.53
394.397	290.53
394.776	298.89
395.155	309.74
395.534	319.68
395.913	308.61
396.292	302.73
396.671	308.83
397.05	319
397.429	321.94
397.808	297.31
398.186	327.36
398.565	355.39
398.944	335.27
399.323	329.17
399.701	318.55
400.08	338.89
400.458	342.28
400.837	342.05
401.215	334.14
401.594	341.15
401.972	341.83
402.351	336.4
402.729	348.61
403.107	333.47
403.486	355.16
403.864	341.83
404.242	335.5
404.62	347.25
404.999	333.92
405.377	355.61
405.755	333.69
406.133	345.89
406.511	343.64
406.889	351.54
407.267	346.57
407.645	356.06
408.023	349.06
408.401	347.02
408.779	378.21
409.156	377.31
409.534	347.25
409.912	369.4
410.29	342.73
410.667	366.91
411.045	377.08
411.422	383.86
411.8	382.96
412.178	372.33
412.555	377.53
412.933	367.14
413.31	362.62
413.687	388.83
414.065	399.45
414.442	377.53
414.819	382.5
415.197	386.12
415.574	376.63
415.951	409.17
416.328	390.19
416.705	388.61
417.082	375.05
417.46	389.74
417.837	403.75
418.214	410.07
418.591	397.87
418.967	392.45
419.344	404.42
419.721	385.89
420.098	405.55
420.475	401.94
420.852	414.37
421.228	424.31
421.605	425.44
421.982	415.72
422.358	413.69
422.735	416.18
423.111	423.41
423.488	421.83
423.864	410.75
424.241	413.01
424.617	408.04
424.994	419.57
425.37	413.24
425.746	421.15
426.123	431.32
426.499	463.86
426.875	445.1
427.251	450.98
427.627	469.73
428.003	443.97
428.379	444.65
428.756	456.17
429.132	470.86
429.507	474.71
429.883	458.21
430.259	471.32
430.635	463.41
431.011	464.31
431.387	474.93
431.763	477.64
432.138	483.97
432.514	482.61
432.89	492.78
433.265	494.14
433.641	488.72
434.016	514.25
434.392	517.42
434.767	511.54
435.143	510.64
435.518	540.24
435.894	514.7
436.269	531.65
436.644	526.46
437.02	542.27
437.395	516.74
437.77	528.94
438.145	551.09
438.52	549.51
438.895	553.12
439.271	547.47
439.646	544.08
440.021	574.59
440.395	569.17
440.77	576.62
441.145	578.21
441.52	577.75
441.895	560.13
442.27	590.86
442.645	584.53
443.019	601.71
443.394	603.74
443.769	591.31
444.143	604.19
444.518	595.83
444.892	619.79
445.267	625.44
445.641	610.52
446.016	622.05
446.39	605.32
446.764	620.24
447.139	636.06
447.513	618.66
447.887	635.83
448.262	631.99
448.636	652.1
449.01	662.95
449.384	668.37
449.758	652.1
450.132	680.35
450.506	667.02
450.88	669.28
451.254	688.26
451.628	677.64
452.002	678.77
452.376	672.67
452.75	692.1
453.123	676.06
453.497	703.17
453.871	704.76
454.244	690.52
454.618	716.96
454.992	693
455.365	719.9
455.739	716.51
456.112	729.16
456.486	745.21
456.859	744.3
457.232	734.81
457.606	743.17
457.979	759.67
458.352	786.11
458.725	770.06
459.099	779.1
459.472	805.09
459.845	801.48
460.218	765.54
460.591	828.14
460.964	797.18
461.337	826.11
461.71	786.56
462.083	803.51
462.456	828.82
462.829	843.06
463.201	829.27
463.574	812.55
463.947	837.86
464.32	865.43
464.692	860.01
465.065	868.82
465.438	863.4
465.81	885.99
466.183	906.11
466.555	884.19
466.928	916.28
467.3	892.1
467.672	915.6
468.045	881.93
468.417	913.34
468.789	940.91
469.161	914.47
469.534	933.22
469.906	964.41
470.278	955.82
470.65	957.18
471.022	976.16
471.394	952.21
471.766	966.67
472.138	1014.35
472.51	1029.49
472.882	1012.32
473.253	996.73
473.625	1052.32
473.997	1063.62
474.369	1055.03
474.74	1068.81
475.112	1067.01
475.484	1093.67
475.855	1099.77
476.227	1091.41
476.598	1140.68
476.97	1119.89
477.341	1137.51
477.713	1166.44
478.084	1190.39
478.455	1185.19
478.827	1165.08
479.198	1204.86
479.569	1200.79
479.94	1220.22
480.311	1234.91
480.682	1245.08
481.053	1241.92
481.424	1269.49
481.795	1298.19
482.166	1299.09
482.537	1304.29
482.908	1347
483.279	1317.62
483.65	1355.13
484.021	1332.99
484.391	1339.54
484.762	1373.44
485.133	1362.37
485.503	1382.93
485.874	1432.65
486.244	1405.53
486.615	1445.53
486.985	1408.69
487.356	1446.66
487.726	1453.21
488.097	1485.98
488.467	1488.01
488.837	1539.76
489.207	1525.75
489.578	1521.01
489.948	1528.69
490.318	1545.86
490.688	1542.93
491.058	1565.98
491.428	1559.2
491.798	1613.66
492.168	1597.61
492.538	1609.14
492.908	1591.96
493.278	1601.23
493.648	1622.47
494.017	1622.47
494.387	1625.41
494.757	1628.12
495.126	1636.03
495.496	1668.12
495.866	1638.29
496.235	1645.52
496.605	1671.06
496.974	1685.07
497.344	1654.11
497.713	1658.63
498.082	1676.03
498.452	1686.88
498.821	1700.89
499.19	1707.67
499.559	1673.32
499.928	1728.91
500.298	1714.22
500.667	1688.23
501.036	1698.4
501.405	1689.36
501.774	1696.37
502.143	1713.09
502.512	1718.06
502.88	1707.67
503.249	1719.19
503.618	1762.35
503.987	1723.94
504.356	1718.74
504.724	1708.12
505.093	1723.03
505.462	1699.76
505.83	1726.2
506.199	1724.16
506.567	1702.24
506.936	1727.55
507.304	1752.19
507.672	1726.88
508.041	1727.78
508.409	1730.27
508.777	1735.46
509.145	1750.15
509.514	1752.64
509.882	1735.01
510.25	1723.03
510.618	1758.74
510.986	1732.3
511.354	1756.93
511.722	1734.11
512.09	1749.02
512.458	1747.67
512.826	1760.77
513.193	1750.38
513.561	1741.79
513.929	1754.9
514.297	1754.22
514.664	1752.41
515.032	1766.65
515.4	1765.74
515.767	1741.56
516.135	1756.93
516.502	1723.94
516.869	1752.19
517.237	1749.7
517.604	1765.97
517.972	1738.17
518.339	1725.52
518.706	1733.88
519.073	1741.79
519.44	1771.17
519.808	1764.61
520.175	1715.12
520.542	1751.51
520.909	1749.93
521.276	1711.96
521.643	1745.41
522.009	1741.79
522.376	1738.4
522.743	1764.16
523.11	1774.33
523.477	1797.16
523.843	1728.68
524.21	1776.82
524.577	1759.19
524.943	1758.29
525.31	1763.94
525.676	1771.62
526.043	1738.63
526.409	1775.01
526.776	1756.25
527.142	1777.04
527.508	1758.06
527.874	1752.64
528.241	1753.99
528.607	1780.43
528.973	1776.37
529.339	1759.42
529.705	1765.97
530.071	1792.86
530.437	1798.51
530.803	1787.66
531.169	1749.02
531.535	1764.39
531.901	1762.81
532.267	1749.7
532.632	1787.89
532.998	1747.89
533.364	1742.92
533.73	1757.84
534.095	1752.86
534.461	1759.64
534.826	1761.22
535.192	1769.36
535.557	1751.51
535.923	1763.03
536.288	1749.93
536.653	1769.59
537.019	1753.32
537.384	1735.91
537.749	1735.91
538.114	1744.73
538.479	1746.08
538.845	1744.5
539.21	1712.86
539.575	1729.81
539.94	1718.29
540.305	1742.47
540.67	1714.22
541.034	1728.68
541.399	1704.28
541.764	1742.92
542.129	1697.5
542.494	1749.02
542.858	1702.7
543.223	1719.42
543.587	1717.84
543.952	1700.66
544.316	1683.03
544.681	1729.14
545.045	1703.15
545.41	1745.86
545.774	1649.36
546.138	1669.48
546.503	1686.88
546.867	1692.07
547.231	1690.94
547.595	1706.09
547.959	1679.87
548.324	1688.23
548.688	1686.42
549.052	1670.83
549.416	1669.25
549.779	1675.13
550.143	1655.01
550.507	1648.23
550.871	1675.35
551.235	1652.08
551.599	1622.47
551.962	1678.74
552.326	1638.06
552.689	1655.01
553.053	1636.26
553.417	1639.65
553.78	1634.9
554.143	1631.74
554.507	1630.38
554.87	1623.6
555.234	1643.04
555.597	1625.86
555.96	1628.8
556.323	1614.34
556.686	1611.4
557.05	1634.22
557.413	1613.43
557.776	1619.76
558.139	1633.32
558.502	1647.56
558.865	1622.25
559.228	1638.97
559.59	1632.87
559.953	1614.11
560.316	1624.28
560.679	1653.21
561.041	1630.15
561.404	1638.97
561.767	1689.14
562.129	1629.25
562.492	1629.02
562.854	1655.01
563.217	1619.76
563.579	1618.86
563.941	1663.83
564.304	1659.31
564.666	1592.64
565.028	1645.07
565.39	1630.15
565.753	1650.72
566.115	1647.33
566.477	1676.03
566.839	1656.59
567.201	1677.39
567.563	1674.67
567.925	1674.45
568.287	1643.94
568.648	1661.34
569.01	1652.98
569.372	1673.77
569.734	1690.94
570.095	1670.38
570.457	1699.31
570.819	1700.89
571.18	1696.14
571.542	1708.57
571.903	1676.03
572.265	1701.79
572.626	1723.71
572.987	1690.49
573.349	1697.72
573.71	1719.42
574.071	1703.37
574.432	1702.7
574.794	1722.36
575.155	1747.44
575.516	1732.75
575.877	1698.63
576.238	1749.93
576.599	1750.15
576.96	1730.27
577.32	1743.15
577.681	1758.29
578.042	1736.14
578.403	1746.08
578.763	1735.91
579.124	1747.21
579.485	1777.27
579.845	1784.73
580.206	1794.44
580.566	1773.65
580.927	1790.6
581.287	1791.51
581.648	1806.65
582.008	1794.9
582.368	1779.3
582.728	1783.15
583.089	1798.96
583.449	1774.56
583.809	1792.18
584.169	1777.27
584.529	1811.17
584.889	1831.28
585.249	1755.8
585.609	1788.79
585.969	1782.92
586.329	1767.78
586.688	1780.89
587.048	1804.84
587.408	1799.19
587.768	1818.62
588.127	1797.61
588.487	1763.03
588.846	1785.63
589.206	1786.31
589.565	1781.11
589.925	1781.34
590.284	1769.81
590.643	1802.81
591.003	1816.36
591.362	1822.92
591.721	1807.33
592.08	1789.7
592.44	1830.38
592.799	1788.57
593.158	1779.08
593.517	1807.55
593.876	1790.15
594.235	1788.12
594.593	1799.87
594.952	1811.62
595.311	1803.94
595.67	1778.63
596.029	1807.33
596.387	1832.64
596.746	1803.26
597.104	1786.08
597.463	1823.6
597.822	1791.73
598.18	1780.89
598.538	1769.36
598.897	1801.22
599.255	1760.55
599.613	1811.39
599.972	1777.5
600.33	1795.8
600.688	1787.21
601.046	1794.44
601.404	1808.91
601.762	1795.35
602.12	1795.57
602.478	1800.09
602.836	1792.64
603.194	1788.34
603.552	1787.89
603.91	1782.69
604.268	1798.96
604.625	1806.2
604.983	1768.91
605.341	1787.89
605.698	1805.29
606.056	1792.64
606.413	1753.99
606.771	1811.85
607.128	1838.06
607.485	1796.93
607.843	1800.77
608.2	1815.46
608.557	1797.61
608.914	1807.55
609.272	1798.29
609.629	1823.6
609.986	1805.29
610.343	1814.78
610.7	1815.91
611.057	1784.28
611.414	1791.96
611.771	1802.35
612.127	1827.89
612.484	1839.19
612.841	1812.97
613.198	1831.51
613.554	1848
613.911	1848.23
614.267	1851.17
614.624	1836.48
614.98	1847.78
615.337	1810.04
615.693	1816.14
616.05	1844.39
616.406	1845.52
616.762	1837.16
617.118	1857.04
617.475	1828.79
617.831	1840.32
618.187	1840.09
618.543	1853.43
618.899	1892.52
619.255	1860.43
619.611	1873.76
619.967	1853.65
620.323	1859.53
620.678	1850.04
621.034	1834.44
621.39	1851.39
621.746	1863.82
622.101	1866.31
622.457	1835.57
622.812	1846.19
623.168	1862.01
623.523	1834.44
623.879	1849.58
624.234	1869.02
624.589	1852.75
624.945	1860.66
625.3	1865.63
625.655	1857.49
626.01	1857.72
626.365	1852.3
626.72	1853.2
627.075	1856.14
627.43	1866.53
627.785	1847.1
628.14	1858.85
628.495	1872.18
628.85	1876.25
629.205	1838.06
629.559	1869.02
629.914	1875.8
630.269	1869.7
630.623	1836.25
630.978	1855.46
631.332	1854.1
631.687	1881.67
632.041	1854.1
632.396	1851.84
632.75	1852.75
633.104	1869.47
633.459	1819.75
633.813	1849.58
634.167	1856.82
634.521	1863.6
634.875	1828.34
635.229	1848.68
635.583	1853.2
635.937	1862.47
636.291	1887.1
636.645	1838.28
636.999	1829.02
637.352	1857.04
637.706	1838.51
638.06	1842.58
638.413	1850.94
638.767	1833.09
639.121	1859.08
639.474	1832.86
639.828	1844.84
640.181	1805.07
640.534	1834.44
640.888	1869.7
641.241	1826.31
641.594	1839.87
641.947	1832.18
642.301	1836.7
642.654	1840.32
643.007	1829.47
643.36	1854.33
643.713	1817.49
644.066	1818.17
644.419	1836.25
644.771	1816.82
645.124	1810.72
645.477	1836.48
645.83	1791.51
646.182	1790.38
646.535	1809.59
646.888	1785.41
647.24	1735.46
647.593	1793.31
647.945	1795.8
648.298	1810.72
648.65	1770.72
649.002	1808.23
649.355	1792.86
649.707	1811.85
650.059	1801
650.411	1813.65
650.763	1821.79
651.115	1838.96
651.467	1831.96
651.819	1874.22
652.171	1855.23
652.523	1828.79
652.875	1864.95
653.227	1853.65
653.578	1861.56
653.93	1852.52
654.282	1826.53
654.633	1826.99
654.985	1839.19
655.337	1820.88
655.688	1834.9
656.039	1834.22
656.391	1851.17
656.742	1842.35
657.094	1855.46
657.445	1847.55
657.796	1846.65
658.147	1868.34
658.498	1848.91
658.849	1843.48
659.2	1855.01
659.551	1835.8
659.902	1838.96
660.253	1848.91
660.604	1886.19
660.955	1851.84
661.306	1866.76
661.656	1864.05
662.007	1856.59
662.358	1860.43
662.708	1843.26
663.059	1850.94
663.409	1858.17
663.76	1829.47
664.11	1866.08
664.461	1880.32
664.811	1859.3
665.161	1890.94
665.511	1873.09
665.862	1855.01
666.212	1861.56
666.562	1863.82
666.912	1859.08
667.262	1847.55
667.612	1834.44
667.962	1821.11
668.312	1831.51
668.662	1834.22
669.011	1861.79
669.361	1864.27
669.711	1853.2
670.06	1846.65
670.41	1834.44
670.76	1846.42
671.109	1837.61
671.459	1844.61
671.808	1835.57
672.157	1842.13
672.507	1858.4
672.856	1839.87
673.205	1820.43
673.554	1862.24
673.904	1842.13
674.253	1879.87
674.602	1803.26
674.951	1825.4
675.3	1784.28
675.649	1816.36
675.998	1789.47
676.346	1839.19
676.695	1833.99
677.044	1809.81
677.393	1787.44
677.741	1783.6
678.09	1804.61
678.438	1809.59
678.787	1798.74
679.135	1797.16
679.484	1783.37
679.832	1823.6
680.181	1802.58
680.529	1781.34
680.877	1776.14
681.225	1767.33
681.573	1779.76
681.922	1774.11
682.27	1794.44
682.618	1782.02
682.966	1779.08
683.314	1746.31
683.661	1745.63
684.009	1761.9
684.357	1756.71
684.705	1766.65
685.053	1718.51
685.4	1743.37
685.748	1723.03
686.095	1743.15
686.443	1719.42
686.79	1717.61
687.138	1737.72
687.485	1730.04
687.832	1701.57
688.18	1713.99
688.527	1722.81
688.874	1689.36
689.221	1726.65
689.568	1678.29
689.915	1694.33
690.262	1693.88
690.609	1730.04
690.956	1656.14
691.303	1701.34
691.65	1667.67
691.997	1660.44
692.344	1652.98
692.69	1642.36
693.037	1677.84
693.383	1653.88
693.73	1666.09
694.077	1632.87
694.423	1638.74
694.769	1635.58
695.116	1620.44
695.462	1632.19
695.808	1621.79
696.155	1606.65
696.501	1613.88
696.847	1619.31
697.193	1597.39
697.539	1644.17
697.885	1584.28
698.231	1606.43
698.577	1623.15
698.923	1583.38
699.269	1601.68
699.614	1576.14
699.96	1587.67
700.306	1604.84
700.651	1588.35
700.997	1576.37
701.342	1563.94
701.688	1563.94
702.033	1554.45
702.379	1583.83
702.724	1561.23
703.069	1560.33
703.415	1584.73
703.76	1539.08
704.105	1544.51
704.45	1577.05
704.795	1551.29
705.14	1561
705.485	1529.14
705.83	1545.19
706.175	1556.26
706.52	1510.38
706.865	1527.78
707.209	1538.41
707.554	1525.07
707.899	1532.53
708.243	1562.81
708.588	1552.87
708.932	1544.06
709.277	1551.51
709.621	1515.13
709.966	1523.49
710.31	1544.73
710.654	1545.19
710.998	1511.74
711.342	1532.08
711.687	1553.77
712.031	1549.25
712.375	1542.93
712.719	1558.52
713.063	1535.24
713.407	1516.03
713.75	1549.03
714.094	1565.75
714.438	1522.81
714.782	1554
715.125	1549.48
715.469	1555.81
715.812	1542.93
716.156	1520.1
716.499	1550.83
716.843	1518.97
717.186	1549.03
717.53	1546.32
717.873	1558.29
718.216	1553.09
718.559	1547.45
718.902	1530.27
719.246	1568.69
719.589	1566.43
719.932	1575.92
720.275	1560.33
720.617	1562.36
720.96	1567.56
721.303	1562.36
721.646	1576.6
721.989	1562.81
722.331	1588.12
722.674	1576.82
723.016	1583.6
723.359	1592.42
723.701	1602.13
724.044	1611.62
724.386	1575.92
724.729	1589.03
725.071	1576.37
725.413	1606.65
725.755	1598.07
726.097	1587.44
726.439	1594.9
726.782	1591.96
727.124	1633.77
727.465	1626.09
727.807	1617.73
728.149	1656.82
728.491	1644.39
728.833	1639.87
729.175	1659.31
729.516	1639.42
729.858	1659.53
730.199	1663.37
730.541	1672.19
730.882	1677.84
731.224	1685.29
731.565	1654.56
731.906	1696.82
732.248	1677.61
732.589	1693.88
732.93	1692.53
733.271	1697.95
733.612	1737.5
733.953	1724.62
734.294	1732.07
734.635	1730.27
734.976	1718.74
735.317	1704.73
735.658	1766.65
735.999	1763.26
736.339	1789.25
736.68	1760.09
737.021	1790.6
737.361	1794.9
737.702	1783.37
738.042	1808.91
738.383	1789.02
738.723	1829.7
739.063	1839.87
739.404	1850.71
739.744	1858.4
740.084	1868.34
740.424	1879.41
740.764	1847.55
741.104	1885.29
741.444	1895.91
741.784	1935.01
742.124	1929.81
742.464	1962.8
742.804	1952.18
743.143	1990.6
743.483	1986.53
743.823	1942.46
744.162	2016.81
744.502	2028.11
744.841	2055.68
745.181	2081.44
745.52	2058.39
745.86	2068.11
746.199	2123.02
746.538	2124.38
746.877	2179.97
747.216	2201.67
747.556	2226.3
747.895	2190.37
748.234	2217.26
748.573	2264.04
748.911	2331.83
749.25	2328.22
749.589	2338.16
749.928	2353.75
750.267	2389.91
750.605	2424.94
750.944	2455.22
751.283	2476.01
751.621	2522.79
751.96	2552.16
752.298	2589.9
752.636	2620.86
752.975	2660.64
753.313	2691.14
753.651	2718.49
753.989	2733.85
754.327	2795.55
754.666	2822.44
755.004	2881.87
755.342	2917.35
755.679	2951.48
756.017	2990.8
756.355	3043.45
756.693	3033.73
757.031	3086.84
757.368	3124.13
757.706	3196.44
758.044	3221.07
758.381	3305.37
758.719	3295.42
759.056	3355.53
759.394	3398.92
759.731	3414.06
760.068	3468.75
760.405	3477.79
760.743	3530.67
761.08	3616.09
761.417	3645.02
761.754	3679.37
762.091	3656.32
762.428	3713.49
762.765	3729.31
763.102	3816.54
763.438	3812.24
763.775	3880.04
764.112	3903.09
764.449	3928.17
764.785	3983.77
765.122	3993.03
765.458	4046.36
765.795	4087.94
766.131	4087.49
766.467	4132.46
766.804	4148.05
767.14	4141.5
767.476	4191.67
767.812	4194.38
768.148	4259.69
768.485	4259.24
768.821	4289.52
769.157	4315.73
769.492	4304.43
769.828	4401.38
770.164	4360.7
770.5	4384.66
770.836	4428.05
771.171	4390.99
