Data from blue_chair_FLMS001491_00014.txt Node
Date: Wed Feb 08 10:29:32 GMT 2017
User: dcchb
Spectrometer: FLMS00149
Trigger mode: 0
Integration Time (sec): 2.000000E-2
Scans to average: 10
Electric dark correction enabled: true
Nonlinearity correction enabled: false
Boxcar width: 0
XAxis mode: Wavelengths
Number of Pixels in Spectrum: 2048
>>>>>Begin Spectral Data<<<<<
341.393	7.46
341.776	7.46
342.16	7.46
342.543	-43.61
342.927	-45.42
343.31	-55.59
343.693	-53.33
344.077	-58.08
344.46	-73.67
344.843	-63.5
345.226	-22.6
345.61	-37.06
345.993	-5.65
346.376	-11.75
346.759	8.59
347.142	21.02
347.525	41.58
347.908	66.89
348.291	55.82
348.674	80.45
349.057	106.89
349.44	133.33
349.823	153.89
350.206	164.52
350.588	166.1
350.971	185.76
351.354	204.51
351.737	225.3
352.119	234.34
352.502	222.37
352.884	233.21
353.267	265.53
353.65	271.41
354.032	275.7
354.414	284.74
354.797	280.67
355.179	300.11
355.562	290.61
355.944	304.17
356.326	329.93
356.709	311.4
357.091	317.73
357.473	338.3
357.855	313.44
358.238	330.61
358.62	322.03
359.002	315.7
359.384	309.82
359.766	314.79
360.148	303.27
360.53	311.18
360.912	313.89
361.294	326.55
361.676	316.83
362.057	315.7
362.439	302.36
362.821	294
363.203	303.49
363.584	293.78
363.966	291.97
364.348	287.45
364.729	324.06
365.111	303.27
365.493	307.79
365.874	293.1
366.256	289.48
366.637	281.8
367.019	290.16
367.4	303.72
367.781	292.87
368.163	283.83
368.544	308.92
368.925	277.51
369.306	282.03
369.688	284.51
370.069	288.13
370.45	299.2
370.831	303.49
371.212	284.96
371.593	302.36
371.974	283.83
372.355	280.9
372.736	280.9
373.117	286.55
373.498	281.57
373.879	279.77
374.26	275.02
374.641	288.13
375.021	289.48
375.402	289.94
375.783	312.99
376.163	279.54
376.544	288.81
376.925	291.29
377.305	284.74
377.686	299.2
378.066	287.45
378.447	300.78
378.827	308.69
379.208	308.69
379.588	285.19
379.968	296.94
380.349	301.24
380.729	315.02
381.109	303.04
381.489	303.27
381.87	317.51
382.25	294
382.63	312.53
383.01	295.36
383.39	304.85
383.77	307.34
384.15	306.88
384.53	320.9
384.91	310.73
385.29	306.43
385.67	299.88
386.049	321.8
386.429	306.21
386.809	294.46
387.189	286.55
387.568	315.47
387.948	305.3
388.328	297.85
388.707	308.01
389.087	323.61
389.466	303.95
389.846	317.05
390.225	303.95
390.605	313.21
390.984	314.34
391.363	305.53
391.743	309.14
392.122	320.22
392.501	312.53
392.881	336.94
393.26	328.35
393.639	332.19
394.018	316.15
394.397	327.9
394.776	314.79
395.155	317.73
395.534	305.98
395.913	336.04
396.292	327.22
396.671	346.66
397.05	334.23
397.429	327
397.808	327.45
398.186	337.17
398.565	332.42
398.944	334.68
399.323	324.06
399.701	337.84
400.08	325.87
400.458	352.53
400.837	327
401.215	351.86
401.594	345.3
401.972	345.08
402.351	337.62
402.729	347.56
403.107	352.31
403.486	353.66
403.864	372.19
404.242	367.9
404.62	351.18
404.999	367
405.377	367.45
405.755	355.47
406.133	355.47
406.511	351.4
406.889	375.13
407.267	352.99
407.645	339.88
408.023	362.02
408.401	388.92
408.779	394.57
409.156	388.69
409.534	374.91
409.912	377.84
410.29	390.95
410.667	388.01
411.045	397.28
411.422	401.35
411.8	383.94
412.178	396.15
412.555	384.4
412.933	397.05
413.31	416.94
413.687	406.32
414.065	409.71
414.442	405.19
414.819	423.27
415.197	411.51
415.574	406.54
415.951	420.1
416.328	405.41
416.705	379.43
417.082	415.36
417.46	423.49
417.837	415.81
418.214	429.82
418.591	415.81
418.967	409.03
419.344	427.11
419.721	415.36
420.098	427.56
420.475	429.14
420.852	432.76
421.228	435.69
421.605	437.5
421.982	434.11
422.358	442.93
422.735	458.75
423.111	443.6
423.488	463.72
423.864	453.77
424.241	451.06
424.617	447.67
424.994	476.82
425.37	477.95
425.746	461.91
426.123	484.73
426.499	497.16
426.875	490.83
427.251	493.55
427.627	507.56
428.003	504.85
428.379	503.04
428.756	503.72
429.132	493.77
429.507	510.27
429.883	515.47
430.259	512.08
430.635	507.11
431.011	512.98
431.387	529.7
431.763	508.91
432.138	530.61
432.514	539.87
432.89	552.98
433.265	550.49
433.641	542.13
434.016	553.88
434.392	563.38
434.767	569.7
435.143	571.28
435.518	580.1
435.894	601.11
436.269	581.68
436.644	594.79
437.02	607.67
437.395	628.01
437.77	630.49
438.145	597.05
438.52	631.17
438.895	630.04
439.271	656.48
439.646	649.93
440.021	650.38
440.395	658.51
440.77	646.08
441.145	652.41
441.52	671.17
441.895	680.66
442.27	702.81
442.645	692.19
443.019	693.77
443.394	696.25
443.769	706.87
444.143	715.24
444.518	716.37
444.892	689.47
445.267	704.39
445.641	721.11
446.016	703.26
446.39	722.92
446.764	731.73
447.139	705.07
447.513	736.93
447.887	737.83
448.262	730.38
448.636	759.53
449.01	772.18
449.384	773.54
449.758	767.44
450.132	764.5
450.506	782.13
450.88	781.22
451.254	742.58
451.628	776.25
452.002	788
452.376	822.35
452.75	803.37
453.123	814.67
453.497	819.87
453.871	824.16
454.244	830.49
454.618	818.96
454.992	821
455.365	837.94
455.739	856.47
456.112	864.38
456.486	876.81
456.859	875.46
457.232	898.96
457.606	874.78
457.979	897.38
458.352	876.81
458.725	893.54
459.099	931.27
459.472	926.3
459.845	926.08
460.218	906.19
460.591	952.07
460.964	969.92
461.337	946.42
461.71	967.88
462.083	969.92
462.456	976.25
462.829	946.87
463.201	962.69
463.574	1008.11
463.947	996.58
464.32	1026.87
464.692	1011.95
465.065	1015.11
465.438	1019.86
465.81	1062.8
466.183	1035.68
466.555	1046.75
466.928	1074.55
467.3	1074.32
467.672	1066.41
468.045	1117.26
468.417	1099.41
468.789	1105.06
469.161	1100.99
469.534	1105.96
469.906	1147.54
470.278	1154.77
470.65	1157.03
471.022	1124.26
471.394	1165.62
471.766	1172.62
472.138	1210.82
472.51	1211.27
472.882	1211.49
473.253	1215.34
473.625	1227.31
473.997	1252.62
474.369	1253.07
474.74	1266.63
475.112	1261.89
475.484	1277.93
475.855	1297.37
476.227	1307.31
476.598	1330.36
476.97	1317.71
477.341	1328.78
477.713	1392.28
478.084	1378.95
478.455	1401.55
478.827	1382.56
479.198	1416.69
479.569	1404.71
479.94	1456.46
480.311	1459.17
480.682	1450.81
481.053	1484.25
481.424	1483.8
481.795	1498.94
482.166	1513.63
482.537	1497.14
482.908	1549.79
483.279	1584.37
483.65	1550.69
484.021	1599.96
484.391	1582.56
484.762	1596.34
485.133	1632.5
485.503	1593.86
485.874	1621.2
486.244	1659.84
486.615	1664.59
486.985	1641.76
487.356	1671.59
487.726	1697.58
488.097	1692.84
488.467	1699.39
488.837	1718.82
489.207	1726.28
489.578	1772.38
489.948	1752.04
490.318	1744.59
490.688	1780.07
491.058	1750.24
491.428	1766.96
491.798	1769.22
492.168	1797.92
492.538	1828.2
492.908	1830.01
493.278	1781.2
493.648	1809.22
494.017	1832.72
494.387	1832.95
494.757	1848.76
495.126	1827.97
495.496	1829.1
495.866	1842.66
496.235	1859.39
496.605	1834.3
496.974	1844.47
497.344	1853.51
497.713	1853.74
498.082	1860.06
498.452	1863.68
498.821	1836.79
499.19	1877.92
499.559	1842.44
499.928	1851.25
500.298	1892.15
500.667	1884.47
501.036	1871.36
501.405	1884.24
501.774	1840.86
502.143	1867.97
502.512	1836.11
502.88	1851.02
503.249	1878.14
503.618	1846.51
503.987	1855.54
504.356	1861.42
504.724	1859.61
505.093	1851.7
505.462	1850.35
505.83	1855.77
506.199	1865.94
506.567	1863.23
506.936	1837.47
507.304	1837.92
507.672	1831.82
508.041	1846.28
508.409	1842.89
508.777	1865.26
509.145	1887.18
509.514	1865.04
509.882	1856.9
510.25	1856.9
510.618	1848.76
510.986	1870.01
511.354	1836.11
511.722	1832.27
512.09	1847.18
512.458	1834.98
512.826	1837.69
513.193	1857.8
513.561	1836.56
513.929	1836.11
514.297	1832.95
514.664	1822.1
515.032	1819.39
515.4	1830.91
515.767	1822.1
516.135	1827.07
516.502	1771.7
516.869	1813.74
517.237	1810.35
517.604	1830.46
517.972	1808.09
518.339	1787.98
518.706	1789.33
519.073	1810.57
519.44	1799.27
519.808	1808.54
520.175	1766.51
520.542	1766.51
520.909	1808.77
521.276	1774.19
521.643	1773.29
522.009	1788.2
522.376	1737.36
522.743	1759.95
523.11	1773.96
523.477	1789.56
523.843	1787.52
524.21	1826.84
524.577	1783.91
524.943	1785.04
525.31	1780.29
525.676	1759.95
526.043	1772.83
526.409	1791.37
526.776	1760.86
527.142	1788.65
527.508	1758.6
527.874	1778.26
528.241	1782.78
528.607	1800.4
528.973	1775.55
529.339	1755.43
529.705	1780.29
530.071	1791.37
530.437	1773.74
530.803	1803.12
531.169	1745.72
531.535	1750.69
531.901	1764.02
532.267	1754.53
532.632	1741.2
532.998	1750.24
533.364	1757.69
533.73	1778.94
534.095	1788.43
534.461	1752.95
534.826	1742.78
535.192	1752.27
535.557	1757.02
535.923	1761.08
536.288	1749.56
536.653	1747.98
537.019	1718.82
537.384	1733.06
537.749	1743.01
538.114	1764.93
538.479	1732.16
538.845	1706.4
539.21	1719.28
539.575	1729.67
539.94	1727.64
540.305	1730.35
540.67	1716.11
541.034	1691.93
541.399	1749.11
541.764	1705.94
542.129	1683.8
542.494	1704.14
542.858	1692.16
543.223	1689
543.587	1723.34
543.952	1696
544.316	1725.15
544.681	1679.5
545.045	1679.28
545.41	1694.64
545.774	1698.03
546.138	1698.49
546.503	1668.66
546.867	1675.44
547.231	1693.97
547.595	1670.24
547.959	1669.56
548.324	1638.6
548.688	1632.05
549.052	1629.79
549.416	1652.61
549.779	1668.43
550.143	1642.89
550.507	1655.78
550.871	1661.2
551.235	1619.62
551.599	1639.5
551.962	1633.18
552.326	1623.01
552.689	1615.32
553.053	1643.35
553.417	1630.01
553.78	1629.79
554.143	1618.71
554.507	1644.48
554.87	1635.66
555.234	1617.13
555.597	1615.55
555.96	1582.78
556.323	1616.91
556.686	1592.95
557.05	1628.88
557.413	1592.27
557.776	1632.27
558.139	1632.05
558.502	1605.38
558.865	1601.31
559.228	1591.14
559.59	1631.14
559.953	1597.25
560.316	1608.77
560.679	1616
561.041	1591.6
561.404	1593.86
561.767	1588.21
562.129	1607.42
562.492	1637.92
562.854	1622.56
563.217	1626.85
563.579	1639.73
563.941	1594.53
564.304	1620.97
564.666	1618.94
565.028	1598.6
565.39	1623.69
565.753	1669.11
566.115	1618.04
566.477	1649.22
566.839	1630.92
567.201	1637.25
567.563	1625.27
567.925	1630.24
568.287	1625.72
568.648	1679.28
569.01	1660.3
569.372	1696.68
569.734	1664.81
570.095	1672.27
570.457	1692.84
570.819	1660.97
571.18	1673.18
571.542	1706.62
571.903	1672.27
572.265	1682.67
572.626	1670.92
572.987	1691.25
573.349	1697.58
573.71	1658.26
574.071	1670.92
574.432	1678.83
574.794	1720.86
575.155	1698.71
575.516	1711.59
575.877	1712.72
576.238	1718.15
576.599	1725.83
576.96	1728.54
577.32	1720.18
577.681	1740.07
578.042	1742.55
578.403	1721.76
578.763	1762.89
579.124	1777.13
579.485	1775.09
579.845	1765.83
580.206	1741.88
580.566	1778.48
580.927	1768.54
581.287	1750.46
581.648	1728.32
582.008	1748.2
582.368	1732.16
582.728	1766.51
583.089	1777.35
583.449	1780.07
583.809	1774.42
584.169	1764.93
584.529	1778.26
584.889	1799.73
585.249	1772.83
585.609	1784.59
585.969	1783.91
586.329	1771.03
586.688	1763.34
587.048	1767.86
587.408	1783.46
587.768	1778.26
588.127	1795.21
588.487	1789.56
588.846	1757.24
589.206	1784.81
589.565	1802.44
589.925	1778.94
590.284	1819.84
590.643	1818.03
591.003	1793.63
591.362	1787.07
591.721	1791.37
592.08	1794.08
592.44	1786.62
592.799	1787.52
593.158	1789.11
593.517	1798.82
593.876	1779.84
594.235	1784.81
594.593	1785.72
594.952	1813.96
595.311	1777.81
595.67	1773.06
596.029	1788.65
596.387	1783.68
596.746	1793.63
597.104	1793.4
597.463	1775.09
597.822	1764.93
598.18	1791.37
598.538	1772.38
598.897	1801.31
599.255	1784.59
599.613	1800.63
599.972	1792.04
600.33	1791.59
600.688	1773.29
601.046	1791.59
601.404	1774.87
601.762	1778.48
602.12	1818.03
602.478	1808.31
602.836	1773.29
603.194	1773.74
603.552	1778.03
603.91	1768.54
604.268	1770.35
604.625	1781.87
604.983	1774.64
605.341	1809.22
605.698	1790.01
606.056	1779.61
606.413	1801.99
606.771	1774.64
607.128	1798.82
607.485	1778.26
607.843	1795.88
608.2	1774.64
608.557	1810.8
608.914	1780.29
609.272	1814.64
609.629	1798.6
609.986	1753.4
610.343	1797.47
610.7	1805.83
611.057	1802.89
611.414	1799.27
611.771	1793.17
612.127	1778.71
612.484	1789.56
612.841	1783.23
613.198	1796.56
613.554	1788.43
613.911	1801.08
614.267	1777.13
614.624	1786.17
614.98	1788.65
615.337	1819.84
615.693	1809.22
616.05	1828.43
616.406	1830.91
616.762	1826.62
617.118	1807.64
617.475	1809.22
617.831	1826.62
618.187	1823.68
618.543	1825.49
618.899	1825.26
619.255	1829.1
619.611	1837.69
619.967	1810.35
620.323	1833.85
620.678	1850.35
621.034	1813.06
621.39	1806.28
621.746	1799.95
622.101	1827.75
622.457	1830.01
622.812	1834.75
623.168	1820.29
623.523	1822.78
623.879	1833.17
624.234	1817.13
624.589	1825.71
624.945	1846.28
625.3	1829.56
625.655	1829.56
626.01	1833.4
626.365	1845.83
626.72	1804.25
627.075	1824.58
627.43	1844.02
627.785	1837.24
628.14	1821.2
628.495	1838.14
628.85	1834.08
629.205	1825.04
629.559	1835.21
629.914	1816.22
630.269	1788.2
630.623	1847.64
630.978	1811.7
631.332	1856.67
631.687	1836.56
632.041	1821.42
632.396	1852.38
632.75	1858.48
633.104	1857.35
633.459	1843.79
633.813	1826.17
634.167	1807.41
634.521	1813.74
634.875	1823.45
635.229	1813.29
635.583	1838.6
635.937	1834.3
636.291	1814.19
636.645	1854.41
636.999	1831.14
637.352	1815.32
637.706	1849.22
638.06	1856.9
638.413	1835.21
638.767	1827.75
639.121	1827.52
639.474	1841.08
639.828	1838.82
640.181	1834.75
640.534	1845.6
640.888	1794.53
641.241	1826.39
641.594	1826.17
641.947	1842.44
642.301	1843.34
642.654	1833.17
643.007	1801.53
643.36	1811.03
643.713	1800.63
644.066	1838.14
644.419	1804.25
644.771	1784.81
645.124	1826.17
645.477	1792.72
645.83	1798.37
646.182	1818.26
646.535	1795.43
646.888	1784.36
647.24	1848.54
647.593	1813.96
647.945	1788.43
648.298	1834.98
648.65	1783.46
649.002	1809.9
649.355	1816.9
649.707	1828.65
650.059	1782.78
650.411	1837.47
650.763	1825.71
651.115	1835.66
651.467	1855.77
651.819	1817.35
652.171	1865.26
652.523	1865.26
652.875	1847.86
653.227	1854.19
653.578	1843.12
653.93	1836.56
654.282	1840.86
654.633	1851.7
654.985	1834.53
655.337	1845.83
655.688	1844.47
656.039	1833.17
656.391	1831.14
656.742	1837.92
657.094	1834.08
657.445	1876.11
657.796	1872.95
658.147	1841.53
658.498	1832.49
658.849	1887.41
659.2	1852.83
659.551	1865.49
659.902	1867.3
660.253	1836.34
660.604	1839.73
660.955	1868.65
661.306	1887.86
661.656	1881.08
662.007	1885.83
662.358	1875.2
662.708	1892.61
663.059	1901.42
663.409	1866.62
663.76	1883.34
664.11	1881.31
664.461	1886.28
664.811	1865.26
665.161	1890.8
665.511	1881.31
665.862	1849.67
666.212	1872.72
666.562	1875.2
666.912	1874.75
667.262	1881.08
667.612	1885.83
667.962	1878.59
668.312	1853.96
668.662	1848.99
669.011	1859.84
669.361	1867.3
669.711	1834.98
670.06	1872.95
670.41	1857.35
670.76	1871.82
671.109	1879.27
671.459	1867.75
671.808	1856
672.157	1817.58
672.507	1848.99
672.856	1872.49
673.205	1838.14
673.554	1857.35
673.904	1846.28
674.253	1852.83
674.602	1846.96
674.951	1827.52
675.3	1804.92
675.649	1863.68
675.998	1815.55
676.346	1831.14
676.695	1828.43
677.044	1827.07
677.393	1818.26
677.741	1828.2
678.09	1838.14
678.438	1819.84
678.787	1822.32
679.135	1839.95
679.484	1791.14
679.832	1795.88
680.181	1783.68
680.529	1791.82
680.877	1798.6
681.225	1800.4
681.573	1776.68
681.922	1766.51
682.27	1794.76
682.618	1780.07
682.966	1761.76
683.314	1775.77
683.661	1774.19
684.009	1779.39
684.357	1787.98
684.705	1780.52
685.053	1783.68
685.4	1762.89
685.748	1753.4
686.095	1761.99
686.443	1764.47
686.79	1756.79
687.138	1752.04
687.485	1758.82
687.832	1741.65
688.18	1736.68
688.527	1727.86
688.874	1736
689.221	1733.97
689.568	1750.46
689.915	1712.27
690.262	1709.11
690.609	1715.89
690.956	1689.9
691.303	1714.31
691.65	1661.43
691.997	1680.41
692.344	1681.31
692.69	1660.75
693.037	1698.71
693.383	1644.7
693.73	1673.63
694.077	1681.99
694.423	1635.89
694.769	1687.19
695.116	1639.05
695.462	1663.46
695.808	1619.84
696.155	1643.12
696.501	1658.49
696.847	1633.86
697.193	1614.42
697.539	1614.19
697.885	1612.61
698.231	1619.17
698.577	1615.55
698.923	1599.28
699.269	1608.77
699.614	1617.13
699.96	1590.47
700.306	1619.17
700.651	1621.88
700.997	1581.88
701.342	1583.91
701.688	1611.71
702.033	1581.65
702.379	1596.34
702.724	1566.06
703.069	1579.17
703.415	1603.57
703.76	1553.41
704.105	1567.42
704.45	1563.35
704.795	1569.9
705.14	1537.59
705.485	1565.16
705.83	1523.35
706.175	1573.74
706.52	1574.42
706.865	1560.18
707.209	1537.36
707.554	1565.83
707.899	1579.62
708.243	1571.71
708.588	1543.01
708.932	1584.59
709.277	1547.3
709.621	1573.97
709.966	1556.8
710.31	1547.08
710.654	1553.63
710.998	1529.45
711.342	1582.78
711.687	1556.12
712.031	1528.55
712.375	1549.56
712.719	1575.1
713.063	1548.89
713.407	1561.99
713.75	1584.14
714.094	1548.66
714.438	1537.36
714.782	1566.29
715.125	1549.79
715.469	1561.54
715.812	1550.24
716.156	1567.64
716.499	1573.29
716.843	1561.09
717.186	1555.44
717.53	1579.85
717.873	1581.2
718.216	1578.72
718.559	1597.02
718.902	1591.37
719.246	1577.59
719.589	1573.74
719.932	1578.49
720.275	1574.65
720.617	1594.08
720.96	1589.34
721.303	1610.35
721.646	1623.23
721.989	1602.44
722.331	1602.44
722.674	1623.69
723.016	1631.82
723.359	1596.12
723.701	1617.81
724.044	1618.49
724.386	1623.91
724.729	1631.14
725.071	1630.47
725.413	1630.92
725.755	1665.27
726.097	1651.48
726.439	1640.86
726.782	1656.23
727.124	1674.31
727.465	1669.33
727.807	1714.98
728.149	1669.11
728.491	1674.53
728.833	1715.66
729.175	1695.1
729.516	1718.37
729.858	1687.87
730.199	1672.72
730.541	1682.22
730.882	1725.15
731.224	1744.59
731.565	1729.45
731.906	1721.31
732.248	1758.37
732.589	1744.81
732.93	1723.12
733.271	1717.24
733.612	1768.32
733.953	1796.56
734.294	1718.37
734.635	1771.93
734.976	1791.14
735.317	1792.5
735.658	1809.9
735.999	1803.57
736.339	1790.91
736.68	1838.82
737.021	1811.93
737.361	1829.78
737.702	1860.06
738.042	1858.93
738.383	1853.28
738.723	1891.48
739.063	1900.74
739.404	1946.84
739.744	1935.54
740.084	1919.95
740.424	1973.28
740.764	1974.19
741.104	1970.12
741.444	1998.82
741.784	2019.61
742.124	2058.7
742.464	2046.05
742.804	2046.95
743.143	2070.45
743.483	2106.84
743.823	2077.01
744.162	2145.48
744.502	2165.59
744.841	2193.84
745.181	2201.07
745.52	2177.57
745.86	2239.49
746.199	2234.29
746.538	2292.6
746.877	2331.69
747.216	2332.37
747.556	2348.19
747.895	2399.26
748.234	2424.57
748.573	2458.69
748.911	2470.67
749.25	2529.43
749.589	2545.47
749.928	2585.47
750.267	2622.53
750.605	2643.55
750.944	2696.65
751.283	2704.79
751.621	2779.14
751.96	2822.98
752.298	2861.62
752.636	2880.38
752.975	2885.57
753.313	2977.1
753.651	3049.19
753.989	3088.96
754.327	3126.25
754.666	3168.73
755.004	3227.03
755.342	3286.02
755.679	3330.53
756.017	3389.52
756.355	3474.71
756.693	3441.27
757.031	3544.77
757.368	3595.39
757.706	3624.76
758.044	3709.28
758.381	3757.64
758.719	3775.27
759.056	3861.14
759.394	3955.83
759.731	3975.94
760.068	4038.76
760.405	4065.66
760.743	4170.06
761.08	4264.52
761.417	4293.22
761.754	4320.34
762.091	4383.39
762.428	4452.54
762.765	4435.36
763.102	4563.5
763.438	4642.36
763.775	4692.98
764.112	4746.99
764.449	4840.78
764.785	4847.33
765.122	4846.88
765.458	4956.25
765.795	4942.24
766.131	5029.47
766.467	5071.05
766.804	5111.96
767.14	5204.83
767.476	5221.56
767.812	5259.07
768.148	5288.67
768.485	5363.25
768.821	5375.45
769.157	5491.61
769.492	5496.8
769.828	5553.98
770.164	5581.55
770.5	5547.2
770.836	5659.06
771.171	5675.78
771.507	5722.34
