Data from blue_surface_keyboard_FLMS001491_052.txt Node
Date: Tue Feb 07 11:13:19 GMT 2017
User: dcchb
Spectrometer: FLMS00149
Trigger mode: 0
Integration Time (sec): 2.000000E-2
Scans to average: 10
Electric dark correction enabled: true
Nonlinearity correction enabled: false
Boxcar width: 0
XAxis mode: Wavelengths
Number of Pixels in Spectrum: 2048
>>>>>Begin Spectral Data<<<<<
341.393	14.76
341.776	14.76
342.16	14.76
342.543	-67.5
342.927	-64.56
343.31	-74.96
343.693	-70.66
344.077	-60.94
344.46	-63.88
344.843	-33.37
345.226	-46.71
345.61	-38.8
345.993	-19.59
346.376	11.6
346.759	13.63
347.142	42.78
347.525	30.8
347.908	52.5
348.291	65.83
348.674	93.18
349.057	98.6
349.44	128.43
349.823	159.39
350.206	159.39
350.588	176.79
350.971	171.82
351.354	211.82
351.737	223.34
352.119	219.73
352.502	242.78
352.884	259.27
353.267	255.66
353.65	261.08
354.032	288.2
354.414	284.58
354.797	289.78
355.179	305.15
355.562	323.23
355.944	317.58
356.326	309.22
356.709	302.44
357.091	319.61
357.473	317.35
357.855	320.74
358.238	318.03
358.62	321.64
359.002	299.27
359.384	316.22
359.766	318.25
360.148	315.09
360.53	326.39
360.912	306.73
361.294	321.19
361.676	314.41
362.057	321.64
362.439	319.16
362.821	288.42
363.203	299.05
363.584	333.85
363.966	310.34
364.348	317.12
364.729	294.75
365.111	301.53
365.493	296.79
365.874	294.75
366.256	287.75
366.637	310.8
367.019	302.21
367.4	292.72
367.781	294.75
368.163	309.89
368.544	279.84
368.925	268.76
369.306	276
369.688	281.87
370.069	264.7
370.45	299.27
370.831	276
371.212	295.88
371.593	287.07
371.974	297.69
372.355	271.02
372.736	287.52
373.117	273.74
373.498	290.46
373.879	275.77
374.26	293.85
374.641	298.59
375.021	293.4
375.402	288.2
375.783	304.7
376.163	289.55
376.544	288.42
376.925	308.09
377.305	305.37
377.686	315.54
378.066	284.13
378.447	294.75
378.827	295.88
379.208	295.66
379.588	315.54
379.968	315.54
380.349	294.75
380.729	304.24
381.109	308.76
381.489	309.22
381.87	287.52
382.25	302.44
382.63	323
383.01	306.05
383.39	315.09
383.77	290.46
384.15	276.9
384.53	291.36
384.91	317.58
385.29	287.29
385.67	293.85
386.049	297.46
386.429	315.99
386.809	317.58
387.189	326.16
387.568	313.51
387.948	315.99
388.328	323
388.707	306.96
389.087	316.45
389.466	297.46
389.846	320.51
390.225	322.77
390.605	332.72
390.984	331.14
391.363	323.23
391.743	302.44
392.122	306.05
392.501	322.55
392.881	337.01
393.26	325.94
393.639	313.73
394.018	329.78
394.397	329.33
394.776	330.23
395.155	320.74
395.534	326.62
395.913	314.86
396.292	332.94
396.671	319.61
397.05	324.36
397.429	327.75
397.808	334.3
398.186	342.66
398.565	336.33
398.944	349.44
399.323	328.42
399.701	332.27
400.08	324.58
400.458	350.57
400.837	332.49
401.215	361.42
401.594	349.89
401.972	354.64
402.351	321.42
402.729	344.24
403.107	348.31
403.486	331.36
403.864	333.62
404.242	358.03
404.62	335.88
404.999	356.9
405.377	365.26
405.755	352.83
406.133	352.38
406.511	355.54
406.889	351.25
407.267	342.89
407.645	360.97
408.023	339.5
408.401	351.7
408.779	353.06
409.156	380.85
409.534	369.55
409.912	376.33
410.29	385.6
410.667	371.81
411.045	381.3
411.422	345.37
411.8	367.97
412.178	368.2
412.555	378.14
412.933	372.04
413.31	382.21
413.687	370.68
414.065	390.79
414.442	391.02
414.819	377.69
415.197	377.24
415.574	375.2
415.951	384.24
416.328	381.08
416.705	383.56
417.082	381.3
417.46	399.38
417.837	395.31
418.214	390.79
418.591	412.04
418.967	383.79
419.344	382.89
419.721	391.92
420.098	395.77
420.475	401.42
420.852	407.97
421.228	386.5
421.605	409.55
421.982	393.96
422.358	401.19
422.735	420.17
423.111	395.31
423.488	387.86
423.864	410
424.241	416.1
424.617	421.53
424.994	429.66
425.37	404.81
425.746	397.12
426.123	430.79
426.499	432.15
426.875	430.34
427.251	443.67
427.627	437.35
428.003	429.66
428.379	429.21
428.756	423.56
429.132	434.18
429.507	445.03
429.883	430.34
430.259	452.94
430.635	443.67
431.011	440.96
431.387	478.25
431.763	462.66
432.138	452.71
432.514	463.79
432.89	473.5
433.265	476.22
433.641	468.31
434.016	481.87
434.392	511.47
434.767	488.42
435.143	494.75
435.518	487.06
435.894	472.15
436.269	494.75
436.644	489.55
437.02	487.97
437.395	499.04
437.77	499.94
438.145	500.4
438.52	486.16
438.895	492.26
439.271	511.92
439.646	491.36
440.021	515.31
440.395	501.75
440.77	516.67
441.145	504.46
441.52	529.32
441.895	541.98
442.27	533.16
442.645	533.84
443.019	516.44
443.394	530.45
443.769	521.64
444.143	538.36
444.518	529.77
444.892	524.12
445.267	532.03
445.641	525.48
446.016	537.46
446.39	551.24
446.764	555.76
447.139	551.92
447.513	556.67
447.887	549.89
448.262	574.07
448.636	542.66
449.01	563.67
449.384	538.36
449.758	536.55
450.132	561.41
450.506	564.8
450.88	573.61
451.254	583.78
451.628	555.54
452.002	555.99
452.376	580.62
452.75	576.1
453.123	586.95
453.497	604.35
453.871	599.15
454.244	603.22
454.618	600.51
454.992	608.87
455.365	616.1
455.739	613.84
456.112	613.39
456.486	620.62
456.859	626.49
457.232	608.64
457.606	642.31
457.979	638.92
458.352	629.21
458.725	623.11
459.099	637.79
459.472	654.74
459.845	657.45
460.218	654.97
460.591	648.64
460.964	665.14
461.337	658.36
461.71	657.45
462.083	659.04
462.456	692.93
462.829	660.62
463.201	703.55
463.574	675.99
463.947	671.92
464.32	687.51
464.692	710.11
465.065	694.29
465.438	722.99
465.81	714.63
466.183	716.66
466.555	721.18
466.928	747.85
467.3	754.63
467.672	721.18
468.045	756.21
468.417	735.87
468.789	743.78
469.161	772.93
469.534	776.32
469.906	769.54
470.278	771.35
470.65	761.41
471.022	769.77
471.394	795.76
471.766	805.7
472.138	802.31
472.51	798.02
472.882	824.23
473.253	822.42
473.625	840.95
473.997	842.53
474.369	857.68
474.74	863.32
475.112	860.39
475.484	871.46
475.855	883.21
476.227	888.41
476.598	904.23
476.97	889.99
477.341	924.34
477.713	929.09
478.084	918.92
478.455	936.32
478.827	941.06
479.198	958.01
479.569	962.31
479.94	1011.57
480.311	958.69
480.682	961.4
481.053	1000.27
481.424	1000.04
481.795	1021.96
482.166	1028.07
482.537	1035.07
482.908	1047.5
483.279	1052.47
483.65	1047.05
484.021	1099.25
484.391	1083.88
484.762	1095.41
485.133	1096.09
485.503	1087.73
485.874	1121.85
486.244	1120.95
486.615	1152.36
486.985	1150.55
487.356	1174.5
487.726	1151.45
488.097	1166.59
488.467	1166.37
488.837	1181.96
489.207	1192.81
489.578	1202.52
489.948	1235.29
490.318	1221.51
490.688	1249.08
491.058	1254.5
491.428	1238.46
491.798	1256.76
492.168	1287.95
492.538	1279.36
492.908	1266.03
493.278	1275.97
493.648	1291.56
494.017	1301.05
494.387	1307.61
494.757	1312.58
495.126	1294.27
495.496	1319.13
495.866	1345.12
496.235	1315.52
496.605	1325.23
496.974	1327.27
497.344	1341.5
497.713	1332.92
498.082	1298.57
498.452	1357.1
498.821	1383.09
499.19	1366.14
499.559	1344.44
499.928	1400.26
500.298	1384.89
500.667	1347.61
501.036	1382.86
501.405	1385.57
501.774	1389.41
502.143	1386.93
502.512	1392.12
502.88	1400.94
503.249	1422.41
503.618	1394.16
503.987	1412.01
504.356	1402.07
504.724	1407.72
505.093	1377.89
505.462	1429.86
505.83	1442.74
506.199	1443.87
506.567	1401.39
506.936	1441.84
507.304	1462.86
507.672	1452.24
508.041	1464.89
508.409	1458.34
508.777	1441.84
509.145	1466.92
509.514	1457.43
509.882	1456.98
510.25	1440.48
510.618	1473.7
510.986	1466.47
511.354	1491.33
511.722	1472.35
512.09	1482.29
512.458	1477.09
512.826	1485.23
513.193	1503.53
513.561	1440.26
513.929	1492.23
514.297	1511.44
514.664	1513.25
515.032	1488.39
515.4	1517.32
515.767	1520.26
516.135	1533.14
516.502	1504.21
516.869	1510.54
517.237	1513.93
517.604	1516.41
517.972	1508.51
518.339	1522.06
518.706	1531.33
519.073	1525
519.44	1544.66
519.808	1526.81
520.175	1529.52
520.542	1561.84
520.909	1546.02
521.276	1551.67
521.643	1553.25
522.009	1564.1
522.376	1547.83
522.743	1554.61
523.11	1573.59
523.477	1578.33
523.843	1546.02
524.21	1581.05
524.577	1593.7
524.943	1620.14
525.31	1576.75
525.676	1629.86
526.043	1599.8
526.409	1603.64
526.776	1605.9
527.142	1606.58
527.508	1615.4
527.874	1622.63
528.241	1633.93
528.607	1627.15
528.973	1650.87
529.339	1637.54
529.705	1637.09
530.071	1660.59
530.437	1666.24
530.803	1652.91
531.169	1674.6
531.535	1660.82
531.901	1669.18
532.267	1611.1
532.632	1676.86
532.998	1637.54
533.364	1646.36
533.73	1653.81
534.095	1682.29
534.461	1661.27
534.826	1689.97
535.192	1685
535.557	1672.79
535.923	1642.51
536.288	1672.57
536.653	1684.55
537.019	1660.37
537.384	1688.61
537.749	1685.9
538.114	1696.98
538.479	1678.44
538.845	1693.59
539.21	1687.26
539.575	1656.52
539.94	1732.91
540.305	1685.22
540.67	1680.7
541.034	1683.64
541.399	1699.01
541.764	1694.04
542.129	1698.11
542.494	1683.19
542.858	1698.56
543.223	1717.99
543.587	1694.26
543.952	1727.03
544.316	1686.58
544.681	1690.87
545.045	1706.01
545.41	1708.27
545.774	1714.83
546.138	1692.23
546.503	1703.3
546.867	1696.75
547.231	1719.57
547.595	1748.05
547.959	1692.23
548.324	1703.3
548.688	1725
549.052	1711.21
549.416	1743.98
549.779	1736.75
550.143	1706.24
550.507	1730.65
550.871	1696.3
551.235	1723.42
551.599	1738.56
551.962	1738.33
552.326	1742.17
552.689	1748.95
553.053	1720.48
553.417	1735.17
553.78	1760.02
554.143	1753.92
554.507	1743.75
554.87	1741.95
555.234	1781.94
555.597	1746.01
555.96	1730.19
556.323	1774.04
556.686	1753.7
557.05	1734.26
557.413	1737.88
557.776	1761.83
558.139	1766.8
558.502	1758.44
558.865	1768.39
559.228	1757.31
559.59	1770.19
559.953	1803.41
560.316	1774.71
560.679	1783.53
561.041	1768.39
561.404	1788.27
561.767	1790.98
562.129	1784.43
562.492	1815.62
562.854	1830.98
563.217	1778.1
563.579	1803.41
563.941	1799.8
564.304	1795.5
564.666	1789.4
565.028	1808.84
565.39	1791.66
565.753	1857.2
566.115	1827.82
566.477	1804.99
566.839	1813.58
567.201	1838.21
567.563	1810.19
567.925	1845.22
568.287	1846.12
568.648	1809.51
569.01	1860.59
569.372	1866.24
569.734	1833.02
570.095	1843.41
570.457	1855.16
570.819	1863.75
571.18	1842.28
571.542	1884.77
571.903	1892.45
572.265	1875.05
572.626	1890.19
572.987	1830.53
573.349	1871.43
573.71	1887.93
574.071	1891.09
574.432	1874.15
574.794	1856.07
575.155	1901.94
575.516	1908.5
575.877	1887.48
576.238	1893.13
576.599	1889.06
576.96	1877.08
577.32	1918.44
577.681	1875.28
578.042	1928.16
578.403	1901.26
578.763	1908.27
579.124	1884.99
579.485	1904.43
579.845	1903.98
580.206	1882.28
580.566	1919.57
580.927	1885.67
581.287	1917.76
581.648	1895.61
582.008	1946.69
582.368	1918.21
582.728	1917.99
583.089	1942.62
583.449	1918.21
583.809	1899.91
584.169	1902.62
584.529	1920.02
584.889	1921.83
585.249	1906.91
585.609	1922.96
585.969	1924.09
586.329	1915.05
586.688	1948.04
587.048	1927.03
587.408	1921.38
587.768	1924.31
588.127	1914.6
588.487	1910.3
588.846	1918.44
589.206	1924.31
589.565	1936.74
589.925	1917.76
590.284	1927.25
590.643	1936.97
591.003	1948.04
591.362	1934.93
591.721	1930.87
592.08	1931.09
592.44	1927.7
592.799	1923.86
593.158	1943.75
593.517	1970.41
593.876	1918.66
594.235	1973.35
594.593	1950.53
594.952	1946.01
595.311	1962.5
595.67	1918.44
596.029	1947.82
596.387	1980.36
596.746	1967.48
597.104	1974.03
597.463	1941.94
597.822	1941.04
598.18	1969.06
598.538	1977.19
598.897	1961.6
599.255	1947.59
599.613	1970.87
599.972	1945.56
600.33	1969.28
600.688	1943.3
601.046	1966.12
601.404	1998.44
601.762	1989.4
602.12	1988.04
602.478	1960.25
602.836	1995.27
603.194	2002.28
603.552	1996.4
603.91	1982.84
604.268	2000.24
604.625	1982.17
604.983	2004.99
605.341	1955.27
605.698	2012.45
606.056	1987.36
606.413	1995.05
606.771	2000.24
607.128	1964.99
607.485	2010.87
607.843	2002.5
608.2	2023.97
608.557	2031.66
608.914	2051.77
609.272	2021.03
609.629	2032.56
609.986	2030.07
610.343	2050.86
610.7	2050.64
611.057	2039.11
611.414	2063.29
611.771	2064.88
612.127	2036.85
612.484	2059.45
612.841	2069.62
613.198	2058.55
613.554	2062.84
613.911	2075.95
614.267	2072.33
614.624	2077.76
614.98	2098.32
615.337	2091.32
615.693	2071.43
616.05	2074.37
616.406	2102.16
616.762	2103.52
617.118	2090.64
617.475	2100.35
617.831	2084.08
618.187	2094.48
618.543	2124.31
618.899	2110.3
619.255	2136.29
619.611	2109.17
619.967	2102.61
620.323	2118.21
620.678	2100.58
621.034	2089.51
621.39	2127.25
621.746	2142.84
622.101	2147.13
622.457	2092.67
622.812	2154.82
623.168	2150.97
623.523	2117.53
623.879	2134.25
624.234	2129.28
624.589	2154.59
624.945	2161.82
625.3	2179.45
625.655	2181.71
626.01	2156.17
626.365	2155.49
626.72	2184.42
627.075	2193.23
627.43	2203.18
627.785	2162.73
628.14	2193.46
628.495	2145.55
628.85	2167.7
629.205	2193.01
629.559	2202.72
629.914	2192.33
630.269	2179.22
630.623	2217.19
630.978	2222.61
631.332	2204.76
631.687	2218.09
632.041	2188.94
632.396	2167.7
632.75	2193.91
633.104	2220.13
633.459	2228.71
633.813	2247.92
634.167	2223.74
634.521	2226.9
634.875	2234.59
635.229	2255.15
635.583	2221.03
635.937	2261.03
636.291	2268.71
636.645	2259.45
636.999	2256.28
637.352	2286.79
637.706	2244.76
638.06	2261.93
638.413	2254.93
638.767	2298.32
639.121	2276.39
639.474	2283.85
639.828	2326.11
640.181	2287.02
640.534	2304.42
640.888	2320.91
641.241	2334.02
641.594	2297.19
641.947	2332.21
642.301	2375.15
642.654	2350.97
643.007	2363.17
643.36	2318.2
643.713	2355.04
644.066	2385.09
644.419	2351.65
644.771	2351.87
645.124	2337.64
645.477	2351.42
645.83	2350.97
646.182	2340.57
646.535	2327.02
646.888	2354.81
647.24	2350.29
647.593	2361.82
647.945	2387.13
648.298	2397.52
648.65	2380.8
649.002	2372.44
649.355	2423.96
649.707	2427.58
650.059	2442.04
650.411	2423.96
650.763	2477.07
651.115	2529.27
651.467	2508.93
651.819	2522.72
652.171	2534.69
652.523	2542.83
652.875	2544.18
653.227	2521.36
653.578	2548.7
653.93	2567.01
654.282	2577.18
654.633	2564.75
654.985	2548.48
655.337	2576.73
655.688	2586.44
656.039	2600
656.391	2635.03
656.742	2623.5
657.094	2627.12
657.445	2652.43
657.796	2672.54
658.147	2673.9
658.498	2682.71
658.849	2683.39
659.2	2692.88
659.551	2718.19
659.902	2757.96
660.253	2738.53
660.604	2773.56
660.955	2765.42
661.306	2808.13
661.656	2784.86
662.007	2796.16
662.358	2823.27
662.708	2840.67
663.059	2837.06
663.409	2837.51
663.76	2865.53
664.11	2857.4
664.461	2878.19
664.811	2940.11
665.161	2913.21
665.511	2943.95
665.862	2966.55
666.212	2971.74
666.562	3027.79
666.912	3030.95
667.262	3012.65
667.612	3023.72
667.962	3044.96
668.312	3029.82
668.662	3086.77
669.011	3082.02
669.361	3076.6
669.711	3074.79
670.06	3106.66
670.41	3071.4
670.76	3128.8
671.109	3174
671.459	3130.38
671.808	3153.89
672.157	3193.66
672.507	3177.84
672.856	3183.04
673.205	3211.96
673.554	3244.96
673.904	3235.01
674.253	3269.36
674.602	3221.91
674.951	3262.58
675.3	3252.87
675.649	3286.76
675.998	3309.81
676.346	3357.04
676.695	3336.48
677.044	3302.36
677.393	3348.01
677.741	3370.6
678.09	3363.37
678.438	3393.2
678.787	3408.79
679.135	3415.35
679.484	3428.91
679.832	3418.96
680.181	3435.46
680.529	3427.1
680.877	3444.27
681.225	3489.02
681.573	3465.74
681.922	3469.36
682.27	3479.75
682.618	3514.55
682.966	3512.97
683.314	3565.85
683.661	3506.65
684.009	3540.09
684.357	3568.34
684.705	3573.99
685.053	3564.72
685.4	3583.93
685.748	3571.5
686.095	3572.86
686.443	3571.73
686.79	3609.47
687.138	3596.36
687.485	3597.94
687.832	3618.28
688.18	3659.64
688.527	3634.78
688.874	3603.37
689.221	3619.64
689.568	3659.41
689.915	3655.34
690.262	3662.8
690.609	3653.08
690.956	3677.94
691.303	3666.64
691.65	3652.4
691.997	3662.57
692.344	3638.84
692.69	3633.65
693.037	3703.7
693.383	3655.34
693.73	3656.02
694.077	3677.26
694.423	3697.6
694.769	3673.19
695.116	3653.76
695.462	3701.89
695.808	3678.62
696.155	3705.96
696.501	3647.43
696.847	3667.09
697.193	3685.62
697.539	3696.7
697.885	3614.66
698.231	3643.36
698.577	3638.39
698.923	3660.31
699.269	3645.4
699.614	3638.84
699.96	3646.75
700.306	3682.01
700.651	3594.1
700.997	3671.61
701.342	3621.9
701.688	3643.14
702.033	3641.33
702.379	3645.17
702.724	3637.49
703.069	3627.77
703.415	3624.83
703.76	3629.13
704.105	3593.87
704.45	3644.49
704.795	3608.11
705.14	3574.21
705.485	3599.98
705.83	3580.32
706.175	3634.78
706.52	3591.84
706.865	3573.99
707.209	3571.05
707.554	3558.85
707.899	3602.24
708.243	3588.68
708.588	3587.77
708.932	3597.26
709.277	3557.72
709.621	3550.71
709.966	3557.27
710.31	3592.52
710.654	3548
710.998	3546.19
711.342	3552.75
711.687	3527.21
712.031	3515.23
712.375	3558.62
712.719	3542.35
713.063	3515.23
713.407	3541.9
713.75	3528.57
714.094	3554.33
714.438	3571.95
714.782	3566.08
715.125	3569.24
715.469	3508.9
715.812	3494.67
716.156	3513.2
716.499	3555.23
716.843	3536.02
717.186	3527.21
717.53	3560.43
717.873	3555.68
718.216	3544.84
718.559	3517.04
718.902	3516.36
719.246	3527.21
719.589	3485.4
719.932	3520.43
720.275	3542.8
720.617	3519.07
720.96	3518.62
721.303	3509.81
721.646	3508.9
721.989	3513.42
722.331	3546.64
722.674	3525.4
723.016	3530.6
723.359	3506.42
723.701	3543.03
724.044	3519.3
724.386	3518.85
724.729	3510.03
725.071	3493.99
725.413	3529.7
725.755	3516.36
726.097	3518.17
726.439	3507.77
726.782	3514.1
727.124	3522.24
727.465	3463.93
727.807	3556.36
728.149	3509.36
728.491	3550.26
728.833	3511.84
729.175	3551.84
729.516	3517.49
729.858	3516.14
730.199	3539.19
730.541	3498.74
730.882	3548
731.224	3599.52
731.565	3539.41
731.906	3553.2
732.248	3612.63
732.589	3551.62
732.93	3519.98
733.271	3533.54
733.612	3513.88
733.953	3555.01
734.294	3529.92
734.635	3543.93
734.976	3552.07
735.317	3553.2
735.658	3527.89
735.999	3545.74
736.339	3608.79
736.68	3585.51
737.021	3562.24
737.361	3576.7
737.702	3595
738.042	3589.81
738.383	3585.29
738.723	3625.96
739.063	3641.56
739.404	3630.48
739.744	3613.08
740.084	3618.05
740.424	3637.72
740.764	3603.14
741.104	3626.87
741.444	3684.72
741.784	3643.36
742.124	3673.42
742.464	3653.53
742.804	3678.39
743.143	3657.15
743.483	3690.82
743.823	3697.15
744.162	3746.64
744.502	3756.58
744.841	3732.85
745.181	3752.74
745.52	3754.55
745.86	3759.07
746.199	3771.5
746.538	3819.41
746.877	3816.92
747.216	3845.62
747.556	3807.43
747.895	3858.5
748.234	3879.29
748.573	3846.07
748.911	3876.58
749.25	3901.89
749.589	3890.14
749.928	3935.79
750.267	3969.01
750.605	3988.21
750.944	4002.9
751.283	3969.46
751.621	4028.44
751.96	4017.37
752.298	3997.71
752.636	4069.79
752.975	4042.68
753.313	4080.42
753.651	4073.86
753.989	4134.88
754.327	4171.71
754.666	4116.12
755.004	4204.93
755.342	4161.32
755.679	4204.03
756.017	4235.21
756.355	4289.68
756.693	4270.69
757.031	4275.44
757.368	4286.51
757.706	4346.4
758.044	4344.36
758.381	4350.46
758.719	4348.43
759.056	4361.99
759.394	4364.7
759.731	4393.4
760.068	4367.64
760.405	4447.86
760.743	4375.1
761.08	4468.65
761.417	4484.02
761.754	4504.36
762.091	4449.9
762.428	4493.06
762.765	4462.78
763.102	4534.87
763.438	4507.07
763.775	4522.44
764.112	4482.44
764.449	4496.22
764.785	4489.44
765.122	4496.9
765.458	4526.73
765.795	4561.08
766.131	4520.4
766.467	4518.37
766.804	4512.72
767.14	4538.03
767.476	4542.1
767.812	4547.75
768.148	4547.97
768.485	4527.18
768.821	4488.09
769.157	4510.69
769.492	4490.12
769.828	4560.85
770.164	4515.66
770.5	4461.87
770.836	4563.11
771.171	4508.43
771.507	4520.63
771.842	4482.66
772.178	4518.37
772.513	4441.08
