Data from blue_surface_keyboard_FLMS001491_014.txt Node
Date: Tue Feb 07 11:12:42 GMT 2017
User: dcchb
Spectrometer: FLMS00149
Trigger mode: 0
Integration Time (sec): 2.000000E-2
Scans to average: 10
Electric dark correction enabled: true
Nonlinearity correction enabled: false
Boxcar width: 0
XAxis mode: Wavelengths
Number of Pixels in Spectrum: 2048
>>>>>Begin Spectral Data<<<<<
341.393	-5.08
341.776	-5.08
342.16	-5.08
342.543	-64.74
342.927	-71.52
343.31	-56.38
343.693	-64.52
344.077	-71.75
344.46	-80.11
344.843	-53.44
345.226	-34.24
345.61	-23.16
345.993	-30.85
346.376	-3.05
346.759	16.16
347.142	25.65
347.525	45.54
347.908	56.16
348.291	68.13
348.674	89.38
349.057	116.49
349.44	118.08
349.823	153.78
350.206	176.15
350.588	196.49
350.971	201.24
351.354	201.69
351.737	223.38
352.119	228.13
352.502	243.5
352.884	259.32
353.267	252.99
353.65	273.55
354.032	287.11
354.414	282.59
354.797	284.85
355.179	292.99
355.562	294.79
355.944	309.94
356.326	324.4
356.709	324.17
357.091	316.94
357.473	326.66
357.855	314.91
358.238	342.48
358.62	321.91
359.002	323.04
359.384	312.42
359.766	294.57
360.148	308.58
360.53	314.46
360.912	299.54
361.294	302.25
361.676	307.9
362.057	309.48
362.439	308.13
362.821	299.54
363.203	315.13
363.584	317.84
363.966	336.38
364.348	302.25
364.729	311.29
365.111	299.31
365.493	306.32
365.874	286.66
366.256	319.43
366.637	301.8
367.019	298.18
367.4	307.9
367.781	290.95
368.163	275.13
368.544	270.84
368.925	292.76
369.306	290.27
369.688	287.11
370.069	274.68
370.45	278.07
370.831	293.89
371.212	300.9
371.593	279.2
371.974	304.96
372.355	290.5
372.736	290.05
373.117	284.63
373.498	290.73
373.879	284.85
374.26	292.31
374.641	301.8
375.021	291.18
375.402	297.28
375.783	282.82
376.163	291.18
376.544	303.83
376.925	288.47
377.305	310.16
377.686	300.9
378.066	304.29
378.447	301.57
378.827	315.13
379.208	315.13
379.588	323.27
379.968	303.16
380.349	309.03
380.729	296.6
381.109	324.62
381.489	318.3
381.87	310.39
382.25	312.65
382.63	300.22
383.01	298.18
383.39	311.97
383.77	294.79
384.15	325.53
384.53	321.91
384.91	311.29
385.29	314
385.67	302.93
386.049	318.97
386.429	335.92
386.809	340.44
387.189	312.2
387.568	316.94
387.948	314.68
388.328	300.9
388.707	317.17
389.087	309.26
389.466	316.26
389.846	315.36
390.225	339.31
390.605	322.14
390.984	321.46
391.363	314.23
391.743	309.03
392.122	339.54
392.501	325.3
392.881	336.83
393.26	332.08
393.639	323.49
394.018	342.7
394.397	319.2
394.776	336.15
395.155	356.26
395.534	329.14
395.913	343.61
396.292	339.09
396.671	315.13
397.05	334.79
397.429	335.02
397.808	317.39
398.186	355.36
398.565	341.57
398.944	338.64
399.323	342.02
399.701	357.39
400.08	340.44
400.458	335.92
400.837	352.87
401.215	334.79
401.594	332.99
401.972	353.55
402.351	351.29
402.729	325.75
403.107	354.91
403.486	339.99
403.864	326.88
404.242	358.75
404.62	352.19
404.999	363.04
405.377	356.94
405.755	339.09
406.133	380.67
406.511	338.86
406.889	356.49
407.267	354
407.645	358.3
408.023	352.19
408.401	362.59
408.779	348.8
409.156	352.65
409.534	380.44
409.912	371.85
410.29	379.54
410.667	380.89
411.045	389.71
411.422	363.04
411.8	381.12
412.178	395.36
412.555	387.67
412.933	385.19
413.31	381.12
413.687	379.76
414.065	389.71
414.442	399.65
414.819	381.12
415.197	390.84
415.574	382.02
415.951	388.35
416.328	387.67
416.705	395.58
417.082	395.13
417.46	373.89
417.837	407.11
418.214	406.43
418.591	385.87
418.967	389.71
419.344	383.15
419.721	409.37
420.098	420.67
420.475	384.96
420.852	405.75
421.228	415.47
421.605	418.41
421.982	412.98
422.358	417.73
422.735	414.11
423.111	436.71
423.488	413.44
423.864	396.49
424.241	440.33
424.617	436.71
424.994	419.54
425.37	418.18
425.746	419.31
426.123	418.41
426.499	432.19
426.875	449.59
427.251	445.98
427.627	427.9
428.003	424.51
428.379	431.06
428.756	427.67
429.132	444.85
429.507	443.72
429.883	438.07
430.259	428.58
430.635	453.43
431.011	445.53
431.387	448.24
431.763	461.34
432.138	458.41
432.514	441.23
432.89	450.04
433.265	459.31
433.641	477.39
434.016	463.15
434.392	483.04
434.767	478.29
435.143	477.39
435.518	478.29
435.894	488.01
436.269	480.33
436.644	486.43
437.02	494.79
437.395	487.33
437.77	496.37
438.145	485.98
438.52	471.51
438.895	508.35
439.271	480.33
439.646	489.82
440.021	502.02
440.395	503.83
440.77	502.92
441.145	498.63
441.52	526.65
441.895	514
442.27	518.07
442.645	524.62
443.019	530.72
443.394	517.39
443.769	522.81
444.143	522.36
444.518	536.37
444.892	527.1
445.267	555.58
445.641	521.46
446.016	557.39
446.39	544.96
446.764	543.38
447.139	568.91
447.513	505.18
447.887	545.41
448.262	516.71
448.636	551.96
449.01	549.25
449.384	559.87
449.758	541.34
450.132	561.23
450.506	569.59
450.88	566.65
451.254	591.28
451.628	578.4
452.002	544.73
452.376	587.44
452.75	561.91
453.123	549.93
453.497	582.47
453.871	579.53
454.244	574.11
454.618	593.77
454.992	587.89
455.365	586.09
455.739	586.31
456.112	618.63
456.486	602.36
456.859	607.78
457.232	618.18
457.606	611.85
457.979	619.98
458.352	623.6
458.725	638.51
459.099	628.35
459.472	650.27
459.845	627.22
460.218	615.01
460.591	641.23
460.964	644.84
461.337	645.29
461.71	658.63
462.083	658.17
462.456	663.37
462.829	666.31
463.201	673.77
463.574	656.14
463.947	669.25
464.32	674.45
464.692	683.03
465.065	669.7
465.438	655.46
465.81	686.2
466.183	717.83
466.555	695.24
466.928	698.85
467.3	689.59
467.672	718.74
468.045	718.29
468.417	736.59
468.789	708.79
469.161	738.17
469.534	751.73
469.906	766.42
470.278	747.89
470.65	746.31
471.022	768.91
471.394	756.48
471.766	774.78
472.138	775.46
472.51	768.23
472.882	786.31
473.253	797.83
473.625	797.83
473.997	824.5
474.369	831.05
474.74	843.93
475.112	832.63
475.484	833.31
475.855	831.73
476.227	833.09
476.598	898.62
476.97	872.86
477.341	868.79
477.713	897.49
478.084	896.59
478.455	902.91
478.827	930.71
479.198	924.61
479.569	933.87
479.94	960.99
480.311	933.65
480.682	960.54
481.053	943.14
481.424	988.34
481.795	980.65
482.166	995.12
482.537	1017.71
482.908	1002.12
483.279	1008.45
483.65	1012.06
484.021	1035.57
484.391	1059.97
484.762	1072.4
485.133	1058.62
485.503	1072.18
485.874	1079.18
486.244	1099.07
486.615	1114.43
486.985	1099.07
487.356	1113.76
487.726	1123.93
488.097	1120.08
488.467	1106.52
488.837	1149.91
489.207	1135.68
489.578	1129.57
489.948	1163.7
490.318	1174.77
490.688	1151.27
491.058	1165.96
491.428	1199.4
491.798	1196.24
492.168	1176.13
492.538	1204.6
492.908	1203.92
493.278	1224.04
493.648	1231.27
494.017	1236.69
494.387	1242.79
494.757	1236.01
495.126	1218.61
495.496	1231.49
495.866	1242.11
496.235	1258.61
496.605	1261.1
496.974	1276.69
497.344	1273.53
497.713	1268.33
498.082	1279.4
498.452	1288.44
498.821	1317.59
499.19	1294.54
499.559	1297.48
499.928	1278.05
500.298	1280.76
500.667	1314.65
501.036	1301.32
501.405	1314.43
501.774	1318.04
502.143	1321.43
502.512	1294.32
502.88	1324.15
503.249	1321.21
503.618	1344.71
503.987	1330.02
504.356	1325.5
504.724	1320.98
505.093	1333.64
505.462	1345.16
505.83	1351.04
506.199	1354.65
506.567	1355.56
506.936	1342.9
507.304	1334.09
507.672	1349.68
508.041	1345.39
508.409	1347.65
508.777	1350.13
509.145	1393.3
509.514	1391.04
509.882	1373.86
510.25	1394.2
510.618	1366.18
510.986	1392.39
511.354	1393.3
511.722	1382
512.09	1396.23
512.458	1384.26
512.826	1396.46
513.193	1389
513.561	1410.47
513.929	1401.43
514.297	1404.14
514.664	1426.97
515.032	1403.92
515.4	1412.73
515.767	1425.61
516.135	1419.06
516.502	1417.93
516.869	1418.38
517.237	1420.19
517.604	1420.19
517.972	1444.37
518.339	1450.02
518.706	1435.1
519.073	1426.06
519.44	1453.63
519.808	1434.2
520.175	1445.27
520.542	1455.89
520.909	1447.31
521.276	1445.05
521.643	1427.42
522.009	1503.35
522.376	1450.24
522.743	1479.17
523.11	1450.7
523.477	1489.34
523.843	1475.33
524.21	1504.93
524.577	1509.9
524.943	1486.18
525.31	1487.31
525.676	1496.12
526.043	1475.1
526.409	1507.42
526.776	1501.99
527.142	1519.4
527.508	1518.27
527.874	1538.15
528.241	1514.88
528.607	1522.78
528.973	1505.16
529.339	1525.27
529.705	1500.64
530.071	1544.93
530.437	1535.21
530.803	1540.64
531.169	1565.95
531.535	1545.61
531.901	1524.82
532.267	1537.7
532.632	1581.77
532.998	1540.86
533.364	1553.07
533.73	1553.74
534.095	1539.73
534.461	1573.63
534.826	1566.17
535.192	1532.28
535.557	1563.91
535.923	1568.89
536.288	1585.16
536.653	1554.42
537.019	1595.55
537.384	1541.32
537.749	1539.06
538.114	1569.79
538.479	1580.64
538.845	1564.14
539.21	1573.18
539.575	1572.05
539.94	1539.51
540.305	1565.95
540.67	1569.79
541.034	1590.35
541.399	1587.87
541.764	1583.8
542.129	1544.71
542.494	1603.91
542.858	1586.29
543.223	1603.46
543.587	1570.02
543.952	1555.33
544.316	1574.76
544.681	1583.35
545.045	1558.94
545.41	1597.36
545.774	1580.18
546.138	1575.66
546.503	1567.98
546.867	1577.7
547.231	1578.6
547.595	1557.59
547.959	1600.3
548.324	1609.11
548.688	1593.74
549.052	1583.57
549.416	1575.89
549.779	1599.17
550.143	1599.62
550.507	1609.34
550.871	1585.83
551.235	1590.58
551.599	1605.04
551.962	1578.15
552.326	1629.67
552.689	1603.46
553.053	1603.23
553.417	1631.26
553.78	1623.57
554.143	1577.92
554.507	1606.4
554.87	1588.09
555.234	1616.57
555.597	1630.8
555.96	1632.16
556.323	1607.08
556.686	1639.84
557.05	1593.74
557.413	1599.84
557.776	1633.06
558.139	1629.22
558.502	1593.29
558.865	1615.66
559.228	1632.61
559.59	1645.49
559.953	1646.62
560.316	1637.36
560.679	1640.07
561.041	1635.55
561.404	1633.29
561.767	1654.98
562.129	1644.36
562.492	1655.21
562.854	1640.07
563.217	1643.69
563.579	1635.32
563.941	1659.05
564.304	1647.53
564.666	1671.48
565.028	1666.06
565.39	1650.69
565.753	1672.84
566.115	1682.1
566.477	1696.57
566.839	1687.53
567.201	1669
567.563	1654.08
567.925	1687.53
568.287	1689.79
568.648	1687.75
569.01	1685.72
569.372	1722.1
569.734	1725.27
570.095	1705.6
570.457	1700.63
570.819	1690.46
571.18	1693.85
571.542	1699.5
571.903	1728.88
572.265	1738.6
572.626	1705.83
572.987	1722.33
573.349	1718.03
573.71	1731.14
574.071	1740.41
574.432	1728.66
574.794	1728.66
575.155	1765.94
575.516	1751.03
575.877	1748.32
576.238	1736.11
576.599	1737.69
576.96	1744.25
577.32	1738.15
577.681	1756.45
578.042	1757.35
578.403	1748.99
578.763	1757.81
579.124	1747.86
579.485	1728.2
579.845	1736.11
580.206	1763.68
580.566	1788.09
580.927	1780.63
581.287	1758.03
581.648	1749.22
582.008	1752.84
582.368	1770.69
582.728	1783.34
583.089	1734.53
583.449	1771.14
583.809	1752.61
584.169	1779.5
584.529	1775.66
584.889	1771.82
585.249	1763.91
585.609	1770.69
585.969	1755.1
586.329	1789.44
586.688	1774.53
587.048	1798.03
587.408	1770.46
587.768	1773.17
588.127	1809.33
588.487	1771.59
588.846	1792.38
589.206	1771.14
589.565	1796.68
589.925	1791.48
590.284	1789.44
590.643	1781.54
591.003	1781.08
591.362	1786.73
591.721	1785.38
592.08	1766.62
592.44	1779.95
592.799	1780.18
593.158	1800.52
593.517	1775.43
593.876	1815.66
594.235	1791.03
594.593	1802.78
594.952	1787.18
595.311	1783.57
595.67	1819.73
596.029	1807.98
596.387	1813.62
596.746	1812.72
597.104	1816.34
597.463	1813.62
597.822	1855.43
598.18	1791.03
598.538	1814.98
598.897	1814.3
599.255	1776.34
599.613	1861.08
599.972	1804.81
600.33	1830.12
600.688	1809.1
601.046	1821.08
601.404	1817.01
601.762	1836.22
602.12	1862.66
602.478	1835.32
602.836	1848.2
603.194	1842.55
603.552	1833.96
603.91	1834.64
604.268	1851.14
604.625	1850.69
604.983	1855.21
605.341	1850.01
605.698	1866.96
606.056	1864.02
606.413	1851.82
606.771	1881.19
607.128	1851.59
607.485	1858.6
607.843	1870.35
608.2	1870.8
608.557	1893.4
608.914	1859.05
609.272	1894.3
609.629	1843.23
609.986	1897.46
610.343	1882.32
610.7	1925.71
611.057	1897.69
611.414	1893.4
611.771	1891.14
612.127	1924.13
612.484	1917.8
612.841	1889.1
613.198	1884.58
613.554	1876.22
613.911	1929.33
614.267	1903.34
614.624	1901.31
614.98	1902.21
615.337	1913.73
615.693	1886.62
616.05	1935.2
616.406	1907.86
616.762	1891.59
617.118	1944.47
617.475	1878.93
617.831	1912.83
618.187	1924.36
618.543	1938.82
618.899	1932.04
619.255	1951.02
619.611	1950.57
619.967	1965.49
620.323	1969.78
620.678	1935.66
621.034	1972.72
621.39	1973.39
621.746	1953.51
622.101	1973.17
622.457	1957.8
622.812	1951.25
623.168	1944.47
623.523	1957.35
623.879	1984.24
624.234	1981.08
624.589	1986.05
624.945	1979.5
625.3	2013.62
625.655	2017.69
626.01	2010.68
626.365	1985.37
626.72	2002.09
627.075	1981.08
627.43	2001.42
627.785	2006.39
628.14	2010.23
628.495	1994.64
628.85	2004.58
629.205	2006.84
629.559	2031.47
629.914	2025.37
630.269	2024.24
630.623	1994.18
630.978	2001.64
631.332	2015.88
631.687	2026.73
632.041	2014.07
632.396	2048.65
632.75	2050.91
633.104	2055.2
633.459	2044.35
633.813	2026.73
634.167	2037.35
634.521	2043.22
634.875	2036.9
635.229	2078.02
635.583	2056.33
635.937	2058.14
636.291	2075.09
636.645	2091.36
636.999	2110.11
637.352	2083.9
637.706	2063.34
638.06	2101.07
638.413	2115.09
638.767	2146.72
639.121	2122.77
639.474	2132.94
639.828	2098.36
640.181	2114.18
640.534	2130.9
640.888	2106.72
641.241	2120.51
641.594	2149.44
641.947	2157.12
642.301	2140.85
642.654	2162.09
643.007	2168.64
643.36	2179.49
643.713	2195.76
644.066	2194.63
644.419	2194.18
644.771	2173.62
645.124	2196.44
645.477	2165.48
645.83	2161.86
646.182	2167.74
646.535	2167.97
646.888	2151.92
647.24	2186.5
647.593	2224.69
647.945	2211.58
648.298	2195.08
648.65	2194.18
649.002	2208.42
649.355	2237.79
649.707	2214.52
650.059	2249.09
650.411	2270.79
650.763	2263.78
651.115	2291.35
651.467	2316.21
651.819	2330.22
652.171	2310.33
652.523	2328.64
652.875	2352.14
653.227	2319.83
653.578	2381.52
653.93	2390.33
654.282	2360.05
654.633	2372.48
654.985	2404.34
655.337	2407.06
655.688	2411.8
656.039	2434.85
656.391	2432.37
656.742	2444.34
657.094	2448.64
657.445	2485.02
657.796	2497.22
658.147	2503.1
658.498	2526.15
658.849	2504.23
659.2	2497.9
659.551	2531.12
659.902	2573.15
660.253	2574.28
660.604	2576.09
660.955	2536.54
661.306	2555.98
661.656	2594.17
662.007	2585.81
662.358	2640.5
662.708	2617.9
663.059	2664.9
663.409	2630.55
663.76	2656.54
664.11	2670.33
664.461	2684.34
664.811	2725.69
665.161	2732.47
665.511	2701.96
665.862	2748.29
666.212	2771.57
666.562	2749.65
666.912	2788.06
667.262	2803.66
667.612	2810.21
667.962	2824.45
668.312	2846.37
668.662	2860.6
669.011	2860.83
669.361	2874.61
669.711	2879.13
670.06	2875.97
670.41	2901.05
670.76	2867.83
671.109	2908.51
671.459	2945.8
671.808	2942.41
672.157	2937.44
672.507	2945.57
672.856	2967.94
673.205	2968.62
673.554	2971.79
673.904	3039.81
674.253	3052.91
674.602	3042.29
674.951	3039.58
675.3	3041.39
675.649	3109.41
675.998	3094.49
676.346	3080.94
676.695	3122.52
677.044	3153.7
677.393	3138.56
677.741	3140.14
678.09	3153.7
678.438	3152.57
678.787	3177.88
679.135	3141.73
679.484	3207.71
679.832	3225.34
680.181	3211.55
680.529	3211.1
680.877	3233.93
681.225	3279.57
681.573	3244.77
681.922	3238.22
682.27	3261.5
682.618	3325.45
682.966	3273.47
683.314	3291.1
683.661	3297.88
684.009	3297.88
684.357	3306.69
684.705	3335.62
685.053	3343.08
685.4	3353.25
685.748	3332.91
686.095	3365.9
686.443	3369.29
686.79	3388.27
687.138	3401.61
687.485	3372.68
687.832	3383.3
688.18	3403.19
688.527	3389.4
688.874	3434.82
689.221	3426.69
689.568	3457.42
689.915	3433.24
690.262	3415.84
690.609	3434.15
690.956	3395.96
691.303	3454.03
691.65	3439.57
691.997	3459.68
692.344	3405.45
692.69	3458.55
693.037	3476.63
693.383	3444.54
693.73	3468.72
694.077	3472.79
694.423	3424.88
694.769	3460.81
695.116	3420.81
695.462	3436.41
695.808	3451.1
696.155	3475.73
696.501	3465.78
696.847	3465.33
697.193	3474.15
697.539	3483.64
697.885	3462.62
698.231	3453.81
698.577	3438.89
698.923	3454.26
699.269	3437.76
699.614	3417.42
699.96	3442.51
700.306	3427.37
700.651	3444.77
700.997	3421.27
701.342	3423.07
701.688	3431.66
702.033	3429.85
702.379	3419.01
702.724	3452.23
703.069	3441.6
703.415	3400.02
703.76	3439.8
704.105	3427.37
704.45	3368.84
704.795	3403.64
705.14	3398.67
705.485	3390.31
705.83	3404.32
706.175	3386.69
706.52	3396.86
706.865	3407.26
707.209	3374.26
707.554	3396.18
707.899	3383.98
708.243	3344.88
708.588	3363.64
708.932	3359.8
709.277	3353.7
709.621	3347.37
709.966	3383.98
710.31	3355.73
710.654	3321.16
710.998	3372.23
711.342	3378.78
711.687	3345.34
712.031	3358.22
712.375	3343.3
712.719	3401.38
713.063	3360.7
713.407	3414.49
713.75	3357.54
714.094	3337.2
714.438	3347.6
714.782	3322.29
715.125	3351.66
715.469	3324.55
715.812	3307.14
716.156	3342.4
716.499	3317.31
716.843	3316.86
717.186	3320.7
717.53	3303.75
717.873	3362.06
718.216	3369.52
718.559	3319.35
718.902	3348.73
719.246	3335.39
719.589	3292.68
719.932	3273.47
720.275	3344.21
720.617	3326.35
720.96	3378.33
721.303	3280.93
721.646	3332.91
721.989	3332
722.331	3327.94
722.674	3339.69
723.016	3304.43
723.359	3368.84
723.701	3324.55
724.044	3291.33
724.386	3271.67
724.729	3344.21
725.071	3349.18
725.413	3314.38
725.755	3327.48
726.097	3334.94
726.439	3328.61
726.782	3334.94
727.124	3318.9
727.465	3332.23
727.807	3323.64
728.149	3341.27
728.491	3347.37
728.833	3351.44
729.175	3345.34
729.516	3334.94
729.858	3344.21
730.199	3355.96
730.541	3337.43
730.882	3327.71
731.224	3394.6
731.565	3367.26
731.906	3391.66
732.248	3370.19
732.589	3374.49
732.93	3356.18
733.271	3351.44
733.612	3349.4
733.953	3375.17
734.294	3378.78
734.635	3386.92
734.976	3394.37
735.317	3386.69
735.658	3401.83
735.999	3396.41
736.339	3416.29
736.68	3393.47
737.021	3448.38
737.361	3392.57
737.702	3444.32
738.042	3449.29
738.383	3431.21
738.723	3423.07
739.063	3403.41
739.404	3469.63
739.744	3463.52
740.084	3441.38
740.424	3430.31
740.764	3456.52
741.104	3466.91
741.444	3499.68
741.784	3495.39
742.124	3496.52
742.464	3523.86
742.804	3533.81
743.143	3506.46
743.483	3499.91
743.823	3531.09
744.162	3540.58
744.502	3590.08
744.841	3564.99
745.181	3610.19
745.52	3583.3
745.86	3588.95
746.199	3613.58
746.538	3642.28
746.877	3665.55
747.216	3692.45
747.556	3628.04
747.895	3662.39
748.234	3691.54
748.573	3676.17
748.911	3718.66
749.25	3741.03
749.589	3740.81
749.928	3795.04
750.267	3806.57
750.605	3793.01
750.944	3800.69
751.283	3819.22
751.621	3846.57
751.96	3849.73
752.298	3879.33
752.636	3877.98
752.975	3903.29
753.313	3963.4
753.651	3974.47
753.989	3943.74
754.327	3959.1
754.666	4001.59
755.004	3992.1
755.342	4012.21
755.679	4061.02
756.017	4056.28
756.355	4114.13
756.693	4100.57
757.031	4117.52
757.368	4122.94
757.706	4148.25
758.044	4142.15
758.381	4171.08
758.719	4173.56
759.056	4199.1
759.394	4231.64
759.731	4220.57
760.068	4257.85
760.405	4206.78
760.743	4209.72
761.08	4291.3
761.417	4285.42
761.754	4291.3
762.091	4331.75
762.428	4320.9
762.765	4297.63
763.102	4318.87
763.438	4339.89
763.775	4366.78
764.112	4350.06
764.449	4337.85
764.785	4382.14
765.122	4332.88
765.458	4335.59
765.795	4345.08
766.131	4393.22
766.467	4357.51
766.804	4365.65
767.14	4377.4
767.476	4350.73
767.812	4345.31
768.148	4396.83
768.485	4357.06
768.821	4400.9
769.157	4374.91
769.492	4392.09
769.828	4333.33
770.164	4382.82
770.5	4315.25
770.836	4364.29
771.171	4351.19
771.507	4352.99
771.842	4338.3
772.178	4312.32
