Data from blue_clamp_base_FLMS001491_00016.txt Node
Date: Wed Feb 08 15:15:37 GMT 2017
User: dcchb
Spectrometer: FLMS00149
Trigger mode: 0
Integration Time (sec): 2.000000E-2
Scans to average: 10
Electric dark correction enabled: true
Nonlinearity correction enabled: false
Boxcar width: 0
XAxis mode: Wavelengths
Number of Pixels in Spectrum: 2048
>>>>>Begin Spectral Data<<<<<
341.393	-26.64
341.776	-26.64
342.16	-26.64
342.543	-65.28
342.927	-69.35
343.31	-66.18
343.693	-84.72
344.077	-73.42
344.46	-58.5
344.843	-53.53
345.226	-47.65
345.61	-21.44
345.993	-4.94
346.376	-22.57
346.759	35.51
347.142	14.49
347.525	46.13
347.908	43.87
348.291	61.72
348.674	98.56
349.057	132.68
349.44	134.94
349.823	146.69
350.206	148.27
350.588	200.47
350.971	189.85
351.354	233.47
351.737	241.83
352.119	268.27
352.502	270.08
352.884	275.5
353.267	290.42
353.65	310.75
354.032	313.01
354.414	319.12
354.797	330.87
355.179	315.27
355.562	315.73
355.944	331.54
356.326	327.25
356.709	343.97
357.091	322.05
357.473	333.13
357.855	344.65
358.238	346.23
358.62	325.9
359.002	321.15
359.384	336.29
359.766	303.75
360.148	340.36
360.53	334.93
360.912	339.68
361.294	355.73
361.676	324.31
362.057	322.05
362.439	319.34
362.821	338.1
363.203	320.92
363.584	317.99
363.966	328.16
364.348	320.92
364.729	318.66
365.111	329.51
365.493	308.95
365.874	322.96
366.256	317.31
366.637	330.42
367.019	336.52
367.4	311.21
367.781	322.96
368.163	324.31
368.544	314.14
368.925	325.22
369.306	315.05
369.688	305.33
370.069	316.4
370.45	319.79
370.831	331.32
371.212	322.28
371.593	325.44
371.974	303.52
372.355	329.74
372.736	316.18
373.117	314.14
373.498	316.18
373.879	325.9
374.26	297.87
374.641	321.15
375.021	297.87
375.402	335.61
375.783	344.88
376.163	320.02
376.544	312.56
376.925	338.55
377.305	334.26
377.686	337.65
378.066	345.33
378.447	350.3
378.827	358.44
379.208	358.89
379.588	340.13
379.968	332.67
380.349	357.08
380.729	344.88
381.109	348.49
381.489	343.07
381.87	334.26
382.25	368.38
382.63	355.05
383.01	375.84
383.39	351.43
383.77	367.93
384.15	353.92
384.53	364.09
384.91	365.89
385.29	378.55
385.67	383.75
386.049	375.16
386.429	392.11
386.809	391.88
387.189	366.35
387.568	383.52
387.948	382.84
388.328	415.16
388.707	386.68
389.087	381.49
389.466	394.82
389.846	390.3
390.225	403.63
390.605	409.73
390.984	414.03
391.363	420.13
391.743	395.95
392.122	415.38
392.501	425.33
392.881	421.49
393.26	417.64
393.639	452.9
394.018	433.92
394.397	450.64
394.776	470.3
395.155	426.91
395.534	456.97
395.913	468.04
396.292	458.55
396.671	447.7
397.05	475.72
397.429	476.63
397.808	476.63
398.186	463.07
398.565	479.79
398.944	482.05
399.323	491.77
399.701	509.39
400.08	516.62
400.458	498.77
400.837	512.11
401.215	528.83
401.594	524.08
401.972	525.89
402.351	530.64
402.729	522.73
403.107	539.22
403.486	552.78
403.864	549.84
404.242	549.39
404.62	567.02
404.999	586.23
405.377	572.89
405.755	577.87
406.133	600.46
406.511	591.88
406.889	581.93
407.267	605.89
407.645	636.85
408.023	608.37
408.401	625.55
408.779	624.19
409.156	646.11
409.534	641.14
409.912	645.66
410.29	663.06
410.667	695.83
411.045	677.75
411.422	677.07
411.8	690.86
412.178	712.55
412.555	706
412.933	728.14
413.31	723.63
413.687	740.57
414.065	728.82
414.442	763.4
414.819	763.17
415.197	765.43
415.574	773.57
415.951	781.48
416.328	801.36
416.705	797.3
417.082	797.52
417.46	803.62
417.837	823.96
418.214	818.54
418.591	858.31
418.967	834.13
419.344	851.31
419.721	876.62
420.098	849.5
420.475	876.16
420.852	893.79
421.228	894.47
421.605	901.25
421.982	884.98
422.358	939.66
422.735	934.01
423.111	917.74
423.488	962.49
423.864	964.97
424.241	985.77
424.617	985.31
424.994	988.48
425.37	986.22
425.746	1020.34
426.123	1026.22
426.499	1025.09
426.875	1040.68
427.251	1012.88
427.627	1054.46
428.003	1103.73
428.379	1071.41
428.756	1127.91
429.132	1156.83
429.507	1119.55
429.883	1136.72
430.259	1176.04
430.635	1143.28
431.011	1195.03
431.387	1193.67
431.763	1206.78
432.138	1252.88
432.514	1256.94
432.89	1257.85
433.265	1302.37
433.641	1318.19
434.016	1341.46
434.392	1346.43
434.767	1371.07
435.143	1366.55
435.518	1380.33
435.894	1404.06
436.269	1423.72
436.644	1418.75
437.02	1447.67
437.395	1452.19
437.77	1478.86
438.145	1525.41
438.52	1533.55
438.895	1502.36
439.271	1543.26
439.646	1563.6
440.021	1571.96
440.395	1590.72
440.77	1570.83
441.145	1615.58
441.52	1626.65
441.895	1618.52
442.27	1663.49
442.645	1665.07
443.019	1679.31
443.394	1684.5
443.769	1730.83
444.143	1696.93
444.518	1737.84
444.892	1714.56
445.267	1749.13
445.641	1772.86
446.016	1783.71
446.39	1799.08
446.764	1829.81
447.139	1807.21
447.513	1845.4
447.887	1824.61
448.262	1839.75
448.636	1895.8
449.01	1911.16
449.384	1905.06
449.758	1929.02
450.132	1962.46
450.506	1978.06
450.88	1961.78
451.254	1984.16
451.628	2011.27
452.002	2055.57
452.376	2044.49
452.75	2064.38
453.123	2130.82
453.497	2113.42
453.871	2152.29
454.244	2144.38
454.618	2177.15
454.992	2207.65
455.365	2204.94
455.739	2233.19
456.112	2270.7
456.486	2303.47
456.859	2298.72
457.232	2375.11
457.606	2388.67
457.979	2416.69
458.352	2442
458.725	2441.55
459.099	2522.45
459.472	2527.19
459.845	2540.53
460.218	2586.17
460.591	2613.29
460.964	2601.54
461.337	2694.65
461.71	2662.11
462.083	2706.85
462.456	2748.2
462.829	2779.39
463.201	2831.59
463.574	2817.81
463.947	2862.1
464.32	2903
464.692	2925.38
465.065	2935.77
465.438	2980.06
465.81	3020.97
466.183	3083.11
466.555	3134.18
466.928	3134.18
467.3	3118.36
467.672	3148.42
468.045	3199.27
468.417	3245.37
468.789	3230.23
469.161	3335.31
469.534	3390.9
469.906	3394.52
470.278	3409.43
470.65	3477
471.022	3492.37
471.394	3580.27
471.766	3571.23
472.138	3662.53
472.51	3723.09
472.882	3760.61
473.253	3853.71
473.625	3823.2
473.997	3935.29
474.369	3938.68
474.74	3965.35
475.112	4029.3
475.484	4103.65
475.855	4167.15
476.227	4154.27
476.598	4244.21
476.97	4272.68
477.341	4400.14
477.713	4441.72
478.084	4454.6
478.455	4591.77
478.827	4588.83
479.198	4690.53
479.569	4674.48
479.94	4827.92
480.311	4852.78
480.682	4977.3
481.053	5038.77
481.424	5097.07
481.795	5153.34
482.166	5228.82
482.537	5240.34
482.908	5355.82
483.279	5375.48
483.65	5427.46
484.021	5580.45
484.391	5555.59
484.762	5632.2
485.133	5639.2
485.503	5717.62
485.874	5843.26
486.244	5838.52
486.615	5960.78
486.985	5964.62
487.356	6024.95
487.726	6103.14
488.097	6245.51
488.467	6219.75
488.837	6341.78
489.207	6379.97
489.578	6478.05
489.948	6487.09
490.318	6568.44
490.688	6506.75
491.058	6639.18
491.428	6723.92
491.798	6754.88
492.168	6854.76
492.538	6855.44
492.908	6924.37
493.278	6923.01
493.648	6993.74
494.017	7091.59
494.387	7112.84
494.757	7087.98
495.126	7193.06
495.496	7181.76
495.866	7216.79
496.235	7197.58
496.605	7327.07
496.974	7361.42
497.344	7354.86
497.713	7414.97
498.082	7437.57
498.452	7464.01
498.821	7541.52
499.19	7520.73
499.559	7509.21
499.928	7603.22
500.298	7660.62
500.667	7694.52
501.036	7705.81
501.405	7732.48
501.774	7679.15
502.143	7774.51
502.512	7821.07
502.88	7855.19
503.249	7831.69
503.618	7894.06
503.987	7877.11
504.356	7931.35
504.724	7988.07
505.093	7942.19
505.462	8001.85
505.83	8008.86
506.199	8095.63
506.567	8186.48
506.936	8172.69
507.304	8237.33
507.672	8213.82
508.041	8219.02
508.409	8252.92
508.777	8304.22
509.145	8388.28
509.514	8330.43
509.882	8389.64
510.25	8393.25
510.618	8447.04
510.986	8529.07
511.354	8528.62
511.722	8598.67
512.09	8637.99
512.458	8613.59
512.826	8650.42
513.193	8670.31
513.561	8670.31
513.929	8740.82
514.297	8820.59
514.664	8860.81
515.032	8801.15
515.4	8889.74
515.767	8902.85
516.135	8960.24
516.502	8841.38
516.869	9001.15
517.237	8994.59
517.604	8976.06
517.972	9042.28
518.339	9118.66
518.706	9089.73
519.073	9062.39
519.44	9205.21
519.808	9198.88
520.175	9206.34
520.542	9296.28
520.909	9388.26
521.276	9390.52
521.643	9425.77
522.009	9458.08
522.376	9496.28
522.743	9560.91
523.11	9625.09
523.477	9659.66
523.843	9632.54
524.21	9784.86
524.577	9765.87
524.943	9828.92
525.31	9887.45
525.676	9948.02
526.043	10012.19
526.409	10020.56
526.776	10146.65
527.142	10149.37
527.508	10136.71
527.874	10269.59
528.241	10310.72
528.607	10278.63
528.973	10353.88
529.339	10375.8
529.705	10461.22
530.071	10537.6
530.437	10482.24
530.803	10592.52
531.169	10609.47
531.535	10524.05
531.901	10621.67
532.267	10805.62
532.632	10742.57
532.998	10757.71
533.364	10828.9
533.73	10834.32
534.095	10903.7
534.461	10965.62
534.826	11021.66
535.192	10974.2
535.557	11001.55
535.923	11057.14
536.288	11030.47
536.653	11176.46
537.019	11109.79
537.384	11204.93
537.749	11214.87
538.114	11228.21
538.479	11247.64
538.845	11325.38
539.21	11253.74
539.575	11356.57
539.94	11405.83
540.305	11476.56
540.67	11369.67
541.034	11454.42
541.399	11508.43
541.764	11521.31
542.129	11501.42
542.494	11601.08
542.858	11691.92
543.223	11603.11
543.587	11701.87
543.952	11704.58
544.316	11715.88
544.681	11732.38
545.045	11842.43
545.41	11860.28
545.774	11828.64
546.138	11889.66
546.503	11917
546.867	11918.81
547.231	12010.11
547.595	11970.11
547.959	12027.51
548.324	12058.69
548.688	12028.86
549.052	12067.51
549.416	12079.71
549.779	12115.42
550.143	12111.12
550.507	12248.52
550.871	12166.04
551.235	12173.95
551.599	12338.91
551.962	12348.86
552.326	12312.92
552.689	12395.18
553.053	12336.2
553.417	12331
553.78	12553.14
554.143	12449.87
554.507	12467.05
554.87	12542.98
555.234	12619.36
555.597	12594.95
555.96	12669.07
556.323	12640.6
556.686	12666.59
557.05	12738.22
557.413	12759.47
557.776	12833.14
558.139	12881.05
558.502	12858.9
558.865	12867.71
559.228	12965.79
559.59	12972.57
559.953	13010.31
560.316	13165.78
560.679	13116.52
561.041	13205.78
561.404	13212.11
561.767	13248.04
562.129	13286.01
562.492	13321.49
562.854	13333.91
563.217	13357.19
563.579	13395.61
563.941	13490.07
564.304	13531.65
564.666	13616.39
565.028	13640.12
565.39	13746.33
565.753	13716.28
566.115	13771.19
566.477	13828.59
566.839	13804.41
567.201	13943.16
567.563	13958.08
567.925	14030.85
568.287	13997.4
568.648	14100
569.01	14188.13
569.372	14254.12
569.734	14188.81
570.095	14256.83
570.457	14368.69
570.819	14354.68
571.18	14392.87
571.542	14467.22
571.903	14491.4
572.265	14578.85
572.626	14612.07
572.987	14579.76
573.349	14667.89
573.71	14667.44
574.071	14728.45
574.432	14730.26
574.794	14878.06
575.155	14920.31
575.516	14858.39
575.877	14995.11
576.238	14947.66
576.599	15079.18
576.96	15010.48
577.32	15115.34
577.681	15160.31
578.042	15127.54
578.403	15230.36
578.763	15210.7
579.124	15220.64
579.485	15287.08
579.845	15287.31
580.206	15292.28
580.566	15296.35
580.927	15380.87
581.287	15425.39
581.648	15321.21
582.008	15447.98
582.368	15339.51
582.728	15425.84
583.089	15500.64
583.449	15472.62
583.809	15493.18
584.169	15447.31
584.529	15543.12
584.889	15609.34
585.249	15552.39
585.609	15526.4
585.969	15566.85
586.329	15520.52
586.688	15678.26
587.048	15598.04
587.408	15545.38
587.768	15635.32
588.127	15633.52
588.487	15571.14
588.846	15693.85
589.206	15604.14
589.565	15581.31
589.925	15768.2
590.284	15734.08
590.643	15733.85
591.003	15769.56
591.362	15780.4
591.721	15795.55
592.08	15785.6
592.44	15864.7
592.799	15793.74
593.158	15823.79
593.517	15784.25
593.876	15915.77
594.235	15801.65
594.593	15842.55
594.952	15876.45
595.311	15848.43
595.67	15824.92
596.029	15944.47
596.387	15988.53
596.746	15968.42
597.104	15937.46
597.463	15912.83
597.822	15932.26
598.18	15942.21
598.538	15999.16
598.897	16032.38
599.255	15876.22
599.613	16074.63
599.972	16049.32
600.33	16100.4
600.688	16104.24
601.046	16095.88
601.404	16139.04
601.762	16130.9
602.12	16158.02
602.478	16148.08
602.836	16240.73
603.194	16102.2
603.552	16184.69
603.91	16040.74
604.268	16210
604.625	16159.6
604.983	16229.21
605.341	16163.22
605.698	16203.22
606.056	16188.08
606.413	16237.12
606.771	16363.44
607.128	16349.2
607.485	16257.91
607.843	16265.82
608.2	16331.12
608.557	16461.06
608.914	16369.99
609.272	16424.91
609.629	16522.31
609.986	16522.08
610.343	16433.72
610.7	16574.28
611.057	16533.83
611.414	16559.37
611.771	16454.28
612.127	16646.82
612.484	16583.55
612.841	16716.65
613.198	16667.61
613.554	16664
613.911	16851.34
614.267	16781.06
614.624	16707.84
614.98	16819.92
615.337	16817.89
615.693	16754.62
616.05	16860.38
616.406	16905.35
616.762	16870.09
617.118	16912.58
617.475	16862.86
617.831	16892.24
618.187	16974.95
618.543	17007.26
618.899	17139.69
619.255	17028.06
619.611	17015.17
619.967	17104.89
620.323	17047.72
620.678	17012.91
621.034	17139.24
621.39	17095.85
621.746	16956.19
622.101	17238.67
622.457	17172.68
622.812	17152.57
623.168	17215.85
623.523	17173.81
623.879	17293.58
624.234	17181.5
624.589	17223.98
624.945	17279.12
625.3	17249.97
625.655	17261.27
626.01	17301.95
626.365	17361.83
626.72	17364.09
627.075	17316.18
627.43	17246.58
627.785	17391.44
628.14	17301.27
628.495	17408.61
628.85	17461.94
629.205	17334.71
629.559	17450.87
629.914	17395.96
630.269	17444.32
630.623	17478.89
630.978	17379.91
631.332	17477.53
631.687	17545.1
632.041	17511.21
632.396	17522.05
632.75	17350.76
633.104	17571.09
633.459	17404.77
633.813	17480.7
634.167	17531.32
634.521	17495.16
634.875	17577.42
635.229	17532
635.583	17555.27
635.937	17384.2
636.291	17515.95
636.645	17476.4
636.999	17506.69
637.352	17515.05
637.706	17514.82
638.06	17646.12
638.413	17488.16
638.767	17472.56
639.121	17589.17
639.474	17510.98
639.828	17508.27
640.181	17530.87
640.534	17595.72
640.888	17570.64
641.241	17552.11
641.594	17660.58
641.947	17634.59
642.301	17642.28
642.654	17614.71
643.007	17673.24
643.36	17664.42
643.713	17445.9
644.066	17720.69
644.419	17647.02
644.771	17506.69
645.124	17345.79
645.477	17436.63
645.83	17311.21
646.182	17289.07
646.535	17261.04
646.888	17253.13
647.24	17139.92
647.593	17308.27
647.945	17222.4
648.298	17171.1
648.65	17136.53
649.002	17140.59
649.355	17211.33
649.707	17266.92
650.059	17326.13
650.411	17574.26
650.763	17679.11
651.115	17867.81
651.467	17782.16
651.819	17737.64
652.171	17825.1
652.523	17800.69
652.875	17816.06
653.227	17711.2
653.578	17886.56
653.93	17884.76
654.282	17811.54
654.633	17873.91
654.985	17883.63
655.337	17906
655.688	17866
656.039	17899.44
656.391	17842.5
656.742	17842.95
657.094	17862.38
657.445	17962.95
657.796	17996.39
658.147	17846.11
658.498	17884.53
658.849	17942.61
659.2	17886.79
659.551	17856.73
659.902	18019.89
660.253	17912.1
660.604	17945.77
660.955	17953.68
661.306	17926.56
661.656	17975.37
662.007	18028.71
662.358	18012.89
662.708	18046.56
663.059	17926.11
663.409	17866.68
663.76	18002.94
664.11	18021.7
664.461	17984.41
664.811	17957.3
665.161	17975.6
665.511	17943.51
665.862	17975.37
666.212	18017.18
666.562	17965.43
666.912	17927.01
667.262	17967.92
667.612	17960.01
667.962	18049.5
668.312	17829.39
668.662	18044.75
669.011	17930.18
669.361	17821.03
669.711	17794.59
670.06	17792.33
670.41	17779
670.76	17838.88
671.109	17834.59
671.459	17749.62
671.808	17849.95
672.157	17804.31
672.507	17674.37
672.856	17740.8
673.205	17710.3
673.554	17738.54
673.904	17582.16
674.253	17805.66
674.602	17668.94
674.951	17382.85
675.3	17350.31
675.649	17616.51
675.998	17454.48
676.346	17512.79
676.695	17611.54
677.044	17413.36
677.393	17387.59
677.741	17505.78
678.09	17370.19
678.438	17402.28
678.787	17284.09
679.135	17281.16
679.484	17202.74
679.832	17248.61
680.181	17171.55
680.529	17171.55
680.877	17148.28
681.225	17082.74
681.573	17222.4
681.922	17082.29
682.27	17103.99
682.618	17008.62
682.966	17008.85
683.314	17040.26
683.661	16954.61
684.009	16816.76
684.357	16722.98
684.705	16755.07
685.053	16806.14
685.4	16770.43
685.748	16775.18
686.095	16751.23
686.443	16632.36
686.79	16558.01
687.138	16586.71
687.485	16569.99
687.832	16519.37
688.18	16590.55
688.527	16495.19
688.874	16514.4
689.221	16406.83
689.568	16369.09
689.915	16418.81
690.262	16415.19
690.609	16265.82
690.956	16305.81
691.303	16262.65
691.65	16149.89
691.997	16233.5
692.344	15987.4
692.69	16124.35
693.037	16101.53
693.383	15971.59
693.73	16058.36
694.077	15929.1
694.423	15916.45
694.769	16010.23
695.116	15840.29
695.462	15920.97
695.808	15868.09
696.155	16006.39
696.501	15890.46
696.847	15779.5
697.193	15659.05
697.539	15741.54
697.885	15680.97
698.231	15607.75
698.577	15583.12
698.923	15678.26
699.269	15687.75
699.614	15530.24
699.96	15587.64
700.306	15542.22
700.651	15560.07
700.997	15422.22
701.342	15499.96
701.688	15484.37
702.033	15435.78
702.379	15443.69
702.724	15337.03
703.069	15397.36
703.415	15271.49
703.76	15291.38
704.105	15337.03
704.45	15264.49
704.795	15177.48
705.14	15211.83
705.485	15193.98
705.83	15121.44
706.175	15196.01
706.52	15227.88
706.865	15057.49
707.209	15060.65
707.554	15116.47
707.899	15027.66
708.243	15005.06
708.588	15002.35
708.932	14909.01
709.277	15003.02
709.621	14915.57
709.966	14887.32
710.31	14898.39
710.654	14839.19
710.998	14832.41
711.342	14926.87
711.687	14812.29
712.031	14768.91
712.375	14770.49
712.719	14795.8
713.063	14810.26
713.407	14838.73
713.75	14754.67
714.094	14868.11
714.438	14748.57
714.782	14789.24
715.125	14718.74
715.469	14654.33
715.812	14560.78
716.156	14601.68
716.499	14697.49
716.843	14565.97
717.186	14549.02
717.53	14602.81
717.873	14695.69
718.216	14651.17
718.559	14533.88
718.902	14363.27
719.246	14566.42
719.589	14406.43
719.932	14358.29
720.275	14485.52
720.617	14515.35
720.96	14413.43
721.303	14540.44
721.646	14492.98
721.989	14349.03
722.331	14424.96
722.674	14419.08
723.016	14443.94
723.359	14363.49
723.701	14380.44
724.044	14289.82
724.386	14221.58
724.729	14330.05
725.071	14278.97
725.413	14271.52
725.755	14385.41
726.097	14295.25
726.439	14256.38
726.782	14296.15
727.124	14334.34
727.465	14261.12
727.807	14268.35
728.149	14175.7
728.491	14243.04
728.833	14258.64
729.175	14204.85
729.516	14254.12
729.858	14292.53
730.199	14232.42
730.541	14168.02
730.882	14255.25
731.224	14341.8
731.565	14198.3
731.906	14250.28
732.248	14254.57
732.589	14276.04
732.93	14215.25
733.271	14200.78
733.612	14218.19
733.953	14325.08
734.294	14253.21
734.635	14237.85
734.976	14305.19
735.317	14230.61
735.658	14278.3
735.999	14274.68
736.339	14313.32
736.68	14377.96
737.021	14332.31
737.361	14282.82
737.702	14451.85
738.042	14291.18
738.383	14405.98
738.723	14384.96
739.063	14414.34
739.404	14396.71
739.744	14397.62
740.084	14506.99
740.424	14451.63
740.764	14413.89
741.104	14487.1
741.444	14559.42
741.784	14503.38
742.124	14584.05
742.464	14527.78
742.804	14524.62
743.143	14567.33
743.483	14573.66
743.823	14539.53
744.162	14537.5
744.502	14701.56
744.841	14609.36
745.181	14723.26
745.52	14746.99
745.86	14808.23
746.199	14770.94
746.538	14807.32
746.877	14838.51
747.216	14874.89
747.556	14794.89
747.895	14903.59
748.234	14904.27
748.573	14831.5
748.911	14949.24
749.25	14886.64
749.589	14936.58
749.928	14976.58
750.267	15035.79
750.605	14998.73
750.944	15111.95
751.283	15019.97
751.621	15085.96
751.96	15121.66
752.298	15081.67
752.636	15204.83
752.975	15107.43
753.313	15118.95
753.651	15184.26
753.989	15180.19
754.327	15221.55
754.666	15211.15
755.004	15194.66
755.342	15370.7
755.679	15407.31
