Data from blue_clamp_base_FLMS001491_00011.txt Node
Date: Wed Feb 08 15:15:36 GMT 2017
User: dcchb
Spectrometer: FLMS00149
Trigger mode: 0
Integration Time (sec): 2.000000E-2
Scans to average: 10
Electric dark correction enabled: true
Nonlinearity correction enabled: false
Boxcar width: 0
XAxis mode: Wavelengths
Number of Pixels in Spectrum: 2048
>>>>>Begin Spectral Data<<<<<
341.393	-29.56
341.776	-29.56
342.16	-29.56
342.543	-53.52
342.927	-58.26
343.31	-64.59
343.693	-75.66
344.077	-64.36
344.46	-53.74
344.843	-54.65
345.226	-34.31
345.61	-37.02
345.993	-32.5
346.376	-13.06
346.759	7.73
347.142	1.85
347.525	55.63
347.908	68.97
348.291	79.14
348.674	96.09
349.057	120.49
349.44	119.14
349.823	156.87
350.206	178.12
350.588	185.8
350.971	221.28
351.354	227.16
351.737	232.58
352.119	245.23
352.502	258.11
352.884	290.88
353.267	268.51
353.65	300.15
354.032	304.44
354.414	308.96
354.797	306.7
355.179	309.41
355.562	334.27
355.944	341.95
356.326	326.81
356.709	340.15
357.091	341.73
357.473	346.93
357.855	338.11
358.238	362.07
358.62	342.63
359.002	347.6
359.384	320.94
359.766	360.71
360.148	331.33
360.53	336.53
360.912	327.27
361.294	336.53
361.676	343.08
362.057	355.51
362.439	337.89
362.821	326.36
363.203	322.29
363.584	326.14
363.966	340.15
364.348	343.31
364.729	335.85
365.111	316.19
365.493	307.38
365.874	301.5
366.256	329.07
366.637	315.29
367.019	332.69
367.4	317.55
367.781	316.64
368.163	305.8
368.544	309.86
368.925	326.81
369.306	329.3
369.688	312.35
370.069	324.55
370.45	305.57
370.831	318
371.212	315.29
371.593	334.5
371.974	336.98
372.355	319.13
372.736	308.73
373.117	332.24
373.498	317.1
373.879	333.59
374.26	333.82
374.641	329.07
375.021	332.69
375.402	330.2
375.783	319.58
376.163	342.41
376.544	329.98
376.925	332.46
377.305	344.44
377.686	346.02
378.066	358.45
378.447	354.61
378.827	351.22
379.208	329.98
379.588	337.66
379.968	352.8
380.349	336.98
380.729	364.33
381.109	342.41
381.489	351.22
381.87	373.82
382.25	342.41
382.63	355.29
383.01	359.81
383.39	369.52
383.77	386.7
384.15	355.97
384.53	358
384.91	371.11
385.29	371.11
385.67	379.69
386.049	391.9
386.429	380.15
386.809	395.06
387.189	376.98
387.568	391.67
387.948	383.76
388.328	384.21
388.707	386.02
389.087	407.94
389.466	393.03
389.846	400.94
390.225	403.87
390.605	399.35
390.984	404.78
391.363	411.56
391.743	410.2
392.122	428.51
392.501	413.14
392.881	432.57
393.26	410.88
393.639	420.37
394.018	456.75
394.397	451.33
394.776	467.6
395.155	447.71
395.534	458.56
395.913	456.53
396.292	464.44
396.671	468.5
397.05	468.73
397.429	447.04
397.808	472.35
398.186	461.27
398.565	478.9
398.944	505.57
399.323	489.07
399.701	495.17
400.08	500.14
400.458	519.35
400.837	524.77
401.215	532.46
401.594	523.19
401.972	537.2
402.351	512.12
402.729	532.01
403.107	542.85
403.486	552.57
403.864	540.82
404.242	553.7
404.62	581.04
404.999	580.14
405.377	568.39
405.755	571.33
406.133	570.87
406.511	600.7
406.889	597.99
407.267	589.86
407.645	587.15
408.023	616.3
408.401	628.05
408.779	617.65
409.156	632.34
409.534	635.05
409.912	660.82
410.29	671.66
410.667	665.56
411.045	693.81
411.422	676.18
411.8	701.94
412.178	701.49
412.555	708.05
412.933	728.38
413.31	714.37
413.687	734.49
414.065	747.14
414.442	762.96
414.819	794.6
415.197	759.57
415.574	778.1
415.951	788.95
416.328	798.67
416.705	809.51
417.082	797.31
417.46	783.3
417.837	819
418.214	830.3
418.591	851.32
418.967	837.99
419.344	863.07
419.721	866.69
420.098	874.14
420.475	881.6
420.852	882.28
421.228	898.1
421.605	909.4
421.982	910.75
422.358	917.08
422.735	935.61
423.111	945.78
423.488	918.44
423.864	937.42
424.241	956.4
424.617	969.06
424.994	989.39
425.37	978.1
425.746	1001.37
426.123	998.66
426.499	1021.71
426.875	1032.78
427.251	1056.96
427.627	1075.27
428.003	1100.35
428.379	1093.57
428.756	1107.13
429.132	1115.95
429.507	1136.51
429.883	1129.5
430.259	1193.91
430.635	1174.02
431.011	1178.54
431.387	1209.05
431.763	1229.16
432.138	1230.52
432.514	1264.64
432.89	1289.73
433.265	1282.49
433.641	1314.58
434.016	1328.82
434.392	1318.88
434.767	1356.84
435.143	1366.79
435.518	1385.99
435.894	1424.64
436.269	1449.95
436.644	1428.93
437.02	1448.59
437.395	1454.02
437.77	1492.66
438.145	1497.4
438.52	1513.67
438.895	1521.58
439.271	1560.68
439.646	1585.99
440.021	1603.39
440.395	1587.12
440.77	1576.72
441.145	1600.23
441.52	1637.29
441.895	1661.92
442.27	1656.95
442.645	1661.47
443.019	1684.52
443.394	1699.66
443.769	1688.59
444.143	1725.42
444.518	1727.23
444.892	1739.88
445.267	1772.88
445.641	1778.75
446.016	1826.66
446.39	1798.19
446.764	1797.28
447.139	1825.31
447.513	1832.99
447.887	1864.17
448.262	1857.39
448.636	1856.26
449.01	1903.27
449.384	1942.36
449.758	1936.04
450.132	1968.35
450.506	1961.12
450.88	1971.52
451.254	1990.27
451.628	2010.84
452.002	2035.92
452.376	2063.72
452.75	2068.46
453.123	2084.96
453.497	2128.12
453.871	2130.83
454.244	2175.13
454.618	2173.32
454.992	2227.1
455.365	2205.41
455.739	2247.89
456.112	2308.91
456.486	2306.65
456.859	2331.73
457.232	2361.56
457.606	2390.26
457.979	2448.34
458.352	2447.21
458.725	2480.88
459.099	2448.34
459.472	2539.64
459.845	2552.97
460.218	2595.68
460.591	2613.76
460.964	2606.98
461.337	2679.29
461.71	2719.52
462.083	2729.24
462.456	2728.11
462.829	2743.25
463.201	2795.22
463.574	2780.31
463.947	2829.57
464.32	2914.54
464.692	2927.2
465.065	2926.07
465.438	2978.95
465.81	3004.48
466.183	3028.44
466.555	3100.07
466.928	3114.54
467.3	3124.25
467.672	3182.33
468.045	3228.43
468.417	3216
468.789	3283.35
469.161	3321.54
469.534	3352.04
469.906	3459.16
470.278	3429.1
470.65	3491.25
471.022	3523.57
471.394	3592.49
471.766	3604.47
472.138	3654.41
472.51	3714.07
472.882	3726.72
473.253	3789.32
473.625	3860.73
473.997	3917
474.369	3957
474.74	3961.29
475.112	4040.61
475.484	4072.03
475.855	4143.44
476.227	4162.87
476.598	4301.62
476.97	4303.66
477.341	4327.39
477.713	4500.04
478.084	4458.91
478.455	4565.12
478.827	4603.54
479.198	4709.52
479.569	4685.12
479.94	4845.56
480.311	4853.7
480.682	4934.83
481.053	5012.79
481.424	5103.64
481.795	5121.72
482.166	5247.59
482.537	5295.5
482.908	5345.44
483.279	5433.57
483.65	5476.51
484.021	5512.89
484.391	5574.13
484.762	5651.19
485.133	5686.67
485.503	5718.99
485.874	5794.92
486.244	5850.74
486.615	6013.22
486.985	6005.08
487.356	6087.11
487.726	6106.55
488.097	6197.85
488.467	6210.73
488.837	6309.93
489.207	6379.76
489.578	6476.93
489.948	6488.91
490.318	6514.67
490.688	6560.77
491.058	6618.4
491.428	6701.79
491.798	6701.34
492.168	6825.17
492.538	6833.08
492.908	6946.75
493.278	6972.06
493.648	6977.03
494.017	7007.09
494.387	7078.5
494.757	7116.47
495.126	7161.21
495.496	7164.83
495.866	7232.85
496.235	7281.66
496.605	7313.75
496.974	7337.48
497.344	7377.93
497.713	7406.63
498.082	7397.59
498.452	7482.78
498.821	7527.98
499.19	7547.41
499.559	7563.01
499.928	7586.51
500.298	7673.51
500.667	7697.47
501.036	7674.19
501.405	7710.8
501.774	7723.23
502.143	7770.69
502.512	7787.41
502.88	7866.5
503.249	7821.53
503.618	7884.35
503.987	7913.05
504.356	8002.09
504.724	7974.52
505.093	7983.11
505.462	8008.19
505.83	8091.13
506.199	8062.88
506.567	8165.93
506.936	8113.28
507.304	8240.73
507.672	8238.02
508.041	8230.79
508.409	8275.31
508.777	8363.66
509.145	8319.6
509.514	8358.69
509.882	8386.04
510.25	8426.04
510.618	8520.95
510.986	8503.55
511.354	8492.47
511.722	8626.26
512.09	8663.54
512.458	8615.86
512.826	8722.52
513.193	8696.99
513.561	8698.12
513.929	8786.48
514.297	8778.57
514.664	8771.11
515.032	8847.49
515.4	8842.3
515.767	8871.22
516.135	8873.26
516.502	8858.11
516.869	9023.31
517.237	9064.21
517.604	9022.63
517.972	9116.19
518.339	9174.94
518.706	9097.88
519.073	9169.74
519.44	9225.79
519.808	9220.82
520.175	9214.49
520.542	9380.36
520.909	9374.49
521.276	9395.73
521.643	9447.25
522.009	9465.1
522.376	9541.49
522.743	9554.14
523.11	9594.59
523.477	9718.88
523.843	9697.87
524.21	9752.33
524.577	9802.5
524.943	9805.89
525.31	9905.77
525.676	10015.37
526.043	10059.44
526.409	10056.95
526.776	10136.72
527.142	10111.87
527.508	10197.74
527.874	10256.27
528.241	10263.95
528.607	10303.73
528.973	10390.5
529.339	10422.59
529.705	10453.33
530.071	10517.28
530.437	10522.7
530.803	10539.88
531.169	10672.3
531.535	10616.71
531.901	10572.65
532.267	10775.13
532.632	10731.29
532.998	10732.19
533.364	10784.84
533.73	10949.13
534.095	10958.62
534.461	10909.13
534.826	10981
535.192	11000.21
535.557	11095.8
535.923	11046.53
536.288	11059.64
536.653	11108.45
537.019	11080.65
537.384	11182.8
537.749	11227.54
538.114	11212.85
538.479	11260.31
538.845	11320.42
539.21	11344.6
539.575	11351.83
539.94	11328.11
540.305	11463.7
540.67	11449.23
541.034	11500.98
541.399	11575.33
541.764	11567.87
542.129	11544.82
542.494	11594.54
542.858	11612.39
543.223	11639.74
543.587	11724.25
543.952	11769.9
544.316	11691.49
544.681	11764.03
545.045	11733.07
545.41	11917.92
545.774	11818.94
546.138	11837.47
546.503	11937.81
546.867	11907.07
547.231	11988.88
547.595	12005.6
547.959	12007.64
548.324	12032.72
548.688	12026.84
549.052	12074.75
549.416	12092.61
549.779	12102.32
550.143	12127.86
550.507	12154.3
550.871	12221.64
551.235	12185.71
551.599	12361.53
551.962	12311.58
552.326	12341.86
552.689	12336.22
553.053	12288.98
553.417	12394.97
553.78	12514.52
554.143	12460.96
554.507	12531.46
554.87	12542.76
555.234	12645.36
555.597	12521.97
555.96	12648.75
556.323	12621.86
556.686	12623.21
557.05	12711.12
557.413	12752.7
557.776	12812.13
558.139	12844
558.502	12930.32
558.865	12836.54
559.228	12911.12
559.59	12959.25
559.953	13062.98
560.316	13115.63
560.679	13114.5
561.041	13155.18
561.404	13220.03
561.767	13289.64
562.129	13247.15
562.492	13347.71
562.854	13339.35
563.217	13360.82
563.579	13354.95
563.941	13551.32
564.304	13585
564.666	13609.4
565.028	13652.79
565.39	13659.34
565.753	13721.49
566.115	13709.74
566.477	13839.45
566.839	13881.03
567.201	13910.19
567.563	13889.17
567.925	14038.32
568.287	14083.29
568.648	14064.31
569.01	14138.65
569.372	14228.14
569.734	14134.81
570.095	14246.45
570.457	14412.77
570.819	14365.54
571.18	14405.99
571.542	14516.95
571.903	14454.13
572.265	14576.16
572.626	14501.13
572.987	14600.34
573.349	14653.67
573.71	14744.29
574.071	14671.52
574.432	14818.64
574.794	14909.71
575.155	14897.73
575.516	14879.88
575.877	14934.11
576.238	14906.54
576.599	15130.49
576.96	15004.62
577.32	15119.64
577.681	15151.06
578.042	15200.55
578.403	15250.26
578.763	15154.45
579.124	15170.94
579.485	15313.09
579.845	15377.04
580.206	15250.71
580.566	15329.13
580.927	15384.5
581.287	15464.95
581.648	15321.9
582.008	15480.77
582.368	15476.47
582.728	15552.4
583.089	15440.54
583.449	15456.36
583.809	15453.42
584.169	15438.73
584.529	15480.77
584.889	15594.43
585.249	15529.13
585.609	15455.46
585.969	15580.2
586.329	15648.22
586.688	15629.91
587.048	15627.2
587.408	15600.31
587.768	15577.03
588.127	15593.3
588.487	15667.88
588.846	15746.52
589.206	15601.67
589.565	15687.09
589.925	15767.09
590.284	15694.09
590.643	15721.89
591.003	15800.08
591.362	15940.41
591.721	15871.04
592.08	15767.09
592.44	15872.85
592.799	15817.71
593.158	15853.86
593.517	15784.26
593.876	15835.11
594.235	15867.2
594.593	15859.29
594.952	15923.01
595.311	15911.71
595.67	15917.14
596.029	15976.35
596.387	15967.08
596.746	16027.87
597.104	15951.26
597.463	15916.46
597.822	15969.79
598.18	15957.59
598.538	15970.47
598.897	16007.98
599.255	15847.08
599.613	16164.82
599.972	16049.11
600.33	16103.57
600.688	16090.69
601.046	16047.76
601.404	16153.97
601.762	16122.56
602.12	16167.3
602.478	16180.18
602.836	16232.38
603.194	16069.22
603.552	16131.37
603.91	16198.71
604.268	16192.61
604.625	16226.73
604.983	16305.15
605.341	16157.58
605.698	16234.19
606.056	16272.83
606.413	16257.24
606.771	16255.89
607.128	16389.22
607.485	16245.26
607.843	16238.94
608.2	16348.54
608.557	16359.16
608.914	16359.61
609.272	16476.45
609.629	16495.43
609.986	16589.44
610.343	16416.11
610.7	16524.13
611.057	16586.95
611.414	16541.3
611.771	16623.33
612.127	16594.63
612.484	16676.89
612.841	16639.15
613.198	16584.47
613.554	16646.84
613.911	16750.79
614.267	16685.25
614.624	16761.86
614.98	16694.29
615.337	16871.01
615.693	16865.59
616.05	16792.14
616.406	16889.32
616.762	16894.74
617.118	16935.87
617.475	16848.86
617.831	16889.54
618.187	17006.15
618.543	16898.58
618.899	17112.36
619.255	16981.52
619.611	17043.66
619.967	17089.54
620.323	17085.02
620.678	17015.41
621.034	17013.83
621.39	17126.37
621.746	17074.17
622.101	17193.04
622.457	17055.87
622.812	17239.59
623.168	17212.92
623.523	17277.78
623.879	17317.55
624.234	17213.6
624.589	17176.99
624.945	17221.96
625.3	17220.83
625.655	17387.61
626.01	17279.59
626.365	17286.14
626.72	17295.18
627.075	17245.69
627.43	17354.39
627.785	17359.13
628.14	17378.34
628.495	17404.78
628.85	17369.53
629.205	17318.46
629.559	17532.01
629.914	17400.71
630.269	17489.53
630.623	17419.02
630.978	17516.64
631.332	17495.4
631.687	17590.54
632.041	17479.36
632.396	17661.72
632.75	17420.6
633.104	17609.3
633.459	17513.03
633.813	17525.46
634.167	17478
634.521	17394.39
634.875	17573.14
635.229	17541.5
635.583	17447.72
635.937	17491.11
636.291	17444.1
636.645	17529.3
636.999	17508.28
637.352	17519.13
637.706	17544.67
638.06	17640.71
638.413	17562.29
638.767	17435.06
639.121	17664.89
639.474	17504.21
639.828	17565.68
640.181	17560.94
640.534	17620.14
640.888	17619.92
641.241	17554.16
641.594	17570.88
641.947	17735.62
642.301	17650.2
642.654	17677.32
643.007	17607.26
643.36	17659.01
643.713	17586.02
644.066	17706.7
644.419	17654.72
644.771	17529.3
645.124	17434.39
645.477	17386.48
645.83	17278.46
646.182	17255.18
646.535	17208.63
646.888	17250.66
647.24	17145.35
647.593	17279.81
647.945	17381.96
648.298	17214.96
648.65	17174.51
649.002	17169.99
649.355	17330.89
649.707	17351.22
650.059	17405.69
650.411	17577.89
650.763	17656.3
651.115	17865.34
651.467	17783.76
651.819	17820.36
652.171	17770.87
652.523	17823.3
652.875	17826.01
653.227	17800.7
653.578	17969.51
653.93	17901.49
654.282	17853.58
654.633	17739.24
654.985	17883.19
655.337	17933.13
655.688	17923.64
656.039	17936.07
656.391	17885.45
656.742	17891.32
657.094	17955.28
657.445	17978.1
657.796	18061.04
658.147	17921.83
658.498	17939.68
658.849	17964.09
659.2	17901.49
659.551	17894.49
659.902	17976.29
660.253	17934.94
660.604	17898.33
660.955	17951.43
661.306	18004.09
661.656	18022.39
662.007	17961.38
662.358	18005.44
662.708	18028.95
663.059	18010.64
663.409	17939.23
663.76	18023.75
664.11	17939.46
664.461	18089.51
664.811	17966.12
665.161	17983.07
665.511	17918.67
665.862	17996.63
666.212	17973.13
666.562	17954.82
666.912	17981.72
667.262	18081.15
667.612	17964.54
667.962	18002.96
668.312	17985.11
668.662	18002.96
669.011	17986.69
669.361	18053.35
669.711	17988.95
670.06	17888.16
670.41	17898.33
670.76	17795.51
671.109	17802.06
671.459	17810.2
671.808	17754.6
672.157	17733.81
672.507	17649.3
672.856	17602.74
673.205	17665.34
673.554	17757.77
673.904	17563.2
674.253	17650.43
674.602	17763.42
674.951	17329.08
675.3	17326.14
675.649	17505.34
675.998	17501.5
676.346	17553.71
676.695	17486.36
677.044	17315.07
677.393	17512.12
677.741	17343.54
678.09	17386.48
678.438	17292.92
678.787	17363.65
679.135	17358.46
679.484	17256.54
679.832	17362.07
680.181	17157.78
680.529	17143.77
680.877	17115.07
681.225	17136.54
681.573	17201.4
681.922	17095.41
682.27	17037.33
682.618	16962.53
682.966	16969.99
683.314	16974.74
683.661	16956.43
684.009	16759.38
684.357	16758.25
684.705	16732.26
685.053	16698.59
685.4	16834.18
685.748	16696.33
686.095	16683.67
686.443	16628.31
686.79	16572.94
687.138	16697.91
687.485	16581.75
687.832	16473.51
688.18	16623.79
688.527	16453.4
688.874	16397.58
689.221	16431.7
689.568	16362.1
689.915	16387.86
690.262	16378.82
690.609	16297.92
690.956	16252.27
691.303	16318.71
691.65	16167.98
691.997	16092.5
692.344	16137.25
692.69	16207.98
693.037	16094.31
693.383	16037.59
693.73	16052.28
694.077	16012.28
694.423	15953.3
694.769	15910.13
695.116	15943.8
695.462	15946.52
695.808	15956.46
696.155	15951.49
696.501	15795.11
696.847	15866.52
697.193	15642.79
697.539	15793.53
697.885	15648.67
698.231	15728.22
698.577	15671.72
698.923	15679.4
699.269	15653.42
699.614	15534.1
699.96	15595.56
700.306	15510.59
700.651	15589.91
700.997	15449.13
701.342	15475.79
701.688	15543.14
702.033	15341.56
702.379	15373.65
702.724	15455.91
703.069	15383.37
703.415	15366.87
703.76	15321.45
704.105	15302.92
704.45	15321.9
704.795	15175.01
705.14	15251.17
705.485	15143.82
705.83	15147.44
706.175	15157.61
706.52	15109.48
706.865	15081.23
707.209	15121.9
707.554	15058.63
707.899	15146.08
708.243	15027.44
708.588	14969.82
708.932	14979.76
709.277	14908.12
709.621	14954.9
709.966	14943.6
710.31	14850.95
710.654	14820.44
710.998	14886.2
711.342	14853.89
711.687	14850.95
712.031	14850.27
712.375	14803.49
712.719	14760.78
713.063	14789.48
713.407	14859.09
713.75	14823.38
714.094	14760.11
714.438	14770.28
714.782	14729.37
715.125	14608.92
715.469	14752.65
715.812	14642.6
716.156	14631.07
716.499	14566.21
716.843	14665.19
717.186	14567.57
717.53	14722.59
717.873	14664.52
718.216	14675.36
718.559	14490.28
718.902	14462.94
719.246	14551.52
719.589	14453
719.932	14421.81
720.275	14568.25
720.617	14434.01
720.96	14525.08
721.303	14479.66
721.646	14452.77
721.989	14383.84
722.331	14496.16
722.674	14415.03
723.016	14480.79
723.359	14355.15
723.701	14444.18
724.044	14372.09
724.386	14357.4
724.729	14381.59
725.071	14242.61
725.413	14320.12
725.755	14375.26
726.097	14290.97
726.439	14201.48
726.782	14225.88
727.124	14353.11
727.465	14327.58
727.807	14228.14
728.149	14254.36
728.491	14220.23
728.833	14252.1
729.175	14220.23
729.516	14241.48
729.858	14271.31
730.199	14261.81
730.541	14218.88
730.882	14234.92
731.224	14255.03
731.565	14229.72
731.906	14239.89
732.248	14190.86
732.589	14253.23
732.93	14215.26
733.271	14242.15
733.612	14180.23
733.953	14252.77
734.294	14182.72
734.635	14229.27
734.976	14253
735.317	14300.01
735.658	14311.98
735.999	14311.53
736.339	14327.58
736.68	14320.57
737.021	14369.16
737.361	14335.94
737.702	14405.31
738.042	14356.95
738.383	14368.93
738.723	14407.12
739.063	14403.51
739.404	14481.24
739.744	14475.82
740.084	14437.85
740.424	14487.35
740.764	14421.36
741.104	14557.85
741.444	14542.26
741.784	14456.61
742.124	14609.83
742.464	14598.08
742.804	14580
743.143	14524.63
743.483	14631.97
743.823	14595.14
744.162	14604.18
744.502	14589.49
744.841	14593.1
745.181	14767.11
745.52	14703.16
745.86	14769.15
746.199	14756.04
746.538	14789.03
746.877	14815.47
747.216	14843.72
747.556	14850.05
747.895	14945.19
748.234	14903.15
748.573	14957.39
748.911	14872.42
749.25	14910.61
749.589	14853.21
749.928	15015.24
750.267	15055.24
750.605	15114.22
750.944	15044.39
751.283	15137.72
751.621	15073.77
751.96	15081.91
752.298	15186.99
752.636	15154.9
752.975	15142.24
753.313	15123.71
753.651	15318.06
753.989	15143.82
754.327	15183.82
754.666	15198.96
755.004	15221.56
755.342	15331.84
755.679	15301.79
756.017	15285.97
756.355	15412.29
