Data from blue_clamp_base_FLMS001491_00005.txt Node
Date: Wed Feb 08 15:15:28 GMT 2017
User: dcchb
Spectrometer: FLMS00149
Trigger mode: 0
Integration Time (sec): 2.000000E-2
Scans to average: 10
Electric dark correction enabled: true
Nonlinearity correction enabled: false
Boxcar width: 0
XAxis mode: Wavelengths
Number of Pixels in Spectrum: 2048
>>>>>Begin Spectral Data<<<<<
341.393	2.01
341.776	2.01
342.16	2.01
342.543	-53.81
342.927	-65.79
343.31	-68.73
343.693	-72.57
344.077	-61.5
344.46	-66.92
344.843	-55.85
345.226	-57.43
345.61	-31.67
345.993	6.07
346.376	-18.33
346.759	11.27
347.142	25.51
347.525	55.56
347.908	60.99
348.291	74.77
348.674	93.75
349.057	105.05
349.44	144.37
349.823	141.66
350.206	177.14
350.588	194.32
350.971	219.4
351.354	212.62
351.737	242.45
352.119	237.93
352.502	260.98
352.884	251.26
353.267	290.59
353.65	287.42
354.032	283.35
354.414	304.14
354.797	295.78
355.179	324.03
355.562	308.21
355.944	327.42
356.326	326.29
356.709	334.43
357.091	354.09
357.473	333.75
357.855	329.91
358.238	331.26
358.62	340.08
359.002	332.39
359.384	344.37
359.766	331.04
360.148	319.29
360.53	342.11
360.912	327.19
361.294	346.86
361.676	326.06
362.057	318.83
362.439	342.11
362.821	335.78
363.203	322.9
363.584	323.58
363.966	341.21
364.348	314.54
364.729	348.44
365.111	329
365.493	310.02
365.874	317.93
366.256	311.38
366.637	311.15
367.019	312.73
367.4	313.86
367.781	316.35
368.163	318.61
368.544	314.09
368.925	313.64
369.306	318.38
369.688	303.24
370.069	307.53
370.45	303.01
370.831	321.55
371.212	317.93
371.593	314.54
371.974	298.72
372.355	300.08
372.736	327.42
373.117	301.88
373.498	308.66
373.879	325.39
374.26	319.74
374.641	314.54
375.021	311.6
375.402	328.32
375.783	340.98
376.163	330.58
376.544	324.48
376.925	318.38
377.305	308.66
377.686	337.82
378.066	344.82
378.447	327.42
378.827	318.16
379.208	328.78
379.588	355.22
379.968	345.05
380.349	351.37
380.729	353.18
381.109	330.13
381.489	336.23
381.87	337.59
382.25	345.95
382.63	340.53
383.01	331.71
383.39	319.29
383.77	332.17
384.15	371.26
384.53	346.63
384.91	335.56
385.29	343.92
385.67	349.57
386.049	352.73
386.429	357.25
386.809	347.31
387.189	363.13
387.568	360.41
387.948	388.89
388.328	372.62
388.707	370.13
389.087	366.29
389.466	367.42
389.846	363.13
390.225	385.72
390.605	357.93
390.984	372.17
391.363	388.66
391.743	383.69
392.122	388.89
392.501	384.37
392.881	385.27
393.26	397.93
393.639	405.16
394.018	393.86
394.397	413.97
394.776	400.64
395.155	427.98
395.534	410.36
395.913	427.08
396.292	420.75
396.671	426.63
397.05	438.6
397.429	441.54
397.808	438.15
398.186	454.88
398.565	450.58
398.944	449.68
399.323	439.73
399.701	470.24
400.08	467.76
400.458	473.18
400.837	477.02
401.215	463.01
401.594	470.47
401.972	462.78
402.351	491.26
402.729	487.87
403.107	509.34
403.486	516.34
403.864	493.97
404.242	504.59
404.62	495.78
404.999	512.95
405.377	530.81
405.755	511.6
406.133	540.75
406.511	531.94
406.889	528.77
407.267	546.17
407.645	556.57
408.023	567.87
408.401	565.83
408.779	583.01
409.156	582.56
409.534	586.85
409.912	583.01
410.29	600.41
410.667	590.46
411.045	602.67
411.422	609.67
411.8	610.8
412.178	618.94
412.555	614.87
412.933	653.29
413.31	663.91
413.687	663.91
414.065	663.46
414.442	659.16
414.819	668.2
415.197	684.7
415.574	683.8
415.951	703.46
416.328	708.43
416.705	710.24
417.082	699.39
417.46	704.36
417.837	749.56
418.214	729.44
418.591	740.07
418.967	719.5
419.344	736
419.721	754.53
420.098	757.47
420.475	786.84
420.852	781.65
421.228	799.5
421.605	776.67
421.982	794.75
422.358	811.48
422.735	792.04
423.111	831.36
423.488	819.84
423.864	833.17
424.241	845.6
424.617	847.18
424.994	855.32
425.37	862.77
425.746	875.88
426.123	898.48
426.499	872.04
426.875	909.78
427.251	909.1
427.627	916.33
428.003	933.73
428.379	950
428.756	956.1
429.132	940.96
429.507	978.03
429.883	999.04
430.259	1012.83
430.635	1024.8
431.011	1035.42
431.387	1030.45
431.763	1050.57
432.138	1054.41
432.514	1094.41
432.89	1061.86
433.265	1123.11
433.641	1138.47
434.016	1139.6
434.392	1150.45
434.767	1150.45
435.143	1181.86
435.518	1188.42
435.894	1194.06
436.269	1231.58
436.644	1214.63
437.02	1238.36
437.395	1252.37
437.77	1262.76
438.145	1268.19
438.52	1276.32
438.895	1295.98
439.271	1334.85
439.646	1333.27
440.021	1371.24
440.395	1326.94
440.77	1351.57
441.145	1368.07
441.52	1418.24
441.895	1385.47
442.27	1407.84
442.645	1429.31
443.019	1433.83
443.394	1439.71
443.769	1461.63
444.143	1466.37
444.518	1481.51
444.892	1499.14
445.267	1491.91
445.641	1532.13
446.016	1499.37
446.39	1550.67
446.764	1562.87
447.139	1541.85
447.513	1561.74
447.887	1565.58
448.262	1576.2
448.636	1606.03
449.01	1622.75
449.384	1647.39
449.758	1640.15
450.132	1653.26
450.506	1671.34
450.88	1674.73
451.254	1637.44
451.628	1690.1
452.002	1736.65
452.376	1737.33
452.75	1739.81
453.123	1774.84
453.497	1771.9
453.871	1811
454.244	1828.4
454.618	1848.06
454.992	1873.82
455.365	1855.29
455.739	1936.42
456.112	1917.21
456.486	1954.72
456.859	1942.97
457.232	1969.86
457.606	1987.49
457.979	2021.39
458.352	2025
458.725	2070.43
459.099	2111.33
459.472	2130.54
459.845	2145.68
460.218	2158.11
460.591	2174.83
460.964	2196.07
461.337	2241.04
461.71	2263.64
462.083	2273.13
462.456	2263.19
462.829	2271.78
463.201	2316.3
463.574	2362.17
463.947	2389.29
464.32	2442.85
464.692	2417.99
465.065	2453.01
465.438	2462.96
465.81	2491.88
466.183	2536.18
466.555	2601.94
466.928	2592.22
467.3	2569.4
467.672	2618.89
468.045	2689.39
468.417	2656.4
468.789	2697.3
469.161	2723.29
469.534	2773.91
469.906	2819.11
470.278	2836.28
470.65	2852.78
471.022	2896.62
471.394	2948.82
471.766	2982.49
472.138	3027.69
472.51	3067.01
472.882	3087.57
473.253	3123.51
473.625	3166.22
473.997	3177.52
474.369	3232.88
474.74	3254.35
475.112	3302.94
475.484	3375.02
475.855	3383.16
476.227	3445.76
476.598	3497.05
476.97	3506.55
477.341	3585.87
477.713	3641.91
478.084	3662.47
478.455	3697.95
478.827	3754.22
479.198	3823.83
479.569	3818.18
479.94	3904.5
480.311	3918.96
480.682	4024.05
481.053	4085.51
481.424	4135.91
481.795	4180.88
482.166	4258.39
482.537	4238.96
482.908	4325.73
483.279	4335
483.65	4367.09
484.021	4475.33
484.391	4483.02
484.762	4533.64
485.133	4579.74
485.503	4661.09
485.874	4656.8
486.244	4713.52
486.615	4785.83
486.985	4790.13
487.356	4823.35
487.726	4881.65
488.097	4951.48
488.467	4990.35
488.837	5072.61
489.207	5096.11
489.578	5113.51
489.948	5191.7
490.318	5208.65
490.688	5222.43
491.058	5240.74
491.428	5313.96
491.798	5377.23
492.168	5415.42
492.538	5471.24
492.908	5462.65
493.278	5496.78
493.648	5565.93
494.017	5563.44
494.387	5597.56
494.757	5633.27
495.126	5603.89
495.496	5640.95
495.866	5645.02
496.235	5699.26
496.605	5764.11
496.974	5729.31
497.344	5801.85
497.713	5845.02
498.082	5780.38
498.452	5837.11
498.821	5855.19
499.19	5842.76
499.559	5913.49
499.928	5891.12
500.298	5944.9
500.667	5958.69
501.036	5916.2
501.405	5970.44
501.774	5996.42
502.143	6038.23
502.512	6028.29
502.88	5999.81
503.249	6057.89
503.618	6040.04
503.987	6103.31
504.356	6073.03
504.724	6174.05
505.093	6118
505.462	6176.98
505.83	6205.01
506.199	6199.13
506.567	6305.79
506.936	6259.47
507.304	6238
507.672	6340.14
508.041	6311.9
508.409	6312.57
508.777	6376.3
509.145	6415.85
509.514	6376.53
509.882	6399.13
510.25	6352.8
510.618	6465.34
510.986	6477.32
511.354	6486.81
511.722	6546.24
512.09	6563.87
512.458	6565.9
512.826	6560.03
513.193	6563.64
513.561	6566.58
513.929	6609.29
514.297	6612
514.664	6612.68
515.032	6651.32
515.4	6684.99
515.767	6699.46
516.135	6696.29
516.502	6682.28
516.869	6745.11
517.237	6752.79
517.604	6708.27
517.972	6854.71
518.339	6846.57
518.706	6889.06
519.073	6827.81
519.44	6825.33
519.808	6884.76
520.175	6878.66
520.542	6960.69
520.909	6935.16
521.276	7008.83
521.643	7023.29
522.009	7039.79
522.376	7036.17
522.743	7068.26
523.11	7084.08
523.477	7117.75
523.843	7149.16
524.21	7197.3
524.577	7268.93
524.943	7275.71
525.31	7301.02
525.676	7323.85
526.043	7321.14
526.409	7361.81
526.776	7454.69
527.142	7412.43
527.508	7468.7
527.874	7469.38
528.241	7517.29
528.607	7472.54
528.973	7576.5
529.339	7550.06
529.705	7609.49
530.071	7679.09
530.437	7651.07
530.803	7716.61
531.169	7746.66
531.535	7690.84
531.901	7834.79
532.267	7755.47
532.632	7806.55
532.998	7844.74
533.364	7841.8
533.73	7889.71
534.095	7910.05
534.461	7940.78
534.826	7973.77
535.192	8035.01
535.557	8022.59
535.923	8052.42
536.288	8081.57
536.653	8119.31
537.019	8035.47
537.384	8093.54
537.749	8112.3
538.114	8087.89
538.479	8088.57
538.845	8158.85
539.21	8103.94
539.575	8216.25
539.94	8164.5
540.305	8248.12
540.67	8256.48
541.034	8255.57
541.399	8332.41
541.764	8319.75
542.129	8303.71
542.494	8275.46
542.858	8405.17
543.223	8348
543.587	8471.61
543.952	8422.35
544.316	8402.46
544.681	8378.06
545.045	8442.46
545.41	8525.62
545.774	8481.33
546.138	8418.73
546.503	8482.01
546.867	8540.76
547.231	8589.8
547.595	8593.87
547.959	8550.03
548.324	8616.24
548.688	8626.64
549.052	8678.39
549.416	8592.97
549.779	8631.61
550.143	8676.58
550.507	8746.86
550.871	8764.49
551.235	8747.76
551.599	8755.45
551.962	8760.87
552.326	8743.92
552.689	8816.92
553.053	8748.89
553.417	8790.48
553.78	8878.16
554.143	8798.16
554.507	8866.86
554.87	8944.14
555.234	8917.03
555.597	8897.59
555.96	8905.27
556.323	8919.74
556.686	8950.47
557.05	9001.77
557.413	8964.93
557.776	8964.26
558.139	9017.14
558.502	9025.05
558.865	8986.4
559.228	9130.35
559.59	9094.87
559.953	9092.16
560.316	9143.01
560.679	9178.49
561.041	9213.97
561.404	9300.07
561.767	9315.66
562.129	9231.82
562.492	9347.52
562.854	9284.25
563.217	9282.44
563.579	9338.94
563.941	9361.99
564.304	9412.61
564.666	9482.21
565.028	9575.54
565.39	9476.78
565.753	9485.6
566.115	9534.64
566.477	9612.83
566.839	9584.35
567.201	9614.86
567.563	9593.62
567.925	9739.83
568.287	9730.79
568.648	9714.52
569.01	9790.67
569.372	9820.96
569.734	9744.12
570.095	9858.47
570.457	9925.13
570.819	9923.55
571.18	9915.64
571.542	9993.83
571.903	9966.72
572.265	10033.61
572.626	10012.36
572.987	10087.62
573.349	10117.67
573.71	10180.27
574.071	10113.83
574.432	10224.34
574.794	10265.69
575.155	10261.62
575.516	10222.75
575.877	10270.44
576.238	10239.93
576.599	10262.98
576.96	10286.93
577.32	10338.91
577.681	10298.68
578.042	10391.56
578.403	10311.34
578.763	10388.85
579.124	10403.99
579.485	10517.21
579.845	10526.93
580.206	10464.33
580.566	10457.55
580.927	10492.58
581.287	10538
581.648	10486.25
582.008	10590.88
582.368	10566.02
582.728	10609.86
583.089	10573.71
583.449	10578
583.809	10611.9
584.169	10598.56
584.529	10568.73
584.889	10655.28
585.249	10598.11
585.609	10664.1
585.969	10686.02
586.329	10622.97
586.688	10708.16
587.048	10648.96
587.408	10619.58
587.768	10695.96
588.127	10725.34
588.487	10650.99
588.846	10734.15
589.206	10650.54
589.565	10750.65
589.925	10756.98
590.284	10694.83
590.643	10752.46
591.003	10779.35
591.362	10797.65
591.721	10740.71
592.08	10753.59
592.44	10837.43
592.799	10793.36
593.158	10786.13
593.517	10806.92
593.876	10852.57
594.235	10792
594.593	10766.92
594.952	10805.11
595.311	10812.57
595.67	10843.08
596.029	10833.13
596.387	10861.83
596.746	10901.15
597.104	10842.85
597.463	10789.97
597.822	10939.12
598.18	10830.42
598.538	10863.87
598.897	10898.89
599.255	10753.36
599.613	10906.35
599.972	10959.68
600.33	10909.52
600.688	10972.56
601.046	11015.73
601.404	10972.56
601.762	10960.59
602.12	11043.3
602.478	11054.37
602.836	11013.47
603.194	10948.16
603.552	10989.74
603.91	10934.37
604.268	11041.94
604.625	11052.56
604.983	10989.29
605.341	10952.9
605.698	11034.71
606.056	11067.48
606.413	11054.37
606.771	11030.19
607.128	11024.54
607.485	10996.29
607.843	11041.26
608.2	11138.44
608.557	11114.93
608.914	11112.9
609.272	11145.67
609.629	11168.27
609.986	11146.35
610.343	11194.71
610.7	11187.02
611.057	11157.87
611.414	11180.24
611.771	11266.12
612.127	11246.91
612.484	11195.61
612.841	11246
613.198	11244.42
613.554	11250.98
613.911	11355.15
614.267	11302.5
614.624	11360.58
614.98	11358.32
615.337	11409.16
615.693	11356.28
616.05	11342.05
616.406	11428.15
616.762	11391.08
617.118	11364.19
617.475	11395.38
617.831	11328.49
618.187	11423.63
618.543	11474.7
618.899	11499.1
619.255	11434.7
619.611	11466.34
619.967	11437.86
620.323	11500.69
620.678	11487.35
621.034	11485.55
621.39	11583.17
621.746	11481.48
622.101	11644.64
622.457	11521.7
622.812	11533.68
623.168	11648.93
623.523	11528.48
623.879	11663.85
624.234	11485.32
624.589	11542.72
624.945	11553.11
625.3	11645.54
625.655	11627.46
626.01	11658.2
626.365	11660.46
626.72	11649.16
627.075	11680.34
627.43	11679.44
627.785	11583.62
628.14	11677.86
628.495	11689.83
628.85	11721.47
629.205	11588.59
629.559	11706.33
629.914	11785.88
630.269	11773.67
630.623	11788.81
630.978	11776.61
631.332	11892.99
631.687	11787.68
632.041	11783.16
632.396	11824.97
632.75	11800.34
633.104	11815.93
633.459	11833.56
633.813	11773.9
634.167	11779.1
634.521	11886.66
634.875	11846.89
635.229	11841.92
635.583	11845.99
635.937	11828.59
636.291	11838.76
636.645	11826.1
636.999	11843.05
637.352	11912.65
637.706	11899.09
638.06	11915.36
638.413	11852.99
638.767	11965.53
639.121	11855.03
639.474	11959.66
639.828	11984.97
640.181	11919.88
640.534	12023.61
640.888	11965.08
641.241	11881.69
641.594	11990.39
641.947	11975.02
642.301	11933.9
642.654	11940.67
643.007	12055.7
643.36	12019.99
643.713	11992.2
644.066	12043.95
644.419	12039.43
644.771	12024.06
645.124	11874.24
645.477	11925.76
645.83	11886.66
646.182	11889.83
646.535	11785.42
646.888	11769.38
647.24	11745.65
647.593	11890.73
647.945	11830.4
648.298	11720.12
648.65	11770.06
649.002	11769.83
649.355	11862.94
649.707	11881.24
650.059	11891.41
650.411	12143.38
650.763	12149.48
651.115	12300.44
651.467	12255.47
651.819	12237.84
652.171	12283.49
652.523	12241.23
652.875	12260.67
653.227	12205.07
653.578	12338.18
653.93	12354.22
654.282	12294.56
654.633	12302.25
654.985	12332.3
655.337	12320.1
655.688	12323.26
656.039	12415.24
656.391	12419.53
656.742	12471.06
657.094	12377.5
657.445	12390.15
657.796	12498.63
658.147	12354.22
658.498	12383.6
658.849	12490.04
659.2	12444.39
659.551	12436.03
659.902	12521
660.253	12467.21
660.604	12492.52
660.955	12436.93
661.306	12427.89
661.656	12359.87
662.007	12433.09
662.358	12539.53
662.708	12521.9
663.059	12529.13
663.409	12345.64
663.76	12470.83
664.11	12582.69
664.461	12565.52
664.811	12536.82
665.161	12542.01
665.511	12554.22
665.862	12540.43
666.212	12511.96
666.562	12547.44
666.912	12515.57
667.262	12589.02
667.612	12494.33
667.962	12525.52
668.312	12474.22
668.662	12532.07
669.011	12495.46
669.361	12504.28
669.711	12440.55
670.06	12484.62
670.41	12404.84
670.76	12384.05
671.109	12422.7
671.459	12418.18
671.808	12346.99
672.157	12397.16
672.507	12245.07
672.856	12296.6
673.205	12307.44
673.554	12390.15
673.904	12219.99
674.253	12283.49
674.602	12228.8
674.951	12052.31
675.3	12014.8
675.649	12215.7
675.998	12158.3
676.346	12148.58
676.695	12188.8
677.044	12021.58
677.393	12148.58
677.741	12085.08
678.09	12017.73
678.438	12018.19
678.787	11976.15
679.135	12013.89
679.484	11914.23
679.832	11934.8
680.181	11836.5
680.529	11887.79
680.877	11820
681.225	11777.29
681.573	11797.4
681.922	11775.48
682.27	11785.88
682.618	11776.84
682.966	11667.69
683.314	11676.95
683.661	11739.55
684.009	11522.83
684.357	11520.35
684.705	11587.69
685.053	11570.74
685.4	11550.18
685.748	11517.18
686.095	11500.91
686.443	11561.7
686.79	11454.36
687.138	11398.54
687.485	11448.48
687.832	11401.03
688.18	11444.42
688.527	11370.97
688.874	11368.26
689.221	11328.49
689.568	11326
689.915	11335.72
690.262	11286.68
690.609	11279.45
690.956	11269.73
691.303	11253.24
691.65	11217.98
691.997	11217.08
692.344	11183.86
692.69	11176.18
693.037	11115.16
693.383	10985.45
693.73	11141.6
694.077	11021.38
694.423	11125.55
694.769	11000.59
695.116	11062.96
695.462	11055.95
695.808	10921.49
696.155	10986.12
696.501	10958.1
696.847	10967.59
697.193	10779.58
697.539	10903.19
697.885	10794.94
698.231	10791.1
698.577	10837.65
698.923	10821.83
699.269	10796.52
699.614	10779.12
699.96	10785.45
700.306	10783.19
700.651	10696.41
700.997	10660.03
701.342	10745.68
701.688	10707.26
702.033	10656.41
702.379	10658.22
702.724	10614.83
703.069	10636.98
703.415	10541.16
703.76	10613.03
704.105	10677.88
704.45	10613.48
704.795	10555.17
705.14	10503.42
705.485	10570.54
705.83	10505.23
706.175	10461.17
706.52	10517.89
706.865	10516.31
707.209	10488.06
707.554	10417.1
707.899	10512.46
708.243	10473.37
708.588	10390.88
708.932	10402.86
709.277	10422.3
709.621	10436.76
709.966	10357.89
710.31	10391.34
710.654	10350.43
710.998	10321.51
711.342	10377.55
711.687	10320.83
712.031	10368.96
712.375	10369.42
712.719	10287.16
713.063	10301.62
713.407	10406.25
713.75	10303.2
714.094	10334.84
714.438	10258.01
714.782	10356.99
715.125	10286.25
715.469	10313.6
715.812	10295.07
716.156	10194.51
716.499	10262.98
716.843	10241.96
717.186	10234.96
717.53	10279.7
717.873	10326.71
718.216	10238.35
718.559	10272.47
718.902	10128.74
719.246	10199.7
719.589	10127.16
719.932	10124.9
720.275	10163.55
720.617	10136.2
720.96	10172.59
721.303	10164
721.646	10130.1
721.989	10135.3
722.331	10164.68
722.674	10194.73
723.016	10148.41
723.359	10205.81
723.701	10200.38
724.044	10176.43
724.386	10023.44
724.729	10141.85
725.071	10117.22
725.413	10077.22
725.755	10165.81
726.097	10156.54
726.439	10098.24
726.782	10085.81
727.124	10187.5
727.465	10056.43
727.807	10105.02
728.149	10042.19
728.491	10074.96
728.833	10095.98
729.175	10107.05
729.516	10060.95
729.858	10101.63
730.199	10125.81
730.541	10141.63
730.882	10118.58
731.224	10201.06
731.565	10126.26
731.906	10224.56
732.248	10161.29
732.589	10104.11
732.93	10122.19
733.271	10200.83
733.612	10189.99
733.953	10222.75
734.294	10137.56
734.635	10227.27
734.976	10215.52
735.317	10222.75
735.658	10267.05
735.999	10221.62
736.339	10232.47
736.68	10265.69
737.021	10258.69
737.361	10192.02
737.702	10326.25
738.042	10336.65
738.383	10320.83
738.723	10392.24
739.063	10253.26
739.404	10425.69
739.744	10385.24
740.084	10396.08
740.424	10388.63
740.764	10427.49
741.104	10413.71
741.444	10488.06
741.784	10479.24
742.124	10552.24
742.464	10558.34
742.804	10535.06
743.143	10573.25
743.483	10616.87
743.823	10632.69
744.162	10622.52
744.502	10708.84
744.841	10608.28
745.181	10666.36
745.52	10718.56
745.86	10722.85
746.199	10761.72
746.538	10768.73
746.877	10812.79
747.216	10896.18
747.556	10865.22
747.895	10906.35
748.234	10913.36
748.573	10914.04
748.911	10915.39
749.25	11026.35
749.589	10919.23
749.928	11010.53
750.267	11101.83
750.605	11153.35
750.944	11153.35
751.283	11149.06
751.621	11182.05
751.96	11057.99
752.298	11210.07
752.636	11213.24
752.975	11235.61
753.313	11258.66
753.651	11329.39
753.989	11288.26
754.327	11379.56
754.666	11347.24
755.004	11433.12
755.342	11488.48
755.679	11517.41
756.017	11475.38
756.355	11508.82
756.693	11517.86
757.031	11526.67
757.368	11437.64
757.706	11509.73
758.044	11571.19
758.381	11583.85
758.719	11577.75
759.056	11559.22
