Data from blue_surface_keyboard_FLMS001491_042.txt Node
Date: Tue Feb 07 11:13:09 GMT 2017
User: dcchb
Spectrometer: FLMS00149
Trigger mode: 0
Integration Time (sec): 2.000000E-2
Scans to average: 10
Electric dark correction enabled: true
Nonlinearity correction enabled: false
Boxcar width: 0
XAxis mode: Wavelengths
Number of Pixels in Spectrum: 2048
>>>>>Begin Spectral Data<<<<<
341.393	-1.99
341.776	-1.99
342.16	-1.99
342.543	-34.08
342.927	-63.01
343.31	-59.39
343.693	-84.02
344.077	-70.69
344.46	-54.19
344.843	-45.61
345.226	-43.12
345.61	-26.85
345.993	-6.96
346.376	-9
346.759	19.25
347.142	40.95
347.525	32.58
347.908	59.02
348.291	50.44
348.674	93.37
349.057	104.22
349.44	128.17
349.823	152.81
350.206	155.97
350.588	183.54
350.971	210.21
351.354	213.14
351.737	218.34
352.119	219.02
352.502	251.34
352.884	250.21
353.267	277.55
353.65	270.77
354.032	277.78
354.414	297.21
354.797	294.05
355.179	306.02
355.562	306.93
355.944	323.65
356.326	318.23
356.709	320.03
357.091	303.99
357.473	309.64
357.855	319.58
358.238	326.14
358.62	335.17
359.002	322.07
359.384	335.85
359.766	329.75
360.148	320.49
360.53	326.14
360.912	294.05
361.294	306.25
361.676	309.86
362.057	294.72
362.439	315.06
362.821	319.36
363.203	310.77
363.584	308.51
363.966	310.77
364.348	324.78
364.729	300.15
365.111	299.24
365.493	318
365.874	283.42
366.256	303.31
366.637	289.3
367.019	295.85
367.4	304.89
367.781	287.72
368.163	293.37
368.544	271.9
368.925	289.98
369.306	307.83
369.688	297.66
370.069	280.71
370.45	285.01
370.831	318.45
371.212	303.76
371.593	295.4
371.974	261.05
372.355	288.85
372.736	300.15
373.117	292.24
373.498	299.92
373.879	283.88
374.26	274.84
374.641	287.49
375.021	270.09
375.402	307.15
375.783	270.54
376.163	290.88
376.544	298.11
376.925	286.59
377.305	317.32
377.686	314.61
378.066	293.82
378.447	311.22
378.827	296.76
379.208	293.37
379.588	285.68
379.968	310.54
380.349	313.71
380.729	295.18
381.109	277.78
381.489	305.12
381.87	317.55
382.25	309.19
382.63	327.04
383.01	331.11
383.39	340.6
383.77	312.58
384.15	301.73
384.53	324.1
384.91	298.79
385.29	306.25
385.67	327.49
386.049	336.08
386.429	326.81
386.809	312.12
387.189	313.03
387.568	320.03
387.948	300.37
388.328	323.88
388.707	334.04
389.087	325.46
389.466	322.97
389.846	323.65
390.225	330.66
390.605	341.5
390.984	344.67
391.363	328.17
391.743	314.84
392.122	323.65
392.501	318.23
392.881	357.77
393.26	316.19
393.639	317.77
394.018	330.66
394.397	328.4
394.776	328.85
395.155	331.79
395.534	334.95
395.913	320.94
396.292	339.02
396.671	333.14
397.05	329.53
397.429	351.45
397.808	320.03
398.186	341.28
398.565	342.41
398.944	339.92
399.323	338.34
399.701	336.98
400.08	337.21
400.458	329.75
400.837	344.89
401.215	343.08
401.594	343.31
401.972	358
402.351	339.02
402.729	341.28
403.107	351.45
403.486	344.67
403.864	342.41
404.242	343.31
404.62	366.13
404.999	357.1
405.377	348.06
405.755	357.77
406.133	374.27
406.511	359.81
406.889	348.96
407.267	353.03
407.645	368.17
408.023	349.41
408.401	356.19
408.779	365.68
409.156	381.73
409.534	372.01
409.912	354.38
410.29	383.76
410.667	353.03
411.045	391.22
411.422	391.67
411.8	357.77
412.178	369.52
412.555	373.82
412.933	360.03
413.31	368.17
413.687	386.7
414.065	390.31
414.442	381.05
414.819	390.99
415.197	398.45
415.574	384.21
415.951	384.89
416.328	395.06
416.705	395.96
417.082	402.97
417.46	377.21
417.837	383.76
418.214	381.95
418.591	424.21
418.967	396.87
419.344	403.42
419.721	398.9
420.098	410.65
420.475	402.29
420.852	394.83
421.228	408.62
421.605	394.61
421.982	402.07
422.358	412.69
422.735	404.78
423.111	424.66
423.488	426.7
423.864	426.25
424.241	428.73
424.617	422.4
424.994	428.05
425.37	406.81
425.746	402.52
426.123	418.56
426.499	412.46
426.875	417.66
427.251	453.36
427.627	447.71
428.003	437.54
428.379	459.47
428.756	434.16
429.132	429.86
429.507	437.32
429.883	440.71
430.259	422.18
430.635	458.34
431.011	462.63
431.387	440.26
431.763	465.11
432.138	439.58
432.514	466.92
432.89	463.53
433.265	488.62
433.641	454.04
434.016	482.29
434.392	480.93
434.767	488.39
435.143	495.62
435.518	484.1
435.894	484.55
436.269	512.57
436.644	500.14
437.02	493.59
437.395	501.27
437.77	474.15
438.145	483.87
438.52	495.85
438.895	494.27
439.271	476.19
439.646	495.85
440.021	500.37
440.395	514.83
440.77	494.49
441.145	500.59
441.52	513.25
441.895	511.89
442.27	526.36
442.645	507.6
443.019	544.66
443.394	503.31
443.769	532.01
444.143	519.58
444.518	535.85
444.892	535.85
445.267	522.97
445.641	513.93
446.016	542.63
446.39	545.34
446.764	528.84
447.139	531.78
447.513	546.92
447.887	544.21
448.262	554.38
448.636	537.66
449.01	569.07
449.384	547.6
449.758	543.08
450.132	570.65
450.506	553.25
450.88	568.84
451.254	554.83
451.628	563.64
452.002	587.6
452.376	583.3
452.75	579.01
453.123	572
453.497	579.69
453.871	587.37
454.244	589.41
454.618	588.73
454.992	594.38
455.365	599.8
455.739	580.59
456.112	622.85
456.486	601.16
456.859	593.25
457.232	618.33
457.606	626.47
457.979	624.66
458.352	633.02
458.725	610.42
459.099	624.21
459.472	629.63
459.845	632.79
460.218	637.99
460.591	650.87
460.964	660.36
461.337	667.82
461.71	671.66
462.083	686.8
462.456	688.61
462.829	664.43
463.201	668.27
463.574	677.99
463.947	687.48
464.32	701.49
464.692	706.01
465.065	687.93
465.438	693.36
465.81	694.26
466.183	708.95
466.555	715.73
466.928	717.99
467.3	737.2
467.672	720.7
468.045	748.27
468.417	740.59
468.789	738.1
469.161	743.98
469.534	761.6
469.906	756.63
470.278	745.11
470.65	761.6
471.022	790.53
471.394	782.39
471.766	793.02
472.138	785.11
472.51	789.85
472.882	786.01
473.253	806.35
473.625	850.19
473.997	836.63
474.369	850.87
474.74	840.47
475.112	832.79
475.484	844.54
475.855	858.32
476.227	889.51
476.598	893.8
476.97	909.62
477.341	880.7
477.713	912.33
478.084	916.63
478.455	927.25
478.827	937.42
479.198	944.2
479.569	946.23
479.94	928.61
480.311	954.59
480.682	991.88
481.053	961.6
481.424	1005.21
481.795	980.13
482.166	1028.72
482.537	1009.06
482.908	1004.08
483.279	1026.68
483.65	1046.34
484.021	1047.02
484.391	1046.57
484.762	1072.1
485.133	1062.39
485.503	1064.65
485.874	1096.96
486.244	1098.09
486.615	1123.18
486.985	1145.55
487.356	1157.53
487.726	1143.06
488.097	1134.7
488.467	1145.32
488.837	1151.2
489.207	1191.88
489.578	1178.77
489.948	1177.41
490.318	1189.84
490.688	1200.24
491.058	1194.59
491.428	1213.8
491.798	1216.51
492.168	1240.69
492.538	1236.62
492.908	1239.33
493.278	1227.58
493.648	1231.65
494.017	1258.77
494.387	1253.79
494.757	1270.74
495.126	1312.78
495.496	1287.92
495.866	1299.44
496.235	1284.08
496.605	1310.29
496.974	1309.39
497.344	1297.41
497.713	1305.32
498.082	1302.61
498.452	1315.49
498.821	1322.72
499.19	1331.08
499.559	1336.5
499.928	1325.21
500.298	1341.93
500.667	1346.22
501.036	1312.78
501.405	1338.76
501.774	1346
502.143	1351.42
502.512	1356.84
502.88	1348.93
503.249	1360.68
503.618	1362.49
503.987	1363.4
504.356	1372.44
504.724	1340.8
505.093	1351.42
505.462	1356.62
505.83	1368.59
506.199	1403.85
506.567	1385.32
506.936	1402.72
507.304	1391.64
507.672	1395.49
508.041	1420.34
508.409	1400.68
508.777	1418.99
509.145	1415.82
509.514	1399.78
509.882	1404.07
510.25	1429.38
510.618	1434.58
510.986	1432.55
511.354	1408.14
511.722	1409.95
512.09	1435.03
512.458	1427.8
512.826	1435.94
513.193	1435.26
513.561	1429.61
513.929	1429.84
514.297	1428.71
514.664	1465.54
515.032	1452.43
515.4	1457.63
515.767	1447.46
516.135	1450.85
516.502	1457.63
516.869	1499.21
517.237	1458.99
517.604	1498.76
517.972	1463.51
518.339	1469.38
518.706	1463.96
519.073	1463.05
519.44	1458.99
519.808	1509.83
520.175	1466.9
520.542	1486.33
520.909	1477.74
521.276	1487.69
521.643	1502.38
522.009	1492.21
522.376	1505.31
522.743	1502.15
523.11	1497.86
523.477	1523.62
523.843	1508.7
524.21	1546.89
524.577	1555.71
524.943	1541.92
525.31	1521.36
525.676	1529.04
526.043	1567.91
526.409	1555.26
526.776	1543.96
527.142	1590.51
527.508	1573.79
527.874	1541.92
528.241	1570.85
528.607	1591.19
528.973	1566.1
529.339	1569.72
529.705	1559.1
530.071	1579.21
530.437	1604.07
530.803	1574.92
531.169	1616.05
531.535	1571.3
531.901	1571.75
532.267	1562.26
532.632	1584.18
532.998	1605.65
533.364	1599.32
533.73	1579.66
534.095	1604.75
534.461	1606.78
534.826	1611.3
535.192	1600.9
535.557	1605.88
535.923	1595.25
536.288	1619.66
536.653	1635.03
537.019	1611.98
537.384	1622.37
537.749	1635.25
538.114	1616.72
538.479	1618.53
538.845	1630.73
539.21	1598.87
539.575	1643.61
539.94	1614.92
540.305	1602.71
540.67	1628.25
541.034	1630.28
541.399	1647
541.764	1627.57
542.129	1634.35
542.494	1644.97
542.858	1618.98
543.223	1631.86
543.587	1620.34
543.952	1591.64
544.316	1623.73
544.681	1605.2
545.045	1626.21
545.41	1644.74
545.774	1637.29
546.138	1630.06
546.503	1659.43
546.867	1641.13
547.231	1653.56
547.595	1650.85
547.959	1637.97
548.324	1633.22
548.688	1632.99
549.052	1656.95
549.416	1642.94
549.779	1606.1
550.143	1627.12
550.507	1638.19
550.871	1646.1
551.235	1642.71
551.599	1666.21
551.962	1652.65
552.326	1636.16
552.689	1647.23
553.053	1645.87
553.417	1661.69
553.78	1656.95
554.143	1696.49
554.507	1668.47
554.87	1687.91
555.234	1670.05
555.597	1646.1
555.96	1665.08
556.323	1670.51
556.686	1683.39
557.05	1657.85
557.413	1679.32
557.776	1695.59
558.139	1705.31
558.502	1666.67
558.865	1673.44
559.228	1714.57
559.59	1677.29
559.953	1690.17
560.316	1676.16
560.679	1695.37
561.041	1707.12
561.404	1683.84
561.767	1703.27
562.129	1699.88
562.492	1682.71
562.854	1704.63
563.217	1682.03
563.579	1711.86
563.941	1710.05
564.304	1711.18
564.666	1718.64
565.028	1712.54
565.39	1735.36
565.753	1724.74
566.115	1710.73
566.477	1728.36
566.839	1753.22
567.201	1746.21
567.563	1743.5
567.925	1703.95
568.287	1767.68
568.648	1731.07
569.01	1761.58
569.372	1762.26
569.734	1718.19
570.095	1755.93
570.457	1749.83
570.819	1769.04
571.18	1770.62
571.542	1776.94
571.903	1787.57
572.265	1790.96
572.626	1782.59
572.987	1800.45
573.349	1776.04
573.71	1785.98
574.071	1790.28
574.432	1815.81
574.794	1782.59
575.155	1832.99
575.516	1783.72
575.877	1824.63
576.238	1806.32
576.599	1809.94
576.96	1798.64
577.32	1817.85
577.681	1807.23
578.042	1831.63
578.403	1830.73
578.763	1831.63
579.124	1831.63
579.485	1824.18
579.845	1816.94
580.206	1845.87
580.566	1807.23
580.927	1861.91
581.287	1840.45
581.648	1847.45
582.008	1858.75
582.368	1810.16
582.728	1869.15
583.089	1847.9
583.449	1835.93
583.809	1848.13
584.169	1818.3
584.529	1844.06
584.889	1853.33
585.249	1842.48
585.609	1801.12
585.969	1856.26
586.329	1843.84
586.688	1872.08
587.048	1859.88
587.408	1862.37
587.768	1857.39
588.127	1851.97
588.487	1837.51
588.846	1863.72
589.206	1863.5
589.565	1835.47
589.925	1837.73
590.284	1867.11
590.643	1872.08
591.003	1864.85
591.362	1850.84
591.721	1852.42
592.08	1892.2
592.44	1868.02
592.799	1863.27
593.158	1884.96
593.517	1855.36
593.876	1849.71
594.235	1857.17
594.593	1868.02
594.952	1883.83
595.311	1842.71
595.67	1861.91
596.029	1832.99
596.387	1863.5
596.746	1902.82
597.104	1863.27
597.463	1873.21
597.822	1879.09
598.18	1878.86
598.538	1882.48
598.897	1945.75
599.255	1881.57
599.613	1905.75
599.972	1904.4
600.33	1900.56
600.688	1902.82
601.046	1910.05
601.404	1918.64
601.762	1865.3
602.12	1916.6
602.478	1928.58
602.836	1894
603.194	1919.99
603.552	1919.77
603.91	1912.53
604.268	1906.88
604.625	1880.44
604.983	1929.03
605.341	1931.07
605.698	1912.08
606.056	1924.74
606.413	1900.78
606.771	1926.55
607.128	1918.18
607.485	1932.87
607.843	1942.82
608.2	1942.14
608.557	1969.03
608.914	1920.67
609.272	1945.3
609.629	1929.94
609.986	1973.1
610.343	1945.75
610.7	1987.11
611.057	1973.1
611.414	1951.4
611.771	1943.04
612.127	1974.23
612.484	1970.61
612.841	2013.32
613.198	1959.09
613.554	1968.8
613.911	1994.79
614.267	1988.69
614.624	1986.88
614.98	1985.3
615.337	2023.04
615.693	1972.87
616.05	1961.12
616.406	2015.81
616.762	2022.14
617.118	2017.16
617.475	1990.27
617.831	2018.97
618.187	2014.45
618.543	2000.67
618.899	2052.87
619.255	2008.35
619.611	2021.01
619.967	2024.17
620.323	2040.89
620.678	2037.73
621.034	2046.77
621.39	2029.37
621.746	2048.35
622.101	2077.95
622.457	2019.42
622.812	2044.28
623.168	2069.14
623.523	2042.47
623.879	2061.23
624.234	2085.41
624.589	2061.91
624.945	2037.5
625.3	2082.47
625.655	2068.69
626.01	2102.13
626.365	2091.29
626.72	2029.37
627.075	2073.43
627.43	2094
627.785	2087.45
628.14	2064.17
628.495	2065.52
628.85	2112.98
629.205	2083.38
629.559	2110.04
629.914	2105.3
630.269	2094.9
630.623	2057.84
630.978	2058.52
631.332	2112.08
631.687	2093.32
632.041	2109.82
632.396	2113.43
632.75	2095.58
633.104	2096.03
633.459	2118.86
633.813	2118.86
634.167	2141.23
634.521	2126.99
634.875	2166.54
635.229	2147.78
635.583	2154.79
635.937	2170.61
636.291	2125.18
636.645	2158.86
636.999	2203.6
637.352	2148.91
637.706	2153.21
638.06	2154.34
638.413	2140.33
638.767	2179.19
639.121	2154.56
639.474	2185.07
639.828	2157.05
640.181	2153.66
640.534	2178.97
640.888	2185.07
641.241	2192.08
641.594	2202.24
641.947	2229.59
642.301	2216.93
642.654	2232.98
643.007	2223.49
643.36	2254.67
643.713	2235.46
644.066	2282.02
644.419	2232.3
644.771	2272.52
645.124	2231.17
645.477	2219.87
645.83	2226.42
646.182	2268.46
646.535	2248.8
646.888	2256.93
647.24	2223.26
647.593	2233.2
647.945	2290.15
648.298	2281.34
648.65	2295.58
649.002	2254.45
649.355	2278.63
649.707	2286.76
650.059	2315.91
650.411	2309.13
650.763	2368.12
651.115	2423.26
651.467	2399.3
651.819	2399.3
652.171	2439.53
652.523	2419.41
652.875	2406.08
653.227	2392.52
653.578	2448.34
653.93	2469.81
654.282	2468.23
654.633	2466.64
654.985	2461.9
655.337	2466.19
655.688	2506.87
656.039	2517.26
656.391	2517.04
656.742	2543.25
657.094	2542.8
657.445	2547.09
657.796	2547.77
658.147	2529.47
658.498	2577.15
658.849	2616.7
659.2	2594.1
659.551	2602.91
659.902	2634.1
660.253	2618.5
660.604	2660.76
660.955	2658.96
661.306	2658.96
661.656	2672.06
662.007	2692.63
662.358	2716.58
662.708	2706.19
663.059	2744.15
663.409	2780.99
663.76	2729.69
664.11	2726.52
664.461	2764.94
664.811	2804.26
665.161	2777.14
665.511	2786.86
665.862	2811.95
666.212	2835
666.562	2876.58
666.912	2817.6
667.262	2885.39
667.612	2853.98
667.962	2898.05
668.312	2890.36
668.662	2911.6
669.011	2922.68
669.361	2954.54
669.711	2962.9
670.06	2980.53
670.41	2966.07
670.76	2999.29
671.109	3022.11
671.459	3007.87
671.808	3042.22
672.157	3036.12
672.507	3022.34
672.856	3066.18
673.205	3061.88
673.554	3094.2
673.904	3085.61
674.253	3149.56
674.602	3093.97
674.951	3075.44
675.3	3110.02
675.649	3152.5
675.998	3180.52
676.346	3154.54
676.695	3194.76
677.044	3202.67
677.393	3184.82
677.741	3230.24
678.09	3238.6
678.438	3245.83
678.787	3260.97
679.135	3272.95
679.484	3253.74
679.832	3303.46
680.181	3306.17
680.529	3300.29
680.877	3330.58
681.225	3308.88
681.573	3360.41
681.922	3352.27
682.27	3358.82
682.618	3349.78
682.966	3379.61
683.314	3377.35
683.661	3392.72
684.009	3372.84
684.357	3422.55
684.705	3418.26
685.053	3408.77
685.4	3429.33
685.748	3404.47
686.095	3439.95
686.443	3418.71
686.79	3448.09
687.138	3475.88
687.485	3456.67
687.832	3445.15
688.18	3507.75
688.527	3484.7
688.874	3484.24
689.221	3503.23
689.568	3499.16
689.915	3469.56
690.262	3539.16
690.609	3513.4
690.956	3531.25
691.303	3488.76
691.65	3477.92
691.997	3543.9
692.344	3520.63
692.69	3531.93
693.037	3563.34
693.383	3531.93
693.73	3521.31
694.077	3545.03
694.423	3512.49
694.769	3554.07
695.116	3535.32
695.462	3522.89
695.808	3508.88
696.155	3562.89
696.501	3566.28
696.847	3546.16
697.193	3529.89
697.539	3559.04
697.885	3513.4
698.231	3534.19
698.577	3572.15
698.923	3519.72
699.269	3541.42
699.614	3501.87
699.96	3522.89
700.306	3499.84
700.651	3511.81
700.997	3506.39
701.342	3496.67
701.688	3540.97
702.033	3482.89
702.379	3468.2
702.724	3528.76
703.069	3517.69
703.415	3450.35
703.76	3473.4
704.105	3481.08
704.45	3429.78
704.795	3507.29
705.14	3460.29
705.485	3473.62
705.83	3501.65
706.175	3473.85
706.52	3465.26
706.865	3464.36
707.209	3430.23
707.554	3472.95
707.899	3482.44
708.243	3468.88
708.588	3421.2
708.932	3425.04
709.277	3434.75
709.621	3415.09
709.966	3413.74
710.31	3415.55
710.654	3361.31
710.998	3417.13
711.342	3397.24
711.687	3395.66
712.031	3406.28
712.375	3365.83
712.719	3384.81
713.063	3420.52
713.407	3407.18
713.75	3398.82
714.094	3397.24
714.438	3382.33
714.782	3402.66
715.125	3374.87
715.469	3429.56
715.812	3432.49
716.156	3407.64
716.499	3374.42
716.843	3402.21
717.186	3354.76
717.53	3385.26
717.873	3399.5
718.216	3401.99
718.559	3381.42
718.902	3410.8
719.246	3404.25
719.589	3389.33
719.932	3369.22
720.275	3378.94
720.617	3398.6
720.96	3369.22
721.303	3414.19
721.646	3372.38
721.989	3349.11
722.331	3373.74
722.674	3383.68
723.016	3398.6
723.359	3404.25
723.701	3390.01
724.044	3379.84
724.386	3392.04
724.729	3399.28
725.071	3415.09
725.413	3373.96
725.755	3374.19
726.097	3423
726.439	3377.58
726.782	3399.28
727.124	3423
727.465	3404.7
727.807	3418.71
728.149	3359.73
728.491	3411.48
728.833	3382.1
729.175	3385.72
729.516	3405.83
729.858	3401.31
730.199	3406.96
730.541	3432.49
730.882	3448.77
731.224	3437.69
731.565	3385.94
731.906	3432.27
732.248	3420.74
732.589	3385.26
732.93	3445.38
733.271	3443.79
733.612	3414.42
733.953	3403.79
734.294	3434.3
734.635	3429.1
734.976	3425.49
735.317	3416.45
735.658	3456.67
735.999	3427.3
736.339	3458.03
736.68	3461.87
737.021	3464.13
737.361	3464.13
737.702	3464.81
738.042	3464.81
738.383	3488.31
738.723	3545.26
739.063	3514.07
739.404	3524.7
739.744	3511.14
740.084	3542.77
740.424	3589.1
740.764	3551.14
741.104	3585.26
741.444	3547.52
741.784	3572.38
742.124	3550.91
742.464	3588.2
742.804	3565.37
743.143	3598.59
743.483	3617.12
743.823	3584.58
744.162	3614.64
744.502	3632.26
744.841	3616.9
745.181	3657.57
745.52	3625.03
745.86	3677.91
746.199	3685.37
746.538	3671.36
746.877	3720.85
747.216	3734.86
747.556	3756.55
747.895	3741.19
748.234	3763.33
748.573	3761.3
748.911	3811.02
749.25	3846.27
749.589	3813.73
749.928	3822.31
750.267	3848.75
750.605	3879.49
750.944	3898.7
751.283	3893.95
751.621	3901.63
751.96	3935.98
752.298	3917
752.636	4011.24
752.975	3984.12
753.313	3999.03
753.651	4029.54
753.989	4017.34
754.327	4038.35
754.666	4073.83
755.004	4127.17
755.342	4151.8
755.679	4154.96
756.017	4144.79
756.355	4168.29
756.693	4158.8
757.031	4204.68
757.368	4166.71
757.706	4218.46
758.044	4255.98
758.381	4253.04
758.719	4280.16
759.056	4299.14
759.394	4326.03
759.731	4293.26
760.068	4324.22
760.405	4322.87
760.743	4344.56
761.08	4351.79
761.417	4347.27
761.754	4366.48
762.091	4412.58
762.428	4361.51
762.765	4404.9
763.102	4415.52
763.438	4374.62
763.775	4402.41
764.112	4423.2
764.449	4463.88
764.785	4453.48
765.122	4454.16
765.458	4462.52
765.795	4447.84
766.131	4482.86
766.467	4469.3
766.804	4462.52
767.14	4427.95
767.476	4471.56
767.812	4472.24
768.148	4500.04
768.485	4516.99
768.821	4500.26
769.157	4462.52
769.492	4519.47
769.828	4442.64
770.164	4444.22
770.5	4422.75
770.836	4456.87
771.171	4414.62
771.507	4468.63
771.842	4390.21
772.178	4463.2
