Data from blue_surface_keyboard_FLMS001491_028.txt Node
Date: Tue Feb 07 11:12:52 GMT 2017
User: dcchb
Spectrometer: FLMS00149
Trigger mode: 0
Integration Time (sec): 2.000000E-2
Scans to average: 10
Electric dark correction enabled: true
Nonlinearity correction enabled: false
Boxcar width: 0
XAxis mode: Wavelengths
Number of Pixels in Spectrum: 2048
>>>>>Begin Spectral Data<<<<<
341.393	-21.34
341.776	-21.34
342.16	-21.34
342.543	-62.02
342.927	-40.32
343.31	-77.16
343.693	-71.06
344.077	-62.92
344.46	-76.03
344.843	-71.06
345.226	-37.84
345.61	-24.73
345.993	5.1
346.376	2.61
346.759	6.68
347.142	25.66
347.525	51.2
347.908	55.72
348.291	88.71
348.674	98.88
349.057	86.23
349.44	120.12
349.823	130.52
350.206	149.5
350.588	172.78
350.971	205.09
351.354	216.39
351.737	223.4
352.119	231.76
352.502	247.58
352.884	270.85
353.267	270.18
353.65	286.22
354.032	269.05
354.414	297.07
354.797	291.64
355.179	297.52
355.562	295.71
355.944	325.54
356.326	316.5
356.709	305.2
357.091	316.05
357.473	331.42
357.855	311.53
358.238	314.92
358.62	327.12
359.002	314.24
359.384	313.57
359.766	324.41
360.148	291.87
360.53	321.7
360.912	307.69
361.294	303.17
361.676	333.45
362.057	311.08
362.439	301.81
362.821	316.05
363.203	286.9
363.584	276.96
363.966	296.39
364.348	262.95
364.729	301.81
365.111	288.26
365.493	283.74
365.874	287.35
366.256	289.16
366.637	292.55
367.019	279.89
367.4	280.12
367.781	297.29
368.163	273.79
368.544	291.64
368.925	290.06
369.306	299.55
369.688	289.61
370.069	290.06
370.45	273.57
370.831	286.45
371.212	255.94
371.593	292.55
371.974	298.65
372.355	273.11
372.736	295.03
373.117	282.38
373.498	293.68
373.879	272.44
374.26	304.07
374.641	290.06
375.021	291.64
375.402	302.49
375.783	290.97
376.163	297.07
376.544	294.36
376.925	298.42
377.305	300.46
377.686	278.31
378.066	298.88
378.447	298.2
378.827	316.95
379.208	286.9
379.588	302.49
379.968	284.64
380.349	292.32
380.729	282.38
381.109	283.51
381.489	304.07
381.87	300.23
382.25	296.84
382.63	308.14
383.01	299.55
383.39	317.86
383.77	307.01
384.15	298.65
384.53	286
384.91	297.75
385.29	307.01
385.67	301.14
386.049	306.56
386.429	327.12
386.809	322.6
387.189	294.81
387.568	311.53
387.948	295.71
388.328	317.41
388.707	303.62
389.087	306.56
389.466	316.05
389.846	304.98
390.225	320.12
390.605	312.89
390.984	331.19
391.363	339.1
391.743	311.98
392.122	318.31
392.501	324.41
392.881	322.83
393.26	320.57
393.639	312.89
394.018	314.24
394.397	310.63
394.776	320.57
395.155	327.8
395.534	322.15
395.913	325.09
396.292	320.57
396.671	336.62
397.05	346.78
397.429	321.25
397.808	324.41
398.186	328.48
398.565	310.4
398.944	320.8
399.323	338.42
399.701	334.36
400.08	329.84
400.458	337.29
400.837	330.97
401.215	350.17
401.594	327.58
401.972	339.55
402.351	343.39
402.729	318.08
403.107	347.91
403.486	347.01
403.864	325.54
404.242	342.04
404.62	346.56
404.999	375.03
405.377	346.56
405.755	346.78
406.133	351.53
406.511	352.66
406.889	352.89
407.267	360.12
407.645	367.35
408.023	338.42
408.401	379.55
408.779	368.48
409.156	345.43
409.534	361.47
409.912	369.38
410.29	362.38
410.667	367.8
411.045	373.22
411.422	354.92
411.8	337.97
412.178	357.63
412.555	394.02
412.933	384.07
413.31	356.73
413.687	385.88
414.065	387.46
414.442	400.34
414.819	376.61
415.197	385.2
415.574	384.98
415.951	392.43
416.328	377.74
416.705	380
417.082	390.17
417.46	387.91
417.837	398.08
418.214	421.58
418.591	396.95
418.967	380.46
419.344	388.82
419.721	392.89
420.098	403.51
420.475	396.5
420.852	394.24
421.228	413.9
421.605	377.29
421.982	392.21
422.358	412.77
422.735	387.46
423.111	375.26
423.488	419.33
423.864	413.9
424.241	414.35
424.617	431.3
424.994	409.38
425.37	429.72
425.746	403.73
426.123	413
426.499	429.04
426.875	433.34
427.251	426.1
427.627	424.07
428.003	454.13
428.379	437.4
428.756	450.06
429.132	445.99
429.507	441.47
429.883	446.22
430.259	450.74
430.635	439.89
431.011	457.52
431.387	448.93
431.763	448.93
432.138	461.58
432.514	464.3
432.89	458.87
433.265	443.28
433.641	465.88
434.016	480.34
434.392	462.26
434.767	461.58
435.143	480.57
435.518	490.74
435.894	493.9
436.269	484.41
436.644	474.92
437.02	484.63
437.395	476.27
437.77	480.34
438.145	504.07
438.52	478.76
438.895	488.25
439.271	500.23
439.646	510.17
440.021	504.29
440.395	499.77
440.77	498.87
441.145	515.59
441.52	521.7
441.895	491.87
442.27	527.12
442.645	530.06
443.019	539.77
443.394	528.93
443.769	533.22
444.143	511.3
444.518	528.47
444.892	530.96
445.267	535.71
445.641	529.6
446.016	537.29
446.39	550.4
446.764	517.18
447.139	551.07
447.513	521.7
447.887	546.1
448.262	547.91
448.636	516.95
449.01	557.63
449.384	540.45
449.758	560.11
450.132	550.62
450.506	549.27
450.88	550.62
451.254	549.49
451.628	542.26
452.002	572.09
452.376	580.68
452.75	568.93
453.123	564.41
453.497	577.97
453.871	588.13
454.244	590.17
454.618	588.13
454.992	591.3
455.365	579.09
455.739	597.63
456.112	587.46
456.486	605.53
456.859	621.58
457.232	598.53
457.606	635.59
457.979	616.61
458.352	628.36
458.725	617.06
459.099	607.34
459.472	630.17
459.845	640.11
460.218	630.17
460.591	620.9
460.964	642.6
461.337	644.86
461.71	658.87
462.083	655.03
462.456	648.47
462.829	660.9
463.201	666.1
463.574	660.45
463.947	677.85
464.32	670.84
464.692	692.99
465.065	679.21
465.438	695.25
465.81	687.11
466.183	698.64
466.555	704.06
466.928	709.49
467.3	704.29
467.672	725.76
468.045	727.11
468.417	758.53
468.789	744.06
469.161	740.45
469.534	747.23
469.906	754.23
470.278	743.16
470.65	740.67
471.022	780.67
471.394	779.32
471.766	756.72
472.138	762.59
472.51	774.8
472.882	793.55
473.253	813.44
473.625	789.48
473.997	825.64
474.369	816.6
474.74	840.33
475.112	828.58
475.484	819.99
475.855	849.6
476.227	831.07
476.598	860.44
476.97	895.02
477.341	873.32
477.713	903.83
478.084	899.54
478.455	903.83
478.827	927.56
479.198	926.66
479.569	918.75
479.94	941.12
480.311	969.37
480.682	970.72
481.053	968.69
481.424	1008.91
481.795	973.66
482.166	963.94
482.537	1005.98
482.908	1024.28
483.279	1006.65
483.65	1011.63
484.021	1034.22
484.391	1015.24
484.762	1048.24
485.133	1053.21
485.503	1032.42
485.874	1063.38
486.244	1072.87
486.615	1098.4
486.985	1099.31
487.356	1104.96
487.726	1088.69
488.097	1128.46
488.467	1124.17
488.837	1111.28
489.207	1166.88
489.578	1159.87
489.948	1162.58
490.318	1157.61
490.688	1158.51
491.058	1166.88
491.428	1187.89
491.798	1198.29
492.168	1184.5
492.538	1232.86
492.908	1209.36
493.278	1222.92
493.648	1224.28
494.017	1219.08
494.387	1226.31
494.757	1206.2
495.126	1202.36
495.496	1229.25
495.866	1232.19
496.235	1259.3
496.605	1262.01
496.974	1301.11
497.344	1305.63
497.713	1267.66
498.082	1290.04
498.452	1296.82
498.821	1255.46
499.19	1296.36
499.559	1300.21
499.928	1306.53
500.298	1287.1
500.667	1315.35
501.036	1314.89
501.405	1325.97
501.774	1295.69
502.143	1308.57
502.512	1316.7
502.88	1316.02
503.249	1323.26
503.618	1316.7
503.987	1330.71
504.356	1337.72
504.724	1353.31
505.093	1316.7
505.462	1309.47
505.83	1328.45
506.199	1361.45
506.567	1378.62
506.936	1349.47
507.304	1346.31
507.672	1342.92
508.041	1382.92
508.409	1359.64
508.777	1386.31
509.145	1367.77
509.514	1370.71
509.882	1373.65
510.25	1355.35
510.618	1386.76
510.986	1394.67
511.354	1409.36
511.722	1387.89
512.09	1393.54
512.458	1404.61
512.826	1388.34
513.193	1425.4
513.561	1424.72
513.929	1387.44
514.297	1388.34
514.664	1426.3
515.032	1418.85
515.4	1404.38
515.767	1422.24
516.135	1413.65
516.502	1412.97
516.869	1433.99
517.237	1452.74
517.604	1405.74
517.972	1443.48
518.339	1423.82
518.706	1417.49
519.073	1439.19
519.44	1450.94
519.808	1470.37
520.175	1455.46
520.542	1441.45
520.909	1443.48
521.276	1464.04
521.643	1450.48
522.009	1464.27
522.376	1452.07
522.743	1478.51
523.11	1462.69
523.477	1480.77
523.843	1472.4
524.21	1501.1
524.577	1537.04
524.943	1479.64
525.31	1488.45
525.676	1509.92
526.043	1499.97
526.409	1494.1
526.776	1555.11
527.142	1520.99
527.508	1514.89
527.874	1506.75
528.241	1544.72
528.607	1541.1
528.973	1522.8
529.339	1548.33
529.705	1563.25
530.071	1534.32
530.437	1560.76
530.803	1540.65
531.169	1555.34
531.535	1550.37
531.901	1587.43
532.267	1568.67
532.632	1548.56
532.998	1561.89
533.364	1585.4
533.73	1561.44
534.095	1561.44
534.461	1589.24
534.826	1595.34
535.192	1569.8
535.557	1627.43
535.923	1561.44
536.288	1580.65
536.653	1592.63
537.019	1572.52
537.384	1617.94
537.749	1571.39
538.114	1587.43
538.479	1608.22
538.845	1586.75
539.21	1573.87
539.575	1609.35
539.94	1575.68
540.305	1611.38
540.67	1589.92
541.034	1608.22
541.399	1618.39
541.764	1605.96
542.129	1622.01
542.494	1626.3
542.858	1637.82
543.223	1622.68
543.587	1604.15
543.952	1573.65
544.316	1568.67
544.681	1593.53
545.045	1604.6
545.41	1612.29
545.774	1604.83
546.138	1615.23
546.503	1634.89
546.867	1598.5
547.231	1609.8
547.595	1624.49
547.959	1616.81
548.324	1648.22
548.688	1626.53
549.052	1605.73
549.416	1626.3
549.779	1649.8
550.143	1644.38
550.507	1641.67
550.871	1639.41
551.235	1642.12
551.599	1668.56
551.962	1652.74
552.326	1619.97
552.689	1647.99
553.053	1621.78
553.417	1630.37
553.78	1661.78
554.143	1627.65
554.507	1658.61
554.87	1661.78
555.234	1666.3
555.597	1627.88
555.96	1639.86
556.323	1640.99
556.686	1647.54
557.05	1651.61
557.413	1660.2
557.776	1666.52
558.139	1683.7
558.502	1661.78
558.865	1653.19
559.228	1643.25
559.59	1659.74
559.953	1694.55
560.316	1653.19
560.679	1676.92
561.041	1685.51
561.404	1702.46
561.767	1680.53
562.129	1690.25
562.492	1688.67
562.854	1663.13
563.217	1696.81
563.579	1706.07
563.941	1709.46
564.304	1712.85
564.666	1710.36
565.028	1694.32
565.39	1713.53
565.753	1742.23
566.115	1702.46
566.477	1677.82
566.839	1709.91
567.201	1753.75
567.563	1738.39
567.925	1751.49
568.287	1749.01
568.648	1728.67
569.01	1755.79
569.372	1736.35
569.734	1759.85
570.095	1766.41
570.457	1719.86
570.819	1765.05
571.18	1760.08
571.542	1739.74
571.903	1742.91
572.265	1773.19
572.626	1767.76
572.987	1772.28
573.349	1788.1
573.71	1767.31
574.071	1752.62
574.432	1784.26
574.794	1785.39
575.155	1777.26
575.516	1759.4
575.877	1801.44
576.238	1771.83
576.599	1798.05
576.96	1791.72
577.32	1794.66
577.681	1807.76
578.042	1801.66
578.403	1789.46
578.763	1812.51
579.124	1830.36
579.485	1827.65
579.845	1821.32
580.206	1822.23
580.566	1800.08
580.927	1808.67
581.287	1816.8
581.648	1821.32
582.008	1827.88
582.368	1847.31
582.728	1827.65
583.089	1794.43
583.449	1837.14
583.809	1824.26
584.169	1796.92
584.529	1834.66
584.889	1853.19
585.249	1829.68
585.609	1811.6
585.969	1827.65
586.329	1822
586.688	1820.64
587.048	1833.75
587.408	1818.38
587.768	1849.57
588.127	1806.41
588.487	1805.96
588.846	1854.77
589.206	1859.29
589.565	1841.66
589.925	1854.99
590.284	1851.38
590.643	1817.25
591.003	1855.67
591.362	1840.08
591.721	1856.8
592.08	1883.92
592.44	1880.76
592.799	1843.47
593.158	1833.75
593.517	1850.7
593.876	1864.03
594.235	1846.63
594.593	1843.47
594.952	1820.19
595.311	1848.89
595.67	1874.2
596.029	1909.68
596.387	1875.78
596.746	1866.29
597.104	1909
597.463	1865.61
597.822	1864.03
598.18	1876.69
598.538	1853.86
598.897	1911.04
599.255	1871.94
599.613	1892.05
599.972	1867.65
600.33	1873.75
600.688	1880.76
601.046	1879.63
601.404	1902.45
601.762	1877.59
602.12	1901.09
602.478	1879.63
602.836	1893.18
603.194	1877.82
603.552	1881.43
603.91	1892.28
604.268	1911.94
604.625	1899.74
604.983	1898.38
605.341	1886.63
605.698	1871.94
606.056	1912.39
606.413	1925.73
606.771	1920.3
607.128	1921.88
607.485	1917.36
607.843	1919.4
608.2	1894.09
608.557	1937.03
608.914	1904.26
609.272	1916.91
609.629	1936.12
609.986	1922.79
610.343	1937.7
610.7	1933.18
611.057	1922.79
611.414	1947.87
611.771	1948.32
612.127	1932.28
612.484	1971.6
612.841	1955.78
613.198	1968.21
613.554	1946.74
613.911	1961.88
614.267	1938.61
614.624	1964.14
614.98	1969.57
615.337	1981.54
615.693	1974.99
616.05	1987.42
616.406	1944.93
616.762	1963.01
617.118	1949.45
617.475	1967.31
617.831	2003.01
618.187	1985.84
618.543	1951.71
618.899	1989.91
619.255	1992.84
619.611	2005.95
619.967	1998.94
620.323	2027.64
620.678	1989.23
621.034	2000.53
621.39	1991.26
621.746	1986.97
622.101	2022.67
622.457	2003.69
622.812	2005.72
623.168	2035.55
623.523	2014.31
623.879	2015.89
624.234	2017.93
624.589	2023.58
624.945	2031.49
625.3	2016.8
625.655	2015.44
626.01	2011.83
626.365	2052.5
626.72	2023.35
627.075	2047.08
627.43	2027.42
627.785	2053.18
628.14	2024.71
628.495	2020.64
628.85	2003.24
629.205	2039.4
629.559	2057.25
629.914	2025.61
630.269	2081.43
630.623	2090.92
630.978	2066.51
631.332	2057.02
631.687	2071.49
632.041	2070.36
632.396	2051.15
632.75	2079.17
633.104	2033.97
633.459	2083.91
633.813	2050.24
634.167	2063.58
634.521	2125.27
634.875	2111.94
635.229	2080.52
635.583	2074.87
635.937	2084.14
636.291	2095.67
636.645	2063.8
636.999	2097.25
637.352	2106.51
637.706	2087.3
638.06	2074.42
638.413	2132.05
638.767	2151.48
639.121	2120.07
639.474	2141.31
639.828	2130.69
640.181	2139.51
640.534	2162.56
640.888	2119.85
641.241	2114.87
641.594	2169.79
641.947	2177.7
642.301	2165.49
642.654	2171.37
643.007	2189
643.36	2182.22
643.713	2171.37
644.066	2176.34
644.419	2193.52
644.771	2209.11
645.124	2191.03
645.477	2176.12
645.83	2176.79
646.182	2184.48
646.535	2177.47
646.888	2216.79
647.24	2174.08
647.593	2252.05
647.945	2194.65
648.298	2210.01
648.65	2223.12
649.002	2207.98
649.355	2234.87
649.707	2229
650.059	2234.42
650.411	2255.89
650.763	2271.93
651.115	2361.42
651.467	2303.57
651.819	2317.58
652.171	2359.61
652.523	2342.21
652.875	2353.96
653.227	2325.94
653.578	2369.78
653.93	2380.63
654.282	2389.89
654.633	2344.02
654.985	2403.91
655.337	2364.58
655.688	2407.07
656.039	2413.17
656.391	2417.46
656.742	2439.39
657.094	2449.1
657.445	2477.12
657.796	2462.89
658.147	2484.13
658.498	2436
658.849	2437.8
659.2	2484.13
659.551	2520.06
659.902	2529.1
660.253	2537.01
660.604	2542.89
660.955	2532.49
661.306	2565.26
661.656	2603.67
662.007	2556.44
662.358	2583.34
662.708	2587.18
663.059	2577.91
663.409	2624.69
663.76	2654.97
664.11	2685.03
664.461	2678.93
664.811	2684.35
665.161	2680.06
665.511	2694.97
665.862	2680.73
666.212	2719.83
666.562	2712.37
666.912	2706.72
667.262	2745.59
667.612	2753.28
667.962	2764.12
668.312	2745.82
668.662	2776.1
669.011	2773.84
669.361	2772.03
669.711	2809.32
670.06	2835.98
670.41	2839.37
670.76	2857
671.109	2874.63
671.459	2873.95
671.808	2876.66
672.157	2895.19
672.507	2894.29
672.856	2901.52
673.205	2907.17
673.554	2928.64
673.904	2940.39
674.253	2948.75
674.602	2968.18
674.951	2960.73
675.3	2929.32
675.649	2935.42
675.998	2997.56
676.346	2986.26
676.695	2988.52
677.044	2994.17
677.393	3017.45
677.741	3031.01
678.09	3031.23
678.438	3004.79
678.787	3052.25
679.135	3077.11
679.484	3063.1
679.832	3044.57
680.181	3098.12
680.529	3084.11
680.877	3058.13
681.225	3139.71
681.573	3122.08
681.922	3094.96
682.27	3128.18
682.618	3133.38
682.966	3118.46
683.314	3142.19
683.661	3177.9
684.009	3105.36
684.357	3143.55
684.705	3129.08
685.053	3185.81
685.4	3202.98
685.748	3185.81
686.095	3188.07
686.443	3153.72
686.79	3180.61
687.138	3197.11
687.485	3191.23
687.832	3214.05
688.18	3253.37
688.527	3208.4
688.874	3207.05
689.221	3214.28
689.568	3217.22
689.915	3190.1
690.262	3243.21
690.609	3211.12
690.956	3276.2
691.303	3226.26
691.65	3231.91
691.997	3219.7
692.344	3207.5
692.69	3227.39
693.037	3242.53
693.383	3257.44
693.73	3243.66
694.077	3200.27
694.423	3256.99
694.769	3249.99
695.116	3235.52
695.462	3230.55
695.808	3205.92
696.155	3218.8
696.501	3233.94
696.847	3221.74
697.193	3199.14
697.539	3218.12
697.885	3252.24
698.231	3196.43
698.577	3229.87
698.923	3211.34
699.269	3212.47
699.614	3228.29
699.96	3236.2
700.306	3198.91
700.651	3171.57
700.997	3160.27
701.342	3200.72
701.688	3221.74
702.033	3219.7
702.379	3201.62
702.724	3196.65
703.069	3181.96
703.415	3162.08
703.76	3188.07
704.105	3165.69
704.45	3161.85
704.795	3133.15
705.14	3137.9
705.485	3184.22
705.83	3102.64
706.175	3144.23
706.52	3143.55
706.865	3100.16
707.209	3113.72
707.554	3113.49
707.899	3128.86
708.243	3102.87
708.588	3126.15
708.932	3131.12
709.277	3085.92
709.621	3109.2
709.966	3077.79
710.31	3141.29
710.654	3042.31
710.998	3093.38
711.342	3132.02
711.687	3122.08
712.031	3135.41
712.375	3080.72
712.719	3050.44
713.063	3070.33
713.407	3095.64
713.75	3080.05
714.094	3072.36
714.438	3078.01
714.782	3061.29
715.125	3063.55
715.469	3068.07
715.812	3062.87
716.156	3054.74
716.499	3047.96
716.843	3068.07
717.186	3040.5
717.53	3061.97
717.873	3068.52
718.216	3089.99
718.559	3096.54
718.902	3065.36
719.246	3127.73
719.589	3071.01
719.932	3082.08
720.275	3064
720.617	3085.92
720.96	3058.35
721.303	3082.53
721.646	3065.81
721.989	3050.67
722.331	3082.08
722.674	3047.28
723.016	3063.32
723.359	3070.33
723.701	3101.51
724.044	3058.58
724.386	3028.3
724.729	3053.61
725.071	3074.62
725.413	3054.74
725.755	3057.67
726.097	3050.44
726.439	3067.39
726.782	3066.26
727.124	3106.94
727.465	3084.57
727.807	3080.05
728.149	3078.24
728.491	3074.85
728.833	3074.62
729.175	3073.94
729.516	3049.31
729.858	3095.86
730.199	3099.93
730.541	3076.88
730.882	3119.82
731.224	3079.59
731.565	3082.98
731.906	3067.84
732.248	3124.34
732.589	3058.58
732.93	3086.6
733.271	3062.42
733.612	3140.38
733.953	3114.4
734.294	3074.17
734.635	3109.88
734.976	3136.54
735.317	3127.73
735.658	3093.83
735.999	3107.39
736.339	3122.98
736.68	3150.33
737.021	3138.58
737.361	3140.16
737.702	3186.48
738.042	3178.12
738.383	3124.34
738.723	3192.59
739.063	3172.02
739.404	3204.34
739.744	3185.35
740.084	3198.46
740.424	3193.26
740.764	3186.26
741.104	3233.71
741.444	3220.38
741.784	3231.91
742.124	3236.2
742.464	3259.02
742.804	3270.55
743.143	3269.65
743.483	3257.89
743.823	3317.1
744.162	3279.36
744.502	3324.11
744.841	3311.45
745.181	3329.08
745.52	3337.44
745.86	3363.88
746.199	3370.89
746.538	3374.95
746.877	3436.65
747.216	3416.31
747.556	3416.53
747.895	3457.66
748.234	3434.84
748.573	3464.67
748.911	3442.07
749.25	3524.33
749.589	3515.06
749.928	3539.47
750.267	3570.65
750.605	3572.69
750.944	3581.95
751.283	3536.98
751.621	3620.82
751.96	3638.45
752.298	3666.92
752.636	3650.88
752.975	3690.43
753.313	3700.14
753.651	3732.46
753.989	3716.41
754.327	3813.13
754.666	3807.48
755.004	3802.74
755.342	3789.86
755.679	3871.44
756.017	3853.13
756.355	3886.13
756.693	3880.03
757.031	3935.39
757.368	3935.39
757.706	3945.79
758.044	3938.1
758.381	3997.08
758.719	3977.88
759.056	4009.51
759.394	4025.11
759.731	4056.07
760.068	4056.97
760.405	4078.44
760.743	4045.67
761.08	4121.15
761.417	4106.69
761.754	4167.93
762.091	4132.22
762.428	4163.86
762.765	4150.07
763.102	4197.98
763.438	4209.28
763.775	4198.21
764.112	4205.44
764.449	4215.38
764.785	4214.93
765.122	4231.88
765.458	4185.55
765.795	4232.33
766.131	4246.57
766.467	4239.34
766.804	4239.79
767.14	4257.42
767.476	4274.14
767.812	4266.46
768.148	4255.61
768.485	4186.01
768.821	4251.31
769.157	4233.69
769.492	4231.43
769.828	4283.4
770.164	4224.2
770.5	4283.4
770.836	4239.11
771.171	4226
771.507	4246.34
771.842	4226.46
772.178	4228.49
