Data from blue_clamp_base_FLMS001491_00026.txt Node
Date: Wed Feb 08 15:15:46 GMT 2017
User: dcchb
Spectrometer: FLMS00149
Trigger mode: 0
Integration Time (sec): 2.000000E-2
Scans to average: 10
Electric dark correction enabled: true
Nonlinearity correction enabled: false
Boxcar width: 0
XAxis mode: Wavelengths
Number of Pixels in Spectrum: 2048
>>>>>Begin Spectral Data<<<<<
341.393	7.19
341.776	7.19
342.16	7.19
342.543	-66.71
342.927	-52.02
343.31	-78.91
343.693	-73.26
344.077	-65.58
344.46	-68.52
344.843	-45.69
345.226	-54.28
345.61	-33.71
345.993	-30.55
346.376	4.7
346.759	18.04
347.142	25.04
347.525	61.88
347.908	64.81
348.291	82.22
348.674	92.61
349.057	101.2
349.44	135.77
349.823	139.39
350.206	150.46
350.588	200.18
350.971	196.79
351.354	220.29
351.737	213.29
352.119	246.96
352.502	251.25
352.884	257.13
353.267	268.43
353.65	274.3
354.032	304.13
354.414	313.4
354.797	320.18
355.179	303.9
355.562	314.98
355.944	322.44
356.326	313.4
356.709	335.09
357.091	346.16
357.473	337.8
357.855	322.44
358.238	337.8
358.62	339.84
359.002	328.31
359.384	355.65
359.766	331.02
360.148	334.86
360.53	353.39
360.912	315.2
361.294	328.08
361.676	342.77
362.057	326.73
362.439	324.02
362.821	313.85
363.203	333.28
363.584	304.36
363.966	302.1
364.348	313.62
364.729	324.92
365.111	314.3
365.493	317.01
365.874	336.67
366.256	319.05
366.637	308.88
367.019	312.94
367.4	299.16
367.781	300.29
368.163	325.6
368.544	288.99
368.925	294.19
369.306	302.77
369.688	314.53
370.069	300.74
370.45	303
370.831	316.79
371.212	310.01
371.593	300.74
371.974	300.74
372.355	277.01
372.736	306.16
373.117	293.06
373.498	300.97
373.879	307.07
374.26	300.51
374.641	314.75
375.021	306.39
375.402	304.81
375.783	330.8
376.163	314.07
376.544	332.15
376.925	311.59
377.305	332.38
377.686	315.66
378.066	320.63
378.447	332.83
378.827	333.73
379.208	331.7
379.588	341.42
379.968	333.06
380.349	326.95
380.729	319.5
381.109	346.62
381.489	344.81
381.87	325.82
382.25	330.34
382.63	330.57
383.01	349.1
383.39	322.89
383.77	346.39
384.15	320.63
384.53	328.54
384.91	352.26
385.29	358.14
385.67	345.03
386.049	358.14
386.429	363.34
386.809	353.39
387.189	334.86
387.568	356.78
387.948	351.13
388.328	371.7
388.707	354.98
389.087	359.5
389.466	355.2
389.846	351.36
390.225	380.96
390.605	385.03
390.984	374.41
391.363	369.89
391.743	368.08
392.122	365.6
392.501	386.84
392.881	383.45
393.26	400.4
393.639	370.57
394.018	400.63
394.397	378.25
394.776	397.91
395.155	394.3
395.534	410.57
395.913	396.56
396.292	380.96
396.671	406.5
397.05	418.48
397.429	417.8
397.808	423.68
398.186	411.25
398.565	447.63
398.944	404.92
399.323	415.77
399.701	430
400.08	457.12
400.458	445.37
400.837	421.42
401.215	431.58
401.594	437.91
401.972	474.07
402.351	465.48
402.729	476.78
403.107	468.87
403.486	478.59
403.864	473.39
404.242	478.14
404.62	480.17
404.999	484.01
405.377	476.56
405.755	487.85
406.133	494.41
406.511	512.49
406.889	514.29
407.267	525.82
407.645	519.27
408.023	520.62
408.401	554.75
408.779	551.13
409.156	586.61
409.534	540.73
409.912	537.57
410.29	565.14
410.667	569.43
411.045	584.35
411.422	573.28
411.8	575.76
412.178	596.78
412.555	590
412.933	630.22
413.31	632.03
413.687	613.05
414.065	607.4
414.442	625.93
414.819	637.91
415.197	625.7
415.574	663.67
415.951	660.73
416.328	637.23
416.705	659.38
417.082	641.52
417.46	705.93
417.837	679.71
418.214	674.74
418.591	712.48
418.967	704.8
419.344	708.41
419.721	688.3
420.098	704.57
420.475	717
420.852	720.39
421.228	731.01
421.605	738.47
421.982	756.1
422.358	757.23
422.735	765.36
423.111	789.54
423.488	759.49
423.864	764.01
424.241	792.48
424.617	795.64
424.994	813.27
425.37	814.63
425.746	813.95
426.123	801.74
426.499	817.34
426.875	846.26
427.251	830.9
427.627	877
428.003	875.19
428.379	887.84
428.756	888.52
429.132	885.81
429.507	915.87
429.883	925.36
430.259	939.14
430.635	968.97
431.011	952.93
431.387	986.6
431.763	1000.16
432.138	1005.13
432.514	991.8
432.89	1029.99
433.265	1052.59
433.641	1044
434.016	1041.06
434.392	1102.53
434.767	1090.55
435.143	1096.65
435.518	1101.17
435.894	1122.19
436.269	1141.17
436.644	1165.58
437.02	1167.61
437.395	1149.08
437.77	1177.33
438.145	1172.58
438.52	1197.67
438.895	1203.77
439.271	1210.32
439.646	1260.94
440.021	1258.23
440.395	1276.53
440.77	1249.42
441.145	1258.23
441.52	1314.27
441.895	1313.6
442.27	1329.41
442.645	1326.25
443.019	1344.56
443.394	1335.52
443.769	1357.21
444.143	1368.51
444.518	1380.49
444.892	1378.23
445.267	1415.29
445.641	1419.36
446.016	1425.91
446.39	1432.24
446.764	1436.08
447.139	1440.15
447.513	1453.25
447.887	1467.04
448.262	1492.12
448.636	1508.84
449.01	1524.21
449.384	1528.05
449.758	1531.44
450.132	1547.49
450.506	1563.08
450.88	1580.71
451.254	1590.2
451.628	1596.07
452.002	1657.99
452.376	1642.4
452.75	1629.52
453.123	1673.36
453.497	1692.79
453.871	1682.17
454.244	1737.09
454.618	1740.25
454.992	1740.93
455.365	1766.92
455.739	1806.69
456.112	1794.03
456.486	1832.68
456.859	1880.13
457.232	1863.19
457.606	1877.65
457.979	1917.2
458.352	1945.9
458.725	1964.43
459.099	1962.39
459.472	2018.21
459.845	2041.94
460.218	2021.15
460.591	2076.06
460.964	2059.56
461.337	2083.52
461.71	2148.83
462.083	2159.67
462.456	2194.25
462.829	2170.75
463.201	2193.35
463.574	2229.5
463.947	2236.73
464.32	2292.1
464.692	2339.56
465.065	2276.28
465.438	2334.81
465.81	2363.96
466.183	2389.95
466.555	2446.9
466.928	2439.67
467.3	2437.41
467.672	2505.2
468.045	2530.74
468.417	2560.79
468.789	2545.88
469.161	2626.33
469.534	2642.15
469.906	2711.3
470.278	2682.15
470.65	2722.15
471.022	2747.23
471.394	2831.3
471.766	2801.69
472.138	2844.18
472.51	2874.68
472.882	2966.43
473.253	3008.01
473.625	3030.61
473.997	3052.98
474.369	3081.23
474.74	3068.35
475.112	3184.73
475.484	3205.3
475.855	3245.07
476.227	3248.46
476.598	3341.79
476.97	3353.09
477.341	3421.56
477.713	3444.84
478.084	3497.72
478.455	3569.81
478.827	3578.62
479.198	3681.44
479.569	3664.95
479.94	3744.94
480.311	3755.11
480.682	3821.78
481.053	3935.45
481.424	3958.95
481.795	4008.44
482.166	4076.46
482.537	4103.35
482.908	4166.85
483.279	4199.85
483.65	4234.2
484.021	4321.65
484.391	4359.17
484.762	4360.97
485.133	4390.35
485.503	4452.27
485.874	4482.1
486.244	4610.46
486.615	4606.39
486.985	4652.04
487.356	4687.97
487.726	4751.7
488.097	4803
488.467	4789.89
488.837	4864.46
489.207	4903.11
489.578	4981.52
489.948	4986.49
490.318	4999.6
490.688	5091.58
491.058	5130.9
491.428	5127.05
491.798	5166.6
492.168	5240.72
492.538	5322.98
492.908	5360.04
493.278	5373.83
493.648	5375.64
494.017	5404.56
494.387	5410.89
494.757	5491.34
495.126	5543.31
495.496	5488.85
495.866	5554.39
496.235	5593.03
496.605	5640.71
496.974	5653.37
497.344	5653.82
497.713	5713.25
498.082	5718.68
498.452	5743.31
498.821	5745.12
499.19	5803.87
499.559	5800.03
499.928	5833.02
500.298	5834.83
500.667	5902.4
501.036	5821.73
501.405	5927.26
501.774	5899.24
502.143	5932.68
502.512	5936.98
502.88	6036.41
503.249	5996.18
503.618	6025.34
503.987	6028.5
504.356	6144.43
504.724	6098.33
505.093	6129.97
505.462	6104.43
505.83	6118.89
506.199	6185.33
506.567	6223.52
506.936	6224.65
507.304	6252.22
507.672	6317.31
508.041	6295.61
508.409	6301.49
508.777	6365.67
509.145	6405.21
509.514	6404.08
509.882	6396.17
510.25	6423.97
510.618	6442.5
510.986	6473.23
511.354	6497.64
511.722	6580.8
512.09	6606.11
512.458	6548.94
512.826	6576.28
513.193	6624.19
513.561	6649.05
513.929	6618.31
514.297	6703.28
514.664	6700.12
515.032	6683.17
515.4	6745.99
515.767	6771.53
516.135	6815.15
516.502	6718.43
516.869	6847.24
517.237	6828.48
517.604	6767.69
517.972	6922.49
518.339	6903.5
518.706	6901.02
519.073	6916.61
519.44	6883.84
519.808	6945.31
520.175	6957.97
520.542	6987.12
520.909	7071.41
521.276	7054.69
521.643	7075.25
522.009	7129.26
522.376	7145.53
522.743	7213.33
523.11	7177.85
523.477	7265.53
523.843	7272.53
524.21	7334.91
524.577	7349.82
524.943	7350.5
525.31	7409.71
525.676	7475.47
526.043	7480.21
526.409	7473.66
526.776	7619.64
527.142	7522.02
527.508	7570.15
527.874	7601.11
528.241	7627.1
528.607	7693.54
528.973	7761.56
529.339	7709.59
529.705	7774.22
530.071	7804.95
530.437	7870.94
530.803	7840.43
531.169	7934.89
531.535	7915.91
531.901	7912.52
532.267	7973.76
532.632	8005.4
532.998	8066.41
533.364	8013.98
533.73	8055.79
534.095	8128.11
534.461	8129.69
534.826	8118.16
535.192	8171.27
535.557	8240.42
535.923	8200.42
536.288	8263.02
536.653	8215.79
537.019	8239.74
537.384	8342.56
537.749	8327.65
538.114	8360.87
538.479	8340.98
538.845	8309.57
539.21	8435.67
539.575	8396.35
539.94	8432.5
540.305	8385.73
540.67	8399.74
541.034	8449.68
541.399	8451.26
541.764	8503.91
542.129	8492.62
542.494	8459.85
542.858	8545.27
543.223	8516.12
543.587	8626.62
543.952	8570.13
544.316	8591.37
544.681	8612.84
545.045	8664.59
545.41	8700.75
545.774	8635.44
546.138	8653.74
546.503	8766.51
546.867	8688.54
547.231	8754.3
547.595	8790.01
547.959	8709.79
548.324	8827.97
548.688	8737.13
549.052	8814.19
549.416	8841.76
549.779	8779.16
550.143	8786.17
550.507	8839.5
550.871	8859.16
551.235	8834.53
551.599	8885.6
551.962	8956.11
552.326	8892.15
552.689	8991.59
553.053	8924.02
553.417	8896.45
553.78	9060.06
554.143	8986.84
554.507	9042.21
554.87	9026.84
555.234	9128.98
555.597	9056.44
555.96	9078.59
556.323	9052.37
556.686	9043.79
557.05	9140.96
557.413	9129.89
557.776	9163.56
558.139	9274.29
558.502	9200.62
558.865	9234.52
559.228	9240.84
559.59	9278.36
559.953	9323.78
560.316	9378.47
560.679	9373.04
561.041	9379.6
561.404	9363.1
561.767	9460.73
562.129	9429.31
562.492	9544.34
562.854	9505.02
563.217	9462.99
563.579	9577.33
563.941	9590.89
564.304	9573.27
564.666	9617.78
565.028	9645.81
565.39	9619.82
565.753	9718.12
566.115	9758.35
566.477	9695.75
566.839	9782.75
567.201	9860.04
567.563	9818.46
567.925	9909.98
568.287	9891.45
568.648	9910.88
569.01	9971.9
569.372	10013.25
569.734	10001.95
570.095	10115.4
570.457	10054.83
570.819	10106.81
571.18	10075.4
571.542	10136.64
571.903	10170.54
572.265	10235.17
572.626	10204.21
572.987	10259.8
573.349	10263.64
573.71	10267.26
574.071	10328.27
574.432	10329.63
574.794	10444.43
575.155	10405.11
575.516	10373.24
575.877	10461.83
576.238	10437.42
576.599	10481.72
576.96	10491.89
577.32	10483.98
577.681	10544.54
578.042	10524.2
578.403	10603.97
578.763	10556.06
579.124	10607.36
579.485	10667.7
579.845	10732.33
580.206	10641.71
580.566	10665.67
580.927	10721.26
581.287	10707.92
581.648	10781.37
582.008	10693.24
582.368	10769.84
582.728	10762.61
583.089	10757.19
583.449	10734.82
583.809	10722.16
584.169	10786.34
584.529	10829.05
584.889	10833.35
585.249	10786.57
585.609	10802.84
585.969	10827.47
586.329	10808.04
586.688	10848.71
587.048	10917.18
587.408	10776.17
587.768	10885.55
588.127	10839.9
588.487	10889.84
588.846	10878.54
589.206	10859.11
589.565	10890.07
589.925	10964.64
590.284	10898.65
590.643	10876.73
591.003	10937.75
591.362	10914.25
591.721	10997.86
592.08	10958.54
592.44	10985.66
592.799	11028.82
593.158	10996.05
593.517	10929.39
593.876	10932.55
594.235	11021.36
594.593	11030.85
594.952	10993.79
595.311	10925.09
595.67	10974.81
596.029	11044.19
596.387	11041.25
596.746	11076.05
597.104	11018.2
597.463	11057.97
597.822	11074.69
598.18	11016.84
598.538	11014.58
598.897	11113.56
599.255	11025.88
599.613	11192.43
599.972	11157.18
600.33	11121.47
600.688	11079.21
601.046	11150.85
601.404	11163.73
601.762	11201.02
602.12	11238.08
602.478	11249.15
602.836	11175.93
603.194	11108.37
603.552	11124.64
603.91	11180.45
604.268	11140.46
604.625	11088.03
604.983	11272.66
605.341	11218.19
605.698	11282.37
606.056	11209.15
606.413	11208.7
606.771	11216.39
607.128	11182.04
607.485	11256.84
607.843	11262.26
608.2	11300.68
608.557	11342.71
608.914	11304.07
609.272	11318.76
609.629	11372.99
609.986	11303.16
610.343	11337.96
610.7	11434.46
611.057	11397.17
611.414	11415.93
611.771	11380.9
612.127	11450.5
612.484	11438.75
612.841	11371.41
613.198	11383.16
613.554	11485.76
613.911	11504.51
614.267	11488.02
614.624	11445.53
614.98	11495.7
615.337	11599.88
615.693	11586.77
616.05	11502.25
616.406	11627.67
616.762	11627.9
617.118	11543.16
617.475	11608.24
617.831	11598.75
618.187	11662.25
618.543	11668.8
618.899	11756.03
619.255	11658.18
619.611	11733.66
619.967	11781.79
620.323	11729.59
620.678	11648.46
621.034	11710.84
621.39	11719.42
621.746	11754.45
622.101	11829.7
622.457	11785.86
622.812	11772.53
623.168	11828.57
623.523	11859.76
623.879	11823.15
624.234	11781.57
624.589	11865.86
624.945	11913.09
625.3	11875.8
625.655	11862.02
626.01	11890.49
626.365	11929.14
626.72	11935.91
627.075	11888.46
627.43	11895.46
627.785	11887.55
628.14	11993.31
628.495	11963.71
628.85	11961.68
629.205	11940.66
629.559	12040.09
629.914	11931.4
630.269	12006.42
630.623	12014.56
630.978	11954.22
631.332	12055.91
631.687	12084.16
632.041	12084.61
632.396	12033.31
632.75	11897.95
633.104	12017.95
633.459	11954.22
633.813	11963.03
634.167	12029.02
634.521	11901.79
634.875	12100.66
635.229	12009.81
635.583	12020.88
635.937	12006.42
636.291	12109.92
636.645	12057.04
636.999	12031.96
637.352	12115.35
637.706	12046.19
638.06	12158.51
638.413	12135.46
638.767	12046.42
639.121	12032.41
639.474	11977.95
639.828	12065.86
640.181	12039.42
640.534	12102.24
640.888	12081.67
641.241	12139.75
641.594	12216.59
641.947	12158.96
642.301	12118.51
642.654	12091.17
643.007	12139.07
643.36	12122.8
643.713	12138.17
644.066	12175.68
644.419	12071.96
644.771	12049.58
645.124	12087.78
645.477	12056.14
645.83	12049.36
646.182	12006.2
646.535	11959.19
646.888	11919.64
647.24	11841.23
647.593	11786.77
647.945	11782.47
648.298	11775.92
648.65	11751.51
649.002	11795.35
649.355	11836.93
649.707	11965.74
650.059	12077.83
650.411	12235.34
650.763	12180.88
651.115	12298.62
651.467	12311.95
651.819	12269.47
652.171	12326.64
652.523	12279.86
652.875	12299.52
653.227	12349.92
653.578	12383.13
653.93	12393.98
654.282	12282.8
654.633	12347.66
654.985	12374.77
655.337	12380.42
655.688	12281.89
656.039	12455.45
656.391	12325.06
656.742	12423.36
657.094	12479.18
657.445	12443.02
657.796	12424.94
658.147	12413.87
658.498	12365.28
658.849	12454.09
659.2	12416.58
659.551	12396.02
659.902	12477.82
660.253	12471.49
660.604	12506.97
660.955	12419.29
661.306	12491.15
661.656	12425.85
662.007	12521.44
662.358	12455.45
662.708	12531.38
663.059	12543.36
663.409	12432.4
663.76	12574.77
664.11	12494.32
664.461	12494.54
664.811	12536.35
665.161	12505.84
665.511	12535.45
665.862	12388.11
666.212	12593.52
666.562	12549.46
666.912	12524.37
667.262	12478.27
667.612	12527.76
667.962	12457.26
668.312	12456.35
668.662	12464.04
669.011	12384.49
669.361	12363.7
669.711	12349.01
670.06	12327.77
670.41	12289.13
670.76	12370.93
671.109	12354.89
671.459	12155.12
671.808	12282.8
672.157	12283.7
672.507	12138.4
672.856	12201.44
673.205	12215.91
673.554	12221.11
673.904	12185.85
674.253	12137.94
674.602	12097.04
674.951	11958.06
675.3	11878.52
675.649	12062.24
675.998	12022.92
676.346	12033.54
676.695	12053.43
677.044	11922.81
677.393	11992.64
677.741	12021.56
678.09	11932.75
678.438	11885.52
678.787	11929.14
679.135	11873.77
679.484	11803.04
679.832	11878.74
680.181	11767.78
680.529	11822.92
680.877	11723.49
681.225	11822.02
681.573	11802.36
681.922	11654.57
682.27	11658.63
682.618	11671.52
682.966	11612.76
683.314	11647.11
683.661	11609.37
684.009	11497.06
684.357	11533.44
684.705	11507.68
685.053	11517.62
685.4	11473.33
685.748	11447.34
686.095	11364.63
686.443	11308.36
686.79	11346.33
687.138	11371.18
687.485	11357.63
687.832	11377.06
688.18	11348.36
688.527	11294.35
688.874	11285.08
689.221	11284.86
689.568	11211.64
689.915	11213.9
690.262	11274.46
690.609	11270.4
690.956	11194.92
691.303	11227.46
691.65	11079.44
691.997	11233.79
692.344	11064.53
692.69	11088.71
693.037	11098.42
693.383	11064.3
693.73	11043.96
694.077	11057.29
694.423	10984.3
694.769	10993.79
695.116	10945.66
695.462	10867.92
695.808	10896.62
696.155	10961.03
696.501	10873.57
696.847	10823.85
697.193	10791.99
697.539	10804.87
697.885	10706.57
698.231	10741.37
698.577	10687.59
698.923	10737.75
699.269	10679.68
699.614	10675.84
699.96	10704.99
700.306	10694.59
700.651	10610.53
700.997	10634.48
701.342	10680.35
701.688	10646.01
702.033	10635.16
702.379	10564.65
702.724	10647.81
703.069	10600.58
703.415	10516.29
703.76	10509.96
704.105	10609.62
704.45	10584.09
704.795	10485.56
705.14	10466.58
705.485	10497.53
705.83	10419.57
706.175	10522.39
706.52	10444.88
706.865	10471.32
707.209	10417.76
707.554	10404.43
707.899	10403.3
708.243	10358.78
708.588	10398.78
708.932	10342.06
709.277	10342.06
709.621	10396.75
709.966	10227.49
710.31	10257.77
710.654	10243.53
710.998	10267.26
711.342	10295.28
711.687	10271.33
712.031	10255.06
712.375	10238.33
712.719	10248.05
713.063	10219.58
713.407	10349.52
713.75	10185.23
714.094	10250.76
714.438	10163.08
714.782	10256.19
715.125	10157.66
715.469	10160.37
715.812	10108.39
716.156	10046.47
716.499	10145
716.843	10109.07
717.186	10083.08
717.53	10067.72
717.873	10060.03
718.216	10074.72
718.559	10029.52
718.902	9942.75
719.246	10002.63
719.589	10012.8
719.932	9993.82
720.275	9994.5
720.617	10003.99
720.96	10010.09
721.303	9994.72
721.646	10005.12
721.989	9938.91
722.331	10108.62
722.674	9977.55
723.016	9964.89
723.359	9939.13
723.701	9990.2
724.044	9973.93
724.386	9897.32
724.729	9973.48
725.071	9967.61
725.413	9879.25
725.755	9913.14
726.097	9867.04
726.439	9778.46
726.782	9799.25
727.124	9990.2
727.465	9886.7
727.807	9893.48
728.149	9889.64
728.491	9798.12
728.833	9902.75
729.175	9926.7
729.516	9948.85
729.858	9953.59
730.199	9976.19
730.541	9919.47
730.882	9853.26
731.224	9915.18
731.565	9875.86
731.906	9920.83
732.248	9877.21
732.589	9921.5
732.93	9848.74
733.271	9931.67
733.612	9928.96
733.953	9891.67
734.294	9878.12
734.635	9967.38
734.976	9967.38
735.317	9965.12
735.658	9872.92
735.999	9907.49
736.339	9901.39
736.68	10082.4
737.021	9994.05
737.361	9960.6
737.702	9996.76
738.042	10044.89
738.383	9910.21
738.723	10009.64
739.063	10037.43
739.404	10011.67
739.744	10025
740.084	9966.7
740.424	10062.29
740.764	10078.56
741.104	10169.41
741.444	10073.82
741.784	10069.52
742.124	10129.86
742.464	10176.64
742.804	10168.5
743.143	10194.04
743.483	10206.47
743.823	10153.36
744.162	10214.6
744.502	10307.26
744.841	10293.47
745.181	10376.86
745.52	10318.1
745.86	10357.43
746.199	10309.97
746.538	10331.66
746.877	10377.31
747.216	10415.5
747.556	10389.51
747.895	10407.82
748.234	10415.28
748.573	10402.17
748.911	10539.12
749.25	10477.42
749.589	10438.78
749.928	10548.15
750.267	10599
750.605	10561.49
750.944	10580.02
751.283	10591.54
751.621	10665.21
751.96	10598.55
752.298	10594.03
752.636	10724.2
752.975	10630.19
753.313	10629.51
753.651	10777.98
753.989	10686.23
754.327	10672.22
754.666	10739.79
755.004	10849.39
755.342	10883.06
755.679	10828.37
756.017	10835.38
756.355	10930.52
756.693	10850.52
757.031	10912.21
757.368	10900.91
757.706	10931.65
758.044	10863.17
758.381	10960.8
758.719	10933.23
759.056	10996.5
759.394	10994.02
759.731	10996.5
