Data from blue_clamp_base_FLMS001491_00012.txt Node
Date: Wed Feb 08 15:15:37 GMT 2017
User: dcchb
Spectrometer: FLMS00149
Trigger mode: 0
Integration Time (sec): 2.000000E-2
Scans to average: 10
Electric dark correction enabled: true
Nonlinearity correction enabled: false
Boxcar width: 0
XAxis mode: Wavelengths
Number of Pixels in Spectrum: 2048
>>>>>Begin Spectral Data<<<<<
341.393	-15.32
341.776	-15.32
342.16	-15.32
342.543	-61.65
342.927	-62.1
343.31	-72.05
343.693	-50.13
344.077	-78.6
344.46	-59.62
344.843	-51.71
345.226	-51.26
345.61	-41.31
345.993	-38.83
346.376	-29.34
346.759	13.6
347.142	51.11
347.525	54.5
347.908	55.86
348.291	76.65
348.674	93.15
349.057	127.95
349.44	145.58
349.823	117.33
350.206	155.07
350.588	232.13
350.971	214.95
351.354	220.6
351.737	234.16
352.119	239.81
352.502	258.79
352.884	260.6
353.267	291.33
353.65	288.17
354.032	309.86
354.414	299.92
354.797	299.02
355.179	303.99
355.562	335.4
355.944	336.98
356.326	344.67
356.709	336.08
357.091	332.91
357.473	332.46
357.855	327.04
358.238	340.15
358.62	333.59
359.002	336.98
359.384	331.33
359.766	350.32
360.148	342.41
360.53	335.4
360.912	323.88
361.294	346.47
361.676	339.47
362.057	348.51
362.439	347.6
362.821	301.96
363.203	329.98
363.584	350.32
363.966	322.52
364.348	353.48
364.729	331.79
365.111	309.41
365.493	324.1
365.874	303.76
366.256	300.6
366.637	333.14
367.019	297.66
367.4	325.46
367.781	322.07
368.163	320.03
368.544	344.89
368.925	296.98
369.306	331.56
369.688	319.13
370.069	296.53
370.45	329.3
370.831	333.37
371.212	320.03
371.593	326.81
371.974	331.33
372.355	327.94
372.736	320.03
373.117	305.57
373.498	321.84
373.879	344.89
374.26	327.72
374.641	312.12
375.021	320.49
375.402	328.85
375.783	315.06
376.163	339.24
376.544	339.24
376.925	338.11
377.305	313.03
377.686	341.05
378.066	362.07
378.447	348.06
378.827	336.76
379.208	348.73
379.588	353.03
379.968	338.79
380.349	345.12
380.729	340.15
381.109	370.2
381.489	345.8
381.87	346.93
382.25	367.49
382.63	370.65
383.01	355.06
383.39	365.23
383.77	342.86
384.15	368.17
384.53	379.02
384.91	366.13
385.29	362.97
385.67	390.54
386.049	358.9
386.429	360.26
386.809	399.35
387.189	381.28
387.568	381.73
387.948	408.62
388.328	383.54
388.707	365.23
389.087	369.07
389.466	408.85
389.846	409.3
390.225	409.52
390.605	419.92
390.984	417.66
391.363	438.45
391.743	438.9
392.122	408.85
392.501	415.4
392.881	443.19
393.26	448.62
393.639	440.93
394.018	449.52
394.397	448.84
394.776	443.42
395.155	457.21
395.534	476.64
395.913	474.83
396.292	464.89
396.671	464.66
397.05	474.83
397.429	478.9
397.808	464.66
398.186	501.05
398.565	497.43
398.944	500.59
399.323	501.95
399.701	483.65
400.08	504.44
400.458	507.83
400.837	507.15
401.215	532.68
401.594	517.99
401.972	519.12
402.351	529.29
402.729	534.04
403.107	523.19
403.486	547.37
403.864	534.04
404.242	552.57
404.62	555.06
404.999	574.26
405.377	572.68
405.755	593.93
406.133	599.8
406.511	607.94
406.889	603.87
407.267	595.05
407.645	613.81
408.023	619.46
408.401	608.61
408.779	644.55
409.156	647.71
409.534	647.03
409.912	639.8
410.29	649.29
410.667	645.22
411.045	669.18
411.422	683.41
411.8	700.59
412.178	709.63
412.555	728.16
412.933	741.27
413.31	729.06
413.687	718.89
414.065	740.36
414.442	760.93
414.819	753.92
415.197	764.77
415.574	789.85
415.951	794.6
416.328	819.68
416.705	810.42
417.082	804.09
417.46	810.64
417.837	824.88
418.214	833.69
418.591	826.01
418.967	835.73
419.344	844.31
419.721	887.48
420.098	854.48
420.475	905.56
420.852	890.87
421.228	892.67
421.605	901.71
421.982	922.28
422.358	934.71
422.735	955.27
423.111	935.84
423.488	960.02
423.864	950.07
424.241	977.64
424.617	979.23
424.994	980.13
425.37	1011.99
425.746	986.23
426.123	1021.48
426.499	997.3
426.875	1019.22
427.251	1060.35
427.627	1075.49
428.003	1098.32
428.379	1095.83
428.756	1122.05
429.132	1094.48
429.507	1114.82
429.883	1133.35
430.259	1157.75
430.635	1181.03
431.011	1193.01
431.387	1223.96
431.763	1240.69
432.138	1224.64
432.514	1244.53
432.89	1272.1
433.265	1285.21
433.641	1307.13
434.016	1312.78
434.392	1369.27
434.767	1353.45
435.143	1360.91
435.518	1377.63
435.894	1399.33
436.269	1399.78
436.644	1405.88
437.02	1460.34
437.395	1482.72
437.77	1458.08
438.145	1487.91
438.52	1518.19
438.895	1523.39
439.271	1499.66
439.646	1538.31
440.021	1584.18
440.395	1596.84
440.77	1561.81
441.145	1616.95
441.52	1616.72
441.895	1609.72
442.27	1678.64
442.645	1645.65
443.019	1662.6
443.394	1706.44
443.769	1740.79
444.143	1693.33
444.518	1723.84
444.892	1738.98
445.267	1748.24
445.641	1793.67
446.016	1777.4
446.39	1811.07
446.764	1811.75
447.139	1800.45
447.513	1835.47
447.887	1833.89
448.262	1864.63
448.636	1910.95
449.01	1915.92
449.384	1912.53
449.758	1946.21
450.132	1963.38
450.506	1981.69
450.88	1999.54
451.254	1970.16
451.628	1981.69
452.002	2000.22
452.376	2035.24
452.75	2096.03
453.123	2084.06
453.497	2115.92
453.871	2096.03
454.244	2142.81
454.618	2166.31
454.992	2237.27
455.365	2190.27
455.739	2277.5
456.112	2296.48
456.486	2329.47
456.859	2339.42
457.232	2362.24
457.606	2401.34
457.979	2396.82
458.352	2449.24
458.725	2430.71
459.099	2489.47
459.472	2543.25
459.845	2536.47
460.218	2583.7
460.591	2607.43
460.964	2600.65
461.337	2679.07
461.71	2706.64
462.083	2735.34
462.456	2776.92
462.829	2754.09
463.201	2799.29
463.574	2799.52
463.947	2857.37
464.32	2902.11
464.692	2909.8
465.065	2959.06
465.438	2993.18
465.81	3043.13
466.183	3060.75
466.555	3084.48
466.928	3126.29
467.3	3145.27
467.672	3189.11
468.045	3246.06
468.417	3226.85
468.789	3271.37
469.161	3307.07
469.534	3338.26
469.906	3433.85
470.278	3487.41
470.65	3464.58
471.022	3472.04
471.394	3562.66
471.766	3633.39
472.138	3640.4
472.51	3700.51
472.882	3799.72
473.253	3807.4
473.625	3829.32
473.997	3892.37
474.369	3924.01
474.74	3937.11
475.112	4010.78
475.484	4074.51
475.855	4093.27
476.227	4172.59
476.598	4260.5
476.97	4284.68
477.341	4373.26
477.713	4418.68
478.084	4447.61
478.455	4581.16
478.827	4597.21
479.198	4668.17
479.569	4677.21
479.94	4862.51
480.311	4837.2
480.682	4955.39
481.053	5036.75
481.424	5094.82
481.795	5123.07
482.166	5178.21
482.537	5279.45
482.908	5330.75
483.279	5373.46
483.65	5442.16
484.021	5555.83
484.391	5562.83
484.762	5642.61
485.133	5698.2
485.503	5741.81
485.874	5812.77
486.244	5882.15
486.615	6000.34
486.985	6006.21
487.356	6113.33
487.726	6148.81
488.097	6228.13
488.467	6229.48
488.837	6315.58
489.207	6402.81
489.578	6445.52
489.948	6518.29
490.318	6555.8
490.688	6572.3
491.058	6613.88
491.428	6687.32
491.798	6731.62
492.168	6858.62
492.538	6832.41
492.908	6917.6
493.278	6989.69
493.648	7009.12
494.017	7078.95
494.387	7072.85
494.757	7154.66
495.126	7160.53
495.496	7167.09
495.866	7184.26
496.235	7255.9
496.605	7361.2
496.974	7310.13
497.344	7389.9
497.713	7399.62
498.082	7512.39
498.452	7474.87
498.821	7447.76
499.19	7469
499.559	7551.48
499.928	7692.27
500.298	7614.08
500.667	7604.36
501.036	7678.26
501.405	7709.22
501.774	7735.43
502.143	7791.48
502.512	7834.86
502.88	7781.08
503.249	7845.49
503.618	7927.29
503.987	7925.03
504.356	7951.92
504.724	7975.2
505.093	7997.35
505.462	7980.17
505.83	7998.93
506.199	8076.89
506.567	8166.16
506.936	8120.28
507.304	8207.28
507.672	8240.05
508.041	8235.31
508.409	8285.47
508.777	8333.38
509.145	8382.19
509.514	8386.04
509.882	8387.62
510.25	8419.48
510.618	8459.03
510.986	8438.69
511.354	8526.6
511.722	8551.46
512.09	8567.73
512.458	8620.15
512.826	8665.58
513.193	8638.91
513.561	8724.56
513.929	8716.42
514.297	8742.86
514.664	8722.3
515.032	8871
515.4	8909.41
515.767	8949.64
516.135	8932.91
516.502	8882.97
516.869	9060.37
517.237	9027.6
517.604	9040.48
517.972	9058.34
518.339	9083.42
518.706	9071.67
519.073	9109.41
519.44	9190.76
519.808	9192.34
520.175	9216.75
520.542	9312.34
520.909	9372.23
521.276	9274.15
521.643	9447.93
522.009	9486.57
522.376	9499.45
522.743	9543.75
523.11	9607.47
523.477	9752.78
523.843	9678.88
524.21	9778.77
524.577	9848.15
524.943	9836.17
525.31	9920.01
525.676	9930.4
526.043	10022.6
526.409	10048.37
526.776	10160.23
527.142	10153.9
527.508	10179.89
527.874	10213.11
528.241	10235.93
528.607	10279.55
528.973	10419.2
529.339	10403.84
529.705	10436.83
530.071	10549.37
530.437	10583.94
530.803	10653.32
531.169	10616.49
531.535	10632.31
531.901	10679.08
532.267	10685.41
532.632	10708.91
532.998	10774
533.364	10803.6
533.73	10906.87
534.095	10957.27
534.461	10931.73
534.826	10994.33
535.192	10961.79
535.557	11064.61
535.923	11014.89
536.288	11121.33
536.653	11106.42
537.019	11146.42
537.384	11173.76
537.749	11273.42
538.114	11271.16
538.479	11230.26
538.845	11349.8
539.21	11227.54
539.575	11339.41
539.94	11398.16
540.305	11458.05
540.67	11431.38
541.034	11424.37
541.399	11509.57
541.764	11521.1
542.129	11564.71
542.494	11585.05
542.858	11661.88
543.223	11677.48
543.587	11671.15
543.952	11687.64
544.316	11795.89
544.681	11675.89
545.045	11797.25
545.41	11856
545.774	11823.69
546.138	11895.77
546.503	11898.03
546.867	11895.77
547.231	12016.68
547.595	12026.62
547.959	11949.56
548.324	12006.51
548.688	12083.57
549.052	12025.94
549.416	12072.95
549.779	12116.11
550.143	12096.67
550.507	12237.01
550.871	12250.79
551.235	12169.89
551.599	12354.75
551.962	12316.1
552.326	12296.22
552.689	12372.82
553.053	12324.46
553.417	12436.33
553.78	12525.81
554.143	12473.84
554.507	12505.48
554.87	12545.02
555.234	12615.08
555.597	12529.66
555.96	12605.81
556.323	12692.36
556.686	12693.95
557.05	12733.27
557.413	12747.73
557.776	12817.33
558.139	12876.31
558.502	12851.68
558.865	12914.96
559.228	13004.45
559.59	12966.26
559.953	12996.54
560.316	13155.63
560.679	13022.98
561.041	13095.07
561.404	13141.39
561.767	13373.02
562.129	13300.26
562.492	13329.86
562.854	13303.42
563.217	13346.81
563.579	13413.7
563.941	13456.19
564.304	13530.53
564.666	13628.84
565.028	13601.49
565.39	13660.47
565.753	13757.42
566.115	13760.81
566.477	13842.84
566.839	13843.29
567.201	13930.75
567.563	13942.5
567.925	14071.31
568.287	13975.04
568.648	14080.8
569.01	14111.76
569.372	14306.33
569.734	14155.38
570.095	14377.52
570.457	14395.14
570.819	14398.31
571.18	14356.28
571.542	14488.47
571.903	14421.36
572.265	14537.74
572.626	14606.21
572.987	14553.11
573.349	14631.3
573.71	14767.34
574.071	14751.07
574.432	14826.09
574.794	14842.59
575.155	14901.35
575.516	14794.46
575.877	14950.38
576.238	14980.89
576.599	15019.76
576.96	15136.14
577.32	15042.81
577.681	15142.24
578.042	15242.58
578.403	15227.44
578.763	15107.22
579.124	15244.84
579.485	15208
579.845	15339.3
580.206	15254.1
580.566	15309.24
580.927	15342.24
581.287	15447.77
581.648	15327.77
582.008	15379.07
582.368	15430.15
582.728	15485.51
583.089	15479.64
583.449	15493.87
583.809	15414.1
584.169	15538.16
584.529	15482.8
584.889	15667.43
585.249	15610.03
585.609	15476.7
585.969	15635.11
586.329	15579.52
586.688	15646.41
587.048	15583.81
587.408	15582.46
587.768	15626.52
588.127	15635.56
588.487	15587.43
588.846	15673.53
589.206	15628.33
589.565	15639.86
589.925	15764.37
590.284	15704.49
590.643	15696.8
591.003	15825.39
591.362	15821.1
591.721	15801.21
592.08	15767.99
592.44	15851.15
592.799	15886.4
593.158	15855.44
593.517	15866.52
593.876	15878.72
594.235	15822.68
594.593	15842.11
594.952	15872.39
595.311	15839.85
595.67	15856.35
596.029	15994.88
596.387	16020.41
596.746	15957.59
597.104	15964.37
597.463	15923.69
597.822	16035.33
598.18	16005.27
598.538	15881.66
598.897	16108.09
599.255	15942.22
599.613	16112.16
599.972	16031.26
600.33	16088.43
600.688	16041.88
601.046	16084.82
601.404	16240.97
601.762	16119.84
602.12	16191.93
602.478	16156
602.836	16140.18
603.194	16150.13
603.552	16193.29
603.91	16050.69
604.268	16213.18
604.625	16181.31
604.983	16183.8
605.341	16227.41
605.698	16201.2
606.056	16320.74
606.413	16367.97
606.771	16326.39
607.128	16369.56
607.485	16267.19
607.843	16279.84
608.2	16442.32
608.557	16527.74
608.914	16411.14
609.272	16551.7
609.629	16491.59
609.986	16553.28
610.343	16442.55
610.7	16587.63
611.057	16558.93
611.414	16604.58
611.771	16508.08
612.127	16637.57
612.484	16668.3
612.841	16712.15
613.198	16615.42
613.554	16640.51
613.911	16713.73
614.267	16617.01
614.624	16707.85
614.98	16761.18
615.337	16826.27
615.693	16864.23
616.05	16737.23
616.406	16862.65
616.762	16822.42
617.118	16899.03
617.475	16808.64
617.831	16953.49
618.187	16905.13
618.543	16953.49
618.899	17075.53
619.255	16983.78
619.611	17087.05
619.967	17145.81
620.323	17058.12
620.678	16924.12
621.034	17037.33
621.39	17067.39
621.746	17015.41
622.101	17228.74
622.457	17209.08
622.812	17156.2
623.168	17270.1
623.523	17246.59
623.879	17328.4
624.234	17074.62
624.589	17202.53
624.945	17259.25
625.3	17301.06
625.655	17346.03
626.01	17342.19
626.365	17442.52
626.72	17285.01
627.075	17279.14
627.43	17406.82
627.785	17407.72
628.14	17330.43
628.495	17389.19
628.85	17394.39
629.205	17369.3
629.559	17464.89
629.914	17410.88
630.269	17428.51
630.623	17356.65
630.978	17503.08
631.332	17568.85
631.687	17568.39
632.041	17541.05
632.396	17582.18
632.75	17424.22
633.104	17508.73
633.459	17575.4
633.813	17511.67
634.167	17471.22
634.521	17504.21
634.875	17531.56
635.229	17552.12
635.583	17492.69
635.937	17571.78
636.291	17535.4
636.645	17501.73
636.999	17551.22
637.352	17508.96
637.706	17473.26
638.06	17577.43
638.413	17649.52
638.767	17533.59
639.121	17608.39
639.474	17489.98
639.828	17544.89
640.181	17630.99
640.534	17626.7
640.888	17648.62
641.241	17562.52
641.594	17617.43
641.947	17613.59
642.301	17649.97
642.654	17558.9
643.007	17644.32
643.36	17672.12
643.713	17562.52
644.066	17792.12
644.419	17565.23
644.771	17582.63
645.124	17381.96
645.477	17475.29
645.83	17362.75
646.182	17265.13
646.535	17228.29
646.888	17318.68
647.24	17150.33
647.593	17320.72
647.945	17242.53
648.298	17174.96
648.65	17151.91
649.002	17155.07
649.355	17267.16
649.707	17282.07
650.059	17387.83
650.411	17645.45
650.763	17647.94
651.115	17788.05
651.467	17703.08
651.819	17831.89
652.171	17924.77
652.523	17874.15
652.875	17898.55
653.227	17785.34
653.578	17867.37
653.93	17941.04
654.282	17785.56
654.633	17786.47
654.985	17854.04
655.337	17860.14
655.688	17889.52
656.039	18021.04
656.391	17885.9
656.742	17862.85
657.094	17919.57
657.445	18019.91
657.796	17950.76
658.147	17908.72
658.498	18003.41
658.849	17915.28
659.2	17940.59
659.551	17849.52
659.902	17965.9
660.253	17959.12
660.604	18024.2
660.955	17925.22
661.306	17971.55
661.656	17877.54
662.007	18007.03
662.358	17962.51
662.708	17991.66
663.059	17878.89
663.409	17941.72
663.76	17948.72
664.11	18031.66
664.461	18013.58
664.811	18048.61
665.161	18030.53
665.511	17977.65
665.862	17915.96
666.212	18005.67
666.562	17888.61
666.912	17926.12
667.262	18013.81
667.612	17930.87
667.962	17987.37
668.312	17965.45
668.662	18056.06
669.011	17987.59
669.361	17908.5
669.711	17909.63
670.06	17978.33
670.41	17820.36
670.76	17762.97
671.109	17803.87
671.459	17774.49
671.808	17679.58
672.157	17779.91
672.507	17610.43
672.856	17608.84
673.205	17647.71
673.554	17743.98
673.904	17698.11
674.253	17750.08
674.602	17659.92
674.951	17436.42
675.3	17292.92
675.649	17574.5
675.998	17594.61
676.346	17509.64
676.695	17540.15
677.044	17388.06
677.393	17429.19
677.741	17460.15
678.09	17348.29
678.438	17322.75
678.787	17435.97
679.135	17297.44
679.484	17189.42
679.832	17315.29
680.181	17100.61
680.529	17174.96
680.877	17118.46
681.225	17003.66
681.573	17191.23
681.922	17114.85
682.27	16929.77
682.618	17031.91
682.966	16992.36
683.314	17014.28
683.661	16949.2
684.009	16819.26
684.357	16882.31
684.705	16718.7
685.053	16709.66
685.4	16788.3
685.748	16610.68
686.095	16655.65
686.443	16642.54
686.79	16650.68
687.138	16638.25
687.485	16554.64
687.832	16558.48
688.18	16604.35
688.527	16476.67
688.874	16487.52
689.221	16482.77
689.568	16447.97
689.915	16284.59
690.262	16407.07
690.609	16249.56
690.956	16191.71
691.303	16297.47
691.65	16164.14
691.997	16189.45
692.344	16086.4
692.69	16123.69
693.037	16148.32
693.383	15949.91
693.73	16108.32
694.077	15945.61
694.423	15940.64
694.769	15909
695.116	15942.9
695.462	15973.41
695.808	15822
696.155	15955.56
696.501	15817.03
696.847	15826.97
697.193	15739.97
697.539	15743.81
697.885	15741.32
698.231	15612.29
698.577	15660.42
698.923	15730.48
699.269	15586.98
699.614	15533.65
699.96	15582.91
700.306	15496.81
700.651	15512.4
700.997	15494.78
701.342	15468.11
701.688	15420.43
702.033	15436.7
702.379	15406.64
702.724	15335.68
703.069	15490.03
703.415	15277.15
703.76	15356.47
704.105	15274.22
704.45	15280.54
704.795	15243.03
705.14	15196.93
705.485	15234.22
705.83	15217.04
706.175	15193.54
706.52	15136.37
706.865	15146.31
707.209	15110.38
707.554	14983.38
707.899	15160.1
708.243	14998.97
708.588	15097.95
708.932	14940.89
709.277	14977.5
709.621	14967.56
709.966	14909.48
710.31	14939.08
710.654	14692.99
710.998	14956.26
711.342	14902.25
711.687	14850.05
712.031	14872.19
712.375	14744.51
712.719	14814.12
713.063	14747
713.407	14805.3
713.75	14779.54
714.094	14727.56
714.438	14744.29
714.782	14760.78
715.125	14682.82
715.469	14808.01
715.812	14589.72
716.156	14562.15
716.499	14548.36
716.843	14650.28
717.186	14512.43
717.53	14648.47
717.873	14601.69
718.216	14586.1
718.559	14537.29
718.902	14498.87
719.246	14452.32
719.589	14492.32
719.932	14437.18
720.275	14436.5
720.617	14518.98
720.96	14383.62
721.303	14420.23
721.646	14471.07
721.989	14380.68
722.331	14450.96
722.674	14362.15
723.016	14408.25
723.359	14404.41
723.701	14374.35
724.044	14313.56
724.386	14297.07
724.729	14345.88
725.071	14262.04
725.413	14387.69
725.755	14344.98
726.097	14251.42
726.439	14280.12
726.782	14293.9
727.124	14318.08
727.465	14323.96
727.807	14274.47
728.149	14291.64
728.491	14296.84
728.833	14323.28
729.175	14194.47
729.516	14260.23
729.858	14222.49
730.199	14171.42
730.541	14264.98
730.882	14285.32
731.224	14194.02
731.565	14210.06
731.906	14199.22
732.248	14269.05
732.589	14166
732.93	14149.95
733.271	14172.78
733.612	14202.38
733.953	14345.43
734.294	14292.55
734.635	14158.54
734.976	14271.31
735.317	14289.84
735.658	14253.45
735.999	14244.19
736.339	14274.92
736.68	14300.23
737.021	14326.9
737.361	14268.59
737.702	14394.24
738.042	14419.32
738.383	14399.21
738.723	14405.54
739.063	14457.74
739.404	14482.15
739.744	14490.06
740.084	14386.33
740.424	14521.69
740.764	14419.55
741.104	14585.65
741.444	14421.13
741.784	14480.11
742.124	14523.95
742.464	14557.4
742.804	14573.22
743.143	14561.47
743.483	14598.08
743.823	14554.69
744.162	14541.81
744.502	14676.72
744.841	14661.35
745.181	14657.74
745.52	14653.44
745.86	14710.62
746.199	14679.88
746.538	14770.28
746.877	14747
747.216	14919.42
747.556	14823.16
747.895	14902.02
748.234	14886.43
748.573	14931.63
748.911	14907.45
749.25	14917.62
749.589	14952.64
749.928	15036.71
750.267	15045.97
750.605	15075.35
750.944	15082.13
751.283	15076.26
751.621	15084.17
751.96	15133.2
752.298	15123.26
752.636	15169.59
752.975	15153.77
753.313	15168.46
753.651	15231.73
753.989	15226.08
754.327	15260.88
754.666	15166.65
755.004	15216.37
755.342	15238.96
755.679	15215.01
756.017	15260.66
