Data from blue_chair_FLMS001491_00006.txt Node
Date: Wed Feb 08 10:28:55 GMT 2017
User: dcchb
Spectrometer: FLMS00149
Trigger mode: 0
Integration Time (sec): 2.000000E-2
Scans to average: 10
Electric dark correction enabled: true
Nonlinearity correction enabled: false
Boxcar width: 0
XAxis mode: Wavelengths
Number of Pixels in Spectrum: 2048
>>>>>Begin Spectral Data<<<<<
341.393	-5.2
341.776	-5.2
342.16	-5.2
342.543	-52.43
342.927	-61.02
343.31	-67.34
343.693	-56.72
344.077	-52.65
344.46	-52.2
344.843	-50.39
345.226	-43.16
345.61	-8.14
345.993	-23.05
346.376	-6.78
346.759	7.01
347.142	11.07
347.525	30.06
347.908	60.11
348.291	51.07
348.674	92.88
349.057	108.25
349.44	113.22
349.823	117.96
350.206	156.83
350.588	168.36
350.971	176.04
351.354	215.59
351.737	202.71
352.119	214.91
352.502	229.82
352.884	248.81
353.267	257.62
353.65	237.73
354.032	269.6
354.414	282.7
354.797	286.32
355.179	284.06
355.562	297.62
355.944	298.07
356.326	307.56
356.709	294.46
357.091	281.57
357.473	317.96
357.855	317.96
358.238	302.14
358.62	315.25
359.002	313.66
359.384	309.37
359.766	309.6
360.148	305.53
360.53	338.97
360.912	313.44
361.294	312.76
361.676	308.92
362.057	321.12
362.439	279.77
362.821	311.18
363.203	310.73
363.584	299.65
363.966	283.83
364.348	301.46
364.729	306.43
365.111	282.03
365.493	290.84
365.874	290.61
366.256	294.23
366.637	293.1
367.019	268.92
367.4	283.61
367.781	280.22
368.163	278.18
368.544	277.51
368.925	279.99
369.306	283.16
369.688	263.04
370.069	261.91
370.45	264.85
370.831	276.15
371.212	255.81
371.593	295.59
371.974	300.11
372.355	297.62
372.736	262.82
373.117	289.71
373.498	296.04
373.879	285.87
374.26	296.04
374.641	274.34
375.021	279.31
375.402	314.57
375.783	285.87
376.163	279.99
376.544	293.1
376.925	287.68
377.305	278.64
377.686	271.63
378.066	283.38
378.447	293.33
378.827	271.41
379.208	288.81
379.588	284.06
379.968	294.68
380.349	298.3
380.729	325.64
381.109	304.4
381.489	282.48
381.87	285.42
382.25	293.33
382.63	278.41
383.01	302.82
383.39	299.43
383.77	291.52
384.15	299.43
384.53	298.98
384.91	300.33
385.29	299.2
385.67	304.17
386.049	272.31
386.429	308.92
386.809	302.14
387.189	310.27
387.568	299.65
387.948	295.36
388.328	323.83
388.707	310.05
389.087	312.76
389.466	303.04
389.846	298.75
390.225	314.57
390.605	312.53
390.984	291.97
391.363	316.15
391.743	327.9
392.122	315.47
392.501	319.77
392.881	315.02
393.26	311.63
393.639	311.18
394.018	305.75
394.397	314.57
394.776	316.15
395.155	327.45
395.534	319.99
395.913	324.74
396.292	324.96
396.671	343.95
397.05	326.32
397.429	334.68
397.808	332.19
398.186	319.99
398.565	339.88
398.944	329.48
399.323	313.66
399.701	343.72
400.08	319.99
400.458	334.91
400.837	345.75
401.215	324.74
401.594	324.29
401.972	344.85
402.351	316.6
402.729	350.5
403.107	348.47
403.486	343.49
403.864	347.11
404.242	348.01
404.62	338.3
404.999	354.34
405.377	356.37
405.755	355.02
406.133	359.31
406.511	333.55
406.889	356.83
407.267	358.86
407.645	349.82
408.023	384.85
408.401	375.13
408.779	359.76
409.156	374.45
409.534	369.48
409.912	378.07
410.29	400.89
410.667	382.36
411.045	378.3
411.422	402.25
411.8	388.01
412.178	378.07
412.555	406.32
412.933	379.43
413.31	407.67
413.687	401.12
414.065	409.93
414.442	390.5
414.819	409.71
415.197	407.22
415.574	403.15
415.951	401.35
416.328	392.76
416.705	416.71
417.082	404.96
417.46	406.32
417.837	414.68
418.214	412.42
418.591	408.35
418.967	452.19
419.344	451.29
419.721	412.64
420.098	407.45
420.475	414.23
420.852	441.57
421.228	432.98
421.605	443.15
421.982	422.36
422.358	430.95
422.735	433.43
423.111	437.5
423.488	455.58
423.864	432.08
424.241	452.19
424.617	442.47
424.994	446.99
425.37	475.02
425.746	473.66
426.123	485.18
426.499	453.1
426.875	474.79
427.251	471.4
427.627	501.23
428.003	460.33
428.379	484.06
428.756	494.45
429.132	479.99
429.507	503.72
429.883	485.41
430.259	493.77
430.635	517.27
431.011	502.36
431.387	515.92
431.763	534
432.138	522.92
432.514	534.45
432.89	549.14
433.265	540.55
433.641	559.31
434.016	536.94
434.392	541.23
434.767	560.21
435.143	563.83
435.518	551.17
435.894	574.22
436.269	581.23
436.644	574.9
437.02	568.57
437.395	605.41
437.77	611.74
438.145	605.63
438.52	631.62
438.895	611.06
439.271	621.23
439.646	647.67
440.021	636.37
440.395	642.02
440.77	630.49
441.145	654.67
441.52	656.25
441.895	667.55
442.27	662.13
442.645	671.85
443.019	659.42
443.394	669.13
443.769	687.44
444.143	699.64
444.518	690.38
444.892	717.04
445.267	707.1
445.641	692.19
446.016	722.47
446.39	709.13
446.764	716.37
447.139	722.92
447.513	719.76
447.887	708.46
448.262	722.24
448.636	739.87
449.01	738.51
449.384	744.61
449.758	738.74
450.132	757.04
450.506	766.31
450.88	748.23
451.254	757.95
451.628	773.54
452.002	769.02
452.376	773.31
452.75	791.39
453.123	805.63
453.497	802.92
453.871	823.93
454.244	827.1
454.618	809.24
454.992	816.02
455.365	832.07
455.739	844.05
456.112	848.57
456.486	825.06
456.859	858.51
457.232	842.69
457.606	862.58
457.979	858.06
458.352	876.81
458.725	901.67
459.099	889.47
459.472	920.2
459.845	910.71
460.218	881.78
460.591	916.59
460.964	929.92
461.337	926.98
461.71	924.04
462.083	929.24
462.456	922.24
462.829	937.38
463.201	968.34
463.574	978.05
463.947	971.27
464.32	962.23
464.692	972.86
465.065	963.59
465.438	1010.59
465.81	975.34
466.183	997.04
466.555	1028.9
466.928	1049.24
467.3	1031.16
467.672	1027.77
468.045	1060.31
468.417	1061.67
468.789	1034.55
469.161	1059.18
469.534	1046.75
469.906	1086.75
470.278	1087.66
470.65	1099.86
471.022	1114.32
471.394	1117.48
471.766	1126.07
472.138	1143.02
472.51	1152.74
472.882	1164.49
473.253	1180.99
473.625	1175.11
473.997	1169.46
474.369	1180.53
474.74	1205.17
475.112	1211.49
475.484	1229.57
475.855	1236.35
476.227	1254.88
476.598	1277.93
476.97	1279.97
477.341	1278.84
477.713	1297.14
478.084	1295.56
478.455	1319.29
478.827	1316.35
479.198	1346.41
479.569	1339.17
479.94	1340.98
480.311	1358.83
480.682	1394.77
481.053	1394.77
481.424	1412.39
481.795	1418.95
482.166	1413.3
482.537	1439.96
482.908	1448.32
483.279	1441.77
483.65	1477.25
484.021	1470.24
484.391	1484.71
484.762	1500.53
485.133	1472.28
485.503	1500.98
485.874	1525.16
486.244	1505.27
486.615	1526.06
486.985	1528.77
487.356	1556.8
487.726	1556.12
488.097	1535.1
488.467	1591.14
488.837	1566.96
489.207	1599.96
489.578	1623.23
489.948	1624.59
490.318	1636.57
490.688	1582.33
491.058	1609.45
491.428	1638.38
491.798	1627.3
492.168	1610.58
492.538	1633.4
492.908	1646.28
493.278	1686.51
493.648	1653.74
494.017	1638.6
494.387	1654.65
494.757	1671.59
495.126	1639.28
495.496	1627.53
495.866	1671.14
496.235	1657.81
496.605	1646.96
496.974	1651.48
497.344	1650.8
497.713	1642.89
498.082	1657.13
498.452	1636.57
498.821	1650.35
499.19	1655.32
499.559	1658.71
499.928	1642.22
500.298	1658.04
500.667	1627.08
501.036	1641.54
501.405	1641.54
501.774	1613.06
502.143	1632.5
502.512	1635.44
502.88	1648.54
503.249	1625.04
503.618	1618.04
503.987	1615.32
504.356	1628.88
504.724	1614.42
505.093	1629.11
505.462	1596.12
505.83	1587.3
506.199	1612.84
506.567	1628.21
506.936	1597.02
507.304	1614.42
507.672	1610.35
508.041	1558.83
508.409	1621.2
508.777	1600.41
509.145	1601.99
509.514	1582.11
509.882	1585.04
510.25	1588.66
510.618	1592.5
510.986	1581.2
511.354	1551.37
511.722	1545.04
512.09	1583.01
512.458	1555.89
512.826	1559.73
513.193	1569.45
513.561	1554.08
513.929	1547.08
514.297	1547.98
514.664	1543.91
515.032	1534.2
515.4	1538.26
515.767	1520.19
516.135	1518.83
516.502	1488.32
516.869	1517.7
517.237	1512.05
517.604	1479.51
517.972	1469.79
518.339	1485.38
518.706	1486.51
519.073	1470.47
519.44	1470.92
519.808	1465.72
520.175	1468.44
520.542	1450.81
520.909	1484.03
521.276	1464.82
521.643	1444.03
522.009	1466.18
522.376	1452.39
522.743	1426.63
523.11	1423.47
523.477	1465.95
523.843	1441.09
524.21	1459.85
524.577	1460.98
524.943	1453.75
525.31	1443.58
525.676	1457.36
526.043	1428.66
526.409	1414.65
526.776	1451.04
527.142	1437.48
527.508	1427.31
527.874	1452.62
528.241	1431.15
528.607	1440.64
528.973	1466.4
529.339	1421.88
529.705	1438.61
530.071	1458.27
530.437	1438.83
530.803	1412.17
531.169	1434.31
531.535	1391.6
531.901	1410.13
532.267	1427.99
532.632	1422.79
532.998	1407.42
533.364	1432.28
533.73	1441.77
534.095	1418.95
534.461	1381.66
534.826	1422.79
535.192	1430.7
535.557	1438.61
535.923	1395.44
536.288	1394.31
536.653	1434.76
537.019	1405.39
537.384	1413.07
537.749	1391.83
538.114	1405.16
538.479	1400.42
538.845	1391.83
539.21	1364.94
539.575	1397.25
539.94	1373.3
540.305	1402.45
540.67	1399.74
541.034	1386.18
541.399	1406.29
541.764	1354.54
542.129	1363.81
542.494	1375.33
542.858	1364.94
543.223	1378.95
543.587	1379.85
543.952	1386.4
544.316	1382.34
544.681	1383.69
545.045	1372.17
545.41	1376.46
545.774	1369.91
546.138	1351.6
546.503	1341.43
546.867	1387.99
547.231	1365.39
547.595	1337.37
547.959	1345.95
548.324	1339.17
548.688	1354.31
549.052	1336.24
549.416	1306.86
549.779	1328.78
550.143	1302.34
550.507	1312.73
550.871	1315.22
551.235	1301.89
551.599	1323.36
551.962	1302.79
552.326	1323.58
552.689	1336.69
553.053	1329
553.417	1326.52
553.78	1329.91
554.143	1324.03
554.507	1294.2
554.87	1312.51
555.234	1337.59
555.597	1298.04
555.96	1307.54
556.323	1299.85
556.686	1297.37
557.05	1310.47
557.413	1297.37
557.776	1312.73
558.139	1282.23
558.502	1314.32
558.865	1274.54
559.228	1300.3
559.59	1289.68
559.953	1312.73
560.316	1312.51
560.679	1293.3
561.041	1300.76
561.404	1320.87
561.767	1316.12
562.129	1285.39
562.492	1327.65
562.854	1294.66
563.217	1306.63
563.579	1303.24
563.941	1293.53
564.304	1294.66
564.666	1300.98
565.028	1331.26
565.39	1313.19
565.753	1322
566.115	1326.74
566.477	1316.35
566.839	1302.79
567.201	1319.29
567.563	1313.19
567.925	1347.54
568.287	1305.28
568.648	1328.33
569.01	1314.09
569.372	1342.11
569.734	1336.24
570.095	1366.29
570.457	1351.38
570.819	1351.6
571.18	1350.02
571.542	1359.06
571.903	1341.21
572.265	1348.89
572.626	1333.3
572.987	1384.6
573.349	1381.66
573.71	1369.68
574.071	1378.95
574.432	1359.51
574.794	1389.12
575.155	1385.5
575.516	1377.59
575.877	1375.78
576.238	1392.51
576.599	1393.64
576.96	1410.13
577.32	1424.82
577.681	1420.3
578.042	1413.52
578.403	1401.77
578.763	1411.49
579.124	1400.64
579.485	1447.19
579.845	1442.67
580.206	1437.48
580.566	1429.57
580.927	1439.51
581.287	1445.16
581.648	1426.18
582.008	1433.86
582.368	1456.68
582.728	1449.91
583.089	1439.74
583.449	1479.74
583.809	1472.28
584.169	1462.79
584.529	1440.64
584.889	1430.47
585.249	1465.5
585.609	1453.07
585.969	1458.27
586.329	1470.24
586.688	1479.51
587.048	1474.09
587.408	1481.32
587.768	1460.75
588.127	1473.63
588.487	1436.8
588.846	1480.64
589.206	1502.79
589.565	1464.59
589.925	1482.22
590.284	1467.76
590.643	1472.28
591.003	1463.92
591.362	1456.68
591.721	1501.66
592.08	1504.14
592.44	1507.08
592.799	1479.06
593.158	1478.38
593.517	1476.8
593.876	1470.02
594.235	1491.71
594.593	1477.7
594.952	1493.29
595.311	1491.71
595.67	1484.93
596.029	1489.23
596.387	1492.62
596.746	1496.01
597.104	1464.59
597.463	1490.81
597.822	1460.53
598.18	1471.83
598.538	1465.72
598.897	1478.61
599.255	1463.69
599.613	1502.33
599.972	1473.86
600.33	1476.8
600.688	1455.78
601.046	1458.49
601.404	1476.12
601.762	1448.1
602.12	1470.92
602.478	1466.18
602.836	1458.72
603.194	1476.12
603.552	1482.45
603.91	1452.62
604.268	1463.92
604.625	1490.36
604.983	1470.47
605.341	1505.5
605.698	1462.79
606.056	1482.45
606.413	1457.36
606.771	1476.12
607.128	1493.29
607.485	1448.55
607.843	1482.22
608.2	1486.06
608.557	1481.54
608.914	1500.98
609.272	1481.32
609.629	1492.84
609.986	1498.04
610.343	1487.87
610.7	1498.94
611.057	1482.67
611.414	1491.49
611.771	1480.87
612.127	1506.4
612.484	1473.18
612.841	1470.47
613.198	1461.66
613.554	1485.16
613.911	1497.14
614.267	1484.48
614.624	1485.84
614.98	1492.84
615.337	1519.73
615.693	1495.78
616.05	1494.65
616.406	1505.05
616.762	1517.47
617.118	1492.16
617.475	1487.87
617.831	1503.46
618.187	1494.42
618.543	1488.1
618.899	1510.02
619.255	1497.81
619.611	1495.1
619.967	1536
620.323	1500.3
620.678	1515.44
621.034	1509.56
621.39	1484.93
621.746	1459.85
622.101	1530.58
622.457	1529.68
622.812	1488.1
623.168	1510.47
623.523	1515.89
623.879	1519.51
624.234	1503.46
624.589	1538.04
624.945	1516.57
625.3	1539.85
625.655	1528.1
626.01	1509.56
626.365	1544.59
626.72	1533.29
627.075	1519.73
627.43	1526.97
627.785	1519.73
628.14	1514.76
628.495	1522.67
628.85	1531.94
629.205	1527.64
629.559	1557.93
629.914	1506.18
630.269	1529
630.623	1522.9
630.978	1521.09
631.332	1539.17
631.687	1511.6
632.041	1492.16
632.396	1520.86
632.75	1533.74
633.104	1516.12
633.459	1503.69
633.813	1506.18
634.167	1509.34
634.521	1551.82
634.875	1549.56
635.229	1533.52
635.583	1502.33
635.937	1553.86
636.291	1522.45
636.645	1523.58
636.999	1546.4
637.352	1535.78
637.706	1501.43
638.06	1536.68
638.413	1523.8
638.767	1533.07
639.121	1521.99
639.474	1493.29
639.828	1513.18
640.181	1526.06
640.534	1518.15
640.888	1536.23
641.241	1524.48
641.594	1520.41
641.947	1555.21
642.301	1543.69
642.654	1514.08
643.007	1541.43
643.36	1543.24
643.713	1527.42
644.066	1550.92
644.419	1556.57
644.771	1507.98
645.124	1491.26
645.477	1540.75
645.83	1521.09
646.182	1531.94
646.535	1518.15
646.888	1504.82
647.24	1501.2
647.593	1534.87
647.945	1492.39
648.298	1533.07
648.65	1505.5
649.002	1492.62
649.355	1539.85
649.707	1509.11
650.059	1520.64
650.411	1553.41
650.763	1597.92
651.115	1547.53
651.467	1568.55
651.819	1580.98
652.171	1597.92
652.523	1588.66
652.875	1571.03
653.227	1561.99
653.578	1553.86
653.93	1602.22
654.282	1577.81
654.633	1586.4
654.985	1574.2
655.337	1593.18
655.688	1576.23
656.039	1591.6
656.391	1571.94
656.742	1591.14
657.094	1590.92
657.445	1576.91
657.796	1584.59
658.147	1581.43
658.498	1597.02
658.849	1609.68
659.2	1622.78
659.551	1610.13
659.902	1606.51
660.253	1610.13
660.604	1613.52
660.955	1626.4
661.306	1620.75
661.656	1617.58
662.007	1585.04
662.358	1614.87
662.708	1621.65
663.059	1604.48
663.409	1630.92
663.76	1619.62
664.11	1612.61
664.461	1616.23
664.811	1614.19
665.161	1628.88
665.511	1638.15
665.862	1645.15
666.212	1617.36
666.562	1611.48
666.912	1640.41
667.262	1641.54
667.612	1589.11
667.962	1646.96
668.312	1614.65
668.662	1605.83
669.011	1623.23
669.361	1626.17
669.711	1619.17
670.06	1628.88
670.41	1609
670.76	1591.82
671.109	1621.43
671.459	1625.95
671.808	1600.41
672.157	1622.78
672.507	1599.96
672.856	1601.31
673.205	1619.62
673.554	1573.52
673.904	1592.05
674.253	1570.13
674.602	1579.85
674.951	1557.25
675.3	1553.63
675.649	1591.6
675.998	1576.23
676.346	1577.36
676.695	1554.54
677.044	1585.27
677.393	1574.42
677.741	1573.52
678.09	1586.85
678.438	1604.25
678.787	1582.11
679.135	1580.3
679.484	1549.79
679.832	1560.64
680.181	1562.67
680.529	1564.7
680.877	1531.71
681.225	1547.76
681.573	1536.91
681.922	1545.95
682.27	1561.09
682.618	1537.13
682.966	1533.74
683.314	1562.44
683.661	1551.6
684.009	1554.08
684.357	1510.47
684.705	1540.75
685.053	1514.76
685.4	1523.12
685.748	1489
686.095	1472.96
686.443	1515.44
686.79	1478.15
687.138	1480.87
687.485	1492.16
687.832	1502.33
688.18	1486.06
688.527	1486.06
688.874	1475.22
689.221	1482.67
689.568	1458.27
689.915	1446.06
690.262	1457.81
690.609	1453.07
690.956	1474.31
691.303	1460.75
691.65	1455.78
691.997	1448.1
692.344	1467.08
692.69	1439.06
693.037	1448.55
693.383	1429.34
693.73	1440.19
694.077	1406.06
694.423	1403.8
694.769	1414.88
695.116	1381.88
695.462	1446.06
695.808	1403.13
696.155	1394.54
696.501	1374.43
696.847	1385.5
697.193	1384.6
697.539	1387.76
697.885	1362.68
698.231	1377.36
698.577	1375.56
698.923	1384.6
699.269	1384.37
699.614	1336.91
699.96	1349.12
700.306	1378.49
700.651	1379.4
700.997	1355.67
701.342	1357.48
701.688	1354.99
702.033	1361.55
702.379	1327.42
702.724	1308.67
703.069	1355.22
703.415	1364.94
703.76	1350.02
704.105	1357.48
704.45	1334.65
704.795	1358.16
705.14	1353.41
705.485	1330.36
705.83	1335.11
706.175	1350.92
706.52	1344.82
706.865	1329
707.209	1326.29
707.554	1329
707.899	1311.6
708.243	1323.81
708.588	1327.2
708.932	1330.36
709.277	1353.64
709.621	1336.46
709.966	1301.89
710.31	1352.51
710.654	1349.12
710.998	1344.6
711.342	1332.17
711.687	1321.1
712.031	1315.22
712.375	1316.12
712.719	1325.61
713.063	1322.23
713.407	1336.01
713.75	1308.21
714.094	1341.43
714.438	1319.51
714.782	1375.56
715.125	1348.67
715.469	1357.93
715.812	1333.52
716.156	1333.3
716.499	1352.96
716.843	1353.64
717.186	1345.28
717.53	1381.66
717.873	1365.61
718.216	1339.17
718.559	1365.16
718.902	1335.56
719.246	1359.96
719.589	1387.99
719.932	1403.58
720.275	1364.94
720.617	1393.18
720.96	1409.23
721.303	1374.65
721.646	1394.54
721.989	1413.07
722.331	1416.91
722.674	1392.51
723.016	1402.45
723.359	1447.19
723.701	1436.8
724.044	1407.42
724.386	1435.22
724.729	1423.01
725.071	1471.83
725.413	1452.84
725.755	1440.19
726.097	1464.59
726.439	1443.8
726.782	1481.09
727.124	1482.67
727.465	1465.05
727.807	1490.58
728.149	1479.06
728.491	1465.05
728.833	1481.77
729.175	1516.8
729.516	1518.38
729.858	1521.09
730.199	1540.07
730.541	1527.42
730.882	1537.59
731.224	1569.68
731.565	1541.2
731.906	1559.96
732.248	1589.34
732.589	1533.74
732.93	1597.7
733.271	1607.64
733.612	1588.21
733.953	1604.93
734.294	1632.73
734.635	1639.28
734.976	1645.61
735.317	1644.7
735.658	1673.18
735.999	1690.35
736.339	1681.54
736.68	1686.51
737.021	1703.91
737.361	1712.95
737.702	1703.23
738.042	1712.05
738.383	1770.12
738.723	1772.83
739.063	1779.16
739.404	1757.02
739.744	1776
740.084	1804.47
740.424	1824.36
740.764	1858.71
741.104	1865.04
741.444	1889.22
741.784	1856.9
742.124	1933.51
742.464	1930.34
742.804	1940.51
743.143	1971.47
743.483	1994.52
743.823	2013.28
744.162	2061.64
744.502	2058.25
744.841	2075.65
745.181	2113.39
745.52	2110.68
745.86	2168.3
746.199	2201.07
746.538	2190.9
746.877	2235.42
747.216	2263.44
747.556	2309.09
747.895	2384.57
748.234	2376.43
748.573	2414.4
748.911	2418.69
749.25	2436.55
749.589	2503.21
749.928	2550.89
750.267	2555.41
750.605	2628.18
750.944	2659.37
751.283	2703.21
751.621	2770.77
751.96	2771.9
752.298	2813.03
752.636	2825.01
752.975	2911.11
753.313	2914.73
753.651	2974.84
753.989	3053.71
754.327	3061.84
754.666	3163.76
755.004	3201.5
755.342	3222.51
755.679	3302.96
756.017	3310.2
756.355	3366.47
756.693	3381.61
757.031	3471.77
757.368	3556.74
757.706	3591.32
758.044	3667.02
758.381	3691.65
758.719	3748.15
759.056	3768.26
759.394	3847.58
759.731	3856.62
760.068	3978.65
760.405	4003.06
760.743	4035.15
761.08	4154.69
761.417	4147.91
761.754	4213
762.091	4201.47
762.428	4337.06
762.765	4321.47
763.102	4392.2
763.438	4475.14
763.775	4488.24
764.112	4539.99
764.449	4631.06
764.785	4644.4
765.122	4621.8
765.458	4713.1
765.795	4737.73
766.131	4783.15
766.467	4875.35
766.804	4894.33
767.14	4883.49
767.476	4940.66
767.812	4976.59
768.148	5036.7
768.485	5075.8
768.821	5084.84
769.157	5117.38
769.492	5138.17
769.828	5200.99
770.164	5280.77
770.5	5232.86
770.836	5280.54
771.171	5299.75
771.507	5348.56
