Data from blue_surface_keyboard_FLMS001491_087.txt Node
Date: Tue Feb 07 11:13:47 GMT 2017
User: dcchb
Spectrometer: FLMS00149
Trigger mode: 0
Integration Time (sec): 2.000000E-2
Scans to average: 10
Electric dark correction enabled: true
Nonlinearity correction enabled: false
Boxcar width: 0
XAxis mode: Wavelengths
Number of Pixels in Spectrum: 2048
>>>>>Begin Spectral Data<<<<<
341.393	-16.96
341.776	-16.96
342.16	-16.96
342.543	-76.62
342.927	-78.43
343.31	-82.95
343.693	-90.63
344.077	-79.79
344.46	-56.51
344.843	-59.22
345.226	-33.46
345.61	-6.79
345.993	-11.77
346.376	-0.92
346.759	15.35
347.142	25.3
347.525	40.89
347.908	75.46
348.291	90.15
348.674	86.99
349.057	87.89
349.44	134.67
349.823	142.58
350.206	157.27
350.588	158.63
350.971	185.07
351.354	225.29
351.737	209.92
352.119	232.52
352.502	226.65
352.884	245.4
353.267	277.49
353.65	289.7
354.032	279.07
354.414	295.8
354.797	297.15
355.179	313.42
355.562	294.44
355.944	299.64
356.326	314.78
356.709	315.01
357.091	316.59
357.473	322.69
357.855	324.5
358.238	335.57
358.62	319.07
359.002	319.3
359.384	312.52
359.766	321.33
360.148	314.55
360.53	308
360.912	324.72
361.294	308.68
361.676	305.97
362.057	310.03
362.439	311.39
362.821	299.64
363.203	284.72
363.584	295.8
363.966	298.06
364.348	310.94
364.729	299.41
365.111	283.82
365.493	295.57
365.874	313.2
366.256	287.66
366.637	312.97
367.019	283.59
367.4	313.65
367.781	283.59
368.163	281.79
368.544	305.97
368.925	289.47
369.306	290.6
369.688	275.01
370.069	271.17
370.45	292.41
370.831	293.54
371.212	308.45
371.593	276.81
371.974	293.31
372.355	276.59
372.736	258.28
373.117	273.2
373.498	287.44
373.879	290.83
374.26	281.11
374.641	285.18
375.021	276.14
375.402	280.2
375.783	307.32
376.163	273.65
376.544	300.32
376.925	298.06
377.305	289.92
377.686	276.59
378.066	304.61
378.447	297.83
378.827	299.86
379.208	282.69
379.588	289.7
379.968	294.67
380.349	315.01
380.729	310.49
381.109	304.38
381.489	311.84
381.87	301.67
382.25	295.8
382.63	290.15
383.01	312.52
383.39	314.55
383.77	305.74
384.15	302.12
384.53	311.84
384.91	300.99
385.29	328.56
385.67	307.1
386.049	299.64
386.429	318.62
386.809	309.13
387.189	303.71
387.568	315.91
387.948	316.59
388.328	306.42
388.707	308.23
389.087	314.33
389.466	291.96
389.846	336.93
390.225	333.99
390.605	305.74
390.984	316.14
391.363	327.43
391.743	334.44
392.122	295.12
392.501	326.98
392.881	326.98
393.26	336.7
393.639	330.82
394.018	326.76
394.397	310.71
394.776	340.54
395.155	352.07
395.534	322.46
395.913	327.89
396.292	341.67
396.671	330.15
397.05	327.89
397.429	341.45
397.808	346.87
398.186	339.86
398.565	341.67
398.944	330.82
399.323	352.74
399.701	346.64
400.08	336.25
400.458	317.72
400.837	351.84
401.215	339.86
401.594	357.72
401.972	338.51
402.351	340.77
402.729	345.74
403.107	351.62
403.486	353.65
403.864	372.18
404.242	363.14
404.62	351.84
404.999	347.32
405.377	356.36
405.755	370.15
406.133	354.55
406.511	355.23
406.889	360.2
407.267	364.27
407.645	354.78
408.023	353.65
408.401	368.56
408.779	349.81
409.156	365.63
409.534	363.59
409.912	354.78
410.29	350.26
410.667	362.69
411.045	363.37
411.422	357.72
411.8	382.35
412.178	385.51
412.555	366.53
412.933	372.63
413.31	385.29
413.687	369.47
414.065	377.83
414.442	396.59
414.819	378.28
415.197	377.15
415.574	380.54
415.951	386.19
416.328	389.13
416.705	385.51
417.082	401.11
417.46	391.39
417.837	380.31
418.214	399.75
418.591	411.5
418.967	409.24
419.344	399.3
419.721	381.44
420.098	402.24
420.475	395.23
420.852	410.37
421.228	420.31
421.605	421.67
421.982	403.14
422.358	404.95
422.735	434.1
423.111	398.62
423.488	405.85
423.864	418.96
424.241	413.08
424.617	433.87
424.994	429.58
425.37	410.14
425.746	432.29
426.123	427.55
426.499	431.39
426.875	413.53
427.251	447.21
427.627	442.23
428.003	433.87
428.379	419.86
428.756	438.17
429.132	457.6
429.507	446.3
429.883	451.95
430.259	444.95
430.635	451.73
431.011	438.39
431.387	458.5
431.763	447.66
432.138	444.72
432.514	459.86
432.89	442.69
433.265	456.92
433.641	463.7
434.016	463.7
434.392	495.34
434.767	473.87
435.143	493.53
435.518	464.61
435.894	478.39
436.269	490.14
436.644	505.28
437.02	498.28
437.395	484.94
437.77	490.37
438.145	498.96
438.52	493.31
438.895	500.99
439.271	512.29
439.646	503.25
440.021	527.66
440.395	515
440.77	496.47
441.145	496.92
441.52	515.9
441.895	508
442.27	522.01
442.645	538.05
443.019	525.62
443.394	528.56
443.769	547.99
444.143	512.74
444.518	527.43
444.892	521.78
445.267	543.47
445.641	560.88
446.016	520.88
446.39	534.66
446.764	541.89
447.139	543.7
447.513	546.41
447.887	552.06
448.262	545.73
448.636	560.65
449.01	573.76
449.384	555.68
449.758	577.82
450.132	571.27
450.506	555.45
450.88	556.13
451.254	571.95
451.628	549.58
452.002	586.86
452.376	575.79
452.75	576.69
453.123	601.78
453.497	589.57
453.871	594.09
454.244	587.32
454.618	595.22
454.992	598.16
455.365	607.43
455.739	606.75
456.112	641.32
456.486	614.66
456.859	624.6
457.232	602.23
457.606	632.51
457.979	620.31
458.352	638.61
458.725	635.9
459.099	627.99
459.472	647.2
459.845	640.2
460.218	645.62
460.591	658.05
460.964	662.34
461.337	670.02
461.71	684.71
462.083	672.06
462.456	665.05
462.829	700.53
463.201	687.2
463.574	673.41
463.947	691.95
464.32	691.04
464.692	687.2
465.065	708.22
465.438	716.35
465.81	723.13
466.183	743.02
466.555	719.97
466.928	740.31
467.3	746.86
467.672	732.85
468.045	744.83
468.417	768.55
468.789	765.39
469.161	736.01
469.534	776.69
469.906	785.73
470.278	766.52
470.65	794.77
471.022	791.6
471.394	790.02
471.766	804.94
472.138	830.02
472.51	804.03
472.882	822.56
473.253	825.05
473.625	825.95
473.997	858.27
474.369	867.99
474.74	876.12
475.112	876.12
475.484	883.13
475.855	874.54
476.227	897.36
476.598	895.56
476.97	906.4
477.341	917.48
477.713	912.73
478.084	943.46
478.455	971.26
478.827	960.64
479.198	969.23
479.569	987.3
479.94	976.23
480.311	975.55
480.682	981.43
481.053	1022.11
481.424	1010.35
481.795	1038.15
482.166	1022.56
482.537	1052.39
482.908	1066.85
483.279	1072.95
483.65	1073.4
484.021	1079.28
484.391	1086.74
484.762	1098.26
485.133	1083.8
485.503	1090.58
485.874	1122.44
486.244	1148.2
486.615	1181.2
486.985	1145.49
487.356	1185.27
487.726	1195.89
488.097	1168.77
488.467	1172.16
488.837	1168.54
489.207	1179.16
489.578	1208.32
489.948	1232.04
490.318	1215.1
490.688	1231.37
491.058	1255.09
491.428	1263.68
491.798	1274.53
492.168	1293.51
492.538	1255.09
492.908	1283.34
493.278	1301.87
493.648	1280.86
494.017	1285.38
494.387	1326.5
494.757	1308.88
495.126	1302.78
495.496	1310.46
495.866	1295.32
496.235	1304.81
496.605	1316.79
496.974	1333.28
497.344	1334.87
497.713	1360.18
498.082	1344.58
498.452	1362.21
498.821	1355.2
499.19	1347.97
499.559	1358.59
499.928	1365.83
500.298	1395.88
500.667	1375.54
501.036	1389.78
501.405	1371.25
501.774	1370.12
502.143	1398.82
502.512	1410.12
502.88	1401.3
503.249	1397.01
503.618	1396.11
503.987	1403.11
504.356	1398.37
504.724	1400.85
505.093	1387.29
505.462	1425.03
505.83	1431.13
506.199	1421.19
506.567	1415.99
506.936	1432.49
507.304	1439.04
507.672	1457.35
508.041	1430.91
508.409	1458.25
508.777	1500.96
509.145	1436.56
509.514	1474.3
509.882	1479.95
510.25	1458.25
510.618	1477.24
510.986	1485.37
511.354	1479.04
511.722	1505.26
512.09	1474.52
512.458	1472.72
512.826	1500.51
513.193	1499.38
513.561	1475.88
513.929	1514.75
514.297	1488.53
514.664	1507.97
515.032	1517.91
515.4	1513.62
515.767	1532.6
516.135	1541.19
516.502	1530.34
516.869	1506.39
517.237	1545.71
517.604	1508.65
517.972	1522.21
518.339	1521.08
518.706	1566.95
519.073	1545.48
519.44	1551.81
519.808	1577.12
520.175	1539.61
520.542	1558.14
520.909	1529.44
521.276	1548.65
521.643	1564.46
522.009	1551.58
522.376	1583.45
522.743	1554.52
523.11	1574.86
523.477	1597.23
523.843	1566.95
524.21	1621.64
524.577	1597.01
524.943	1605.14
525.31	1604.69
525.676	1618.25
526.043	1620.51
526.409	1624.8
526.776	1630.45
527.142	1624.8
527.508	1636.33
527.874	1633.84
528.241	1640.39
528.607	1628.64
528.973	1663.67
529.339	1642.2
529.705	1648.98
530.071	1653.05
530.437	1644.91
530.803	1654.86
531.169	1679.49
531.535	1666.38
531.901	1702.09
532.267	1668.64
532.632	1674.97
532.998	1692.14
533.364	1676.33
533.73	1668.87
534.095	1659.38
534.461	1697.57
534.826	1680.17
535.192	1711.13
535.557	1698.47
535.923	1686.72
536.288	1703.44
536.653	1677
537.019	1695.99
537.384	1686.04
537.749	1731.24
538.114	1728.3
538.479	1714.07
538.845	1707.29
539.21	1698.47
539.575	1698.02
539.94	1700.73
540.305	1706.83
540.67	1724.91
541.034	1693.73
541.399	1697.34
541.764	1715.2
542.129	1714.29
542.494	1724.01
542.858	1718.58
543.223	1710.22
543.587	1728.08
543.952	1721.97
544.316	1698.25
544.681	1742.76
545.045	1717
545.41	1727.85
545.774	1720.84
546.138	1715.65
546.503	1744.35
546.867	1714.07
547.231	1709.55
547.595	1708.87
547.959	1726.49
548.324	1741.86
548.688	1731.01
549.052	1754.06
549.416	1702.31
549.779	1730.56
550.143	1754.97
550.507	1731.24
550.871	1757.68
551.235	1735.31
551.599	1737.12
551.962	1758.13
552.326	1746.38
552.689	1741.86
553.053	1738.92
553.417	1753.61
553.78	1746.83
554.143	1765.59
554.507	1763.56
554.87	1726.72
555.234	1777.11
555.597	1757.23
555.96	1783.44
556.323	1771.24
556.686	1733.5
557.05	1743.44
557.413	1765.82
557.776	1743.89
558.139	1775.98
558.502	1780.5
558.865	1762.43
559.228	1773.95
559.59	1807.62
559.953	1776.89
560.316	1810.11
560.679	1799.26
561.041	1797
561.404	1772.37
561.767	1811.24
562.129	1822.08
562.492	1825.25
562.854	1801.52
563.217	1798.36
563.579	1774.18
563.941	1783.44
564.304	1797.68
564.666	1815.98
565.028	1795.64
565.39	1856.89
565.753	1824.8
566.115	1832.48
566.477	1808.3
566.839	1838.81
567.201	1845.36
567.563	1851.46
567.925	1832.93
568.287	1844.23
568.648	1867.06
569.01	1859.37
569.372	1848.07
569.734	1843.1
570.095	1854.85
570.457	1869.99
570.819	1843.55
571.18	1861.63
571.542	1874.51
571.903	1881.29
572.265	1875.64
572.626	1876.09
572.987	1872.7
573.349	1879.94
573.71	1880.16
574.071	1915.87
574.432	1895.08
574.794	1930.56
575.155	1919.94
575.516	1878.35
575.877	1889.88
576.238	1924.46
576.599	1900.05
576.96	1892.82
577.32	1900.5
577.681	1905.25
578.042	1924.23
578.403	1923.1
578.763	1908.41
579.124	1936.43
579.485	1896.21
579.845	1926.26
580.206	1908.41
580.566	1957.9
580.927	1916.55
581.287	1945.25
581.648	1947.28
582.008	1939.37
582.368	1919.94
582.728	1936.66
583.089	1925.58
583.449	1932.82
583.809	1959.93
584.169	1948.18
584.529	1908.41
584.889	1944.34
585.249	1966.26
585.609	1911.35
585.969	1938.01
586.329	1949.09
586.688	1958.13
587.048	1949.54
587.408	1962.42
587.768	1942.08
588.127	1948.64
588.487	1951.12
588.846	1917.22
589.206	1970.1
589.565	1957.9
589.925	1977.34
590.284	1950.44
590.643	1950.67
591.003	1975.98
591.362	1936.21
591.721	1962.87
592.08	1969.88
592.44	1998.8
592.799	1959.26
593.158	1975.3
593.517	1965.13
593.876	1967.17
594.235	1980.27
594.593	1961.06
594.952	1994.51
595.311	1974.62
595.67	1999.03
596.029	1999.71
596.387	1978.46
596.746	2000.61
597.104	2007.16
597.463	1964.45
597.822	1992.48
598.18	1989.99
598.538	1954.96
598.897	1946.38
599.255	1959.71
599.613	2050.33
599.972	2021.18
600.33	2032.47
600.688	2013.27
601.046	2010.1
601.404	1994.06
601.762	1979.14
602.12	2013.27
602.478	2007.39
602.836	2051.46
603.194	1994.96
603.552	1976.66
603.91	2028.41
604.268	2023.44
604.625	2004
604.983	2028.41
605.341	1997.45
605.698	2033.6
606.056	2039.03
606.413	2028.18
606.771	2044
607.128	2043.1
607.485	2023.21
607.843	2038.8
608.2	2030.44
608.557	2040.38
608.914	2023.89
609.272	2042.19
609.629	2085.81
609.986	2092.81
610.343	2072.25
610.7	2061.17
611.057	2075.86
611.414	2052.59
611.771	2058.46
612.127	2103.66
612.484	2080.84
612.841	2100.95
613.198	2092.13
613.554	2099.82
613.911	2087.61
614.267	2098.24
614.624	2109.53
614.98	2090.1
615.337	2093.72
615.693	2106.15
616.05	2091
616.406	2114.96
616.762	2131.68
617.118	2095.52
617.475	2103.89
617.831	2147.27
618.187	2136.88
618.543	2126.48
618.899	2124.68
619.255	2171.23
619.611	2136.2
619.967	2147.73
620.323	2151.34
620.678	2165.58
621.034	2128.29
621.39	2137.1
621.746	2127.84
622.101	2141.4
622.457	2160.38
622.812	2172.58
623.168	2178.23
623.523	2164.45
623.879	2200.83
624.234	2153.38
624.589	2189.76
624.945	2154.28
625.3	2169.42
625.655	2166.71
626.01	2207.39
626.365	2193.6
626.72	2191.79
627.075	2188.63
627.43	2218.23
627.785	2183.21
628.14	2194.05
628.495	2201.74
628.85	2168.29
629.205	2206.03
629.559	2189.31
629.914	2184.11
630.269	2211.91
630.623	2242.41
630.978	2208.74
631.332	2214.39
631.687	2218.68
632.041	2218.91
632.396	2202.19
632.75	2235.18
633.104	2248.51
633.459	2251.45
633.813	2290.55
634.167	2249.87
634.521	2225.46
634.875	2261.17
635.229	2249.42
635.583	2260.49
635.937	2237.89
636.291	2238.57
636.645	2283.54
636.999	2272.92
637.352	2283.32
637.706	2320.15
638.06	2302.07
638.413	2294.16
638.767	2291
639.121	2286.93
639.474	2278.8
639.828	2324.44
640.181	2314.28
640.534	2301.85
640.888	2309.08
641.241	2302.98
641.594	2341.62
641.947	2330.09
642.301	2317.21
642.654	2317.44
643.007	2347.72
643.36	2346.59
643.713	2375.52
644.066	2377.55
644.419	2370.32
644.771	2361.96
645.124	2355.4
645.477	2353.14
645.83	2353.37
646.182	2357.66
646.535	2350.66
646.888	2357.44
647.24	2343.65
647.593	2393.82
647.945	2380.49
648.298	2411
648.65	2387.04
649.002	2383.88
649.355	2418.68
649.707	2402.18
650.059	2438.34
650.411	2447.83
650.763	2476.98
651.115	2490.99
651.467	2508.85
651.819	2515.85
652.171	2560.37
652.523	2523.08
652.875	2559.69
653.227	2546.59
653.578	2580.03
653.93	2556.08
654.282	2591.56
654.633	2583.19
654.985	2629.3
655.337	2624.55
655.688	2632.46
656.039	2599.92
656.391	2614.38
656.742	2653.48
657.094	2657.77
657.445	2707.26
657.796	2670.65
658.147	2656.64
658.498	2666.13
658.849	2710.42
659.2	2706.13
659.551	2753.59
659.902	2745.22
660.253	2752.91
660.604	2754.94
660.955	2772.34
661.306	2805.11
661.656	2810.08
662.007	2785.45
662.358	2813.7
662.708	2841.27
663.059	2862.96
663.409	2875.16
663.76	2873.36
664.11	2912
664.461	2937.31
664.811	2875.62
665.161	2961.72
665.511	2940.7
665.862	2965.78
666.212	2934.37
666.562	2988.16
666.912	3000.13
667.262	2988.83
667.612	3024.31
667.962	3015.05
668.312	3062.28
668.662	3050.53
669.011	3060.7
669.361	3115.61
669.711	3093.92
670.06	3103.41
670.41	3097.08
670.76	3117.64
671.109	3152.22
671.459	3136.4
671.808	3125.78
672.157	3172.78
672.507	3156.74
672.856	3166.23
673.205	3161.48
673.554	3207.59
673.904	3241.93
674.253	3270.18
674.602	3237.19
674.951	3244.65
675.3	3219.11
675.649	3312.67
675.998	3300.69
676.346	3273.8
676.695	3291.42
677.044	3312.22
677.393	3298.66
677.741	3388.37
678.09	3359.67
678.438	3349.5
678.787	3408.03
679.135	3373.68
679.484	3387.24
679.832	3496.84
680.181	3434.7
680.529	3459.33
680.877	3462.72
681.225	3456.17
681.573	3523.96
681.922	3462.95
682.27	3469.27
682.618	3517.86
682.966	3484.87
683.314	3503.4
683.661	3493.91
684.009	3488.48
684.357	3554.92
684.705	3551.53
685.053	3527.8
685.4	3581.36
685.748	3559.89
686.095	3542.49
686.443	3545.66
686.79	3627.69
687.138	3579.55
687.485	3623.85
687.832	3592.43
688.18	3608.93
688.527	3593.11
688.874	3649.61
689.221	3629.95
689.568	3640.57
689.915	3661.13
690.262	3653.22
690.609	3630.17
690.956	3627.46
691.303	3652.55
691.65	3649.38
691.997	3652.55
692.344	3648.7
692.69	3667.01
693.037	3664.52
693.383	3664.07
693.73	3669.49
694.077	3654.81
694.423	3655.26
694.769	3635.37
695.116	3623.62
695.462	3644.86
695.808	3653.9
696.155	3661.58
696.501	3685.31
696.847	3641.47
697.193	3631.3
697.539	3685.31
697.885	3683.05
698.231	3621.36
698.577	3612.55
698.923	3677.63
699.269	3655.48
699.614	3622.49
699.96	3652.32
700.306	3610.51
700.651	3617.97
700.997	3608.25
701.342	3605.31
701.688	3574.13
702.033	3645.09
702.379	3664.97
702.724	3631.3
703.069	3625.43
703.415	3639.44
703.76	3610.96
704.105	3605.77
704.45	3567.35
704.795	3582.04
705.14	3559.89
705.485	3552.66
705.83	3535.94
706.175	3577.52
706.52	3596.5
706.865	3559.67
707.209	3534.58
707.554	3563.96
707.899	3556.95
708.243	3594.24
708.588	3563.73
708.932	3513.11
709.277	3553.11
709.621	3566.45
709.966	3521.02
710.31	3601.25
710.654	3514.02
710.998	3559.21
711.342	3551.3
711.687	3528.93
712.031	3528.93
712.375	3530.51
712.719	3542.04
713.063	3546.11
713.407	3515.6
713.75	3529.16
714.094	3492.55
714.438	3518.09
714.782	3499.78
715.125	3488.48
715.469	3489.39
715.812	3483.06
716.156	3510.85
716.499	3495.26
716.843	3516.96
717.186	3455.49
717.53	3491.87
717.873	3515.83
718.216	3484.41
718.559	3492.32
718.902	3475.15
719.246	3485.32
719.589	3510.63
719.932	3497.07
720.275	3509.72
720.617	3532.77
720.96	3508.37
721.303	3481.93
721.646	3495.04
721.989	3479.22
722.331	3507.46
722.674	3500.68
723.016	3472.44
723.359	3504.3
723.701	3483.28
724.044	3506.56
724.386	3474.92
724.729	3518.09
725.071	3487.8
725.413	3517.18
725.755	3478.54
726.097	3482.61
726.439	3496.62
726.782	3486.67
727.124	3530.29
727.465	3472.44
727.807	3495.26
728.149	3523.28
728.491	3495.26
728.833	3489.61
729.175	3477.86
729.516	3509.95
729.858	3530.74
730.199	3515.83
730.541	3512.44
730.882	3507.46
731.224	3525.32
731.565	3541.14
731.906	3489.84
732.248	3540.01
732.589	3517.63
732.93	3533
733.271	3530.74
733.612	3546.11
733.953	3518.09
734.294	3498.42
734.635	3503.17
734.976	3534.36
735.317	3515.15
735.658	3541.59
735.999	3567.8
736.339	3559.67
736.68	3550.63
737.021	3574.13
737.361	3611.42
737.702	3590.63
738.042	3601.7
738.383	3608.48
738.723	3621.81
739.063	3616.61
739.404	3588.37
739.744	3622.94
740.084	3610.96
740.424	3639.21
740.764	3650.06
741.104	3635.37
741.444	3646.67
741.784	3625.2
742.124	3662.04
742.464	3665.2
742.804	3678.76
743.143	3690.51
743.483	3712.66
743.823	3680.34
744.162	3705.43
744.502	3723.5
744.841	3731.87
745.181	3752.2
745.52	3791.75
745.86	3795.14
746.199	3794.91
746.538	3775.93
746.877	3808.7
747.216	3850.73
747.556	3833.11
747.895	3856.16
748.234	3880.34
748.573	3897.06
748.911	3923.95
749.25	3901.13
749.589	3938.64
749.928	3956.72
750.267	3933.89
750.605	3967.11
750.944	3994.68
751.283	3977.28
751.621	4055.7
751.96	4032.2
752.298	4064.29
752.636	4079.43
752.975	4105.87
753.313	4104.51
753.651	4124.62
753.989	4131.18
754.327	4143.38
754.666	4139.54
755.004	4162.14
755.342	4236.94
755.679	4257.5
756.017	4248.91
756.355	4276.26
756.693	4279.87
757.031	4273.55
757.368	4281
757.706	4317.61
758.044	4335.92
758.381	4321
758.719	4382.47
759.056	4433.09
759.394	4415.91
759.731	4445.97
760.068	4459.08
760.405	4414.11
760.743	4443.48
761.08	4504.95
761.417	4456.59
761.754	4523.48
762.091	4497.72
762.428	4522.8
762.765	4498.17
763.102	4551.5
763.438	4546.53
763.775	4500.43
764.112	4543.14
764.449	4591.96
764.785	4575.68
765.122	4594.67
765.458	4565.06
765.795	4586.53
766.131	4611.84
766.467	4564.16
766.804	4562.8
767.14	4558.51
767.476	4594.22
767.812	4590.37
768.148	4597.83
768.485	4595.12
768.821	4593.54
769.157	4558.28
769.492	4602.12
769.828	4619.07
770.164	4550.15
770.5	4610.71
770.836	4582.92
771.171	4559.64
771.507	4518.29
771.842	4543.14
772.178	4540.43
