Data from blue_chair_FLMS001491_00038.txt Node
Date: Wed Feb 08 10:30:37 GMT 2017
User: dcchb
Spectrometer: FLMS00149
Trigger mode: 0
Integration Time (sec): 2.000000E-2
Scans to average: 10
Electric dark correction enabled: true
Nonlinearity correction enabled: false
Boxcar width: 0
XAxis mode: Wavelengths
Number of Pixels in Spectrum: 2048
>>>>>Begin Spectral Data<<<<<
341.393	-13.38
341.776	-13.38
342.16	-13.38
342.543	-53.37
342.927	-66.93
343.31	-76.2
343.693	-68.74
344.077	-57.44
344.46	-41.17
344.843	-35.97
345.226	-54.73
345.61	-27.61
345.993	-22.87
346.376	4.93
346.759	13.52
347.142	7.87
347.525	24.36
347.908	41.54
348.291	74.98
348.674	86.06
349.057	131.48
349.44	125.83
349.823	140.29
350.206	157.69
350.588	181.2
350.971	199.5
351.354	211.03
351.737	208.09
352.119	216.9
352.502	234.53
352.884	248.31
353.267	247.41
353.65	260.29
354.032	274.3
354.414	289.67
354.797	283.34
355.179	271.59
355.562	296.9
355.944	306.84
356.326	311.36
356.709	317.46
357.091	314.75
357.473	305.03
357.855	298.48
358.238	306.39
358.62	322.66
359.002	306.16
359.384	310.46
359.766	322.66
360.148	308.42
360.53	299.38
360.912	304.58
361.294	304.13
361.676	297.58
362.057	308.65
362.439	300.29
362.821	290.35
363.203	309.1
363.584	293.74
363.966	270.23
364.348	285.6
364.729	298.71
365.111	275.88
365.493	303.45
365.874	292.38
366.256	290.57
366.637	285.37
367.019	256.67
367.4	277.46
367.781	302.32
368.163	261.65
368.544	279.27
368.925	275.88
369.306	296.9
369.688	255.09
370.069	281.08
370.45	294.19
370.831	268.2
371.212	263
371.593	284.7
371.974	272.72
372.355	288.54
372.736	282.44
373.117	291.48
373.498	279.95
373.879	295.32
374.26	287.41
374.641	285.37
375.021	284.24
375.402	267.52
375.783	282.44
376.163	276.33
376.544	274.3
376.925	281.08
377.305	293.06
377.686	275.2
378.066	265.49
378.447	279.5
378.827	282.44
379.208	301.87
379.588	311.36
379.968	290.12
380.349	292.38
380.729	298.03
381.109	319.05
381.489	299.84
381.87	275.66
382.25	301.64
382.63	272.94
383.01	293.28
383.39	260.52
383.77	290.57
384.15	296.67
384.53	304.81
384.91	301.87
385.29	296.45
385.67	281.08
386.049	291.48
386.429	307.07
386.809	317.69
387.189	286.5
387.568	313.85
387.948	297.12
388.328	303.68
388.707	312.27
389.087	303.9
389.466	289.22
389.846	311.59
390.225	294.87
390.605	305.71
390.984	319.27
391.363	315.43
391.743	310.01
392.122	315.88
392.501	305.26
392.881	308.65
393.26	324.02
393.639	314.3
394.018	299.38
394.397	311.36
394.776	316.56
395.155	318.14
395.534	320.4
395.913	319.05
396.292	333.73
396.671	316.79
397.05	321.98
397.429	314.07
397.808	346.16
398.186	331.93
398.565	314.53
398.944	338.71
399.323	312.27
399.701	337.35
400.08	322.44
400.458	313.85
400.837	356.33
401.215	343
401.594	334.86
401.972	324.47
402.351	329.67
402.729	328.99
403.107	332.15
403.486	336.45
403.864	342.55
404.242	334.19
404.62	330.57
404.999	339.38
405.377	343.23
405.755	345.49
406.133	348.42
406.511	343
406.889	352.94
407.267	350.46
407.645	345.03
408.023	360.4
408.401	364.24
408.779	365.37
409.156	362.89
409.534	355.88
409.912	343.68
410.29	364.47
410.667	389.78
411.045	375.99
411.422	354.75
411.8	374.64
412.178	387.29
412.555	370.34
412.933	384.58
413.31	379.16
413.687	376.9
414.065	368.76
414.442	379.61
414.819	377.57
415.197	382.09
415.574	387.97
415.951	394.75
416.328	392.49
416.705	379.83
417.082	396.78
417.46	402.43
417.837	392.94
418.214	382.32
418.591	394.75
418.967	409.89
419.344	384.35
419.721	399.27
420.098	393.39
420.475	397.24
420.852	413.73
421.228	410.79
421.605	403.11
421.982	395.65
422.358	412.15
422.735	415.77
423.111	417.8
423.488	433.17
423.864	442.66
424.241	428.42
424.617	449.21
424.994	419.83
425.37	448.08
425.746	418.93
426.123	429.32
426.499	438.82
426.875	421.19
427.251	443.11
427.627	453.96
428.003	463.67
428.379	441.75
428.756	464.35
429.132	464.13
429.507	452.15
429.883	469.55
430.259	460.96
430.635	456.44
431.011	474.52
431.387	485.37
431.763	479.27
432.138	481.07
432.514	464.35
432.89	485.59
433.265	486.95
433.641	485.59
434.016	482.66
434.392	497.12
434.767	493.28
435.143	492.6
435.518	511.81
435.894	515.88
436.269	527.85
436.644	548.19
437.02	540.06
437.395	529.66
437.77	539.15
438.145	525.82
438.52	542.32
438.895	534.86
439.271	555.42
439.646	562.2
440.021	563.78
440.395	578.25
440.77	586.83
441.145	568.53
441.52	587.96
441.895	575.76
442.27	611.69
442.645	600.39
443.019	593.84
443.394	597.91
443.769	596.78
444.143	607.4
444.518	614.18
444.892	604.46
445.267	614.86
445.641	620.96
446.016	625.48
446.39	627.96
446.764	629.09
447.139	629.77
447.513	632.94
447.887	635.42
448.262	656.21
448.636	635.2
449.01	641.52
449.384	653.73
449.758	654.63
450.132	658.7
450.506	655.53
450.88	679.04
451.254	675.65
451.628	703.44
452.002	661.18
452.376	680.62
452.75	672.03
453.123	674.29
453.497	682.2
453.871	703.22
454.244	717
454.618	713.61
454.992	719.49
455.365	709.77
455.739	735.31
456.112	736.21
456.486	763.1
456.859	742.54
457.232	738.24
457.606	756.32
457.979	736.21
458.352	766.49
458.725	770.56
459.099	738.92
459.472	803.78
459.845	795.87
460.218	790.22
460.591	792.25
460.964	776.66
461.337	808.52
461.71	832.7
462.083	821.18
462.456	819.15
462.829	838.58
463.201	819.37
463.574	826.15
463.947	849.2
464.32	870.9
464.692	853.27
465.065	863.21
465.438	881.52
465.81	881.74
466.183	898.92
466.555	890.56
466.928	895.53
467.3	907.5
467.672	896.88
468.045	903.89
468.417	916.32
468.789	947.5
469.161	921.74
469.534	931.23
469.906	931.23
470.278	950.22
470.65	955.64
471.022	982.53
471.394	971.68
471.766	1000.38
472.138	1025.24
472.51	1028.63
472.882	1021.85
473.253	1015.98
473.625	1051.91
473.997	1052.59
474.369	1036.77
474.74	1089.65
475.112	1088.52
475.484	1092.81
475.855	1111.34
476.227	1113.37
476.598	1121.06
476.97	1105.01
477.341	1153.15
477.713	1142.53
478.084	1147.05
478.455	1199.47
478.827	1197.21
479.198	1199.7
479.569	1207.84
479.94	1226.59
480.311	1230.43
480.682	1269.08
481.053	1251.22
481.424	1314.5
481.795	1288.74
482.166	1294.39
482.537	1317.89
482.908	1328.96
483.279	1309.53
483.65	1340.04
484.021	1366.25
484.391	1375.74
484.762	1386.81
485.133	1400.15
485.503	1382.07
485.874	1429.3
486.244	1439.47
486.615	1449.19
486.985	1452.12
487.356	1480.37
487.726	1453.7
488.097	1494.61
488.467	1479.69
488.837	1486.25
489.207	1517.43
489.578	1524.89
489.948	1537.32
490.318	1516.08
490.688	1567.15
491.058	1559.24
491.428	1567.6
491.798	1582.74
492.168	1621.84
492.538	1572.57
492.908	1583.87
493.278	1618.9
493.648	1609.86
494.017	1613.47
494.387	1609.41
494.757	1657.54
495.126	1623.64
495.496	1634.49
495.866	1650.54
496.235	1658.67
496.605	1660.25
496.974	1676.75
497.344	1667.94
497.713	1693.92
498.082	1665
498.452	1686.24
498.821	1677.88
499.19	1717.65
499.559	1685.79
499.928	1705.45
500.298	1709.97
500.667	1708.39
501.036	1728.05
501.405	1707.71
501.774	1691.44
502.143	1705.9
502.512	1720.59
502.88	1712.68
503.249	1710.42
503.618	1713.13
503.987	1718.56
504.356	1704.55
504.724	1730.08
505.093	1721.04
505.462	1693.25
505.83	1723.98
506.199	1760.82
506.567	1726.69
506.936	1729.4
507.304	1719.91
507.672	1745.45
508.041	1749.52
508.409	1755.39
508.777	1731.89
509.145	1752.68
509.514	1745.45
509.882	1721.72
510.25	1751.32
510.618	1738.44
510.986	1723.75
511.354	1784.77
511.722	1742.51
512.09	1758.1
512.458	1758.56
512.826	1764.66
513.193	1734.83
513.561	1755.84
513.929	1766.46
514.297	1787.93
514.664	1751.78
515.032	1714.71
515.4	1766.92
515.767	1762.4
516.135	1750.19
516.502	1750.65
516.869	1726.01
517.237	1738.67
517.604	1732.34
517.972	1753.36
518.339	1740.93
518.706	1765.11
519.073	1745.67
519.44	1731.44
519.808	1759.46
520.175	1749.52
520.542	1752.23
520.909	1749.97
521.276	1725.34
521.643	1777.09
522.009	1732.34
522.376	1740.7
522.743	1754.49
523.11	1741.61
523.477	1734.83
523.843	1758.78
524.21	1735.28
524.577	1765.79
524.943	1748.84
525.31	1772.34
525.676	1763.75
526.043	1775.96
526.409	1754.94
526.776	1778.67
527.142	1762.62
527.508	1760.82
527.874	1780.48
528.241	1754.71
528.607	1787.48
528.973	1789.29
529.339	1772.34
529.705	1774.83
530.071	1775.73
530.437	1776.18
530.803	1782.96
531.169	1790.42
531.535	1771.66
531.901	1768.72
532.267	1749.52
532.632	1761.49
532.998	1754.04
533.364	1749.97
533.73	1748.84
534.095	1779.35
534.461	1752.91
534.826	1764.88
535.192	1756.97
535.557	1756.75
535.923	1764.88
536.288	1762.4
536.653	1780.7
537.019	1782.74
537.384	1732.34
537.749	1768.05
538.114	1724.21
538.479	1723.98
538.845	1752.68
539.21	1730.76
539.575	1721.49
539.94	1698.22
540.305	1725.79
540.67	1693.7
541.034	1734.38
541.399	1731.89
541.764	1731.89
542.129	1716.97
542.494	1736.64
542.858	1726.69
543.223	1688.27
543.587	1698.67
543.952	1726.92
544.316	1712
544.681	1690.31
545.045	1696.41
545.41	1676.52
545.774	1722.4
546.138	1725.34
546.503	1694.15
546.867	1687.6
547.231	1699.12
547.595	1702.29
547.959	1680.59
548.324	1705.22
548.688	1660.7
549.052	1698.44
549.416	1657.54
549.779	1644.43
550.143	1669.74
550.507	1658.9
550.871	1660.25
551.235	1676.07
551.599	1659.58
551.962	1656.19
552.326	1628.16
552.689	1655.73
553.053	1645.79
553.417	1653.47
553.78	1627.03
554.143	1632.46
554.507	1637.43
554.87	1634.72
555.234	1649.63
555.597	1638.33
555.96	1681.04
556.323	1661.16
556.686	1631.1
557.05	1650.76
557.413	1633.59
557.776	1619.35
558.139	1617.77
558.502	1639.69
558.865	1637.43
559.228	1633.81
559.59	1637.65
559.953	1606.24
560.316	1653.25
560.679	1641.27
561.041	1628.39
561.404	1662.74
561.767	1615.51
562.129	1632.68
562.492	1612.34
562.854	1621.61
563.217	1641.04
563.579	1633.36
563.941	1641.27
564.304	1648.95
564.666	1655.51
565.028	1701.16
565.39	1657.32
565.753	1631.55
566.115	1648.28
566.477	1646.69
566.839	1644.21
567.201	1679.69
567.563	1686.01
567.925	1673.13
568.287	1647.82
568.648	1669.52
569.01	1683.98
569.372	1688.05
569.734	1688.05
570.095	1661.61
570.457	1704.55
570.819	1700.48
571.18	1724.88
571.542	1713.58
571.903	1737.99
572.265	1711.33
572.626	1736.41
572.987	1733.47
573.349	1707.26
573.71	1727.82
574.071	1710.65
574.432	1720.82
574.794	1759.01
575.155	1736.64
575.516	1723.3
575.877	1751.32
576.238	1732.57
576.599	1755.17
576.96	1745.9
577.32	1759.91
577.681	1749.52
578.042	1767.37
578.403	1749.29
578.763	1748.39
579.124	1760.36
579.485	1754.94
579.845	1789.29
580.206	1744.54
580.566	1776.86
580.927	1778.89
581.287	1798.33
581.648	1797.88
582.008	1777.31
582.368	1799.68
582.728	1796.07
583.089	1781.38
583.449	1794.49
583.809	1787.93
584.169	1782.51
584.529	1761.04
584.889	1792.9
585.249	1794.03
585.609	1791.77
585.969	1801.27
586.329	1806.24
586.688	1823.86
587.048	1796.29
587.408	1797.65
587.768	1809.85
588.127	1797.42
588.487	1790.87
588.846	1803.75
589.206	1833.13
589.565	1800.81
589.925	1795.39
590.284	1760.36
590.643	1790.65
591.003	1800.14
591.362	1825.67
591.721	1827.71
592.08	1782.74
592.44	1808.27
592.799	1786.13
593.158	1788.16
593.517	1821.83
593.876	1775.5
594.235	1795.62
594.593	1800.14
594.952	1809.63
595.311	1801.04
595.67	1830.87
596.029	1833.81
596.387	1808.72
596.746	1813.47
597.104	1792
597.463	1827.25
597.822	1797.65
598.18	1788.84
598.538	1789.52
598.897	1809.4
599.255	1791.32
599.613	1804.66
599.972	1786.8
600.33	1808.95
600.688	1777.54
601.046	1785.22
601.404	1785.22
601.762	1787.71
602.12	1775.5
602.478	1814.15
602.836	1795.84
603.194	1796.97
603.552	1829.97
603.91	1788.61
604.268	1805.56
604.625	1780.02
604.983	1808.5
605.341	1777.99
605.698	1786.58
606.056	1790.19
606.413	1822.96
606.771	1801.49
607.128	1798.1
607.485	1828.38
607.843	1808.27
608.2	1818.21
608.557	1789.74
608.914	1818.89
609.272	1850.53
609.629	1842.4
609.986	1801.72
610.343	1823.64
610.7	1805.56
611.057	1808.95
611.414	1815.05
611.771	1834.94
612.127	1845.33
612.484	1831.1
612.841	1812.34
613.198	1810.98
613.554	1815.73
613.911	1832.45
614.267	1863.64
614.624	1860.25
614.98	1818.89
615.337	1829.51
615.693	1839.91
616.05	1797.65
616.406	1855.05
616.762	1846.46
617.118	1843.75
617.475	1840.14
617.831	1863.41
618.187	1875.39
618.543	1841.94
618.899	1847.14
619.255	1884.2
619.611	1879.23
619.967	1853.69
620.323	1846.46
620.678	1864.77
621.034	1859.8
621.39	1849.4
621.746	1834.71
622.101	1876.74
622.457	1860.47
622.812	1853.92
623.168	1830.64
623.523	1837.65
623.879	1853.02
624.234	1862.73
624.589	1849.17
624.945	1875.16
625.3	1871.09
625.655	1853.69
626.01	1859.8
626.365	1871.55
626.72	1834.03
627.075	1852.79
627.43	1835.16
627.785	1861.83
628.14	1874.48
628.495	1872.45
628.85	1844.2
629.205	1877.2
629.559	1896.18
629.914	1841.94
630.269	1859.12
630.623	1862.73
630.978	1869.74
631.332	1876.29
631.687	1853.02
632.041	1857.54
632.396	1888.95
632.75	1876.07
633.104	1856.86
633.459	1890.98
633.813	1864.77
634.167	1862.06
634.521	1867.71
634.875	1864.99
635.229	1854.15
635.583	1835.62
635.937	1847.59
636.291	1852.34
636.645	1858.89
636.999	1855.73
637.352	1861.38
637.706	1845.78
638.06	1860.7
638.413	1849.85
638.767	1834.71
639.121	1864.77
639.474	1835.16
639.828	1843.98
640.181	1832.23
640.534	1834.49
640.888	1856.86
641.241	1843.3
641.594	1852.56
641.947	1863.64
642.301	1859.57
642.654	1841.49
643.007	1844.65
643.36	1862.51
643.713	1852.34
644.066	1834.49
644.419	1841.04
644.771	1848.04
645.124	1829.51
645.477	1824.54
645.83	1842.62
646.182	1811.21
646.535	1805.33
646.888	1786.58
647.24	1783.19
647.593	1808.05
647.945	1802.85
648.298	1776.41
648.65	1811.66
649.002	1766.01
649.355	1776.18
649.707	1801.49
650.059	1816.41
650.411	1825.22
650.763	1824.99
651.115	1848.27
651.467	1859.8
651.819	1860.93
652.171	1836.97
652.523	1832.45
652.875	1836.75
653.227	1833.81
653.578	1857.54
653.93	1868.61
654.282	1828.84
654.633	1829.97
654.985	1850.3
655.337	1840.81
655.688	1851.66
656.039	1874.26
656.391	1862.51
656.742	1810.76
657.094	1824.77
657.445	1862.73
657.796	1873.58
658.147	1825.67
658.498	1909.51
658.849	1826.12
659.2	1856.86
659.551	1842.85
659.902	1867.03
660.253	1884.43
660.604	1901.6
660.955	1867.03
661.306	1874.48
661.656	1882.17
662.007	1873.81
662.358	1864.32
662.708	1884.43
663.059	1857.76
663.409	1858.44
663.76	1860.7
664.11	1869.74
664.461	1818.44
664.811	1857.76
665.161	1872.22
665.511	1859.8
665.862	1831.77
666.212	1856.86
666.562	1837.2
666.912	1863.86
667.262	1874.03
667.612	1858.21
667.962	1847.14
668.312	1857.54
668.662	1879.68
669.011	1874.26
669.361	1848.95
669.711	1858.89
670.06	1815.73
670.41	1844.88
670.76	1829.74
671.109	1869.29
671.459	1860.93
671.808	1859.57
672.157	1859.12
672.507	1846.91
672.856	1821.15
673.205	1823.41
673.554	1845.11
673.904	1858.44
674.253	1857.99
674.602	1861.6
674.951	1829.97
675.3	1829.74
675.649	1840.81
675.998	1828.84
676.346	1810.76
676.695	1820.93
677.044	1820.93
677.393	1808.27
677.741	1833.36
678.09	1834.03
678.438	1787.26
678.787	1796.75
679.135	1799.01
679.484	1800.14
679.832	1798.55
680.181	1773.02
680.529	1776.18
680.877	1783.41
681.225	1824.54
681.573	1779.12
681.922	1780.48
682.27	1785.45
682.618	1793.81
682.966	1761.49
683.314	1775.28
683.661	1748.84
684.009	1765.33
684.357	1760.82
684.705	1760.59
685.053	1736.64
685.4	1731.66
685.748	1734.6
686.095	1750.19
686.443	1746.35
686.79	1705.9
687.138	1741.61
687.485	1741.83
687.832	1714.94
688.18	1746.35
688.527	1707.71
688.874	1713.36
689.221	1702.74
689.568	1720.82
689.915	1688.73
690.262	1686.01
690.609	1690.31
690.956	1706.81
691.303	1653.02
691.65	1661.61
691.997	1658.22
692.344	1661.83
692.69	1663.42
693.037	1671.55
693.383	1611.44
693.73	1646.92
694.077	1667.03
694.423	1664.32
694.769	1622.51
695.116	1647.82
695.462	1647.82
695.808	1656.19
696.155	1638.56
696.501	1614.6
696.847	1625.9
697.193	1609.86
697.539	1629.52
697.885	1624.77
698.231	1581.16
698.577	1606.24
698.923	1579.13
699.269	1582.97
699.614	1601.5
699.96	1578.9
700.306	1568.28
700.651	1580.26
700.997	1592.46
701.342	1582.51
701.688	1597.66
702.033	1589.52
702.379	1608.5
702.724	1550.43
703.069	1580.26
703.415	1535.96
703.76	1541.39
704.105	1552.69
704.45	1555.62
704.795	1558.11
705.14	1546.58
705.485	1536.87
705.83	1553.59
706.175	1548.62
706.52	1570.99
706.865	1537.54
707.209	1583.87
707.554	1563.53
707.899	1562.18
708.243	1521.73
708.588	1549.75
708.932	1536.87
709.277	1543.65
709.621	1525.57
709.966	1497.09
710.31	1526.47
710.654	1540.48
710.998	1529.63
711.342	1535.74
711.687	1545.68
712.031	1523.76
712.375	1528.51
712.719	1559.46
713.063	1551.78
713.407	1533.48
713.75	1543.65
714.094	1550.43
714.438	1564.89
714.782	1533.02
715.125	1554.94
715.469	1559.92
715.812	1559.01
716.156	1540.93
716.499	1544.32
716.843	1530.99
717.186	1542.29
717.53	1543.87
717.873	1561.95
718.216	1562.85
718.559	1559.69
718.902	1532.35
719.246	1565.79
719.589	1547.04
719.932	1572.35
720.275	1578
720.617	1561.05
720.96	1563.31
721.303	1597.66
721.646	1600.82
721.989	1581.16
722.331	1587.03
722.674	1588.62
723.016	1562.4
723.359	1582.51
723.701	1596.3
724.044	1592.01
724.386	1589.52
724.729	1597.2
725.071	1610.76
725.413	1580.26
725.755	1593.81
726.097	1608.05
726.439	1602.85
726.782	1608.73
727.124	1662.74
727.465	1638.56
727.807	1608.5
728.149	1653.25
728.491	1634.26
728.833	1663.42
729.175	1675.39
729.516	1676.52
729.858	1666.13
730.199	1673.59
730.541	1656.64
730.882	1678.11
731.224	1656.41
731.565	1700.48
731.906	1711.33
732.248	1679.91
732.589	1709.97
732.93	1669.29
733.271	1706.81
733.612	1733.25
733.953	1730.99
734.294	1721.49
734.635	1741.38
734.976	1737.77
735.317	1759.69
735.658	1758.1
735.999	1763.3
736.339	1780.93
736.68	1783.87
737.021	1793.58
737.361	1800.59
737.702	1817.76
738.042	1805.11
738.383	1838.78
738.723	1830.42
739.063	1848.95
739.404	1859.12
739.744	1827.25
740.084	1844.43
740.424	1847.59
740.764	1900.7
741.104	1916.97
741.444	1895.28
741.784	1882.17
742.124	1935.73
742.464	1949.28
742.804	1964.88
743.143	1949.74
743.483	1998.78
743.823	1979.57
744.162	2021.15
744.502	2061.82
744.841	2032.22
745.181	2041.03
745.52	2069.73
745.86	2115.38
746.199	2143.18
746.538	2150.86
746.877	2157.64
747.216	2164.87
747.556	2236.28
747.895	2210.75
748.234	2251.88
748.573	2256.85
748.911	2304.3
749.25	2337.98
749.589	2318.31
749.928	2382.04
750.267	2417.52
750.605	2450.06
750.944	2462.04
751.283	2507.24
751.621	2535.94
751.96	2554.24
752.298	2557.86
752.636	2603.73
752.975	2645.09
753.313	2667.91
753.651	2727.12
753.989	2771.18
754.327	2789.26
754.666	2841.01
755.004	2874.91
755.342	2954.68
755.679	2948.81
756.017	2983.61
756.355	2995.13
756.693	3100.22
757.031	3105.41
757.368	3158.29
757.706	3194.9
758.044	3247.1
758.381	3263.6
758.719	3320.77
759.056	3376.14
759.394	3406.87
759.731	3380.66
760.068	3447.1
760.405	3483.71
760.743	3543.14
761.08	3590.37
761.417	3621.56
761.754	3679.18
762.091	3687.54
762.428	3722.12
762.765	3739.97
763.102	3830.14
763.438	3805.73
763.775	3820.2
764.112	3905.39
764.449	3955.79
764.785	3946.97
765.122	3992.85
765.458	4043.92
765.795	4083.01
766.131	4084.6
766.467	4110.36
766.804	4113.75
767.14	4151.94
767.476	4159.85
767.812	4194.2
768.148	4283.91
768.485	4295.44
768.821	4265.16
769.157	4289.56
769.492	4348.32
769.828	4333.63
770.164	4353.52
770.5	4363.01
770.836	4435.1
771.171	4419.95
771.507	4449.78
