Data from blue_shiny_book_FLMS001491_00015.txt Node
Date: Wed Feb 08 15:26:36 GMT 2017
User: dcchb
Spectrometer: FLMS00149
Trigger mode: 0
Integration Time (sec): 2.000000E-2
Scans to average: 10
Electric dark correction enabled: true
Nonlinearity correction enabled: false
Boxcar width: 0
XAxis mode: Wavelengths
Number of Pixels in Spectrum: 2048
>>>>>Begin Spectral Data<<<<<
341.393	-19.99
341.776	-19.99
342.16	-19.99
342.543	-61.34
342.927	-50.72
343.31	-73.77
343.693	-81.9
344.077	-65.63
344.46	-57.72
344.843	-59.98
345.226	-33.32
345.61	-31.06
345.993	-8.69
346.376	-14.56
346.759	-0.55
347.142	33.57
347.525	53.46
347.908	53.23
348.291	93.91
348.674	89.62
349.057	103.4
349.44	115.6
349.823	146.79
350.206	161.7
350.588	206.68
350.971	230.4
351.354	230.63
351.737	247.58
352.119	264.75
352.502	275.83
352.884	278.31
353.267	279.22
353.65	302.72
354.032	325.09
354.414	327.58
354.797	345.2
355.179	329.38
355.562	339.33
355.944	328.03
356.326	375.71
356.709	351.98
357.091	354.92
357.473	339.1
357.855	358.99
358.238	366.45
358.62	345.88
359.002	355.6
359.384	362.6
359.766	347.01
360.148	377.74
360.53	363.96
360.912	367.58
361.294	368.48
361.676	376.16
362.057	365.99
362.439	359.21
362.821	337.75
363.203	353.11
363.584	361.93
363.966	336.84
364.348	357.63
364.729	361.93
365.111	367.58
365.493	352.43
365.874	357.18
366.256	345.2
366.637	342.04
367.019	358.54
367.4	338.88
367.781	351.53
368.163	347.46
368.544	343.17
368.925	348.59
369.306	353.79
369.688	352.43
370.069	339.55
370.45	360.12
370.831	337.07
371.212	353.11
371.593	363.73
371.974	362.15
372.355	361.25
372.736	357.63
373.117	344.98
373.498	362.15
373.879	368.7
374.26	390.85
374.641	389.04
375.021	371.19
375.402	366.67
375.783	374.81
376.163	367.58
376.544	420.68
376.925	390.4
377.305	377.74
377.686	402.83
378.066	388.14
378.447	405.99
378.827	413.68
379.208	406.9
379.588	396.05
379.968	393.34
380.349	408.03
380.729	418.65
381.109	427.91
381.489	414.58
381.87	414.13
382.25	441.02
382.63	409.38
383.01	430.62
383.39	449.15
383.77	460.91
384.15	469.04
384.53	460.23
384.91	446.44
385.29	450.51
385.67	453.22
386.049	464.52
386.429	483.28
386.809	469.04
387.189	488.25
387.568	467.23
387.948	479.21
388.328	480.57
388.707	514.24
389.087	489.61
389.466	509.27
389.846	527.34
390.225	525.76
390.605	509.49
390.984	521.02
391.363	515.14
391.743	547.46
392.122	537.51
392.501	542.94
392.881	564.86
393.26	556.95
393.639	573.22
394.018	559.89
394.397	574.58
394.776	573.9
395.155	622.94
395.534	611.41
395.913	609.6
396.292	606.89
396.671	636.95
397.05	593.11
397.429	633.33
397.808	621.35
398.186	609.38
398.565	659.54
398.944	651.18
399.323	660.45
399.701	660.67
400.08	668.58
400.458	668.36
400.837	693.67
401.215	695.02
401.594	696.61
401.972	691.63
402.351	709.26
402.729	702.03
403.107	718.98
403.486	712.2
403.864	748.81
404.242	757.17
404.62	764.17
404.999	772.76
405.377	782.25
405.755	794
406.133	794.46
406.511	806.43
406.889	819.99
407.267	853.44
407.645	852.53
408.023	884.85
408.401	893.89
408.779	888.01
409.156	897.28
409.534	885.3
409.912	942.7
410.29	941.8
410.667	964.4
411.045	968.24
411.422	942.7
411.8	989.25
412.178	996.94
412.555	1035.81
412.933	1032.42
413.31	1027.9
413.687	1062.02
414.065	1096.14
414.442	1094.34
414.819	1129.81
415.197	1120.32
415.574	1171.85
415.951	1153.09
416.328	1158.29
416.705	1184.5
417.082	1179.53
417.46	1225.18
417.837	1224.5
418.214	1238.06
418.591	1239.19
418.967	1282.81
419.344	1284.84
419.721	1292.75
420.098	1317.15
420.475	1295.23
420.852	1329.36
421.228	1324.16
421.605	1346.76
421.982	1401.67
422.358	1403.03
422.735	1435.57
423.111	1442.35
423.488	1471.05
423.864	1502.23
424.241	1523.93
424.617	1487.55
424.994	1529.13
425.37	1540.65
425.746	1555.79
426.123	1560.99
426.499	1588.56
426.875	1608.67
427.251	1633.98
427.627	1686.18
428.003	1742.68
428.379	1736.13
428.756	1732.51
429.132	1775.45
429.507	1780.65
429.883	1813.41
430.259	1829.23
430.635	1857.93
431.011	1862
431.387	1936.35
431.763	1970.92
432.138	1987.19
432.514	2011.15
432.89	2026.06
433.265	2094.31
433.641	2161.88
434.016	2117.59
434.392	2167.08
434.767	2193.06
435.143	2207.98
435.518	2256.11
435.894	2264.02
436.269	2288.65
436.644	2386.05
437.02	2347.41
437.395	2412.95
437.77	2433.28
438.145	2443
438.52	2513.51
438.895	2545.6
439.271	2512.83
439.646	2584.01
440.021	2635.99
440.395	2613.39
440.77	2595.99
441.145	2659.04
441.52	2715.08
441.895	2703.11
442.27	2765.03
442.645	2769.77
443.019	2782.43
443.394	2802.77
443.769	2835.76
444.143	2857.91
444.518	2867.17
444.892	2859.03
445.267	2900.62
445.641	2931.12
446.016	2981.52
446.39	3025.81
446.764	3040.73
447.139	3051.57
447.513	3075.53
447.887	3092.93
448.262	3115.98
448.636	3143.77
449.01	3188.97
449.384	3223.55
449.758	3233.04
450.132	3305.8
450.506	3276.2
450.88	3318.01
451.254	3337.67
451.628	3429.42
452.002	3442.3
452.376	3472.13
452.75	3525.68
453.123	3587.6
453.497	3605.23
453.871	3645.45
454.244	3748.73
454.618	3791.67
454.992	3806.81
455.365	3802.51
455.739	3927.71
456.112	3892.68
456.486	3985.79
456.859	4000.47
457.232	4115.05
457.606	4114.82
457.979	4184.65
458.352	4220.36
458.725	4336.06
459.099	4390.97
459.472	4486.56
459.845	4520.69
460.218	4561.82
460.591	4636.16
460.964	4650.85
461.337	4761.81
461.71	4811.98
462.083	4851.07
462.456	4874.35
462.829	4898.3
463.201	5084.29
463.574	5091.97
463.947	5163.38
464.32	5271.85
464.692	5311.85
465.065	5375.8
465.438	5404.28
465.81	5489.93
466.183	5594.78
466.555	5676.81
466.928	5735.34
467.3	5759.75
467.672	5819.18
468.045	5991.61
468.417	6032.06
468.789	6075
469.161	6129.23
469.534	6275.44
469.906	6421.2
470.278	6506.17
470.65	6583.46
471.022	6634.08
471.394	6804.92
471.766	6870.68
472.138	6927.18
472.51	7080.17
472.882	7154.97
473.253	7305.7
473.625	7440.84
473.997	7590.44
474.369	7605.58
474.74	7778.91
475.112	7973.7
475.484	8077.65
475.855	8167.6
476.227	8240.36
476.598	8498.66
476.97	8512.9
477.341	8741.37
477.713	8871.98
478.084	8928.71
478.455	9196.72
478.827	9295.93
479.198	9536.6
479.569	9590.38
479.94	9920.09
480.311	9987.89
480.682	10199.18
481.053	10429.23
481.424	10557.82
481.795	10679.62
482.166	10872.84
482.537	11031.02
482.908	11289.77
483.279	11331.81
483.65	11583.78
484.021	11769.76
484.391	12008.85
484.762	12070.54
485.133	12196.87
485.503	12472.34
485.874	12706.69
486.244	12914.14
486.615	13141.7
486.985	13238.2
487.356	13537.4
487.726	13596.15
488.097	13974.9
488.467	13935.81
488.837	14261
489.207	14393.19
489.578	14635.22
489.948	14742.34
490.318	15030.47
490.688	15098.04
491.058	15399.5
491.428	15698.02
491.798	15741.18
492.168	16076.99
492.538	16251.45
492.908	16431.79
493.278	16602.63
493.648	16664.32
494.017	16888.04
494.387	17022.05
494.757	17173.46
495.126	17338.43
495.496	17394.02
495.866	17508.14
496.235	17767.8
496.605	18020.67
496.974	18057.51
497.344	18248.91
497.713	18468.57
498.082	18636.02
498.452	18884.15
498.821	19015.22
499.19	19123.69
499.559	19283.69
499.928	19463.12
500.298	19441.42
500.667	19608.88
501.036	19746.95
501.405	19923.22
501.774	19947.4
502.143	20255.64
502.512	20194.4
502.88	20468.52
503.249	20477.1
503.618	20711.9
503.987	20786.25
504.356	20888.62
504.724	21119.8
505.093	21337.65
505.462	21471.43
505.83	21569.73
506.199	21757.75
506.567	22087.46
506.936	21914.35
507.304	22231.41
507.672	22339.88
508.041	22409.93
508.409	22512.53
508.777	22722.92
509.145	22946.87
509.514	22919.3
509.882	23084.72
510.25	23319.51
510.618	23604.48
510.986	23637.92
511.354	23990
511.722	24194.29
512.09	24591.57
512.458	24633.83
512.826	24665.47
513.193	24843.32
513.561	24833.6
513.929	24909.53
514.297	25198.33
514.664	25330.08
515.032	25374.6
515.4	25632.9
515.767	25760.13
516.135	25953.12
516.502	25921.71
516.869	26340
517.237	26542.25
517.604	26584.74
517.972	27021.56
518.339	27184.27
518.706	27285.74
519.073	27471.04
519.44	27695.9
519.808	28109.67
520.175	27994.87
520.542	28430.34
520.909	28454.29
521.276	28527.74
521.643	28725.25
522.009	28773.61
522.376	28986.26
522.743	29085.24
523.11	29440.26
523.477	29642.06
523.843	30011.77
524.21	30300.35
524.577	30626.21
524.943	30745.99
525.31	31134.9
525.676	31470.03
526.043	31656.24
526.409	31873.87
526.776	32289.45
527.142	32321.31
527.508	32470.69
527.874	32704.35
528.241	32852.6
528.607	32913.16
528.973	33076.09
529.339	33027.06
529.705	33307.95
530.071	33496.87
530.437	33693.93
530.803	33955.62
531.169	34173.24
531.535	34196.74
531.901	34442.16
532.267	34803.73
532.632	35108.58
532.998	35320.55
533.364	35580.89
533.73	35761.9
534.095	36039.41
534.461	36076.01
534.826	36341.32
535.192	36445.95
535.557	36593.74
535.923	36416.34
536.288	36543.57
536.653	36631.03
537.019	36580.18
537.384	36709.22
537.749	36936.78
538.114	37120.51
538.479	37019.94
538.845	37338.81
539.21	37378.35
539.575	37734.5
539.94	37788.29
540.305	38247.71
540.67	38224.43
541.034	38546.23
541.399	38719.79
541.764	38938.99
542.129	38960.68
542.494	39111.19
542.858	39236.16
543.223	39174.46
543.587	39420.79
543.952	39214.46
544.316	39241.13
544.681	39263.05
545.045	39298.3
545.41	39552.31
545.774	39469.15
546.138	39450.62
546.503	39663.94
546.867	39766.54
547.231	40170.6
547.595	40327.2
547.959	40482
548.324	40757.7
548.688	40941.88
549.052	41111.36
549.416	41309.55
549.779	41456.66
550.143	41364.92
550.507	41637
550.871	41455.08
551.235	41465.25
551.599	41788.86
551.962	41673.16
552.326	41680.61
552.689	41769.88
553.053	41636.77
553.417	41712.25
553.78	42089.42
554.143	42171.22
554.507	42331.22
554.87	42460.03
555.234	42907.02
555.597	42658.21
555.96	43025.89
556.323	43394.69
556.686	43507.23
557.05	43781.35
557.413	43975.92
557.776	44285.52
558.139	44455.46
558.502	44499.97
558.865	44483.7
559.228	44743.36
559.59	44720.76
559.953	44741.78
560.316	44988.55
560.679	44788.55
561.041	44892.73
561.404	45163.23
561.767	45198.94
562.129	45083.91
562.492	45579.27
562.854	45639.61
563.217	45623.33
563.579	46039.37
563.941	46241.62
564.304	46515.51
564.666	46807.71
565.028	46979.46
565.39	47157.31
565.753	47507.13
566.115	47516.84
566.477	47902.82
566.839	47967.45
567.201	48115.47
567.563	48084.51
567.925	48247.45
568.287	48094.46
568.648	48076.6
569.01	48226.2
569.372	48333.09
569.734	48087
570.095	48348.23
570.457	48462.81
570.819	48421
571.18	48468.68
571.542	48711.61
571.903	48807.43
572.265	49071.38
572.626	49245.84
572.987	49435.44
573.349	49729.89
573.71	49995.42
574.071	50013.73
574.432	50109.32
574.794	50422.53
575.155	50418.91
575.516	50241.52
575.877	50505.24
576.238	50412.13
576.599	50586.14
576.96	50537.1
577.32	50565.58
577.681	50527.61
578.042	50573.26
578.403	50583.66
578.763	50584.11
579.124	50619.59
579.485	50663.43
579.845	50758.11
580.206	50685.57
580.566	50714.27
580.927	50800.83
581.287	50976.87
581.648	50975.28
582.008	51244.2
582.368	51280.81
582.728	51405.33
583.089	51485.1
583.449	51438.1
583.809	51522.84
584.169	51732.1
584.529	51626.11
584.889	51804.19
585.249	51547.02
585.609	51500.47
585.969	51607.36
586.329	51602.84
586.688	51442.39
587.048	51428.15
587.408	51383.86
587.768	51304.99
588.127	51266.58
588.487	51138.9
588.846	51377.99
589.206	51177.76
589.565	51128.5
589.925	51323.52
590.284	51250.98
590.643	51366.23
591.003	51441.94
591.362	51676.51
591.721	51667.92
592.08	51648.26
592.44	51869.05
592.799	51880.57
593.158	51862.94
593.517	51975.71
593.876	52014.35
594.235	51993.56
594.593	51983.17
594.952	52024.3
595.311	51791.08
595.67	51920.12
596.029	52000.79
596.387	51916.05
596.746	51964.64
597.104	51789.73
597.463	51671.99
597.822	51891.87
598.18	51689.62
598.538	51692.33
598.897	51829.27
599.255	51627.02
599.613	51988.59
599.972	51867.01
600.33	52063.84
600.688	51998.53
601.046	52210.28
601.404	52308.81
601.762	52180.9
602.12	52432.65
602.478	52523.72
602.836	52551.51
603.194	52430.39
603.552	52547.67
603.91	52422.25
604.268	52649.82
604.625	52478.97
604.983	52596.26
605.341	52330.95
605.698	52449.37
606.056	52456.37
606.413	52403.72
606.771	52572.98
607.128	52461.8
607.485	52321.69
607.843	52393.55
608.2	52516.49
608.557	52699.31
608.914	52477.17
609.272	52660.44
609.629	52635.81
609.986	52737.72
610.343	52511.06
610.7	52879.19
611.057	52898.62
611.414	52847.1
611.771	52978.17
612.127	53210.71
612.484	53181.55
612.841	53264.72
613.198	53167.32
613.554	53310.14
613.911	53338.61
614.267	53518.27
614.624	53424.94
614.98	53482.11
615.337	53526.63
615.693	53470.81
616.05	53418.84
616.406	53581.77
616.762	53454.09
617.118	53456.57
617.475	53327.76
617.831	53460.19
618.187	53436.69
618.543	53455.22
618.899	53522.79
619.255	53500.42
619.611	53462.68
619.967	53532.96
620.323	53559.85
620.678	53359.18
621.034	53460.87
621.39	53531.15
621.746	53364.37
622.101	53865.6
622.457	53600.98
622.812	53738.15
623.168	53796.45
623.523	53820.41
623.879	53998.26
624.234	53790.35
624.589	53900.63
624.945	54014.75
625.3	54005.49
625.655	53966.84
626.01	54019.95
626.365	53954.87
626.72	53942.44
627.075	53855.89
627.43	53795.55
627.785	53796.45
628.14	53821.76
628.495	53703.57
628.85	53658.15
629.205	53583.12
629.559	53681.2
629.914	53424.94
630.269	53452.51
630.623	53399.85
630.978	53304.04
631.332	53440.3
631.687	53518.49
632.041	53481.43
632.396	53563.69
632.75	53430.36
633.104	53484.37
633.459	53385.16
633.813	53479.17
634.167	53411.6
634.521	53404.37
634.875	53469.91
635.229	53436.69
635.583	53417.93
635.937	53399.18
636.291	53363.92
636.645	53437.82
636.999	53389.01
637.352	53358.5
637.706	53258.39
638.06	53338.84
638.413	53138.39
638.767	52998.28
639.121	53082.57
639.474	52789.93
639.828	52734.33
640.181	52749.47
640.534	52706.99
640.888	52441.01
641.241	52376.15
641.594	52471.06
641.947	52468.8
642.301	52349.26
642.654	52392.2
643.007	52379.99
643.36	52341.8
643.713	52303.16
644.066	52447.11
644.419	52357.62
644.771	52376.83
645.124	52294.8
645.477	52297.96
645.83	52090.06
646.182	51763.74
646.535	51551.99
646.888	51438.32
647.24	51159.46
647.593	51362.84
647.945	51427.48
648.298	51133.92
648.65	51188.84
649.002	51202.85
649.355	51242.62
649.707	51239.23
650.059	51356.74
650.411	51771.2
650.763	51833.57
651.115	52036.5
651.467	51732.1
651.819	51656.4
652.171	51561.26
652.523	51466.34
652.875	51594.7
653.227	51318.55
653.578	51640.58
653.93	51511.99
654.282	51293.47
654.633	51105.68
654.985	51303.64
655.337	51270.87
655.688	51295.05
656.039	51421.83
656.391	51272
656.742	51399.45
657.094	51434.93
657.445	51622.5
657.796	51584.53
658.147	51620.24
658.498	51657.07
658.849	51646.23
659.2	51650.52
659.551	51485.33
659.902	51704.76
660.253	51714.93
660.604	51716.51
660.955	51568.94
661.306	51672.67
661.656	51558.55
662.007	51406.01
662.358	51286.69
662.708	51350.64
663.059	51315.39
663.409	51116.98
663.76	51196.75
664.11	51146.13
664.461	50997.66
664.811	50995.4
665.161	50980.71
665.511	50803.54
665.862	50905.46
666.212	50954.95
666.562	50977.54
666.912	50790.2
667.262	50821.39
667.612	50927.83
667.962	51048.5
668.312	50922.86
668.662	51192.68
669.011	51098.67
669.361	51052.12
669.711	51025.9
670.06	51033.36
670.41	51022.06
670.76	51010.09
671.109	51168.27
671.459	51012.8
671.808	51092.79
672.157	51230.87
672.507	51037.2
672.856	50975.06
673.205	51060.25
673.554	51206.92
673.904	51065.45
674.253	51129.63
674.602	50984.55
674.951	50435.64
675.3	50040.39
675.649	50530.55
675.998	50478.12
676.346	50307.5
676.695	50319.26
677.044	49984.8
677.393	50041.75
677.741	50086.72
678.09	49938.48
678.438	49801.3
678.787	49812.38
679.135	49820.96
679.484	49622.78
679.832	49895.09
680.181	49625.94
680.529	49764.02
680.877	49787.52
681.225	49685.37
681.573	49873.62
681.922	49832.72
682.27	49751.59
682.618	49918.14
682.966	49831.59
683.314	49846.27
683.661	49786.84
684.009	49664.36
684.357	49600.86
684.705	49705.26
685.053	49709.55
685.4	49628.43
685.748	49422.33
686.095	49300.53
686.443	49250.36
686.79	49205.61
687.138	49134.65
687.485	49201.09
687.832	48846.53
688.18	48854.66
688.527	48585.97
688.874	48477.72
689.221	48218.75
689.568	48035.93
689.915	47835.03
690.262	47794.35
690.609	47713.9
690.956	47571.08
691.303	47464.87
691.65	47237.3
691.997	47060.13
692.344	46855.17
692.69	46973.81
693.037	46889.29
693.383	46581.05
693.73	46824.21
694.077	46575.4
694.423	46625.57
694.769	46601.84
695.116	46589.64
695.462	46621.05
695.808	46503.54
696.155	46589.18
696.501	46400.71
696.847	46517.32
697.193	46226.71
697.539	46384.44
697.885	46074.85
698.231	46042.53
698.577	46092.47
698.923	45907.62
699.269	45820.62
699.614	45481.19
699.96	45430.35
700.306	45225.15
700.651	45065.16
700.997	44904.03
701.342	44629.46
701.688	44499.07
702.033	44283.93
702.379	44282.8
702.724	43988.35
703.069	44090.27
703.415	43544.07
703.76	43464.3
704.105	43442.37
704.45	43281.93
704.795	42932.78
705.14	42714.94
705.485	42733.01
705.83	42754.94
706.175	42667.93
706.52	42532.79
706.865	42454.15
707.209	42439.46
707.554	42411.67
707.899	42505.45
708.243	42346.36
708.588	42363.98
708.932	42151.34
709.277	42095.07
709.621	42340.26
709.966	42171.67
710.31	42249.86
710.654	41954.5
710.998	42190.43
711.342	42194.05
711.687	42101.39
712.031	42048.74
712.375	41810.1
712.719	41847.39
713.063	41513.84
713.407	41634.06
713.75	41473.84
714.094	41423.22
714.438	41229.55
714.782	41299.61
715.125	41092.38
715.469	40885.61
715.812	40754.31
716.156	40496.46
716.499	40436.35
716.843	40243.14
717.186	39965.4
717.53	40087.21
717.873	40064.84
718.216	39790.95
718.559	39652.64
718.902	39315.03
719.246	39505.08
719.589	39494.91
719.932	39438.41
720.275	39360.45
720.617	39320
720.96	39395.02
721.303	39387.79
721.646	39337.62
721.989	39209.94
722.331	39397.74
722.674	39166.1
723.016	39383.5
723.359	39357.96
723.701	39428.47
724.044	39368.13
724.386	39133.11
724.729	39452.65
725.071	39404.97
725.413	39429.37
725.755	39418.75
726.097	39240.45
726.439	39040.91
726.782	39116.61
727.124	39221.24
727.465	38857.41
727.807	39002.94
728.149	38825.77
728.491	38804.08
728.833	38756.4
729.175	38506.69
729.516	38538.1
729.858	38444.31
730.199	38410.19
730.541	38273.02
730.882	38162.74
731.224	38317.99
731.565	38036.19
731.906	37860.15
732.248	37848.85
732.589	37554.62
732.93	37617.44
733.271	37538.58
733.612	37657.44
733.953	37495.41
734.294	37387.39
734.635	37324.57
734.976	37556.65
735.317	37267.62
735.658	37419.26
735.999	37349.65
736.339	37458.8
736.68	37590.55
737.021	37507.62
737.361	37399.6
737.702	37718.23
738.042	37593.04
738.383	37437.33
738.723	37612.25
739.063	37462.19
739.404	37622.41
739.744	37819.7
740.084	37644.56
740.424	37810.21
740.764	37688.4
741.104	37872.8
741.444	37694.96
741.784	37499.93
742.124	37659.02
742.464	37602.53
742.804	37758.23
743.143	37560.5
743.483	37496.09
743.823	37255.19
744.162	37332.03
744.502	37359.37
744.841	37142.2
745.181	37272.59
745.52	37023.79
745.86	37127.96
746.199	37057.01
746.538	36968.87
746.877	37094.97
747.216	37158.02
747.556	37047.97
747.895	36888.42
748.234	36850.91
748.573	36800.52
748.911	36690.69
749.25	36849.33
749.589	36697.92
749.928	36592.84
750.267	36706.28
750.605	36661.76
750.944	36725.26
751.283	36705.15
751.621	36770.46
751.96	36649.33
752.298	36745.83
752.636	36935.88
752.975	36748.31
753.313	36826.5
753.651	36948.76
