Data from blue_surface_keyboard_FLMS001491_080.txt Node
Date: Tue Feb 07 11:13:39 GMT 2017
User: dcchb
Spectrometer: FLMS00149
Trigger mode: 0
Integration Time (sec): 2.000000E-2
Scans to average: 10
Electric dark correction enabled: true
Nonlinearity correction enabled: false
Boxcar width: 0
XAxis mode: Wavelengths
Number of Pixels in Spectrum: 2048
>>>>>Begin Spectral Data<<<<<
341.393	-15.28
341.776	-15.28
342.16	-15.28
342.543	-78.11
342.927	-60.48
343.31	-67.03
343.693	-65
344.077	-57.09
344.46	-64.77
344.843	-53.7
345.226	-29.52
345.61	-33.36
345.993	-11.89
346.376	-0.14
346.759	17.26
347.142	18.16
347.525	29.69
347.908	45.06
348.291	63.36
348.674	82.79
349.057	126.18
349.44	132.74
349.823	144.04
350.206	172.28
350.588	172.06
350.971	184.71
351.354	191.94
351.737	235.33
352.119	241.66
352.502	211.6
352.884	231.72
353.267	261.55
353.65	257.03
354.032	259.96
354.414	301.55
354.797	282.34
355.179	280.08
355.562	293.86
355.944	306.29
356.326	292.51
356.709	313.52
357.091	316.91
357.473	313.3
357.855	324.14
358.238	311.49
358.62	323.92
359.002	301.77
359.384	331.15
359.766	311.94
360.148	319.85
360.53	305.39
360.912	312.39
361.294	307.2
361.676	301.77
362.057	322.34
362.439	291.15
362.821	342.67
363.203	288.66
363.584	305.16
363.966	294.54
364.348	290.47
364.729	296.57
365.111	308.33
365.493	290.25
365.874	294.09
366.256	287.53
366.637	292.28
367.019	290.7
367.4	287.99
367.781	302
368.163	283.02
368.544	279.17
368.925	270.59
369.306	294.99
369.688	299.06
370.069	294.99
370.45	278.27
370.831	274.88
371.212	283.47
371.593	288.89
371.974	277.37
372.355	297.03
372.736	284.6
373.117	291.38
373.498	311.94
373.879	287.99
374.26	283.02
374.641	297.25
375.021	284.37
375.402	302.9
375.783	280.08
376.163	260.42
376.544	292.73
376.925	284.82
377.305	293.86
377.686	311.04
378.066	310.81
378.447	287.76
378.827	293.18
379.208	306.97
379.588	327.76
379.968	312.84
380.349	294.31
380.729	309.91
381.109	306.52
381.489	294.09
381.87	287.76
382.25	287.53
382.63	298.83
383.01	301.55
383.39	309.46
383.77	321.21
384.15	307.2
384.53	299.51
384.91	314.65
385.29	307.87
385.67	297.7
386.049	306.97
386.429	322.79
386.809	302.9
387.189	314.2
387.568	330.02
387.948	326.86
388.328	314.2
388.707	320.3
389.087	322.79
389.466	317.14
389.846	299.74
390.225	318.04
390.605	311.71
390.984	290.7
391.363	316.91
391.743	309.68
392.122	315.56
392.501	318.27
392.881	320.3
393.26	337.7
393.639	320.53
394.018	327.99
394.397	306.29
394.776	308.1
395.155	329.57
395.534	338.83
395.913	321.21
396.292	337.48
396.671	311.71
397.05	335.9
397.429	325.27
397.808	355.33
398.186	351.26
398.565	329.57
398.944	343.35
399.323	325.27
399.701	331.83
400.08	335.44
400.458	328.89
400.837	349.23
401.215	337.7
401.594	328.44
401.972	337.48
402.351	352.84
402.729	346.74
403.107	345.84
403.486	355.33
403.864	330.25
404.242	342.45
404.62	358.49
404.999	325.27
405.377	345.84
405.755	355.1
406.133	361.66
406.511	365.95
406.889	382
407.267	370.24
407.645	349.45
408.023	352.39
408.401	370.24
408.779	348.32
409.156	345.39
409.534	369.57
409.912	348.78
410.29	385.84
410.667	352.62
411.045	348.1
411.422	356.23
411.8	381.09
412.178	376.57
412.555	371.6
412.933	365.95
413.31	370.02
413.687	375.22
414.065	369.79
414.442	386.97
414.819	369.34
415.197	391.49
415.574	370.92
415.951	392.84
416.328	383.35
416.705	389
417.082	377.02
417.46	386.06
417.837	384.71
418.214	376.35
418.591	386.06
418.967	394.65
419.344	392.39
419.721	385.16
420.098	384.48
420.475	381.77
420.852	403.92
421.228	407.31
421.605	395.55
421.982	394.88
422.358	401.43
422.735	404.59
423.111	407.53
423.488	411.6
423.864	394.65
424.241	425.16
424.617	420.19
424.994	436.01
425.37	407.53
425.746	400.3
426.123	429
426.499	412.28
426.875	408.89
427.251	423.35
427.627	435.78
428.003	439.17
428.379	418.6
428.756	439.85
429.132	417.25
429.507	445.27
429.883	428.1
430.259	432.84
430.635	416.57
431.011	426.06
431.387	434.2
431.763	452.95
432.138	469.45
432.514	441.43
432.89	436.46
433.265	454.76
433.641	444.59
434.016	460.41
434.392	454.76
434.767	448.89
435.143	471.71
435.518	456.12
435.894	476.23
436.269	502.44
436.644	471.94
437.02	464.93
437.395	474.65
437.77	473.07
438.145	482.11
438.52	480.98
438.895	504.03
439.271	487.3
439.646	489.79
440.021	501.77
440.395	491.6
440.77	485.72
441.145	497.7
441.52	519.39
441.895	508.32
442.27	498.38
442.645	511.03
443.019	509
443.394	494.76
443.769	483.91
444.143	516.23
444.518	531.82
444.892	507.42
445.267	518.26
445.641	513.97
446.016	519.39
446.39	523.69
446.764	527.3
447.139	532.95
447.513	523.91
447.887	534.31
448.262	546.74
448.636	544.7
449.01	549
449.384	533.63
449.758	544.7
450.132	524.59
450.506	551.48
450.88	550.58
451.254	555.1
451.628	541.31
452.002	533.63
452.376	559.39
452.75	559.39
453.123	572.95
453.497	555.1
453.871	568.21
454.244	570.01
454.618	565.72
454.992	572.73
455.365	581.99
455.739	598.04
456.112	577.24
456.486	603.01
456.859	577.47
457.232	593.52
457.606	607.75
457.979	587.41
458.352	609.11
458.725	613.85
459.099	611.37
459.472	616.11
459.845	638.26
460.218	621.09
460.591	611.14
460.964	636.23
461.337	635.77
461.71	642.78
462.083	639.16
462.456	654.53
462.829	668.54
463.201	646.17
463.574	664.93
463.947	643.23
464.32	662.89
464.692	668.54
465.065	685.26
465.438	675.1
465.81	687.52
466.183	657.02
466.555	695.21
466.928	698.82
467.3	699.95
467.672	720.52
468.045	703.57
468.417	726.39
468.789	740.18
469.161	730.91
469.534	736.34
469.906	743.34
470.278	725.94
470.65	735.88
471.022	738.37
471.394	766.17
471.766	747.41
472.138	756
472.51	782.21
472.882	771.36
473.253	773.17
473.625	786.73
473.997	779.05
474.369	777.47
474.74	799.16
475.112	798.93
475.484	834.19
475.855	810.23
476.227	837.58
476.598	850.23
476.97	839.84
477.341	839.38
477.713	857.69
478.084	844.58
478.455	886.62
478.827	879.84
479.198	897.46
479.569	892.49
479.94	910.8
480.311	925.03
480.682	941.53
481.053	949.89
481.424	944.01
481.795	958.03
482.166	954.86
482.537	959.61
482.908	994.41
483.279	956.67
483.65	976.78
484.021	1023.79
484.391	1027.4
484.762	1009.32
485.133	1009.32
485.503	1029.89
485.874	1030.57
486.244	1044.58
486.615	1050
486.985	1079.6
487.356	1093.16
487.726	1060.62
488.097	1103.33
488.467	1099.94
488.837	1094.29
489.207	1104.69
489.578	1114.86
489.948	1109.21
490.318	1143.33
490.688	1135.87
491.058	1148.53
491.428	1143.33
491.798	1175.42
492.168	1179.49
492.538	1166.16
492.908	1197.12
493.278	1160.05
493.648	1181.07
494.017	1205.25
494.387	1209.77
494.757	1217.68
495.126	1225.82
495.496	1219.04
495.866	1224.01
496.235	1221.75
496.605	1223.33
496.974	1201.86
497.344	1234.63
497.713	1238.24
498.082	1248.64
498.452	1253.39
498.821	1232.14
499.19	1264.46
499.559	1230.11
499.928	1254.29
500.298	1266.49
500.667	1262.42
501.036	1241.86
501.405	1270.79
501.774	1273.95
502.143	1272.59
502.512	1287.51
502.88	1278.02
503.249	1266.49
503.618	1279.6
503.987	1291.12
504.356	1311.91
504.724	1286.38
505.093	1306.94
505.462	1315.3
505.83	1295.19
506.199	1289.99
506.567	1325.25
506.936	1336.55
507.304	1337.68
507.672	1332.93
508.041	1331.35
508.409	1324.8
508.777	1332.93
509.145	1341.07
509.514	1356.89
509.882	1336.09
510.25	1338.58
510.618	1328.19
510.986	1378.81
511.354	1360.5
511.722	1341.52
512.09	1381.07
512.458	1348.3
512.826	1367.51
513.193	1388.75
513.561	1330.22
513.929	1367.28
514.297	1378.58
514.664	1368.41
515.032	1366.83
515.4	1393.04
515.767	1388.3
516.135	1398.01
516.502	1374.96
516.869	1409.09
517.237	1403.44
517.604	1397.79
517.972	1417.67
518.339	1386.71
518.706	1385.36
519.073	1400.73
519.44	1417.9
519.808	1414.28
520.175	1413.61
520.542	1414.96
520.909	1426.49
521.276	1425.81
521.643	1449.31
522.009	1431.46
522.376	1459.03
522.743	1435.53
523.11	1433.04
523.477	1443.89
523.843	1444.79
524.21	1454.74
524.577	1466.49
524.943	1482.76
525.31	1484.11
525.676	1474.4
526.043	1468.75
526.409	1464.23
526.776	1483.89
527.142	1472.59
527.508	1465.58
527.874	1479.14
528.241	1492.02
528.607	1510.55
528.973	1488.18
529.339	1486.37
529.705	1485.02
530.071	1501.74
530.437	1506.94
530.803	1499.25
531.169	1521.4
531.535	1549.42
531.901	1492.47
532.267	1512.14
532.632	1541.06
532.998	1547.84
533.364	1535.19
533.73	1516.43
534.095	1508.52
534.461	1551.46
534.826	1525.24
535.192	1547.16
535.557	1534.28
535.923	1535.86
536.288	1541.06
536.653	1571.57
537.019	1558.24
537.384	1544
537.749	1554.39
538.114	1536.09
538.479	1561.63
538.845	1556.2
539.21	1544.9
539.575	1537.9
539.94	1555.07
540.305	1557.11
540.67	1581.06
541.034	1567.5
541.399	1555.52
541.764	1579.7
542.129	1558.69
542.494	1552.36
542.858	1583.32
543.223	1570.21
543.587	1569.54
543.952	1572.47
544.316	1587.39
544.681	1571.57
545.045	1569.76
545.41	1589.65
545.774	1552.81
546.138	1567.28
546.503	1569.08
546.867	1554.62
547.231	1566.15
547.595	1584.68
547.959	1593.26
548.324	1592.59
548.688	1609.08
549.052	1582.42
549.416	1603.66
549.779	1567.28
550.143	1601.85
550.507	1601.62
550.871	1621.96
551.235	1561.63
551.599	1579.48
551.962	1597.1
552.326	1588.07
552.689	1601.4
553.053	1589.42
553.417	1581.29
553.78	1621.29
554.143	1570.66
554.507	1617.67
554.87	1600.72
555.234	1595.07
555.597	1627.61
555.96	1618.12
556.323	1623.54
556.686	1600.27
557.05	1602.53
557.413	1626.71
557.776	1594.62
558.139	1616.54
558.502	1614.96
558.865	1637.33
559.228	1636.43
559.59	1623.32
559.953	1634.17
560.316	1627.61
560.679	1609.53
561.041	1634.62
561.404	1612.47
561.767	1654.5
562.129	1652.92
562.492	1629.42
562.854	1634.84
563.217	1605.24
563.579	1639.14
563.941	1632.58
564.304	1649.53
564.666	1680.94
565.028	1664.67
565.39	1660.38
565.753	1685.01
566.115	1661.28
566.477	1668.06
566.839	1671
567.201	1689.76
567.563	1680.49
567.925	1681.17
568.287	1722.98
568.648	1702.64
569.01	1690.21
569.372	1697.22
569.734	1718.46
570.095	1721.17
570.457	1709.87
570.819	1715.75
571.18	1732.02
571.542	1697.67
571.903	1701.96
572.265	1716.88
572.626	1732.47
572.987	1744.45
573.349	1721.4
573.71	1723.66
574.071	1717.55
574.432	1729.08
574.794	1769.76
575.155	1761.62
575.516	1690.44
575.877	1751.45
576.238	1751.9
576.599	1769.76
576.96	1767.95
577.32	1748.51
577.681	1766.59
578.042	1755.07
578.403	1800.94
578.763	1760.26
579.124	1770.66
579.485	1776.54
579.845	1781.73
580.206	1781.73
580.566	1755.29
580.927	1715.97
581.287	1786.93
581.648	1769.53
582.008	1797.1
582.368	1800.04
582.728	1809.08
583.089	1792.58
583.449	1767.72
583.809	1761.39
584.169	1783.54
584.529	1809.75
584.889	1794.84
585.249	1776.31
585.609	1784.67
585.969	1783.54
586.329	1800.49
586.688	1781.51
587.048	1783.09
587.408	1779.25
587.768	1805.24
588.127	1786.25
588.487	1817.21
588.846	1776.31
589.206	1782.64
589.565	1779.92
589.925	1793.48
590.284	1800.94
590.643	1806.14
591.003	1832.13
591.362	1825.12
591.721	1820.6
592.08	1764.78
592.44	1791.45
592.799	1795.52
593.158	1833.48
593.517	1797.55
593.876	1828.96
594.235	1808.85
594.593	1817.66
594.952	1771.11
595.311	1812.24
595.67	1816.08
596.029	1837.1
596.387	1821.73
596.746	1804.11
597.104	1789.64
597.463	1803.43
597.822	1845.23
598.18	1799.36
598.538	1786.03
598.897	1811.11
599.255	1830.09
599.613	1803.65
599.972	1838.45
600.33	1863.99
600.688	1862.63
601.046	1824.9
601.404	1843.2
601.762	1873.26
602.12	1847.72
602.478	1840.49
602.836	1857.44
603.194	1842.75
603.552	1846.36
603.91	1846.59
604.268	1847.04
604.625	1863.99
604.983	1860.15
605.341	1881.17
605.698	1878.68
606.056	1847.72
606.413	1858.11
606.771	1836.42
607.128	1889.98
607.485	1833.03
607.843	1853.14
608.2	1876.42
608.557	1867.15
608.914	1894.95
609.272	1913.93
609.629	1885.68
609.986	1862.63
610.343	1883.2
610.7	1882.3
611.057	1902.18
611.414	1877.32
611.771	1889.98
612.127	1919.58
612.484	1921.16
612.841	1917.55
613.198	1930.88
613.554	1911.9
613.911	1918.23
614.267	1883.2
614.624	1906.48
614.98	1931.79
615.337	1922.29
615.693	1936.08
616.05	1902.18
616.406	1946.25
616.762	1949.86
617.118	1936.08
617.475	1929.75
617.831	1913.25
618.187	1934.72
618.543	1949.86
618.899	1986.02
619.255	1937.43
619.611	1948.73
619.967	1959.81
620.323	1937.43
620.678	1926.14
621.034	1955.97
621.39	1947.15
621.746	1954.38
622.101	1980.6
622.457	1974.95
622.812	1974.95
623.168	1969.75
623.523	1989.64
623.879	1971.56
624.234	2005.23
624.589	1990.54
624.945	1979.92
625.3	1962.97
625.655	1972.24
626.01	1973.59
626.365	1986.47
626.72	1985.34
627.075	2010.65
627.43	2023.08
627.785	1988.96
628.14	2005.23
628.495	1996.19
628.85	2028.05
629.205	2008.62
629.559	2035.29
629.914	1996.87
630.269	2014.5
630.623	2011.33
630.978	2015.17
631.332	2005
631.687	2044.32
632.041	2048.39
632.396	2028.28
632.75	2024.44
633.104	2046.13
633.459	2034.83
633.813	2036.42
634.167	2021.5
634.521	2030.09
634.875	2022.86
635.229	2027.83
635.583	2050.43
635.937	2073.48
636.291	2027.6
636.645	2064.21
636.999	2052.91
637.352	2050.2
637.706	2075.28
638.06	2087.49
638.413	2079.35
638.767	2080.48
639.121	2121.84
639.474	2082.06
639.828	2072.8
640.181	2067.38
640.534	2073.93
640.888	2092.46
641.241	2127.94
641.594	2081.84
641.947	2128.84
642.301	2106.24
642.654	2113.7
643.007	2132.68
643.36	2110.54
643.713	2140.37
644.066	2155.96
644.419	2127.94
644.771	2116.19
645.124	2109.63
645.477	2138.33
645.83	2114.38
646.182	2120.25
646.535	2124.77
646.888	2111.89
647.24	2123.19
647.593	2134.49
647.945	2157.32
648.298	2152.57
648.65	2129.29
649.002	2134.49
649.355	2173.13
649.707	2165
650.059	2219.01
650.411	2198.9
650.763	2224.21
651.115	2257.2
651.467	2281.83
651.819	2270.76
652.171	2264.43
652.523	2289.74
652.875	2286.13
653.227	2286.8
653.578	2290.87
653.93	2319.12
654.282	2341.49
654.633	2317.76
654.985	2349.85
655.337	2316.41
655.688	2359.8
656.039	2401.6
656.391	2354.37
656.742	2405.9
657.094	2350.31
657.445	2429.63
657.796	2408.83
658.147	2407.03
658.498	2431.89
658.849	2447.03
659.2	2427.14
659.551	2455.39
659.902	2497.87
660.253	2454.71
660.604	2482.96
660.955	2470.08
661.306	2511.66
661.656	2545.33
662.007	2518.21
662.358	2540.58
662.708	2516.4
663.059	2538.32
663.409	2543.07
663.76	2567.25
664.11	2611.32
664.461	2580.13
664.811	2604.76
665.161	2613.8
665.511	2592.11
665.862	2632.33
666.212	2649.28
666.562	2677.98
666.912	2658.09
667.262	2637.08
667.612	2693.35
667.962	2699.45
668.312	2703.97
668.662	2724.08
669.011	2739.67
669.361	2760.01
669.711	2731.31
670.06	2739.22
670.41	2731.54
670.76	2781.03
671.109	2768.83
671.459	2777.41
671.808	2775.6
672.157	2823.74
672.507	2799.79
672.856	2797.3
673.205	2830.29
673.554	2823.29
673.904	2842.95
674.253	2883.85
674.602	2883.4
674.951	2830.97
675.3	2844.08
675.649	2930.63
675.998	2886.56
676.346	2902.83
676.695	2931.31
677.044	2949.84
677.393	2917.3
677.741	2936.28
678.09	2983.74
678.438	2941.25
678.787	2975.83
679.135	3012.89
679.484	2963.85
679.832	2996.62
680.181	2972.66
680.529	3014.47
680.877	3029.16
681.225	3020.8
681.573	3021.25
681.922	3022.38
682.27	3045.65
682.618	3057.63
682.966	3031.64
683.314	3074.35
683.661	3058.31
684.009	3067.35
684.357	3062.6
684.705	3072.77
685.053	3074.13
685.4	3089.04
685.748	3070.51
686.095	3118.42
686.443	3091.08
686.79	3091.98
687.138	3129.72
687.485	3109.38
687.832	3120.68
688.18	3109.83
688.527	3112.55
688.874	3119.1
689.221	3139.21
689.568	3167.23
689.915	3121.58
690.262	3162.04
690.609	3116.84
690.956	3130.85
691.303	3122.71
691.65	3157.74
691.997	3136.5
692.344	3118.87
692.69	3132.88
693.037	3115.03
693.383	3117.06
693.73	3144.63
694.077	3136.73
694.423	3141.25
694.769	3099.44
695.116	3099.66
695.462	3128.14
695.808	3098.99
696.155	3138.76
696.501	3088.82
696.847	3106.67
697.193	3082.26
697.539	3095.6
697.885	3128.14
698.231	3095.14
698.577	3121.36
698.923	3118.87
699.269	3103.28
699.614	3089.72
699.96	3076.61
700.306	3078.2
700.651	3057.63
700.997	3092.66
701.342	3090.4
701.688	3107.12
702.033	3063.51
702.379	3039.78
702.724	3079.55
703.069	3084.98
703.415	3063.73
703.76	3040.91
704.105	3066.9
704.45	3021.25
704.795	3030.74
705.14	3051.53
705.485	3014.69
705.83	3034.13
706.175	3020.34
706.52	3013.34
706.865	3016.73
707.209	3030.29
707.554	3016.05
707.899	3023.73
708.243	3037.07
708.588	2984.41
708.932	2981.02
709.277	2981.7
709.621	2984.41
709.966	2992.77
710.31	3026.22
710.654	2991.19
710.998	3000.91
711.342	3022.83
711.687	2985.99
712.031	3000.46
712.375	2945.09
712.719	2965.2
713.063	2974.47
713.407	3007.92
713.75	2985.09
714.094	2983.28
714.438	2988.03
714.782	2993.23
715.125	2957.07
715.469	2937.86
715.812	2938.09
716.156	2960.68
716.499	2973.11
716.843	2945.09
717.186	2953.91
717.53	2954.81
717.873	2970.4
718.216	2990.51
718.559	2989.61
718.902	2919.78
719.246	2974.92
719.589	2950.74
719.932	2916.84
720.275	2968.37
720.617	2959.1
720.96	2914.13
721.303	2932.66
721.646	2969.95
721.989	2956.17
722.331	2937.63
722.674	2915.04
723.016	2949.39
723.359	2936.73
723.701	2936.28
724.044	2934.92
724.386	2917.07
724.729	2926.34
725.071	2948.71
725.413	2949.84
725.755	2935.83
726.097	2938.99
726.439	2948.48
726.782	2931.08
727.124	2934.02
727.465	2942.83
727.807	2947.35
728.149	2946
728.491	2941.25
728.833	2979.22
729.175	2941.25
729.516	2941.7
729.858	2953.91
730.199	2945.09
730.541	2988.25
730.882	2946.22
731.224	2937.18
731.565	2943.06
731.906	2951.87
732.248	3002.72
732.589	2969.95
732.93	2953.68
733.271	2967.01
733.612	3011.08
733.953	2969.27
734.294	2971.76
734.635	2969.27
734.976	3035.03
735.317	2984.64
735.658	2967.24
735.999	2965.43
736.339	2993.45
736.68	3018.76
737.021	2992.32
737.361	3014.47
737.702	3028.25
738.042	3056.95
738.383	3028.48
738.723	3074.35
739.063	3056.5
739.404	3028.25
739.744	3052.89
740.084	3044.07
740.424	3096.73
740.764	3044.75
741.104	3095.82
741.444	3073.45
741.784	3128.14
742.124	3121.36
742.464	3103.28
742.804	3124.52
743.143	3134.92
743.483	3147.8
743.823	3121.36
744.162	3189.83
744.502	3169.27
744.841	3167.01
745.181	3214.24
745.52	3192.09
745.86	3233.67
746.199	3195.25
746.538	3241.81
746.877	3283.61
747.216	3297.17
747.556	3257.85
747.895	3305.76
748.234	3254.91
748.573	3311.64
748.911	3351.41
749.25	3344.63
749.589	3368.58
749.928	3404.06
750.267	3385.08
750.605	3410.39
750.944	3410.16
751.283	3470.95
751.621	3446.77
751.96	3469.82
752.298	3474.12
752.636	3494.91
752.975	3562.48
753.313	3521.8
753.651	3527.45
753.989	3559.54
754.327	3597.28
754.666	3571.06
755.004	3605.41
755.342	3683.38
755.679	3658.75
756.017	3669.82
756.355	3689.71
756.693	3713.43
757.031	3729.93
757.368	3755.01
757.706	3750.49
758.044	3736.48
758.381	3797.95
758.719	3812.64
759.056	3850.83
759.394	3854.22
759.731	3814
760.068	3868.01
760.405	3880.43
760.743	3881.11
761.08	3884.5
761.417	3859.87
761.754	3907.55
762.091	3954.33
762.428	3953.43
762.765	3898.74
763.102	3984.39
763.438	3946.65
763.775	3929.25
764.112	3993.43
764.449	4054.89
764.785	3973.31
765.122	3999.3
765.458	3976.03
765.795	3973.09
766.131	4038.4
766.467	3989.36
766.804	4050.15
767.14	4012.41
767.476	4014.67
767.812	4041.33
768.148	4048.79
768.485	4042.92
768.821	4068.68
769.157	4040.2
769.492	4050.6
769.828	4039.98
770.164	4043.37
770.5	3971.96
770.836	4031.84
771.171	4011.73
771.507	4024.61
771.842	4050.15
772.178	3990.94
772.513	3987.55
