Data from blue_shiny_book_FLMS001491_00047.txt Node
Date: Wed Feb 08 15:27:01 GMT 2017
User: dcchb
Spectrometer: FLMS00149
Trigger mode: 0
Integration Time (sec): 2.000000E-2
Scans to average: 10
Electric dark correction enabled: true
Nonlinearity correction enabled: false
Boxcar width: 0
XAxis mode: Wavelengths
Number of Pixels in Spectrum: 2048
>>>>>Begin Spectral Data<<<<<
341.393	-1.61
341.776	-1.61
342.16	-1.61
342.543	-46.58
342.927	-58.56
343.31	-70.31
343.693	-48.61
344.077	-67.15
344.46	-60.59
344.843	-60.37
345.226	-44.55
345.61	-42.51
345.993	-24.89
346.376	-3.64
346.759	16.02
347.142	24.38
347.525	52.17
347.908	37.94
348.291	80.65
348.674	105.96
349.057	105.51
349.44	119.97
349.823	125.84
350.206	159.97
350.588	191.61
350.971	223.02
351.354	262.34
351.737	239.74
352.119	250.59
352.502	279.74
352.884	271.83
353.267	304.14
353.65	309.12
354.032	316.8
354.414	331.94
354.797	324.26
355.179	325.61
355.562	340.75
355.944	354.99
356.326	345.5
356.709	362.22
357.091	349.79
357.473	342.79
357.855	373.3
358.238	354.76
358.62	341.88
359.002	353.18
359.384	361.54
359.766	362.22
360.148	358.61
360.53	361.09
360.912	342.34
361.294	363.35
361.676	352.28
362.057	334.43
362.439	363.13
362.821	343.69
363.203	329.23
363.584	338.27
363.966	339.17
364.348	338.49
364.729	347.08
365.111	351.83
365.493	353.18
365.874	311.83
366.256	337.82
366.637	341.21
367.019	343.47
367.4	329.23
367.781	331.71
368.163	351.6
368.544	351.6
368.925	332.62
369.306	332.62
369.688	342.34
370.069	339.17
370.45	339.17
370.831	351.37
371.212	349.79
371.593	345.05
371.974	330.36
372.355	354.76
372.736	356.8
373.117	350.92
373.498	362
373.879	345.05
374.26	356.57
374.641	340.3
375.021	325.16
375.402	361.54
375.783	347.99
376.163	362
376.544	377.36
376.925	351.37
377.305	362.45
377.686	389.57
378.066	365.39
378.447	364.48
378.827	388.89
379.208	393.18
379.588	368.1
379.968	385.5
380.349	382.56
380.729	390.02
381.109	409.45
381.489	398.38
381.87	382.33
382.25	403.12
382.63	410.58
383.01	411.26
383.39	405.38
383.77	425.72
384.15	423.01
384.53	416.46
384.91	432.95
385.29	425.5
385.67	431.6
386.049	455.55
386.429	460.07
386.809	459.39
387.189	443.12
387.568	449.9
387.948	449.23
388.328	450.81
388.707	471.15
389.087	466.63
389.466	464.14
389.846	461.43
390.225	473.18
390.605	464.59
390.984	477.7
391.363	459.62
391.743	487.64
392.122	515.89
392.501	493.97
392.881	510.47
393.26	522.9
393.639	522.67
394.018	522.22
394.397	531.48
394.776	546.62
395.155	526.29
395.534	528.09
395.913	539.39
396.292	578.26
396.671	574.42
397.05	565.83
397.429	564.25
397.808	537.58
398.186	598.6
398.565	561.54
398.944	550.92
399.323	581.2
399.701	599.73
400.08	606.06
400.458	598.15
400.837	615.55
401.215	629.79
401.594	620.75
401.972	639.73
402.351	652.61
402.729	645.83
403.107	663.01
403.486	669.78
403.864	646.51
404.242	649.9
404.62	686.51
404.999	680.41
405.377	690.8
405.755	717.24
406.133	721.99
406.511	738.71
406.889	721.31
407.267	739.61
407.645	739.16
408.023	752.72
408.401	757.47
408.779	759.95
409.156	782.32
409.534	799.27
409.912	808.09
410.29	828.2
410.667	845.37
411.045	867.97
411.422	858.48
411.8	834.75
412.178	881.98
412.555	893.06
412.933	911.59
413.31	918.37
413.687	921.76
414.065	958.59
414.442	947.74
414.819	961.75
415.197	996.1
415.574	1003.34
415.951	1005.14
416.328	988.19
416.705	984.13
417.082	1023.22
417.46	1035.2
417.837	1092.15
418.214	1051.92
418.591	1067.74
418.967	1089.66
419.344	1065.93
419.721	1104.58
420.098	1102.99
420.475	1099.6
420.852	1137.79
421.228	1126.27
421.605	1146.38
421.982	1168.08
422.358	1179.6
422.735	1185.93
423.111	1230
423.488	1218.47
423.864	1237
424.241	1246.04
424.617	1285.59
424.994	1254.4
425.37	1294.4
425.746	1286.27
426.123	1335.53
426.499	1346.15
426.875	1371.24
427.251	1402.19
427.627	1426.83
428.003	1422.08
428.379	1450.1
428.756	1435.19
429.132	1475.41
429.507	1480.84
429.883	1498.92
430.259	1536.2
430.635	1568.74
431.011	1576.2
431.387	1623.43
431.763	1621.17
432.138	1651
432.514	1681.96
432.89	1678.8
433.265	1733.03
433.641	1759.47
434.016	1744.33
434.392	1785.46
434.767	1818
435.143	1807.38
435.518	1841.51
435.894	1854.61
436.269	1893.93
436.644	1965.57
437.02	1974.38
437.395	1981.39
437.77	2013.93
438.145	2048.73
438.52	2015.06
438.895	2052.57
439.271	2041.95
439.646	2099.8
440.021	2144.55
440.395	2156.07
440.77	2184.55
441.145	2222.96
441.52	2248.27
441.895	2259.57
442.27	2241.72
442.645	2272
443.019	2319.68
443.394	2307.03
443.769	2314.49
444.143	2325.79
444.518	2355.39
444.892	2321.94
445.267	2373.69
445.641	2435.84
446.016	2423.86
446.39	2470.19
446.764	2478.78
447.139	2450.75
447.513	2550.87
447.887	2539.34
448.262	2564.2
448.636	2554.25
449.01	2564.65
449.384	2607.13
449.758	2614.14
450.132	2679.22
450.506	2680.81
450.88	2709.28
451.254	2725.78
451.628	2738.2
452.002	2782.27
452.376	2811.88
452.75	2871.76
453.123	2853.46
453.497	2949.5
453.871	2953.57
454.244	3030.17
454.618	3006.22
454.992	3048.93
455.365	3079.89
455.739	3173.9
456.112	3170.51
456.486	3212.99
456.859	3245.31
457.232	3308.36
457.606	3332.77
457.979	3408.92
458.352	3456.38
458.725	3488.24
459.099	3515.13
459.472	3598.97
459.845	3609.82
460.218	3662.02
460.591	3681.46
460.964	3721.23
461.337	3775.92
461.71	3826.99
462.083	3893.2
462.456	3882.81
462.829	3932.3
463.201	4013.43
463.574	4094.78
463.947	4138.17
464.32	4242.57
464.692	4253.19
465.065	4278.73
465.438	4374.55
465.81	4397.14
466.183	4408.9
466.555	4536.58
466.928	4567.54
467.3	4528.21
467.672	4668.55
468.045	4795.33
468.417	4797.59
468.789	4804.59
469.161	4903.12
469.534	5003.68
469.906	5090.46
470.278	5147.18
470.65	5225.82
471.022	5281.19
471.394	5410.45
471.766	5386.04
472.138	5487.96
472.51	5594.85
472.882	5649.31
473.253	5775.19
473.625	5832.59
473.997	5980.15
474.369	5991.23
474.74	6075.52
475.112	6277.32
475.484	6322.97
475.855	6470.31
476.227	6551.21
476.598	6698.1
476.97	6757.31
477.341	6861.03
477.713	6953.46
478.084	7003.86
478.455	7229.61
478.827	7327.91
479.198	7429.83
479.569	7535.37
479.94	7776.72
480.311	7830.95
480.682	7966.77
481.053	8154.11
481.424	8333.54
481.795	8360.43
482.166	8538.05
482.537	8684.94
482.908	8810.36
483.279	8917.48
483.65	9042.9
484.021	9269.11
484.391	9363.34
484.762	9441.08
485.133	9523.79
485.503	9696.21
485.874	9907.96
486.244	10029.31
486.615	10173.94
486.985	10338.01
487.356	10590.2
487.726	10642.63
488.097	10926.24
488.467	10908.39
488.837	11194.48
489.207	11250.3
489.578	11493
489.948	11603.28
490.318	11670.4
490.688	11718.76
491.058	11948.81
491.428	12157.17
491.798	12289.82
492.168	12526.2
492.538	12594.67
492.908	12698.39
493.278	12933.19
493.648	12954.89
494.017	13170.25
494.387	13340.41
494.757	13435.1
495.126	13585.83
495.496	13664.7
495.866	13796.22
496.235	13908.08
496.605	14032.15
496.974	14130.67
497.344	14260.84
497.713	14334.74
498.082	14499.25
498.452	14680.49
498.821	14787.61
499.19	14775.4
499.559	14977.21
499.928	15035.28
500.298	15187.14
500.667	15297.65
501.036	15385.33
501.405	15472.79
501.774	15636.17
502.143	15752.78
502.512	15808.37
502.88	15951.42
503.249	16022.38
503.618	16094.24
503.987	16219.21
504.356	16370.16
504.724	16420.78
505.093	16573.1
505.462	16587.33
505.83	16743.71
506.199	16960.2
506.567	17130.59
506.936	17077.94
507.304	17353.64
507.672	17356.58
508.041	17524.93
508.409	17621.2
508.777	17796.57
509.145	17971.7
509.514	18004.47
509.882	18091.7
510.25	18183.9
510.618	18372.6
510.986	18433.61
511.354	18591.8
511.722	18781.17
512.09	18906.82
512.458	18929.87
512.826	19040.15
513.193	19165.57
513.561	19201.95
513.929	19488.5
514.297	19577.08
514.664	19721.94
515.032	19830.64
515.4	20070.63
515.767	20116.96
516.135	20261.59
516.502	20187.01
516.869	20664.51
517.237	20728.69
517.604	20640.33
517.972	21048.01
518.339	21113.77
518.706	21106.08
519.073	21281.45
519.44	21387.21
519.808	21695.22
520.175	21697.93
520.542	22026.96
520.909	22058.15
521.276	22067.41
521.643	22382.21
522.009	22453.17
522.376	22640.05
522.743	22770.67
523.11	23041.17
523.477	23234.62
523.843	23489.98
524.21	23820.59
524.577	23956.18
524.943	23949.4
525.31	24112.11
525.676	24453.11
526.043	24532.89
526.409	24687.68
526.776	24914.8
527.142	25007.45
527.508	25193.89
527.874	25361.34
528.241	25361.34
528.607	25544.38
528.973	25876.81
529.339	25823.7
529.705	25978.5
530.071	26286.29
530.437	26449.9
530.803	26719.04
531.169	26899.6
531.535	26974.86
531.901	27059.37
532.267	27175.53
532.632	27410.1
532.998	27500.49
533.364	27761.95
533.73	27734.61
534.095	27917.88
534.461	28104.32
534.826	28237.2
535.192	28227.93
535.557	28470.18
535.923	28327.36
536.288	28467.02
536.653	28682.38
537.019	28615.04
537.384	28971.41
537.749	29095.48
538.114	29161.24
538.479	29222.93
538.845	29509.93
539.21	29394.91
539.575	29601.68
539.94	29724.84
540.305	29950.6
540.67	29962.57
541.034	30085.96
541.399	30184.71
541.764	30334.54
542.129	30356.91
542.494	30420.19
542.858	30532.95
543.223	30504.93
543.587	30592.39
543.952	30705.83
544.316	30754.87
544.681	30755.55
545.045	30885.71
545.41	31132.26
545.774	31133.16
546.138	31208.87
546.503	31460.16
546.867	31474.4
547.231	31626.71
547.595	31892.47
547.959	31969.07
548.324	32006.59
548.688	32266.92
549.052	32311.44
549.416	32356.64
549.779	32407.71
550.143	32426.92
550.507	32602.5
550.871	32521.15
551.235	32540.36
551.599	32787.81
551.962	32797.98
552.326	32812.67
552.689	32840.24
553.053	32809.96
553.417	32962.72
553.78	33431.64
554.143	33267.8
554.507	33411.3
554.87	33805.64
555.234	33973.09
555.597	33838.4
555.96	34062.58
556.323	34359.07
556.686	34334.66
557.05	34590.02
557.413	34695.33
557.776	34683.13
558.139	34869.34
558.502	34735.78
558.865	34870.02
559.228	35099.61
559.59	35056.68
559.953	35205.15
560.316	35371.47
560.679	35414.63
561.041	35658.92
561.404	35717
561.767	36035.86
562.129	35879.25
562.492	36250.54
562.854	36378
563.217	36354.04
563.579	36666.58
563.941	36843.52
564.304	37080.58
564.666	37282.61
565.028	37368.03
565.39	37463.39
565.753	37707.45
566.115	37783.84
566.477	37990.61
566.839	38083.26
567.201	38111.74
567.563	38159.87
567.925	38382.01
568.287	38293.88
568.648	38310.38
569.01	38329.36
569.372	38555.12
569.734	38362.58
570.095	38798.73
570.457	38948.33
570.819	39124.82
571.18	39014.31
571.542	39372.72
571.903	39524.36
572.265	39751.92
572.626	39748.53
572.987	39985.14
573.349	40145.81
573.71	40321.17
574.071	40492.92
574.432	40687.94
574.794	40786.47
575.155	40826.69
575.516	40414.95
575.877	40641.16
576.238	40677.32
576.599	40838.22
576.96	40872.34
577.32	40953.47
577.681	40947.82
578.042	40906.69
578.403	41033.92
578.763	41055.39
579.124	41005
579.485	41186.23
579.845	41383.29
580.206	41283.41
580.566	41554.36
580.927	41566.11
581.287	42006.78
581.648	41671.19
582.008	41943.5
582.368	42020.79
582.728	42211.97
583.089	42153.67
583.449	42119.54
583.809	42251.74
584.169	42207
584.529	42102.59
584.889	42530.15
585.249	42170.61
585.609	42033.89
585.969	42265.98
586.329	41981.24
586.688	42037.28
587.048	42013.56
587.408	41835.71
587.768	41803.84
588.127	41879.55
588.487	41741.47
588.846	42123.38
589.206	41810.17
589.565	41971.07
589.925	42138.07
590.284	42096.49
590.643	42119.32
591.003	42384.39
591.362	42486.31
591.721	42451.74
592.08	42606.76
592.44	42780.54
592.799	42813.31
593.158	42757.94
593.517	42737.38
593.876	42885.4
594.235	42853.99
594.593	42794.55
594.952	42784.61
595.311	42580.55
595.67	42688.34
596.029	42719.07
596.387	42738.06
596.746	42733.76
597.104	42477.72
597.463	42457.61
597.822	42642.24
598.18	42363.83
598.538	42486.99
598.897	42631.62
599.255	42550.49
599.613	42949.12
599.972	42767.21
600.33	43069.12
600.688	42959.29
601.046	43201.77
601.404	43342.79
601.762	43387.98
602.12	43563.8
602.478	43596.34
602.836	43767.86
603.194	43511.6
603.552	43648.09
603.91	43565.83
604.268	43656
604.625	43299.4
604.983	43597.02
605.341	43237.48
605.698	43343.69
606.056	43526.06
606.413	43365.61
606.771	43495.1
607.128	43454.2
607.485	43096.01
607.843	43308.21
608.2	43369.9
608.557	43646.96
608.914	43526.28
609.272	43742.32
609.629	43905.48
609.986	44093.73
610.343	44046.72
610.7	44276.55
611.057	44267.96
611.414	44324
611.771	44489.65
612.127	44650.78
612.484	44624.56
612.841	44736.42
613.198	44703.88
613.554	44702.07
613.911	44939.81
614.267	45007.83
614.624	44803.77
614.98	44896.42
615.337	45102.29
615.693	45002.4
616.05	44751.11
616.406	44849.87
616.762	44689.64
617.118	44694.39
617.475	44648.74
617.831	44554.51
618.187	44599.25
618.543	44759.92
618.899	45008.28
619.255	44838.34
619.611	44797.21
619.967	45013.48
620.323	45055.51
620.678	44938.9
621.034	45207.6
621.39	45294.37
621.746	45189.29
622.101	45829.5
622.457	45342.06
622.812	45495.27
623.168	45611.88
623.523	45609.85
623.879	45848.03
624.234	45427.25
624.589	45554.48
624.945	45606.23
625.3	45519.23
625.655	45415.27
626.01	45233.81
626.365	45349.74
626.72	45283.3
627.075	45267.03
627.43	45128.95
627.785	45069.75
628.14	45108.62
628.495	44911.56
628.85	45046.24
629.205	44790.43
629.559	45048.28
629.914	44863.42
630.269	45020.03
630.623	45015.74
630.978	44756.99
631.332	45158.33
631.687	45240.14
632.041	45029.97
632.396	45236.52
632.75	45176.19
633.104	45251.89
633.459	45089.41
633.813	45235.84
634.167	45216.41
634.521	45220.93
634.875	45140.25
635.229	45099.58
635.583	44943.2
635.937	44954.95
636.291	44958.34
636.645	44862.97
636.999	44718.34
637.352	44744.33
637.706	44451.01
638.06	44619.82
638.413	44322.42
638.767	44153.16
639.121	43910.23
639.474	43743.23
639.828	43920.62
640.181	43873.17
640.534	43726.51
640.888	43776.45
641.241	43631.59
641.594	43825.71
641.947	43806.5
642.301	43923.79
642.654	43928.08
643.007	43905.03
643.36	43928.08
643.713	43719.05
644.066	44040.17
644.419	43966.5
644.771	43767.63
645.124	43689.9
645.477	43885.6
645.83	43380.53
646.182	43040.87
646.535	42701.22
646.888	42571.06
647.24	42299.2
647.593	42551.85
647.945	42274.11
648.298	42228.47
648.65	42162.93
649.002	42015.82
649.355	42048.81
649.707	42032.09
650.059	42272.08
650.411	42625.07
650.763	42713.42
651.115	42945.96
651.467	42800.43
651.819	42827.77
652.171	42739.64
652.523	42656.25
652.875	42609.92
653.227	42482.47
653.578	43004.72
653.93	42792.07
654.282	42631.85
654.633	42491.51
654.985	42608.12
655.337	42593.88
655.688	42706.19
656.039	42887.66
656.391	42691.96
656.742	42730.37
657.094	42889.01
657.445	42978.05
657.796	43086.75
658.147	42918.17
658.498	42860.09
658.849	42911.39
659.2	42824.16
659.551	42726.08
659.902	42886.75
660.253	42716.59
660.604	42943.02
660.955	42592.75
661.306	42464.84
661.656	42417.39
662.007	42526.54
662.358	42406.31
662.708	42266.43
663.059	42148.47
663.409	41838.42
663.76	42122.48
664.11	42007.91
664.461	42058.3
664.811	41964.97
665.161	41945.08
665.511	41841.81
665.862	41850.4
666.212	42172.42
666.562	42251.06
666.912	42122.25
667.262	42260.33
667.612	42265.75
667.962	42402.92
668.312	42311.18
668.662	42506.2
669.011	42522.7
669.361	42560.66
669.711	42540.55
670.06	42507.1
670.41	42440.44
670.76	42239.09
671.109	42498.06
671.459	42275.7
671.808	42314.79
672.157	42395.92
672.507	42024.86
672.856	42130.39
673.205	42084.74
673.554	42163.16
673.904	41918.87
674.253	42088.58
674.602	41887.01
674.951	41108.72
675.3	40910.31
675.649	41312.33
675.998	41142.17
676.346	41118.44
676.695	41231.88
677.044	40990.98
677.393	41079.57
677.741	41149.4
678.09	41084.99
678.438	40935.84
678.787	41058.78
679.135	41030.08
679.484	40823.08
679.832	41106.69
680.181	41005.45
680.529	41117.99
680.877	41028.27
681.225	40985.56
681.573	41365.21
681.922	41087.48
682.27	41082.28
682.618	41051.32
682.966	40993.24
683.314	41096.07
683.661	41052
684.009	40798.67
684.357	40667.83
684.705	40522.07
685.053	40675.96
685.4	40598.45
685.748	40310.78
686.095	40191.91
686.443	39993.27
686.79	39903.78
687.138	39847.74
687.485	39834.86
687.832	39666.95
688.18	39541.3
688.527	39297.24
688.874	39063.35
689.221	39012.28
689.568	39027.65
689.915	38832.4
690.262	38786.07
690.609	38676.69
690.956	38627.88
691.303	38505.85
691.65	38408.23
691.997	38543.37
692.344	38156.03
692.69	38048.91
693.037	38082.36
693.383	37892.99
693.73	38116.03
694.077	38054.11
694.423	38002.81
694.769	37892.99
695.116	37966.66
695.462	37740
695.808	37777.06
696.155	37740.67
696.501	37442.83
696.847	37545.43
697.193	37458.65
697.539	37382.49
697.885	37253.91
698.231	37110.63
698.577	37085.78
698.923	36896.18
699.269	36626.35
699.614	36345.23
699.96	36352.01
700.306	36295.51
700.651	36064.11
700.997	35821.85
701.342	35730.78
701.688	35546.83
702.033	35393.39
702.379	35366.05
702.724	35164.02
703.069	35328.53
703.415	34807.42
703.76	34805.38
704.105	34843.12
704.45	34747.76
704.795	34480.87
705.14	34348.67
705.485	34460.53
705.83	34396.36
706.175	34332.85
706.52	34420.54
706.865	34314.78
707.209	34408.33
707.554	34252.18
707.899	34420.31
708.243	34265.29
708.588	34246.3
708.932	34150.26
709.277	34077.04
709.621	34188.45
709.966	33844.51
710.31	34172.18
710.654	33822.13
710.998	33907.33
711.342	33861.91
711.687	33714.34
712.031	33583.72
712.375	33393.44
712.719	33486.55
713.063	33460.56
713.407	33399.77
713.75	33197.74
714.094	33098.08
714.438	32896.51
714.782	32842.05
715.125	32654.25
715.469	32616.29
715.812	32331.55
716.156	32170.43
716.499	32094.72
716.843	32116.87
717.186	31821.51
717.53	31965.01
717.873	31894.5
718.216	31865.57
718.559	31697.22
718.902	31484.12
719.246	31866.03
719.589	31697.22
719.932	31666.26
720.275	31653.83
720.617	31774.73
720.96	31706.71
721.303	31749.19
721.646	31676.88
721.989	31713.26
722.331	31816.99
722.674	31765.46
723.016	31851.79
723.359	31715.52
723.701	31724.11
724.044	31561.18
724.386	31478.92
724.729	31713.04
725.071	31577.9
725.413	31658.8
725.755	31627.84
726.097	31527.5
726.439	31300.39
726.782	31329.77
727.124	31451.35
727.465	31162.99
727.807	31120.74
728.149	30997.8
728.491	30925.03
728.833	30963.23
729.175	30780.41
729.516	30693.18
729.858	30804.13
730.199	30747.64
730.541	30582.9
730.882	30546.74
731.224	30564.82
731.565	30377.03
731.906	30339.74
732.248	30416.12
732.589	30450.24
732.93	30316.46
733.271	30310.36
733.612	30355.11
733.953	30332.73
734.294	30341.09
734.635	30258.39
734.976	30480.98
735.317	30259.29
735.658	30349.68
735.999	30571.6
736.339	30410.7
736.68	30492.28
737.021	30401.43
737.361	30481.43
737.702	30508.32
738.042	30477.36
738.383	30545.38
738.723	30620.41
739.063	30443.69
739.404	30722.33
739.744	30619.28
740.084	30545.16
740.424	30682.78
740.764	30648.66
741.104	30732.95
741.444	30544.71
741.784	30383.81
742.124	30575.89
742.464	30466.97
742.804	30525.72
743.143	30275.79
743.483	30358.27
743.823	30246.41
744.162	30238.95
744.502	30274.66
744.841	30105.17
745.181	30074.89
745.52	30147.88
745.86	30035.57
746.199	29922.8
746.538	29882.8
746.877	30134.55
747.216	30027.43
747.556	30087.54
747.895	29998.96
748.234	29935.91
748.573	29946.98
748.911	30000.76
749.25	30146.98
749.589	29983.59
749.928	30186.3
750.267	30251.83
750.605	30087.32
750.944	30163.02
751.283	30087.32
751.621	30209.57
751.96	30247.31
752.298	30311.72
752.636	30454.31
752.975	30431.49
753.313	30385.61
753.651	30589.22
753.989	30432.84
