Data from blue_shiny_book_FLMS001491_00087.txt Node
Date: Wed Feb 08 15:27:40 GMT 2017
User: dcchb
Spectrometer: FLMS00149
Trigger mode: 0
Integration Time (sec): 2.000000E-2
Scans to average: 10
Electric dark correction enabled: true
Nonlinearity correction enabled: false
Boxcar width: 0
XAxis mode: Wavelengths
Number of Pixels in Spectrum: 2048
>>>>>Begin Spectral Data<<<<<
341.393	-20.35
341.776	-20.35
342.16	-20.35
342.543	-61.26
342.927	-82.72
343.31	-89.96
343.693	-90.63
344.077	-66.45
344.46	-67.13
344.843	-24.19
345.226	-35.95
345.61	-27.81
345.993	-24.65
346.376	6.54
346.759	15.13
347.142	10.16
347.525	51.06
347.908	48.8
348.291	73.66
348.674	104.62
349.057	116.82
349.44	127.21
349.823	141.68
350.206	168.79
350.588	193.43
350.971	222.8
351.354	251.05
351.737	249.92
352.119	251.05
352.502	280.43
352.884	280.2
353.267	289.02
353.65	294.22
354.032	312.97
354.414	318.85
354.797	323.37
355.179	323.82
355.562	331.95
355.944	332.63
356.326	342.58
356.709	333.08
357.091	353.42
357.473	347.1
357.855	353.87
358.238	364.04
358.62	359.52
359.002	340.32
359.384	359.3
359.766	351.39
360.148	337.38
360.53	338.96
360.912	343.25
361.294	345.06
361.676	334.67
362.057	336.7
362.439	337.6
362.821	345.06
363.203	328.11
363.584	349.58
363.966	326.08
364.348	335.34
364.729	347.55
365.111	340.77
365.493	345.51
365.874	336.93
366.256	334.21
366.637	348
367.019	335.8
367.4	326.53
367.781	323.59
368.163	326.98
368.544	346.64
368.925	338.28
369.306	332.41
369.688	328.79
370.069	336.7
370.45	325.85
370.831	337.15
371.212	325.63
371.593	327.89
371.974	373.31
372.355	338.28
372.736	354.1
373.117	352.97
373.498	333.08
373.879	335.8
374.26	350.26
374.641	352.97
375.021	346.64
375.402	351.16
375.783	374.44
376.163	372.63
376.544	386.87
376.925	364.27
377.305	361.11
377.686	350.49
378.066	371.05
378.447	387.77
378.827	368.34
379.208	370.15
379.588	368.34
379.968	404.04
380.349	376.7
380.729	397.49
381.109	410.14
381.489	402.46
381.87	406.3
382.25	401.78
382.63	398.85
383.01	396.13
383.39	408.79
383.77	393.87
384.15	409.47
384.53	421.67
384.91	422.35
385.29	428.9
385.67	438.84
386.049	422.12
386.429	438.17
386.809	438.17
387.189	433.87
387.568	443.14
387.948	427.77
388.328	449.92
388.707	454.66
389.087	460.09
389.466	439.75
389.846	466.64
390.225	473.19
390.605	480.88
390.984	479.3
391.363	500.31
391.743	508.9
392.122	475.23
392.501	505.74
392.881	509.35
393.26	507.32
393.639	529.46
394.018	512.29
394.397	523.36
394.776	526.53
395.155	521.1
395.534	545.28
395.913	526.75
396.292	539.86
396.671	532.85
397.05	540.54
397.429	569.01
397.808	566.75
398.186	574.89
398.565	587.77
398.944	570.14
399.323	573.76
399.701	591.38
400.08	590.03
400.458	599.97
400.837	602.68
401.215	612.17
401.594	612.17
401.972	626.41
402.351	642.68
402.729	650.82
403.107	647.2
403.486	669.8
403.864	659.86
404.242	669.35
404.62	696.46
404.999	696.92
405.377	683.81
405.755	686.07
406.133	718.84
406.511	718.39
406.889	729.46
407.267	738.5
407.645	758.84
408.023	759.97
408.401	793.86
408.779	773.07
409.156	800.19
409.534	796.58
409.912	776.24
410.29	847.42
410.667	834.77
411.045	825.73
411.422	863.92
411.8	867.08
412.178	886.52
412.555	888.78
412.933	906.85
413.31	914.99
413.687	937.14
414.065	922.22
414.442	964.48
414.819	982.56
415.197	969.68
415.574	988.43
415.951	1014.2
416.328	1036.79
416.705	1040.86
417.082	1015.1
417.46	1071.37
417.837	1079.96
418.214	1079.51
418.591	1050.81
418.967	1092.39
419.344	1091.48
419.721	1143.01
420.098	1120.86
420.475	1135.32
420.852	1129.22
421.228	1164.93
421.605	1197.92
421.982	1188.88
422.358	1231.37
422.735	1228.43
423.111	1254.64
423.488	1278.37
423.864	1291.03
424.241	1310.01
424.617	1283.57
424.994	1341.19
425.37	1311.36
425.746	1320.63
426.123	1358.14
426.499	1392.94
426.875	1390.68
427.251	1424.58
427.627	1454.86
428.003	1424.81
428.379	1487.18
428.756	1497.57
429.132	1538.02
429.507	1561.53
429.883	1543
430.259	1595.2
430.635	1590.23
431.011	1604.01
431.387	1667.29
431.763	1682.43
432.138	1703.9
432.514	1711.13
432.89	1734.63
433.265	1790.9
433.641	1820.73
434.016	1829.32
434.392	1828.19
434.767	1879.26
435.143	1890.78
435.518	1917.45
435.894	1933.72
436.269	2008.07
436.644	2026.6
437.02	2027.5
437.395	2053.72
437.77	2087.61
438.145	2106.6
438.52	2122.42
438.895	2161.28
439.271	2143.88
439.646	2205.13
440.021	2239.7
440.395	2221.62
440.77	2221.17
441.145	2259.81
441.52	2324.44
441.895	2353.37
442.27	2375.97
442.645	2380.49
443.019	2406.7
443.394	2418.68
443.769	2422.97
444.143	2405.35
444.518	2448.74
444.892	2485.8
445.267	2479.92
445.641	2520.37
446.016	2573.7
446.39	2598.11
446.764	2580.93
447.139	2563.76
447.513	2674.72
447.887	2636.98
448.262	2671.55
448.636	2692.12
449.01	2728.05
449.384	2745.68
449.758	2769.63
450.132	2818.44
450.506	2843.98
450.88	2852.57
451.254	2870.64
451.628	2905.67
452.002	2941.6
452.376	2952
452.75	3050.75
453.123	3072.67
453.497	3081.26
453.871	3136.17
454.244	3163.29
454.618	3213.01
454.992	3217.3
455.365	3214.14
455.739	3357.64
456.112	3364.64
456.486	3388.82
456.859	3447.58
457.232	3500.91
457.606	3510.63
457.979	3550.63
458.352	3669.27
458.725	3699.32
459.099	3697.97
459.472	3770.73
459.845	3875.59
460.218	3863.61
460.591	3893.44
460.964	3929.6
461.337	4038.07
461.71	4114
462.083	4179.54
462.456	4191.97
462.829	4269.25
463.201	4281.91
463.574	4323.94
463.947	4392.41
464.32	4507.21
464.692	4531.39
465.065	4556.02
465.438	4598.74
465.81	4661.56
466.183	4698.85
466.555	4850.48
466.928	4877.15
467.3	4914.43
467.672	4969.8
468.045	5102
468.417	5170.02
468.789	5161.43
469.161	5212.05
469.534	5359.17
469.906	5448.2
470.278	5503.34
470.65	5548.31
471.022	5622.44
471.394	5790.57
471.766	5802.09
472.138	5872.37
472.51	6032.82
472.882	6095.42
473.253	6217
473.625	6293.15
473.997	6453.83
474.369	6525.24
474.74	6593.48
475.112	6704.22
475.484	6788.28
475.855	6925.68
476.227	6975.62
476.598	7169.06
476.97	7194.15
477.341	7350.3
477.713	7489.96
478.084	7573.12
478.455	7787.8
478.827	7876.84
479.198	8119.55
479.569	8144.86
479.94	8347.79
480.311	8513.89
480.682	8684.28
481.053	8837.49
481.424	8882.92
481.795	9082.01
482.166	9200.42
482.537	9322
482.908	9510.7
483.279	9624.37
483.65	9828.65
484.021	9995.88
484.391	10145.71
484.762	10284.91
485.133	10426.6
485.503	10499.82
485.874	10860.94
486.244	10896.87
486.615	11092.8
486.985	11169.18
487.356	11455.73
487.726	11522.62
488.097	11760.35
488.467	11755.61
488.837	12035.83
489.207	12228.82
489.578	12427.68
489.948	12566.66
490.318	12738.86
490.688	12868.35
491.058	13102.92
491.428	13299.75
491.798	13406.86
492.168	13700.42
492.538	13765.05
492.908	13909.68
493.278	14110.58
493.648	14078.26
494.017	14281.19
494.387	14376.11
494.757	14494.29
495.126	14826.49
495.496	14746.72
495.866	14868.07
496.235	15115.29
496.605	15296.76
496.974	15418.79
497.344	15573.36
497.713	15673.47
498.082	15932.22
498.452	15962.5
498.821	16068.04
499.19	16188.94
499.559	16346.9
499.928	16463.28
500.298	16524.52
500.667	16675.71
501.036	16631.86
501.405	16831.63
501.774	16880.67
502.143	17125.19
502.512	17303.94
502.88	17309.36
503.249	17554.78
503.618	17673.87
503.987	17709.58
504.356	17928.78
504.724	18002.9
505.093	18034.77
505.462	18187.08
505.83	18272.5
506.199	18402.89
506.567	18618.03
506.936	18472.49
507.304	18854.86
507.672	18844.69
508.041	19003.78
508.409	19170.56
508.777	19278.12
509.145	19508.85
509.514	19535.29
509.882	19727.38
510.25	19821.84
510.618	19970.76
510.986	20179.34
511.354	20275.16
511.722	20437.87
512.09	20644.87
512.458	20631.31
512.826	20899.55
513.193	20936.38
513.561	20913.79
513.929	21172.31
514.297	21359.42
514.664	21379.31
515.032	21503.6
515.4	21741.11
515.767	21798.73
516.135	22020.65
516.502	21924.83
516.869	22394.65
517.237	22512.39
517.604	22488.66
517.972	22867.86
518.339	23091.81
518.706	23126.16
519.073	23316.21
519.44	23427.84
519.808	23647.27
520.175	23534.06
520.542	23825.12
520.909	23954.16
521.276	24010.88
521.643	24237.31
522.009	24317.54
522.376	24493.58
522.743	24592.11
523.11	24947.8
523.477	25255.82
523.843	25477.51
524.21	25672.76
524.577	26107.77
524.943	26077.94
525.31	26428.44
525.676	26568.78
526.043	26709.57
526.409	26766.97
526.776	26935.32
527.142	27074.75
527.508	27124.24
527.874	27390.68
528.241	27559.26
528.607	27614.85
528.973	27739.6
529.339	27764.91
529.705	28145.01
530.071	28403.98
530.437	28469.52
530.803	28807.59
531.169	28942.5
531.535	29135.49
531.901	29278.09
532.267	29401.92
532.632	29684.4
532.998	29874.91
533.364	30034.68
533.73	30006.2
534.095	30337.27
534.461	30275.12
534.826	30436.93
535.192	30448.68
535.557	30598.5
535.923	30549.24
536.288	30612.74
536.653	30787.88
537.019	30779.06
537.384	30903.81
537.749	31095.89
538.114	31308.32
538.479	31408.2
538.845	31637.8
539.21	31697.23
539.575	31921.41
539.94	32098.8
540.305	32347.16
540.67	32336.31
541.034	32438.91
541.399	32582.41
541.764	32454.5
542.129	32604.55
542.494	32660.14
542.858	32804.77
543.223	32691.56
543.587	32860.14
543.952	32787.37
544.316	32899.69
544.681	32754.15
545.045	33045.9
545.41	33222.39
545.774	33251.54
546.138	33423.97
546.503	33555.94
546.867	33701.47
547.231	34023.05
547.595	34032.09
547.959	34094.23
548.324	34425.52
548.688	34423.71
549.052	34683.37
549.416	34633.65
549.779	34596.14
550.143	34511.17
550.507	34827.77
550.871	34596.36
551.235	34603.37
551.599	34982.57
551.962	34940.99
552.326	34933.3
552.689	35039.52
553.053	34984.15
553.417	35073.19
553.78	35552.95
554.143	35353.18
554.507	35596.56
554.87	35875.2
555.234	36325.36
555.597	36210.56
555.96	36467.05
556.323	36559.93
556.686	36571.68
557.05	36902.97
557.413	36969.41
557.776	36951.78
558.139	37151.33
558.502	37187.26
558.865	37263.64
559.228	37285.56
559.59	37255.96
559.953	37180.03
560.316	37662.95
560.679	37482.62
561.041	37668.15
561.404	37909.5
561.767	38145.65
562.129	38041.92
562.492	38521.68
562.854	38645.52
563.217	38568.69
563.579	38876.7
563.941	39167.77
564.304	39349.23
564.666	39724.37
565.028	39723.69
565.39	39715.78
565.753	40100.85
566.115	40285.48
566.477	40152.38
566.839	40295.65
567.201	40627.84
567.563	40422.2
567.925	40672.59
568.287	40572.7
568.648	40624.91
569.01	40584
569.372	40896.99
569.734	40712.36
570.095	41045.01
570.457	41112.58
570.819	41226.25
571.18	41387.37
571.542	41633.24
571.903	41803.18
572.265	41957.53
572.626	42221.25
572.987	42282.49
573.349	42627.79
573.71	42808.58
574.071	42841.12
574.432	43010.15
574.794	43242.92
575.155	42951.62
575.516	42884.51
575.877	43250.6
576.238	42994.34
576.599	43061.45
576.96	43093.77
577.32	43116.59
577.681	43198.85
578.042	43239.75
578.403	43181
578.763	43248.79
579.124	43239.53
579.485	43561.1
579.845	43696.92
580.206	43723.13
580.566	43878.38
580.927	43964.48
581.287	44126.96
581.648	44035.44
582.008	44326.28
582.368	44346.16
582.728	44468.65
583.089	44478.82
583.449	44534.18
583.809	44569.89
584.169	44653.28
584.529	44505.48
584.889	44801.29
585.249	44327.41
585.609	44315.43
585.969	44430.68
586.329	44293.51
586.688	44270.91
587.048	44148.88
587.408	44161.76
587.768	44176
588.127	44201.99
588.487	44116.11
588.846	44529.66
589.206	44238.82
589.565	44319.72
589.925	44622.54
590.284	44451.92
590.643	44494.64
591.003	44722.88
591.362	44859.6
591.721	44727.17
592.08	44811.69
592.44	45189.31
592.799	45169.65
593.158	45053.94
593.517	45070.89
593.876	45013.72
594.235	44895.3
594.593	44960.16
594.952	44877
595.311	44472.49
595.67	44804.46
596.029	44870.67
596.387	44856.89
596.746	44822.31
597.104	44553.84
597.463	44626.16
597.822	44900.95
598.18	44726.04
598.538	44662.54
598.897	45044.45
599.255	44666.61
599.613	45187.95
599.972	45145.92
600.33	45142.3
600.688	45149.31
601.046	45437.21
601.404	45521.27
601.762	45588.17
602.12	45769.86
602.478	45687.6
602.836	45808.05
603.194	45593.82
603.552	45661.16
603.91	45509.52
604.268	45583.42
604.625	45359.25
604.983	45452.58
605.341	45248.97
605.698	45351.34
606.056	45523.53
606.413	45444.67
606.771	45562.18
607.128	45478.11
607.485	45352.47
607.843	45408.51
608.2	45629.07
608.557	45700.48
608.914	45525.57
609.272	45901.15
609.629	45907.25
609.986	46095.27
610.343	45909.06
610.7	46339.11
611.057	46256.85
611.414	46318.77
611.771	46416.39
612.127	46595.6
612.484	46533.68
612.841	46851.86
613.198	46612.32
613.554	46596.27
613.911	46795.82
614.267	46679.66
614.624	46656.39
614.98	46832.65
615.337	46903.39
615.693	46780
616.05	46573.9
616.406	46863.61
616.762	46738.87
617.118	46628.14
617.475	46583.62
617.831	46766.67
618.187	46763.5
618.543	46755.37
618.899	46934.35
619.255	46834.91
619.611	46839.66
619.967	46961.01
620.323	47145.41
620.678	46972.76
621.034	47010.95
621.39	47149.03
621.746	47142.02
622.101	47474.22
622.457	47351.28
622.812	47474.44
623.168	47522.58
623.523	47438.29
623.879	47630.82
624.234	47339.98
624.589	47465.63
624.945	47543.82
625.3	47605.06
625.655	47586.08
626.01	47379.53
626.365	47456.59
626.72	47186.32
627.075	47175.47
627.43	47257.05
627.785	47025.87
628.14	47064.74
628.495	47056.38
628.85	47081.23
629.205	46814.35
629.559	47007.11
629.914	46780.45
630.269	46786.1
630.623	46750.85
630.978	46931.86
631.332	46945.19
631.687	47044.85
632.041	46933.22
632.396	47003.04
632.75	46937.96
633.104	47109.26
633.459	46858.41
633.813	46956.04
634.167	46917.17
634.521	46839.43
634.875	46816.83
635.229	46830.84
635.583	46605.09
635.937	46575.71
636.291	46475.37
636.645	46589.04
636.999	46506.11
637.352	46565.32
637.706	46203.97
638.06	46484.64
638.413	46250.75
638.767	46193.8
639.121	46079
639.474	45789.52
639.828	45704.32
640.181	45647.83
640.534	45598.79
640.888	45529.18
641.241	45316.99
641.594	45538
641.947	45707.94
642.301	45595.85
642.654	45713.81
643.007	45713.36
643.36	45675.62
643.713	45569.86
644.066	45788.16
644.419	45621.39
644.771	45639.69
645.124	45578.67
645.477	45556.08
645.83	45345.69
646.182	44968.07
646.535	44721.52
646.888	44495.09
647.24	44091.03
647.593	44260.74
647.945	44117.47
648.298	43855.78
648.65	43722.23
649.002	43703.92
649.355	43804.94
649.707	43907.98
650.059	44286.51
650.411	44760.16
650.763	44747.06
651.115	45038.35
651.467	44718.81
651.819	44596.33
652.171	44594.75
652.523	44425.03
652.875	44444.92
653.227	44331.93
653.578	44633.39
653.93	44508.87
654.282	44383.9
654.633	44345.26
654.985	44261.87
655.337	44467.52
655.688	44443.56
656.039	44553.84
656.391	44318.82
656.742	44573.05
657.094	44703.44
657.445	44784.12
657.796	44724.46
658.147	44739.6
658.498	44829.99
658.849	44860.28
659.2	44788.41
659.551	44572.37
659.902	44739.6
660.253	44608.3
660.604	44686.04
660.955	44246.96
661.306	44371.93
661.656	44058.94
662.007	44148.66
662.358	44104.59
662.708	44030.47
663.059	43929.9
663.409	43636.8
663.76	44013.07
664.11	43787.54
664.461	43766.07
664.811	43642.45
665.161	43752.06
665.511	43642
665.862	43704.83
666.212	43987.98
666.562	43740.76
666.912	43922.67
667.262	44009
667.612	44123.35
667.962	44030.47
668.312	44083.35
668.662	44363.79
669.011	44338.48
669.361	44320.18
669.711	44226.62
670.06	44291.25
670.41	44284.7
670.76	44179.84
671.109	44263.91
671.459	44057.13
671.808	44038.83
672.157	43945.27
672.507	43650.14
672.856	43824.82
673.205	43918.83
673.554	43759.06
673.904	43681.78
674.253	43653.08
674.602	43565.17
674.951	42858.52
675.3	42599.09
675.649	43165.4
675.998	43124.28
676.346	43019.65
676.695	43143.26
677.044	42840.22
677.393	42913.66
677.741	42946.2
678.09	42840.44
678.438	42670.5
678.787	42809.26
679.135	42813.32
679.484	42649.49
679.832	42880.44
680.181	42679.99
680.529	42936.26
680.877	42802.48
681.225	42678.86
681.573	43132.86
681.922	42789.6
682.27	42757.96
682.618	42860.78
682.966	42659.43
683.314	42660.56
683.661	42741.23
684.009	42397.97
684.357	42326.78
684.705	42298.99
685.053	42340.12
685.4	42162.27
685.748	42067.13
686.095	42001.37
686.443	41749.17
686.79	41542.17
687.138	41720.47
687.485	41660.36
687.832	41238.45
688.18	41226.02
688.527	40977.89
688.874	40928.18
689.221	40812.25
689.568	40571.57
689.915	40475.98
690.262	40380.62
690.609	40166.84
690.956	40196.9
691.303	40209.1
691.65	40007.07
691.997	40146.27
692.344	39758.49
692.69	39715.78
693.037	39719.85
693.383	39679.17
693.73	39751.26
694.077	39548.1
694.423	39492.73
694.769	39382.45
695.116	39405.96
695.462	39348.78
695.808	39514.2
696.155	39440.98
696.501	39155.57
696.847	39284.83
697.193	38852.52
697.539	38944.95
697.885	38779.31
698.231	38610.04
698.577	38649.37
698.923	38485.75
699.269	38259.32
699.614	37893.45
699.96	38032.21
700.306	37877.86
700.651	37789.73
700.997	37499.11
701.342	37448.49
701.688	37182.06
702.033	37046.7
702.379	37009.86
702.724	36865.01
703.069	36916.53
703.415	36434.73
703.76	36486.71
704.105	36336.21
704.45	36257.56
704.795	36038.59
705.14	36027.29
705.485	35938.93
705.83	35809.67
706.175	35921.98
706.52	35910.91
706.865	35883.11
707.209	35709.78
707.554	35779.84
707.899	35685.15
708.243	35558.82
708.588	35617.58
708.932	35427.53
709.277	35538.94
709.621	35489.45
709.966	35365.38
710.31	35587.75
710.654	35258.49
710.998	35144.37
711.342	35398.15
711.687	35247.19
712.031	35041.55
712.375	34850.59
712.719	34894.89
713.063	34644.72
713.407	34748.45
713.75	34455.35
714.094	34546.65
714.438	34233.21
714.782	34292.42
715.125	34030.96
715.469	33949.6
715.812	33732.21
716.156	33542.83
716.499	33564.53
716.843	33458.32
717.186	33276.85
717.53	33363.63
717.873	33246.34
718.216	33216.51
718.559	33066.01
718.902	32871.89
719.246	33036.63
719.589	32930.19
719.932	32940.59
720.275	32915.73
720.617	32990.53
720.96	32913.24
721.303	32925.67
721.646	33004.99
721.989	32966.12
722.331	32938.78
722.674	32975.16
723.016	33176.06
723.359	33031.89
723.701	33098.1
724.044	32967.48
724.386	32797.54
724.729	32989.85
725.071	32822.63
725.413	32874.83
725.755	32784.21
726.097	32634.61
726.439	32478.23
726.782	32647.94
727.124	32729.07
727.465	32432.81
727.807	32290.21
728.149	32366.14
728.491	32124.34
728.833	32226.71
729.175	31988.52
729.516	31975.87
729.858	31985.81
730.199	31924.8
730.541	31961.63
730.882	31848.41
731.224	31904.91
731.565	31530
731.906	31756.89
732.248	31675.09
732.589	31581.53
732.93	31358.94
733.271	31474.64
733.612	31454.75
733.953	31498.82
734.294	31407.97
734.635	31501.76
734.976	31527.29
735.317	31461.31
735.658	31492.72
735.999	31463.57
736.339	31530.46
736.68	31758.25
737.021	31647.06
737.361	31439.84
737.702	31751.24
738.042	31523.68
738.383	31659.94
738.723	31712.82
739.063	31805.93
739.404	31849.54
739.744	31756.89
740.084	31556.44
740.424	31651.13
740.764	31545.37
741.104	31694.07
741.444	31652.94
741.784	31475.77
742.124	31560.51
742.464	31492.72
742.804	31601.64
743.143	31412.27
743.483	31439.84
743.823	31326.39
744.162	31285.94
744.502	31228.32
744.841	31147.19
745.181	31348.31
745.52	31108.09
745.86	31190.35
746.199	31030.36
746.538	31022
746.877	31228.09
747.216	31038.27
747.556	30978.83
747.895	31001.88
748.234	30840.08
748.573	30885.95
748.911	30960.75
749.25	31076
749.589	30990.81
749.928	31043.24
750.267	31173.4
750.605	31093.18
750.944	31087.3
751.283	31237.81
751.621	31331.14
751.96	31258.15
752.298	31226.74
752.636	31331.37
752.975	31289.78
753.313	31335.66
753.651	31462.21
