Data from blue_shiny_book_FLMS001491_00081.txt Node
Date: Wed Feb 08 15:27:39 GMT 2017
User: dcchb
Spectrometer: FLMS00149
Trigger mode: 0
Integration Time (sec): 2.000000E-2
Scans to average: 10
Electric dark correction enabled: true
Nonlinearity correction enabled: false
Boxcar width: 0
XAxis mode: Wavelengths
Number of Pixels in Spectrum: 2048
>>>>>Begin Spectral Data<<<<<
341.393	-12.06
341.776	-12.06
342.16	-12.06
342.543	-48.22
342.927	-74.89
343.31	-85.51
343.693	-69.46
344.077	-77.14
344.46	-76.01
344.843	-55.9
345.226	-27.43
345.61	-42.34
345.993	10.99
346.376	6.02
346.759	6.69
347.142	13.7
347.525	57.77
347.908	48.05
348.291	85.11
348.674	96.41
349.057	109.06
349.44	138.89
349.823	150.42
350.206	175.96
350.588	189.06
350.971	213.24
351.354	234.71
351.737	236.07
352.119	239.01
352.502	271.55
352.884	272
353.267	296.86
353.65	300.02
354.032	303.86
354.414	321.71
354.797	305.9
355.179	303.86
355.562	315.39
355.944	353.13
356.326	311.55
356.709	317.65
357.091	334.6
357.473	363.3
357.855	349.74
358.238	361.71
358.62	342.96
359.002	352.9
359.384	373.69
359.766	369.62
360.148	359.68
360.53	346.12
360.912	338.21
361.294	344.54
361.676	324.88
362.057	353.35
362.439	343.18
362.821	327.14
363.203	331.66
363.584	323.07
363.966	337.99
364.348	343.64
364.729	340.25
365.111	322.17
365.493	344.76
365.874	323.3
366.256	322.17
366.637	331.66
367.019	333.47
367.4	340.7
367.781	351.32
368.163	340.7
368.544	352.9
368.925	334.82
369.306	338.21
369.688	309.29
370.069	329.4
370.45	334.6
370.831	333.92
371.212	366.01
371.593	334.82
371.974	340.47
372.355	333.47
372.736	351.32
373.117	331.21
373.498	348.83
373.879	349.96
374.26	360.81
374.641	325.78
375.021	341.15
375.402	342.73
375.783	356.06
376.163	357.19
376.544	348.83
376.925	369.62
377.305	358.55
377.686	354.93
378.066	360.36
378.447	379.11
378.827	367.36
379.208	383.41
379.588	398.1
379.968	373.01
380.349	372.56
380.729	390.87
381.109	395.16
381.489	392
381.87	389.06
382.25	404.42
382.63	409.62
383.01	402.16
383.39	414.14
383.77	394.48
384.15	419.34
384.53	409.17
384.91	397.87
385.29	427.02
385.67	436.51
386.049	419.11
386.429	439.9
386.809	442.16
387.189	426.34
387.568	427.47
387.948	452.33
388.328	431.32
388.707	447.81
389.087	450.98
389.466	473.58
389.846	459.11
390.225	487.59
390.605	467.47
390.984	469.96
391.363	478.09
391.743	453.46
392.122	469.73
392.501	496.63
392.881	507.92
393.26	506.34
393.639	524.2
394.018	505.89
394.397	505.21
394.776	513.12
395.155	504.99
395.534	532.78
395.913	542.05
396.292	542.95
396.671	544.53
397.05	544.53
397.429	527.81
397.808	550.64
398.186	542.73
398.565	563.97
398.944	553.35
399.323	583.85
399.701	582.95
400.08	597.87
400.458	585.89
400.837	598.32
401.215	621.14
401.594	608.26
401.972	618.2
402.351	613.01
402.729	631.09
403.107	657.3
403.486	637.19
403.864	648.49
404.242	662.5
404.62	657.98
404.999	704.53
405.377	683.06
405.755	674.47
406.133	687.58
406.511	702.72
406.889	730.74
407.267	752.44
407.645	760.57
408.023	756.51
408.401	751.76
408.779	760.35
409.156	807.13
409.534	820.91
409.912	793.79
410.29	805.32
410.667	817.97
411.045	823.62
411.422	851.64
411.8	853.45
412.178	882.38
412.555	884.64
412.933	915.6
413.31	934.13
413.687	918.08
414.065	944.75
414.442	966.9
414.819	975.03
415.197	956.95
415.574	976.39
415.951	982.94
416.328	1023.62
416.705	1003.05
417.082	1018.42
417.46	1024.97
417.837	1054.8
418.214	1058.87
418.591	1063.39
418.967	1077.63
419.344	1091.41
419.721	1118.3
420.098	1102.03
420.475	1122.15
420.852	1147
421.228	1176.16
421.605	1189.71
421.982	1184.06
422.358	1196.49
422.735	1229.04
423.111	1256.38
423.488	1241.01
423.864	1234.23
424.241	1279.66
424.617	1269.71
424.994	1303.38
425.37	1327.11
425.746	1334.12
426.123	1347.9
426.499	1355.13
426.875	1384.74
427.251	1422.02
427.627	1413.21
428.003	1466.32
428.379	1458.41
428.756	1454.79
429.132	1473.1
429.507	1507.22
429.883	1525.07
430.259	1547.9
430.635	1602.13
431.011	1605.75
431.387	1636.93
431.763	1677.39
432.138	1646.2
432.514	1725.29
432.89	1709.02
433.265	1766.65
433.641	1765.74
434.016	1790.38
434.392	1836.48
434.767	1862.47
435.143	1883.71
435.518	1880.09
435.894	1947.21
436.269	1964.84
436.644	2000.99
437.02	1987.21
437.395	2021.56
437.77	2049.13
438.145	2080.54
438.52	2124.38
438.895	2113.31
439.271	2148.79
439.646	2199.63
440.021	2225.62
440.395	2189.91
440.77	2217.03
441.145	2247.09
441.52	2302.45
441.895	2287.99
442.27	2335.22
442.645	2334.54
443.019	2390.81
443.394	2379.74
443.769	2408.21
444.143	2391.49
444.518	2449.34
444.892	2451.6
445.267	2488.66
445.641	2517.59
446.016	2546.97
446.39	2553.75
446.764	2603.46
447.139	2559.4
447.513	2599.62
447.887	2626.51
448.262	2637.81
448.636	2640.75
449.01	2701.09
449.384	2733.63
449.758	2726.62
450.132	2781.31
450.506	2799.84
450.88	2821.99
451.254	2822.21
451.628	2866.96
452.002	2949.89
452.376	2938.37
452.75	2947.18
453.123	2997.35
453.497	3068.31
453.871	3050.68
454.244	3143.34
454.618	3166.39
454.992	3221.98
455.365	3207.29
455.739	3299.04
456.112	3376.55
456.486	3340.17
456.859	3417.23
457.232	3526.6
457.606	3466.49
457.979	3542.87
458.352	3608.63
458.725	3688.63
459.099	3702.42
459.472	3737.9
459.845	3812.47
460.218	3774.28
460.591	3885.46
460.964	3914.16
461.337	4054.5
461.71	4089.98
462.083	4117.32
462.456	4172.46
462.829	4138.56
463.201	4258.33
463.574	4268.5
463.947	4339.46
464.32	4415.17
464.692	4426.47
465.065	4495.84
465.438	4562.06
465.81	4673.46
466.183	4694.03
466.555	4834.82
466.928	4842.5
467.3	4830.07
467.672	4906.9
468.045	5072.32
468.417	5082.72
468.789	5148.03
469.161	5188.03
469.534	5261.7
469.906	5388.93
470.278	5373.56
470.65	5506.21
471.022	5602.71
471.394	5728.13
471.766	5782.14
472.138	5838.63
472.51	5966.31
472.882	6068.23
473.253	6152.07
473.625	6254.67
473.997	6357.49
474.369	6424.83
474.74	6531.95
475.112	6670.02
475.484	6760.87
475.855	6944.59
476.227	6896.23
476.598	7113.4
476.97	7173.29
477.341	7367.86
477.713	7390
478.084	7436.1
478.455	7665.02
478.827	7807.62
479.198	8002.87
479.569	8019.37
479.94	8359.7
480.311	8401.05
480.682	8582.74
481.053	8731.89
481.424	8926.46
481.795	8955.61
482.166	9162.16
482.537	9266.34
482.908	9510.85
483.279	9561.47
483.65	9747.23
484.021	9974.34
484.391	10080.33
484.762	10173.21
485.133	10266.76
485.503	10442.35
485.874	10746.3
486.244	10779.07
486.615	11024.03
486.985	11112.39
487.356	11350.13
487.726	11401.65
488.097	11634.19
488.467	11689.1
488.837	12012.48
489.207	12132.7
489.578	12327.05
489.948	12382.87
490.318	12654.5
490.688	12657.66
491.058	12982.4
491.428	13207.48
491.798	13325.21
492.168	13650.86
492.538	13662.83
492.908	13841.59
493.278	13914.13
493.648	13957.97
494.017	14190.28
494.387	14286.77
494.757	14454.68
495.126	14603.83
495.496	14765.4
495.866	14725.18
496.235	15016.24
496.605	15168.33
496.974	15320.87
497.344	15451.71
497.713	15521.54
498.082	15675.21
498.452	15859.61
498.821	15928.31
499.19	16024.13
499.559	16188.64
499.928	16364.23
500.298	16332.14
500.667	16505.47
501.036	16507.73
501.405	16693.04
501.774	16844.22
502.143	17044.21
502.512	17141.39
502.88	17372.11
503.249	17262.74
503.618	17580.92
503.987	17636.74
504.356	17639.45
504.724	17786.79
505.093	17985.88
505.462	18049.38
505.83	18105.88
506.199	18343.84
506.567	18370.73
506.936	18425.19
507.304	18640.33
507.672	18751.96
508.041	18852.98
508.409	18989.47
508.777	19159.64
509.145	19407.54
509.514	19519.18
509.882	19576.58
510.25	19682.56
510.618	19887.75
510.986	19906.74
511.354	20067.86
511.722	20400.96
512.09	20507.62
512.458	20445.71
512.826	20666.26
513.193	20650.45
513.561	20767.28
513.929	20935.41
514.297	21109.87
514.664	21290.2
515.032	21332.91
515.4	21563.64
515.767	21699.01
516.135	21860.36
516.502	21810.64
516.869	22259.22
517.237	22389.84
517.604	22428.25
517.972	22764.74
518.339	22953.21
518.706	22944.62
519.073	23113.21
519.44	23151.62
519.808	23410.15
520.175	23389.81
520.542	23642.23
520.909	23737.14
521.276	23743.47
521.643	24027.98
522.009	24029.34
522.376	24318.6
522.743	24546.61
523.11	24887.17
523.477	25055.98
523.843	25222.98
524.21	25558.11
524.577	25737.77
524.943	26012.56
525.31	26003.53
525.676	26220.47
526.043	26498.43
526.409	26539.56
526.776	26748.36
527.142	26843.96
527.508	27060.9
527.874	27184.74
528.241	27342.02
528.607	27397.39
528.973	27612.52
529.339	27577.27
529.705	27974.09
530.071	28204.15
530.437	28406.63
530.803	28563.46
531.169	28780.63
531.535	28891.58
531.901	29051.13
532.267	29210.67
532.632	29505.35
532.998	29587.84
533.364	29690.21
533.73	29791.22
534.095	30119.35
534.461	30016.75
534.826	30145.11
535.192	30253.36
535.557	30363.64
535.923	30307.59
536.288	30458.32
536.653	30579.68
537.019	30584.65
537.384	30825.09
537.749	30917.52
538.114	31100.11
538.479	31079.32
538.845	31460.33
539.21	31423.04
539.575	31723.37
539.94	31917.72
540.305	32070.26
540.67	31977.83
541.034	32107.77
541.399	32237.26
541.764	32296.69
542.129	32311.83
542.494	32471.6
542.858	32418.95
543.223	32435.9
543.587	32571.49
543.952	32741.43
544.316	32657.81
544.681	32712.73
545.045	32877.69
545.41	33046.05
545.774	33067.29
546.138	33110.23
546.503	33238.14
546.867	33317.46
547.231	33625.47
547.595	33772.13
547.959	33977.33
548.324	33984.56
548.688	34067.27
549.052	34214.83
549.416	34283.99
549.779	34222.97
550.143	34330.09
550.507	34528.5
550.871	34431.33
551.235	34401.04
551.599	34596.97
551.962	34636.52
552.326	34657.08
552.689	34767.14
553.053	34669.51
553.417	34803.07
553.78	35265.65
554.143	35082.61
554.507	35343.17
554.87	35512.88
555.234	35993.55
555.597	35858.18
555.96	36015.69
556.323	36241.9
556.686	36408.45
557.05	36532.51
557.413	36646.41
557.776	36808.66
558.139	36773.64
558.502	36806.18
558.865	36747.42
559.228	37011.82
559.59	36898.15
559.953	36877.59
560.316	37117.36
560.679	37251.14
561.041	37499.95
561.404	37657.23
561.767	37866.94
562.129	37786.94
562.492	38191
562.854	38194.62
563.217	38177.67
563.579	38609.3
563.941	38767.03
564.304	39086.12
564.666	39282.72
565.028	39405.21
565.39	39525.66
565.753	39764.52
566.115	39860.79
566.477	39906.44
566.839	39964.74
567.201	40110.5
567.563	39978.3
567.925	40206.77
568.287	40277.95
568.648	40242.47
569.01	40358.63
569.372	40627.77
569.734	40247.22
570.095	40750.93
570.457	40818.73
570.819	40919.52
571.18	40950.02
571.542	41293.52
571.903	41397.47
572.265	41556.79
572.626	41858.25
572.987	41905.25
573.349	42192.48
573.71	42349.54
574.071	42377.56
574.432	42471.34
574.794	42795.17
575.155	42633.14
575.516	42559.25
575.877	42716.31
576.238	42668.85
576.599	42818.9
576.96	42784.33
577.32	42781.62
577.681	42907.04
578.042	42848.96
578.403	42946.36
578.763	42945.45
579.124	42992.91
579.485	43252.34
579.845	43374.82
580.206	43385.22
580.566	43461.6
580.927	43486
581.287	43912.21
581.648	43625.43
582.008	43960.79
582.368	43880.34
582.728	44147.91
583.089	44126.44
583.449	44119.21
583.809	44193.33
584.169	44278.07
584.529	44123.73
584.889	44290.5
585.249	44057.74
585.609	43830.18
585.969	44057.97
586.329	43765.77
586.688	43945.88
587.048	43842.6
587.408	43922.38
587.768	43798.09
588.127	43724.87
588.487	43676.51
588.846	44054.35
589.206	43945.88
589.565	44039.66
589.925	44217.74
590.284	43935.71
590.643	44105.42
591.003	44369.6
591.362	44678.29
591.721	44541.79
592.08	44341.57
592.44	44635.13
592.799	44707.89
593.158	44712.64
593.517	44651.62
593.876	44591.51
594.235	44425.41
594.593	44492.3
594.952	44473.55
595.311	44375.47
595.67	44407.34
596.029	44598.74
596.387	44446.66
596.746	44481.46
597.104	44264.51
597.463	44258.86
597.822	44474.45
598.18	44418.41
598.538	44428.8
598.897	44686.2
599.255	44284.4
599.613	44920.99
599.972	44800.55
600.33	44958.06
600.688	44826.99
601.046	45025.17
601.404	45368.89
601.762	45124.38
602.12	45421.32
602.478	45480.98
602.836	45481.21
603.194	45181.78
603.552	45332.51
603.91	45013.87
604.268	45156.92
604.625	45081.22
604.983	45158.73
605.341	44872.18
605.698	45115.79
606.056	45090.93
606.413	45092.51
606.771	45093.64
607.128	45212.51
607.485	45015.23
607.843	45096.13
608.2	45242.79
608.557	45375.9
608.914	45323.92
609.272	45520.07
609.629	45582.9
609.986	45760.29
610.343	45559.4
610.7	46053.62
611.057	45814.76
611.414	45919.84
611.771	45927.75
612.127	46193.5
612.484	46260.39
612.841	46369.54
613.198	46344.01
613.554	46366.38
613.911	46366.61
614.267	46421.52
614.624	46408.64
614.98	46411.8
615.337	46594.85
615.693	46428.75
616.05	46265.37
616.406	46429.43
616.762	46339.49
617.118	46338.36
617.475	46399.6
617.831	46386.72
618.187	46412.71
618.543	46437.79
618.899	46522.76
619.255	46528.18
619.611	46562.53
619.967	46665.35
620.323	46754.62
620.678	46722.53
621.034	46713.26
621.39	46756.43
621.746	46746.03
622.101	47135.63
622.457	46897.44
622.812	46987.61
623.168	47175.4
623.523	47091.33
623.879	47282.74
624.234	47059.92
624.589	47263.08
624.945	47343.53
625.3	47378.1
625.655	47085
626.01	47235.51
626.365	47018.57
626.72	46948.29
627.075	46807.05
627.43	46960.94
627.785	46736.54
628.14	46815.86
628.495	46671.68
628.85	46636.43
629.205	46585.81
629.559	46697.9
629.914	46522.31
630.269	46543.32
630.623	46412.93
630.978	46461.07
631.332	46687.5
631.687	46693.83
632.041	46478.47
632.396	46805.92
632.75	46631.68
633.104	46684.34
633.459	46621.51
633.813	46564.11
634.167	46552.14
634.521	46423.78
634.875	46573.61
635.229	46431.46
635.583	46359.6
635.937	46330.22
636.291	46259.04
636.645	46278.25
636.999	46120.28
637.352	46174.07
637.706	45935.2
638.06	46165.03
638.413	45964.13
638.767	45880.52
639.121	45803.46
639.474	45435.33
639.828	45465.61
640.181	45475.78
640.534	45463.8
640.888	45302.45
641.241	45135.45
641.594	45179.97
641.947	45406.86
642.301	45257.71
642.654	45352.4
643.007	45296.8
643.36	45410.25
643.713	45151.5
644.066	45421.32
644.419	45238.05
644.771	45159.63
645.124	45223.13
645.477	45308.55
645.83	44936.59
646.182	44647.55
646.535	44365.3
646.888	44180
647.24	43622.72
647.593	43892.55
647.945	43629.95
648.298	43461.82
648.65	43385.89
649.002	43243.07
649.355	43648.03
649.707	43599.22
650.059	43814.58
650.411	44386.77
650.763	44420.67
651.115	44702.69
651.467	44331.18
651.819	44225.87
652.171	44204.4
652.523	44331.86
652.875	44283.27
653.227	43996.05
653.578	44272.88
653.93	44255.25
654.282	44118.53
654.633	43997.4
654.985	44198.3
655.337	44187.23
655.688	44123.5
656.039	44355.36
656.391	44019.55
656.742	44288.92
657.094	44420.44
657.445	44517.16
657.796	44494.34
658.147	44319.43
658.498	44331.18
658.849	44616.6
659.2	44292.08
659.551	44293.89
659.902	44429.26
660.253	44160.34
660.604	44354.46
660.955	43930.06
661.306	43949.27
661.656	43847.8
662.007	43948.14
662.358	43899.1
662.708	43729.39
663.059	43686
663.409	43352.9
663.76	43625.21
664.11	43433.8
664.461	43501.14
664.811	43298.66
665.161	43441.48
665.511	43363.97
665.862	43521.26
666.212	43608.94
666.562	43675.83
666.912	43623.4
667.262	43664.53
667.612	43785.2
667.962	43791.98
668.312	43722.16
668.662	44005.31
669.011	43921.02
669.361	43923.28
669.711	43849.61
670.06	44017.74
670.41	43816.62
670.76	43816.62
671.109	43843.51
671.459	43827.24
671.808	43663.4
672.157	43743.85
672.507	43502.27
672.856	43513.35
673.205	43357.19
673.554	43387.02
673.904	43126.24
674.253	43447.81
674.602	43185.67
674.951	42588.63
675.3	42303.89
675.649	42849.41
675.998	42666.14
676.346	42639.7
676.695	42827.49
677.044	42527.61
677.393	42469.08
677.741	42540.72
678.09	42447.16
678.438	42405.13
678.787	42322.19
679.135	42423.88
679.484	42225.7
679.832	42597.44
680.181	42310.67
680.529	42506.37
680.877	42447.84
681.225	42312.93
681.573	42631.79
681.922	42487.16
682.27	42340.72
682.618	42470.89
682.966	42350.44
683.314	42422.3
683.661	42317.67
684.009	42037.23
684.357	41922.2
684.705	41902.32
685.053	41794.3
685.4	41896.89
685.748	41614.64
686.095	41468.88
686.443	41431.37
686.79	41201.77
687.138	41301.43
687.485	41163.13
687.832	40937.37
688.18	40900.08
688.527	40772.18
688.874	40403.82
689.221	40286.54
689.568	40406.99
689.915	40175.36
690.262	40094.68
690.609	40078.18
690.956	39803.39
691.303	39815.82
691.65	39554.58
691.997	39738.31
692.344	39411.76
692.69	39384.87
693.037	39519.33
693.383	39305.32
693.73	39453.79
694.077	39228.71
694.423	39120.47
694.769	39078.44
695.116	39005.22
695.462	39042.96
695.808	39104.88
696.155	39268.04
696.501	38738.11
696.847	38812.68
697.193	38502.86
697.539	38652.68
697.885	38532.01
698.231	38361.62
698.577	38308.06
698.923	38187.84
699.269	38003.21
699.614	37731.35
699.96	37552.37
700.306	37594.18
700.651	37266.51
700.997	37065.83
701.342	36829.91
701.688	36800.76
702.033	36620.87
702.379	36596.69
702.724	36520.31
703.069	36623.81
703.415	36151.51
703.76	36062.47
704.105	35889.82
704.45	35872.64
704.795	35645.08
705.14	35594.91
705.485	35640.56
705.83	35467.23
706.175	35533.22
706.52	35452.77
706.865	35360.79
707.209	35275.37
707.554	35391.08
707.899	35444.86
708.243	35173.91
708.588	35257.52
708.932	35095.49
709.277	35109.73
709.621	35186.11
709.966	34949.96
710.31	35209.16
710.654	34611.21
710.998	34807.14
711.342	34863.18
711.687	34682.85
712.031	34535.05
712.375	34467.03
712.719	34345.9
713.063	34338.67
713.407	34321.5
713.75	34157.89
714.094	34152.01
714.438	33789.99
714.782	33832.47
715.125	33631.8
715.469	33707.96
715.812	33360.62
716.156	33270.23
716.499	33058.03
716.843	33300.28
717.186	33030.46
717.53	32931.48
717.873	32925.15
718.216	32812.16
718.559	32650.36
718.902	32574.2
719.246	32708.89
719.589	32762.44
719.932	32710.69
720.275	32513.18
720.617	32538.95
720.96	32580.3
721.303	32599.28
721.646	32687.87
721.989	32479.51
722.331	32757.02
722.674	32748.88
723.016	32780.3
723.359	32718.15
723.701	32739.85
724.044	32584.82
724.386	32551.6
724.729	32699.39
725.071	32591.6
725.413	32665.27
725.755	32634.99
726.097	32365.17
726.439	32194.1
726.782	32233.42
727.124	32247.2
727.465	32065.96
727.807	31951.17
728.149	31864.16
728.491	31870.94
728.833	31921.56
729.175	31760.21
729.516	31637.05
729.858	31553.89
730.199	31659.65
730.541	31563.15
730.882	31458.52
731.224	31525.87
731.565	31313.67
731.906	31336.27
732.248	31470.95
732.589	31198.64
732.93	31129.72
733.271	31206.1
733.612	31130.85
733.953	31234.12
734.294	31208.81
734.635	31056.73
734.976	31253.56
735.317	31035.26
735.658	31020.79
735.999	31141.92
736.339	31142.37
736.68	31367.23
737.021	31270.73
737.361	31060.12
737.702	31253.1
738.042	31168.59
738.383	31175.59
738.723	31413.78
739.063	31436.83
739.404	31547.33
739.744	31359.32
740.084	31250.84
740.424	31493.32
740.764	31266.89
741.104	31242.48
741.444	31230.73
741.784	31154.8
742.124	31145.76
742.464	31173.33
742.804	31067.57
743.143	31158.19
743.483	31170.62
743.823	30917.07
744.162	30911.42
744.502	31119.1
744.841	30967.24
745.181	30980.12
745.52	30919.78
745.86	30817.86
746.199	30905.09
746.538	30846.34
746.877	30912.32
747.216	30875.26
747.556	30810.63
747.895	30776.73
748.234	30606.79
748.573	30669.17
748.911	30654.48
749.25	30831.65
749.589	30666.23
749.928	30837.97
750.267	30809.5
750.605	30829.16
750.944	30840.69
751.283	30947.8
751.621	31069.38
751.96	30909.84
752.298	31017.4
752.636	31131.75
752.975	31141.24
753.313	31040.23
753.651	31253.33
