Data from blue_surface_keyboard_FLMS001491_006.txt Node
Date: Tue Feb 07 11:12:33 GMT 2017
User: dcchb
Spectrometer: FLMS00149
Trigger mode: 0
Integration Time (sec): 2.000000E-2
Scans to average: 10
Electric dark correction enabled: true
Nonlinearity correction enabled: false
Boxcar width: 0
XAxis mode: Wavelengths
Number of Pixels in Spectrum: 2048
>>>>>Begin Spectral Data<<<<<
341.393	6.62
341.776	6.62
342.16	6.62
342.543	-60.72
342.927	-63.88
343.31	-70.44
343.693	-67.95
344.077	-54.84
344.46	-59.14
344.843	-42.87
345.226	-40.83
345.61	-30.44
345.993	-33.37
346.376	-7.84
346.759	19.28
347.142	19.51
347.525	65.38
347.908	54.98
348.291	63.35
348.674	79.84
349.057	105.38
349.44	119.39
349.823	156.45
350.206	140.41
350.588	189.44
350.971	174.98
351.354	201.87
351.737	199.16
352.119	229.67
352.502	238.71
352.884	239.16
353.267	249.78
353.65	267.18
354.032	283.68
354.414	296.11
354.797	299.72
355.179	297.92
355.562	283.45
355.944	309.22
356.326	302.44
356.709	320.06
357.091	330.01
357.473	303.11
357.855	327.29
358.238	323
358.62	307.63
359.002	313.73
359.384	321.87
359.766	321.87
360.148	328.42
360.53	317.35
360.912	334.3
361.294	295.43
361.676	315.32
362.057	309.22
362.439	304.02
362.821	299.95
363.203	307.41
363.584	287.75
363.966	294.3
364.348	299.72
364.729	285.26
365.111	284.81
365.493	272.61
365.874	306.28
366.256	297.92
366.637	292.72
367.019	304.24
367.4	290.23
367.781	301.76
368.163	298.59
368.544	280.06
368.925	292.04
369.306	313.06
369.688	285.71
370.069	292.27
370.45	289.1
370.831	267.63
371.212	276.22
371.593	288.88
371.974	301.53
372.355	277.8
372.736	275.77
373.117	280.52
373.498	309.22
373.879	292.04
374.26	281.42
374.641	296.56
375.021	291.36
375.402	303.11
375.783	294.3
376.163	306.05
376.544	284.58
376.925	297.24
377.305	281.42
377.686	309.22
378.066	287.75
378.447	293.17
378.827	311.47
379.208	287.52
379.588	299.5
379.968	298.14
380.349	299.27
380.729	291.36
381.109	292.49
381.489	298.59
381.87	297.24
382.25	311.47
382.63	304.24
383.01	319.16
383.39	283.68
383.77	291.59
384.15	295.66
384.53	313.06
384.91	318.71
385.29	294.53
385.67	314.86
386.049	326.16
386.429	303.34
386.809	328.2
387.189	328.2
387.568	290.46
387.948	296.56
388.328	309.44
388.707	337.24
389.087	288.42
389.466	325.71
389.846	328.42
390.225	309.22
390.605	318.25
390.984	294.07
391.363	327.97
391.743	312.6
392.122	322.77
392.501	328.65
392.881	325.94
393.26	311.02
393.639	303.57
394.018	341.3
394.397	330.68
394.776	327.52
395.155	327.07
395.534	314.86
395.913	332.94
396.292	334.53
396.671	333.4
397.05	313.96
397.429	315.99
397.808	336.78
398.186	317.58
398.565	317.35
398.944	352.83
399.323	335.88
399.701	329.78
400.08	341.08
400.458	328.42
400.837	316.67
401.215	355.09
401.594	333.62
401.972	362.77
402.351	347.63
402.729	347.41
403.107	355.77
403.486	345.15
403.864	350.34
404.242	358.48
404.62	339.27
404.999	358.03
405.377	370.23
405.755	359.38
406.133	363.22
406.511	349.44
406.889	335.88
407.267	390.79
407.645	352.83
408.023	352.83
408.401	353.96
408.779	354.64
409.156	367.52
409.534	368.87
409.912	351.02
410.29	369.33
410.667	381.3
411.045	374.98
411.422	373.62
411.8	390.34
412.178	373.17
412.555	374.75
412.933	392.83
413.31	364.81
413.687	381.53
414.065	377.69
414.442	381.3
414.819	388.76
415.197	374.3
415.574	390.57
415.951	383.56
416.328	397.12
416.705	386.73
417.082	401.42
417.46	390.34
417.837	381.08
418.214	414.07
418.591	377.01
418.967	388.99
419.344	388.76
419.721	403.9
420.098	381.98
420.475	393.73
420.852	414.3
421.228	397.57
421.605	397.57
421.982	391.02
422.358	425.6
422.735	397.57
423.111	394.64
423.488	408.42
423.864	422.88
424.241	435.54
424.617	435.99
424.994	411.13
425.37	408.42
425.746	423.11
426.123	433.73
426.499	426.27
426.875	426.05
427.251	427.4
427.627	408.2
428.003	457.23
428.379	436.44
428.756	423.11
429.132	457.01
429.507	447.74
429.883	417.46
430.259	454.97
430.635	443
431.011	447.97
431.387	456.56
431.763	476.89
432.138	455.2
432.514	458.59
432.89	452.49
433.265	465.6
433.641	483.22
434.016	487.97
434.392	456.1
434.767	498.81
435.143	462.21
435.518	460.17
435.894	494.07
436.269	475.99
436.644	466.5
437.02	471.47
437.395	481.64
437.77	507.18
438.145	485.71
438.52	505.14
438.895	480.28
439.271	508.76
439.646	496.1
440.021	494.97
440.395	487.74
440.77	528.64
441.145	507.18
441.52	531.58
441.895	518.7
442.27	515.09
442.645	523.45
443.019	527.29
443.394	516.22
443.769	536.55
444.143	534.07
444.518	511.47
444.892	537.46
445.267	520.28
445.641	539.04
446.016	525.25
446.39	544.92
446.764	537.91
447.139	534.07
447.513	524.35
447.887	529.77
448.262	533.16
448.636	545.37
449.01	541.53
449.384	536.1
449.758	552.37
450.132	564.12
450.506	567.06
450.88	548.76
451.254	564.12
451.628	546.72
452.002	574.52
452.376	559.15
452.75	574.29
453.123	599.38
453.497	598.25
453.871	593.95
454.244	595.76
454.618	601.41
454.992	576.55
455.365	592.37
455.739	616.78
456.112	593.95
456.486	599.83
456.859	599.15
457.232	619.26
457.606	619.94
457.979	629.43
458.352	639.6
458.725	642.99
459.099	642.77
459.472	634.18
459.845	626.95
460.218	626.95
460.591	654.52
460.964	640.05
461.337	655.42
461.71	655.19
462.083	657
462.456	663.56
462.829	678.92
463.201	689.54
463.574	663.78
463.947	690.22
464.32	669.66
464.692	702.65
465.065	668.53
465.438	709.66
465.81	727.51
466.183	715.53
466.555	717.34
466.928	704.68
467.3	714.85
467.672	726.38
468.045	725.7
468.417	744.01
468.789	720.05
469.161	746.27
469.534	750.33
469.906	751.46
470.278	775.87
470.65	765.7
471.022	791.24
471.394	782.87
471.766	764.57
472.138	777.45
472.51	813.61
472.882	818.58
473.253	839.82
473.625	825.59
473.997	823.55
474.369	847.05
474.74	833.5
475.112	847.73
475.484	835.08
475.855	860.16
476.227	860.39
476.598	873.49
476.97	886.83
477.341	897.9
477.713	914.4
478.084	892.02
478.455	926.37
478.827	938.35
479.198	948.29
479.569	958.01
479.94	970.21
480.311	948.52
480.682	971.34
481.053	973.83
481.424	992.59
481.795	996.88
482.166	1020.61
482.537	1043.66
482.908	1030.78
483.279	1024.45
483.65	1015.41
484.021	1049.53
484.391	1054.51
484.762	1045.92
485.133	1083.43
485.503	1093.38
485.874	1109.42
486.244	1110.78
486.615	1113.71
486.985	1124.11
487.356	1135.63
487.726	1148.97
488.097	1148.74
488.467	1155.52
488.837	1164.11
489.207	1163.43
489.578	1166.82
489.948	1198.01
490.318	1235.52
490.688	1179.7
491.058	1209.08
491.428	1192.13
491.798	1216.08
492.168	1215.18
492.538	1220.6
492.908	1265.8
493.278	1238
493.648	1249.76
494.017	1268.06
494.387	1274.84
494.757	1285.01
495.126	1296.99
495.496	1281.84
495.866	1278.68
496.235	1282.07
496.605	1308.51
496.974	1290.66
497.344	1301.51
497.713	1287.27
498.082	1311.67
498.452	1339.02
498.821	1314.16
499.19	1307.83
499.559	1340.15
499.928	1331.79
500.298	1367.94
500.667	1346.02
501.036	1337.89
501.405	1343.99
501.774	1342.63
502.143	1351
502.512	1359.81
502.88	1349.64
503.249	1357.32
503.618	1377.89
503.987	1380.83
504.356	1391.67
504.724	1383.99
505.093	1363.88
505.462	1367.72
505.83	1405.68
506.199	1369.75
506.567	1381.73
506.936	1390.54
507.304	1391.45
507.672	1390.54
508.041	1408.85
508.409	1434.16
508.777	1406.14
509.145	1416.3
509.514	1420.15
509.882	1409.98
510.25	1413.82
510.618	1407.94
510.986	1424.44
511.354	1453.14
511.722	1445.91
512.09	1429.64
512.458	1419.69
512.826	1441.16
513.193	1443.42
513.561	1467.15
513.929	1435.97
514.297	1451.33
514.664	1482.07
515.032	1478.22
515.4	1455.4
515.767	1454.27
516.135	1466.92
516.502	1471.9
516.869	1503.08
517.237	1467.83
517.604	1461.73
517.972	1475.06
518.339	1493.14
518.706	1468.51
519.073	1470.77
519.44	1461.73
519.808	1472.57
520.175	1487.72
520.542	1472.12
520.909	1482.74
521.276	1497.66
521.643	1533.59
522.009	1506.7
522.376	1544.66
522.743	1477.55
523.11	1504.44
523.477	1526.81
523.843	1522.97
524.21	1531.78
524.577	1536.53
524.943	1537.21
525.31	1510.54
525.676	1550.09
526.043	1531.78
526.409	1551.67
526.776	1557.09
527.142	1570.42
527.508	1548.73
527.874	1532.23
528.241	1549.18
528.607	1568.39
528.973	1577.66
529.339	1560.71
529.705	1571.55
530.071	1584.66
530.437	1576.07
530.803	1601.84
531.169	1578.79
531.535	1587.15
531.901	1571.78
532.267	1589.41
532.632	1597.54
532.998	1625.11
533.364	1609.07
533.73	1570.65
534.095	1595.51
534.461	1606.36
534.826	1608.84
535.192	1618.33
535.557	1617.88
535.923	1626.69
536.288	1653.81
536.653	1633.7
537.019	1584.89
537.384	1603.42
537.749	1615.85
538.114	1602.51
538.479	1627.15
538.845	1597.77
539.21	1596.86
539.575	1609.29
539.94	1595.73
540.305	1630.54
540.67	1625.34
541.034	1606.81
541.399	1642.74
541.764	1633.25
542.129	1618.79
542.494	1613.14
542.858	1653.13
543.223	1629.18
543.587	1622.4
543.952	1614.72
544.316	1627.82
544.681	1634.38
545.045	1634.6
545.41	1616.98
545.774	1633.25
546.138	1623.98
546.503	1612.01
546.867	1639.8
547.231	1644.1
547.595	1635.51
547.959	1616.07
548.324	1636.41
548.688	1635.51
549.052	1626.02
549.416	1611.33
549.779	1640.03
550.143	1633.7
550.507	1641.84
550.871	1627.15
551.235	1630.31
551.599	1630.08
551.962	1637.99
552.326	1664.66
552.689	1646.81
553.053	1646.13
553.417	1664.21
553.78	1646.81
554.143	1645
554.507	1657.88
554.87	1678.44
555.234	1673.02
555.597	1659.69
555.96	1672.12
556.323	1674.6
556.686	1631.21
557.05	1650.2
557.413	1650.87
557.776	1669.63
558.139	1651.55
558.502	1654.49
558.865	1653.13
559.228	1667.6
559.59	1670.99
559.953	1683.64
560.316	1656.98
560.679	1695.85
561.041	1682.29
561.404	1678.67
561.767	1719.8
562.129	1635.51
562.492	1696.75
562.854	1658.78
563.217	1694.49
563.579	1672.79
563.941	1736.97
564.304	1725.45
564.666	1713.47
565.028	1708.73
565.39	1692.46
565.753	1694.94
566.115	1699.91
566.477	1719.35
566.839	1724.09
567.201	1756.18
567.563	1735.39
567.925	1728.16
568.287	1754.83
568.648	1743.3
569.01	1740.59
569.372	1744.21
569.734	1778.55
570.095	1739.91
570.457	1732.91
570.819	1737.43
571.18	1714.6
571.542	1755.96
571.903	1780.36
572.265	1736.3
572.626	1754.15
572.987	1773.36
573.349	1766.8
573.71	1787.14
574.071	1791.44
574.432	1763.87
574.794	1774.26
575.155	1762.06
575.516	1788.27
575.877	1781.72
576.238	1774.04
576.599	1785.56
576.96	1748.05
577.32	1774.26
577.681	1811.1
578.042	1785.11
578.403	1780.81
578.763	1807.48
579.124	1816.52
579.485	1812.9
579.845	1784.88
580.206	1766.8
580.566	1800.25
580.927	1822.62
581.287	1799.57
581.648	1781.27
582.008	1786.24
582.368	1811.32
582.728	1812.23
583.089	1811.1
583.449	1787.14
583.809	1790.98
584.169	1804.09
584.529	1831.43
584.889	1810.42
585.249	1834.82
585.609	1828.05
585.969	1842.28
586.329	1804.54
586.688	1832.34
587.048	1799.57
587.408	1840.93
587.768	1823.3
588.127	1809.74
588.487	1807.48
588.846	1840.25
589.206	1812.23
589.565	1833.24
589.925	1801.38
590.284	1838.67
590.643	1828.95
591.003	1829.18
591.362	1839.8
591.721	1845.9
592.08	1835.28
592.44	1829.18
592.799	1851.32
593.158	1829.63
593.517	1823.53
593.876	1834.82
594.235	1793.92
594.593	1851.55
594.952	1832.11
595.311	1846.58
595.67	1821.49
596.029	1846.12
596.387	1873.02
596.746	1828.5
597.104	1883.64
597.463	1836.41
597.822	1837.76
598.18	1836.63
598.538	1884.99
598.897	1849.29
599.255	1863.75
599.613	1853.36
599.972	1883.18
600.33	1866.01
600.688	1857.2
601.046	1868.27
601.404	1878.21
601.762	1863.75
602.12	1854.94
602.478	1906.91
602.836	1904.65
603.194	1868.27
603.552	1896.74
603.91	1850.42
604.268	1908.5
604.625	1882.28
604.983	1885.22
605.341	1883.86
605.698	1883.18
606.056	1849.06
606.413	1875.95
606.771	1888.61
607.128	1893.81
607.485	1894.71
607.843	1901.49
608.2	1936.29
608.557	1884.09
608.914	1918.21
609.272	1909.62
609.629	1894.48
609.986	1924.31
610.343	1902.62
610.7	1900.81
611.057	1909.4
611.414	1930.19
611.771	1925.9
612.127	1923.64
612.484	1934.48
612.841	1945.33
613.198	1956.86
613.554	1922.73
613.911	1940.81
614.267	1950.08
614.624	1919.12
614.98	1972
615.337	1966.35
615.693	1962.28
616.05	1976.06
616.406	1965.89
616.762	1971.09
617.118	1976.06
617.475	1982.84
617.831	1968.15
618.187	1997.53
618.543	1978.78
618.899	1995.5
619.255	1982.84
619.611	1991.2
619.967	2007.02
620.323	1979.45
620.678	2057.42
621.034	1997.53
621.39	2018.55
621.746	2004.54
622.101	2031.2
622.457	2003.63
622.812	2007.25
623.168	2020.81
623.523	2029.62
623.879	2025.33
624.234	2026.68
624.589	2063.52
624.945	2009.06
625.3	2063.07
625.655	2053.58
626.01	2051.77
626.365	2075.5
626.72	2038.66
627.075	2049.51
627.43	2049.51
627.785	2077.53
628.14	2066.68
628.495	2043.18
628.85	2070.98
629.205	2062.16
629.559	2064.2
629.914	2063.52
630.269	2071.43
630.623	2089.06
630.978	2113.46
631.332	2122.27
631.687	2127.47
632.041	2109.39
632.396	2088.6
632.75	2102.16
633.104	2082.05
633.459	2100.35
633.813	2111.43
634.167	2100.13
634.521	2119.34
634.875	2122.95
635.229	2155.27
635.583	2130.64
635.937	2151.43
636.291	2117.53
636.645	2115.95
636.999	2149.62
637.352	2139.45
637.706	2134.93
638.06	2146.23
638.413	2148.71
638.767	2164.31
639.121	2179.22
639.474	2150.52
639.828	2195.72
640.181	2176.06
640.534	2183.52
640.888	2191.88
641.241	2177.19
641.594	2208.6
641.947	2194.82
642.301	2213.35
642.654	2215.83
643.007	2251.76
643.36	2246.34
643.713	2236.85
644.066	2262.84
644.419	2247.02
644.771	2223.29
645.124	2201.37
645.477	2240.46
645.83	2240.24
646.182	2250.63
646.535	2244.53
646.888	2238.2
647.24	2209.73
647.593	2256.06
647.945	2271.2
648.298	2258.09
648.65	2266
649.002	2240.24
649.355	2295.83
649.707	2277.75
650.059	2292.44
650.411	2354.81
650.763	2332.66
651.115	2368.37
651.467	2361.36
651.819	2427.8
652.171	2450.85
652.523	2394.13
652.875	2393.23
653.227	2421.93
653.578	2435.03
653.93	2467.35
654.282	2454.24
654.633	2449.95
654.985	2441.81
655.337	2445.88
655.688	2479.55
656.039	2489.95
656.391	2489.04
656.742	2510.97
657.094	2509.61
657.445	2543.73
657.796	2549.38
658.147	2552.55
658.498	2562.49
658.849	2610.62
659.2	2609.95
659.551	2629.83
659.902	2631.19
660.253	2639.32
660.604	2642.04
660.955	2638.65
661.306	2695.37
661.656	2650.85
662.007	2681.36
662.358	2682.94
662.708	2663.28
663.059	2748.7
663.409	2751.41
663.76	2754.57
664.11	2763.16
664.461	2774.01
664.811	2770.85
665.161	2819.43
665.511	2811.3
665.862	2822.6
666.212	2834.12
666.562	2845.42
666.912	2861.46
667.262	2877.28
667.612	2884.29
667.962	2931.07
668.312	2926.55
668.662	2932.65
669.011	2951.86
669.361	2921.35
669.711	2951.18
670.06	2990.5
670.41	2988.69
670.76	2992.08
671.109	3024.85
671.459	3044.96
671.808	3058.07
672.157	3026.88
672.507	3086.54
672.856	3065.53
673.205	3102.59
673.554	3087.67
673.904	3117.95
674.253	3158.63
674.602	3140.33
674.951	3122.02
675.3	3127.22
675.649	3190.5
675.998	3171.06
676.346	3206.31
676.695	3206.77
677.044	3248.12
677.393	3216.26
677.741	3268.91
678.09	3263.26
678.438	3246.31
678.787	3279.98
679.135	3309.59
679.484	3265.97
679.832	3292.41
680.181	3297.61
680.529	3322.7
680.877	3341.68
681.225	3350.72
681.573	3345.97
681.922	3356.82
682.27	3376.48
682.618	3370.83
682.966	3358.85
683.314	3417.38
683.661	3416.7
684.009	3412.41
684.357	3382.58
684.705	3402.69
685.053	3421
685.4	3415.35
685.748	3428.46
686.095	3460.09
686.443	3404.5
686.79	3456.93
687.138	3486.31
687.485	3472.75
687.832	3457.38
688.18	3471.39
688.527	3507.77
688.874	3510.71
689.221	3484.5
689.568	3516.14
689.915	3520.88
690.262	3545.74
690.609	3505.74
690.956	3517.04
691.303	3526.98
691.65	3536.02
691.997	3538.51
692.344	3533.99
692.69	3552.52
693.037	3542.8
693.383	3544.38
693.73	3533.31
694.077	3498.28
694.423	3528.11
694.769	3527.66
695.116	3540.77
695.462	3554.33
695.808	3518.62
696.155	3541.45
696.501	3531.73
696.847	3568.34
697.193	3487.21
697.539	3538.73
697.885	3540.09
698.231	3512.29
698.577	3568.56
698.923	3497.15
699.269	3510.03
699.614	3518.85
699.96	3539.19
700.306	3542.8
700.651	3470.49
700.997	3504.16
701.342	3526.08
701.688	3515.23
702.033	3500.54
702.379	3491.73
702.724	3493.76
703.069	3513.65
703.415	3463.93
703.76	3462.35
704.105	3482.92
704.45	3489.7
704.795	3461.67
705.14	3444.27
705.485	3447.89
705.83	3470.94
706.175	3425.97
706.52	3407.44
706.865	3432.75
707.209	3451.73
707.554	3449.02
707.899	3459.19
708.243	3441.34
708.588	3437.95
708.932	3403.37
709.277	3398.85
709.621	3429.13
709.966	3392.07
710.31	3411.73
710.654	3378.96
710.998	3432.52
711.342	3415.8
711.687	3408.79
712.031	3381.68
712.375	3405.86
712.719	3391.39
713.063	3343.49
713.407	3420.77
713.75	3402.69
714.094	3340.77
714.438	3366.54
714.782	3401.11
715.125	3350.94
715.469	3392.3
715.812	3385.29
716.156	3366.54
716.499	3393.65
716.843	3393.43
717.186	3346.2
717.53	3398.4
717.873	3404.05
718.216	3390.26
718.559	3383.26
718.902	3364.5
719.246	3355.01
719.589	3341.68
719.932	3375.35
720.275	3328.12
720.617	3321.79
720.96	3406.99
721.303	3371.28
721.646	3392.98
721.989	3377.61
722.331	3334.45
722.674	3366.54
723.016	3393.88
723.359	3386.65
723.701	3382.81
724.044	3384.84
724.386	3356.37
724.729	3360.89
725.071	3378.29
725.413	3381
725.755	3403.6
726.097	3373.77
726.439	3360.66
726.782	3317.95
727.124	3402.02
727.465	3387.1
727.807	3352.07
728.149	3362.69
728.491	3387.55
728.833	3362.92
729.175	3352.98
729.516	3373.54
729.858	3394.56
730.199	3400.89
730.541	3405.18
730.882	3414.9
731.224	3393.88
731.565	3353.65
731.906	3395.69
732.248	3390.04
732.589	3379.64
732.93	3394.56
733.271	3385.07
733.612	3435.01
733.953	3388.46
734.294	3412.64
734.635	3417.16
734.976	3401.34
735.317	3370.15
735.658	3373.09
735.999	3411.05
736.339	3400.21
736.68	3420.32
737.021	3449.92
737.361	3411.96
737.702	3469.81
738.042	3467.1
738.383	3423.71
738.723	3440.21
739.063	3473.43
739.404	3488.57
739.744	3433.43
740.084	3460.54
740.424	3475.91
740.764	3458.06
741.104	3524.27
741.444	3469.58
741.784	3478.85
742.124	3486.76
742.464	3487.66
742.804	3511.84
743.143	3515.68
743.483	3562.24
743.823	3561.33
744.162	3560.43
744.502	3559.75
744.841	3584.61
745.181	3613.76
745.52	3601.33
745.86	3633.87
746.199	3628.22
746.538	3631.16
746.877	3712.29
747.216	3655.57
747.556	3673.42
747.895	3714.32
748.234	3718.62
748.573	3781.21
748.911	3702.12
749.25	3739.63
749.589	3736.47
749.928	3773.08
750.267	3850.36
750.605	3856.24
750.944	3802
751.283	3829.35
751.621	3859.86
751.96	3849.69
752.298	3869.12
752.636	3891.49
752.975	3903.7
753.313	3924.04
753.651	3967.42
753.989	3988.21
754.327	3966.75
754.666	4023.24
755.004	4002
755.342	4067.99
755.679	4045.39
756.017	4089.23
756.355	4090.81
756.693	4113.63
757.031	4136.01
757.368	4149.11
757.706	4170.81
758.044	4206.51
758.381	4210.13
758.719	4178.27
759.056	4243.57
759.394	4194.99
759.731	4246.29
760.068	4250.35
760.405	4267.76
760.743	4258.72
761.08	4334.87
761.417	4283.8
761.754	4314.76
762.091	4325.61
762.428	4307.98
762.765	4321.76
763.102	4371.93
763.438	4348.43
763.775	4331.03
764.112	4366.51
764.449	4381.65
764.785	4349.33
765.122	4364.48
765.458	4376.9
765.795	4368.77
766.131	4358.6
766.467	4394.53
766.804	4447.64
767.14	4341.88
767.476	4385.94
767.812	4385.49
768.148	4458.48
768.485	4361.99
768.821	4393.85
769.157	4439.28
769.492	4416
769.828	4394.76
770.164	4384.36
770.5	4397.92
770.836	4378.94
771.171	4380.75
771.507	4399.05
771.842	4427.3
772.178	4392.05
