Data from blue_shiny_book_FLMS001491_00002.txt Node
Date: Wed Feb 08 15:26:26 GMT 2017
User: dcchb
Spectrometer: FLMS00149
Trigger mode: 0
Integration Time (sec): 2.000000E-2
Scans to average: 10
Electric dark correction enabled: true
Nonlinearity correction enabled: false
Boxcar width: 0
XAxis mode: Wavelengths
Number of Pixels in Spectrum: 2048
>>>>>Begin Spectral Data<<<<<
341.393	-12.95
341.776	-12.95
342.16	-12.95
342.543	-68.77
342.927	-54.98
343.31	-74.64
343.693	-52.05
344.077	-68.09
344.46	-70.35
344.843	-69.45
345.226	-57.24
345.61	-15.89
345.993	-21.31
346.376	-6.4
346.759	35.41
347.142	12.13
347.525	30.21
347.908	68.63
348.291	93.26
348.674	81.96
349.057	113.82
349.44	124.67
349.823	130.55
350.206	164.44
350.588	207.83
350.971	221.84
351.354	260.26
351.737	239.02
352.119	269.07
352.502	262.3
352.884	281.96
353.267	286.48
353.65	315.63
354.032	312.69
354.414	331.67
354.797	323.99
355.179	346.13
355.562	321.5
355.944	327.38
356.326	348.85
356.709	355.63
357.091	338.45
357.473	368.51
357.855	361.5
358.238	359.24
358.62	381.61
359.002	386.13
359.384	370.32
359.766	353.59
360.148	359.92
360.53	369.64
360.912	350.2
361.294	361.73
361.676	340.26
362.057	363.54
362.439	352.69
362.821	358.56
363.203	359.69
363.584	356.3
363.966	343.88
364.348	345.23
364.729	340.03
365.111	358.34
365.493	367.38
365.874	365.12
366.256	327.38
366.637	348.62
367.019	365.34
367.4	332.12
367.781	333.03
368.163	350.88
368.544	357.21
368.925	366.93
369.306	341.62
369.688	363.54
370.069	353.59
370.45	351.11
370.831	360.82
371.212	365.57
371.593	362.41
371.974	337.77
372.355	356.08
372.736	365.8
373.117	352.69
373.498	369.41
373.879	380.26
374.26	363.76
374.641	344.78
375.021	355.63
375.402	375.51
375.783	362.86
376.163	378.68
376.544	373.48
376.925	371.9
377.305	394.27
377.686	388.17
378.066	384.78
378.447	393.14
378.827	406.92
379.208	376.64
379.588	399.92
379.968	400.6
380.349	394.72
380.729	397.43
381.109	419.35
381.489	418.68
381.87	400.37
382.25	434.49
382.63	426.58
383.01	438.34
383.39	423.42
383.77	434.95
384.15	436.75
384.53	440.82
384.91	441.5
385.29	427.26
385.67	465.91
386.049	458.22
386.429	455.51
386.809	463.65
387.189	475.4
387.568	478.33
387.948	465.23
388.328	470.2
388.707	458.9
389.087	476.3
389.466	476.3
389.846	491.89
390.225	489.86
390.605	514.72
390.984	506.13
391.363	520.37
391.743	515.17
392.122	509.75
392.501	520.59
392.881	538.67
393.26	569.86
393.639	558.78
394.018	544.1
394.397	557.88
394.776	566.69
395.155	559.24
395.534	565.56
395.913	587.94
396.292	592.46
396.671	592.46
397.05	600.82
397.429	584.32
397.808	600.14
398.186	602.63
398.565	629.74
398.944	636.07
399.323	614.15
399.701	643.53
400.08	641.49
400.458	635.62
400.837	668.39
401.215	670.42
401.594	672.23
401.972	667.48
402.351	678.56
402.729	685.11
403.107	718.55
403.486	715.39
403.864	716.52
404.242	714.26
404.62	720.81
404.999	732.11
405.377	746.12
405.755	737.76
406.133	756.29
406.511	782.96
406.889	799.46
407.267	799
407.645	824.77
408.023	822.96
408.401	816.41
408.779	850.08
409.156	836.29
409.534	843.52
409.912	854.37
410.29	899.57
410.667	910.41
411.045	931.88
411.422	914.93
411.8	924.2
412.178	952.67
412.555	936.85
412.933	981.37
413.31	1009.17
413.687	1020.02
414.065	1009.17
414.442	1015.5
414.819	1029.96
415.197	1050.3
415.574	1059.79
415.951	1084.65
416.328	1096.62
416.705	1090.52
417.082	1121.93
417.46	1132.55
417.837	1117.87
418.214	1139.79
418.591	1168.94
418.967	1175.27
419.344	1181.82
419.721	1220.91
420.098	1214.36
420.475	1215.49
420.852	1243.29
421.228	1263.62
421.605	1253.91
421.982	1286.45
422.358	1321.02
422.735	1303.62
423.111	1328.48
423.488	1333.91
423.864	1371.42
424.241	1391.76
424.617	1393.34
424.994	1407.58
425.37	1436.73
425.746	1429.95
426.123	1456.61
426.499	1476.05
426.875	1488.7
427.251	1523.73
427.627	1528.7
428.003	1550.85
428.379	1586.78
428.756	1628.81
429.132	1633.78
429.507	1679.66
429.883	1670.62
430.259	1683.05
430.635	1700.45
431.011	1722.14
431.387	1776.83
431.763	1791.97
432.138	1825.19
432.514	1845.53
432.89	1875.59
433.265	1914.68
433.641	1952.87
434.016	1951.74
434.392	2001.68
434.767	1999.65
435.143	2019.09
435.518	2025.19
435.894	2083.04
436.269	2090.27
436.644	2114.68
437.02	2123.72
437.395	2189.7
437.77	2238.97
438.145	2247.55
438.52	2275.35
438.895	2318.29
439.271	2367.55
439.646	2361
440.021	2381.79
440.395	2377.04
440.77	2362.58
441.145	2401.45
441.52	2496.36
441.895	2422.92
442.27	2491.16
442.645	2482.12
443.019	2569.35
443.394	2556.47
443.769	2596.7
444.143	2571.16
444.518	2610.03
444.892	2633.76
445.267	2660.42
445.641	2661.78
446.016	2702.01
446.39	2683.47
446.764	2728.45
447.139	2726.19
447.513	2756.47
447.887	2754.66
448.262	2818.39
448.636	2847.99
449.01	2893.41
449.384	2930.02
449.758	2916.24
450.132	2972.05
450.506	2991.49
450.88	2997.82
451.254	3028.78
451.628	3016.8
452.002	3071.04
452.376	3101.99
452.75	3123.92
453.123	3214.99
453.497	3264.02
453.871	3309.67
454.244	3324.36
454.618	3403
454.992	3456.56
455.365	3443.91
455.739	3537.01
456.112	3528.2
456.486	3564.81
456.859	3579.95
457.232	3624.01
457.606	3625.37
457.979	3721.19
458.352	3802.09
458.725	3857.23
459.099	3944.68
459.472	3999.82
459.845	4046.15
460.218	4083.21
460.591	4122.98
460.964	4169.99
461.337	4263.32
461.71	4282.75
462.083	4325.47
462.456	4339.93
462.829	4317.1
463.201	4445.69
463.574	4469.87
463.947	4564.78
464.32	4680.94
464.692	4722.52
465.065	4806.81
465.438	4870.08
465.81	4954.6
466.183	5024.43
466.555	5056.29
466.928	5142.62
467.3	5109.4
467.672	5193.01
468.045	5338.32
468.417	5299.23
468.789	5347.59
469.161	5466.68
469.534	5626.9
469.906	5690.63
470.278	5745.54
470.65	5831.19
471.022	5929.49
471.394	6118.41
471.766	6117.28
472.138	6234.57
472.51	6333.32
472.882	6356.6
473.253	6483.37
473.625	6529.02
473.997	6645.18
474.369	6710.26
474.74	6812.63
475.112	6936.92
475.484	7015.56
475.855	7232.73
476.227	7274.54
476.598	7509.11
476.97	7554.76
477.341	7787.97
477.713	7934.41
478.084	7995.43
478.455	8182.09
478.827	8160.39
479.198	8410.56
479.569	8438.8
479.94	8662.98
480.311	8718.12
480.682	8954.72
481.053	9154.04
481.424	9332.11
481.795	9454.82
482.166	9619.56
482.537	9740.46
482.908	9984.3
483.279	10203.95
483.65	10279.89
484.021	10500.9
484.391	10553.1
484.762	10662.02
485.133	10686.65
485.503	10904.73
485.874	11062.01
486.244	11176.36
486.615	11477.37
486.985	11607.53
487.356	11919.62
487.726	11991.25
488.097	12318.48
488.467	12367.97
488.837	12714.62
489.207	12875.07
489.578	13033.26
489.948	13084.33
490.318	13292.91
490.688	13265.57
491.058	13552.57
491.428	13743.52
491.798	13862.16
492.168	14157.07
492.538	14133.34
492.908	14393.68
493.278	14519.1
493.648	14546.21
494.017	14855.36
494.387	15023.72
494.757	15138.29
495.126	15413.08
495.496	15418.73
495.866	15620.08
496.235	15763.81
496.605	15851.94
496.974	16008.1
497.344	16131.48
497.713	16157.02
498.082	16312.95
498.452	16507.07
498.821	16681.3
499.19	16584.58
499.559	16776.66
499.928	16961.07
500.298	17117.22
500.667	17331.9
501.036	17345.69
501.405	17616.87
501.774	17667.26
502.143	17824.09
502.512	17859.35
502.88	18086.01
503.249	18072.9
503.618	18297.08
503.987	18306.57
504.356	18341.37
504.724	18475.83
505.093	18591.98
505.462	18782.26
505.83	18875.14
506.199	18992.42
506.567	19335.69
506.936	19302.25
507.304	19586.53
507.672	19669.92
508.041	19743.37
508.409	19926.19
508.777	20173.41
509.145	20318.72
509.514	20344.71
509.882	20447.53
510.25	20581.99
510.618	20733.85
510.986	20771.81
511.354	20948.08
511.722	21101.3
512.09	21346.94
512.458	21355.53
512.826	21660.83
513.193	21666.25
513.561	21858.79
513.929	21893.59
514.297	22295.61
514.664	22418.32
515.032	22486.34
515.4	22751.42
515.767	22834.58
516.135	23019.66
516.502	22847.69
516.869	23289.94
517.237	23308.02
517.604	23359.99
517.972	23699.65
518.339	23729.93
518.706	23982.35
519.073	24039.52
519.44	24209.69
519.808	24417.59
520.175	24488.78
520.542	24827.75
520.909	25058.93
521.276	25134.64
521.643	25309.55
522.009	25453.5
522.376	25706.37
522.743	25844.45
523.11	26035.4
523.477	26310.2
523.843	26450.53
524.21	26667.48
524.577	26903.85
524.943	27025.66
525.31	27198.08
525.676	27372.77
526.043	27565.76
526.409	27843.72
526.776	28053.66
527.142	28231.73
527.508	28405.06
527.874	28652.96
528.241	28899.28
528.607	28973.63
528.973	29260.4
529.339	29191.25
529.705	29618.81
530.071	29701.07
530.437	29856.55
530.803	30042.53
531.169	30132.47
531.535	30178.34
531.901	30326.14
532.267	30533.36
532.632	30731.78
532.998	30877.76
533.364	31164.53
533.73	31352.33
534.095	31494.47
534.461	31708.47
534.826	31795.25
535.192	32010.84
535.557	32116.83
535.923	32145.75
536.288	32237.95
536.653	32547.55
537.019	32445.4
537.384	32637.04
537.749	32750.25
538.114	32764.94
538.479	32871.16
538.845	32979.85
539.21	32983.92
539.575	33196.12
539.94	33345.95
540.305	33644.47
540.67	33563.34
541.034	33804.24
541.399	34015.76
541.764	34045.36
542.129	34325.35
542.494	34408.52
542.858	34559.7
543.223	34484.9
543.587	34763.31
543.952	34789.07
544.316	34781.84
544.681	34837.21
545.045	34992.68
545.41	35116.07
545.774	35149.74
546.138	35203.75
546.503	35230.42
546.867	35270.19
547.231	35536.17
547.595	35532.78
547.959	35792.21
548.324	35913.56
548.688	36221.8
549.052	36313.78
549.416	36376.83
549.779	36502.47
550.143	36782.01
550.507	36907.21
550.871	36916.7
551.235	36903.14
551.599	37247.54
551.962	37132.96
552.326	37280.08
552.689	37419.06
553.053	37201.66
553.417	37424.03
553.78	37725.94
554.143	37522.78
554.507	37724.81
554.87	37680.29
555.234	38054.07
555.597	38056.56
555.96	38375.19
556.323	38442.53
556.686	38567.05
557.05	38795.97
557.413	39098.34
557.776	39307.6
558.139	39553.01
558.502	39583.07
558.865	39678.43
559.228	39893.8
559.59	40051.98
559.953	39998.88
560.316	40323.61
560.679	40349.15
561.041	40219.66
561.404	40516.38
561.767	40630.95
562.129	40606.77
562.492	40910.49
562.854	40997.95
563.217	40928.12
563.579	40974.9
563.941	41441.1
564.304	41582.56
564.666	41877.25
565.028	41917.25
565.39	42289.66
565.753	42490.56
566.115	42681.97
566.477	42945.69
566.839	43038.35
567.201	43276.31
567.563	43363.31
567.925	43681.72
568.287	43523.98
568.648	43638.56
569.01	43777.31
569.372	43773.24
569.734	43617.77
570.095	43907.02
570.457	43819.57
570.819	43855.27
571.18	43899.11
571.542	44171.88
571.903	44218.88
572.265	44452.77
572.626	44649.6
572.987	44774.8
573.349	44917.17
573.71	45210.72
574.071	45317.83
574.432	45501.56
574.794	45930.7
575.155	45818.61
575.516	45814.54
575.877	45891.6
576.238	46205.04
576.599	46174.31
576.96	46306.51
577.32	46210.69
577.681	46201.43
578.042	46322.1
578.403	46285.72
578.763	46311.03
579.124	46230.13
579.485	46301.99
579.845	46347.64
580.206	46301.31
580.566	46160.3
580.927	46247.07
581.287	46527.07
581.648	46348.99
582.008	46734.52
582.368	46824.23
582.728	47033.95
583.089	46976.1
583.449	47024.23
583.809	47257.9
584.169	47350.77
584.529	47308.29
584.889	47638.68
585.249	47378.12
585.609	47325.46
585.969	47545.35
586.329	47472.35
586.688	47500.6
587.048	47298.12
587.408	47175.86
587.768	47058.35
588.127	47012.93
588.487	46902.2
588.846	47095.64
589.206	46775.2
589.565	46805.93
589.925	47166.15
590.284	46924.8
590.643	47035.98
591.003	47192.81
591.362	47330.66
591.721	47351
592.08	47423.54
592.44	47668.28
592.799	47798.45
593.158	47823.76
593.517	47880.48
593.876	47952.57
594.235	47915.05
594.593	48135.16
594.952	48176.52
595.311	47942.85
595.67	47909.18
596.029	48168.83
596.387	48019.91
596.746	47894.72
597.104	47633.71
597.463	47582.18
597.822	47768.84
598.18	47605.68
598.538	47523.43
598.897	47602.07
599.255	47184.9
599.613	47748.5
599.972	47663.76
600.33	47665.34
600.688	47761.16
601.046	47870.31
601.404	48150.08
601.762	47931.1
602.12	48287.25
602.478	48524.76
602.836	48466
603.194	48385.55
603.552	48613.11
603.91	48456.28
604.268	48645.88
604.625	48407.02
604.983	48599.56
605.341	48410.41
605.698	48506.68
606.056	48705.77
606.413	48620.8
606.771	48565.66
607.128	48548.03
607.485	48272.33
607.843	48292.44
608.2	48548.03
608.557	48535.83
608.914	48316.17
609.272	48503.96
609.629	48652.44
609.986	48807.69
610.343	48507.35
610.7	48840.68
611.057	49027.34
611.414	48919.32
611.771	49073.89
612.127	49277.5
612.484	49364.73
612.841	49558.17
613.198	49389.59
613.554	49495.58
613.911	49774.67
614.267	49626.2
614.624	49790.71
614.98	49734.44
615.337	49888.56
615.693	49777.15
616.05	49721.79
616.406	49845.62
616.762	49671.84
617.118	49601.79
617.475	49518.85
617.831	49617.16
618.187	49581
618.543	49504.62
618.899	49653.54
619.255	49644.27
619.611	49497.61
619.967	49689.02
620.323	49726.53
620.678	49660.09
621.034	49683.82
621.39	49699.87
621.746	49610.6
622.101	49980.99
622.457	49844.72
622.812	49981.67
623.168	50227.31
623.523	50201.77
623.879	50389.79
624.234	50106.86
624.589	50309.34
624.945	50366.97
625.3	50375.33
625.655	50328.78
626.01	50276.8
626.365	50354.76
626.72	50270.7
627.075	50065.73
627.43	50021.21
627.785	49867.54
628.14	49871.39
628.495	50004.94
628.85	49821.9
629.205	49630.49
629.559	49795.23
629.914	49560.21
630.269	49630.71
630.623	49564.5
630.978	49580.77
631.332	49665.29
631.687	49697.38
632.041	49740.99
632.396	49785.96
632.75	49718.4
633.104	49831.16
633.459	49674.78
633.813	49770.82
634.167	49696.25
634.521	49776.25
634.875	49862.8
635.229	49800.43
635.583	49597.95
635.937	49778.73
636.291	49696.93
636.645	49701.45
636.999	49601.56
637.352	49672.52
637.706	49551.85
638.06	49448.57
638.413	49272.76
638.767	49056.72
639.121	49167.9
639.474	48785.31
639.828	48791.41
640.181	48794.35
640.534	48749.83
640.888	48500.35
641.241	48520.01
641.594	48526.79
641.947	48494.93
642.301	48322.27
642.654	48459.67
643.007	48377.87
643.36	48411.31
643.713	48364.99
644.066	48575.15
644.419	48458.54
644.771	48539.44
645.124	48465.77
645.477	48561.59
645.83	48093.13
646.182	47929.97
646.535	47594.16
646.888	47491.34
647.24	47271
647.593	47575.85
647.945	47471.68
648.298	47179.71
648.65	47019.48
649.002	46962.99
649.355	47190.55
649.707	47155.98
650.059	47219.48
650.411	47820.59
650.763	47774.27
651.115	47995.73
651.467	47684.55
651.819	47713.03
652.171	47460.83
652.523	47453.82
652.875	47455.63
653.227	47371.57
653.578	47589.64
653.93	47572.01
654.282	47320.27
654.633	47189.2
654.985	47422.19
655.337	47279.59
655.688	47386.71
656.039	47496.31
656.391	47161.4
656.742	47257.9
657.094	47434.84
657.445	47711.9
657.796	47634.84
658.147	47659.47
658.498	47777.88
658.849	47833.25
659.2	47828.05
659.551	47617.66
659.902	47620.82
660.253	47593.71
660.604	47612.24
660.955	47526.82
661.306	47479.36
661.656	47283.66
662.007	47255.64
662.358	47319.14
662.708	47225.81
663.059	47212.02
663.409	46943.1
663.76	47219.25
664.11	46852.03
664.461	46887.06
664.811	46598.25
665.161	46672.83
665.511	46652.94
665.862	46628.53
666.212	46759.15
666.562	46958.47
666.912	46751.02
667.262	46700.17
667.612	46894.29
667.962	46905.36
668.312	46719.83
668.662	47065.58
669.011	47029.43
669.361	47037.56
669.711	47097.22
670.06	47034.62
670.41	47009.09
670.76	47203.21
671.109	47292.92
671.459	47129.09
671.808	47096.54
672.157	47210.67
672.507	46999.6
672.856	47121.85
673.205	47016.32
673.554	47118.01
673.904	46750.56
674.253	47111.68
674.602	46779.04
674.951	46203.91
675.3	46025.16
675.649	46404.13
675.998	46300.18
676.346	46198.26
676.695	46195.78
677.044	45917.14
677.393	46086.63
677.741	45935.44
678.09	45682.57
678.438	45682.34
678.787	45723.02
679.135	45765.05
679.484	45596.7
679.832	45819.06
680.181	45539.07
680.529	45787.88
680.877	45705.62
681.225	45764.83
681.573	45861.32
681.922	45697.94
682.27	45703.36
682.618	45717.6
682.966	45731.38
683.314	45975.22
683.661	45735.9
684.009	45628.33
684.357	45549.24
684.705	45439.19
685.053	45687.09
685.4	45569.58
685.748	45249.59
686.095	45221.79
686.443	45020.89
686.79	44907.68
687.138	44945.64
687.485	44751.75
687.832	44552.66
688.18	44475.82
688.527	44196.96
688.874	44042.16
689.221	44032.22
689.568	43834.03
689.915	43711.1
690.262	43704.32
690.609	43500.48
690.956	43214.16
691.303	43201.51
691.65	43000.61
691.997	43023.88
692.344	42582.31
692.69	42772.36
693.037	42713.16
693.383	42420.96
693.73	42615.76
694.077	42275.65
694.423	42465.25
694.769	42385.48
695.116	42240.63
695.462	42479.72
695.808	42332.83
696.155	42486.04
696.501	42162.44
696.847	42297.57
697.193	41997.24
697.539	42218.48
697.885	41981.65
698.231	41884.25
698.577	41696.46
698.923	41741.66
699.269	41533.53
699.614	41209.47
699.96	41239.75
700.306	41139.41
700.651	40962.02
700.997	40719.99
701.342	40529.49
701.688	40305.54
702.033	40112.55
702.379	39939.22
702.724	39907.13
703.069	39952.1
703.415	39335.39
703.76	39365
704.105	39226.69
704.45	39087.94
704.795	38794.39
705.14	38785.58
705.485	38793.71
705.83	38530.22
706.175	38773.37
706.52	38567.73
706.865	38447.05
707.209	38500.16
707.554	38360.5
707.899	38432.59
708.243	38275.08
708.588	38271.24
708.932	38114.18
709.277	38343.78
709.621	38352.59
709.966	38177.68
710.31	38317.57
710.654	38080.51
710.998	38312.82
711.342	38276.89
711.687	38189.43
712.031	37962.77
712.375	37806.84
712.719	37961.19
713.063	37708.54
713.407	37784.7
713.75	37514.65
714.094	37340.19
714.438	37257.03
714.782	37242.79
715.125	37147.88
715.469	36946.08
715.812	36668.57
716.156	36502.02
716.499	36467.22
716.843	36342.25
717.186	36119.88
717.53	36218.64
717.873	36203.5
718.216	35896.61
718.559	35618.2
718.902	35475.83
719.246	35595.6
719.589	35366.68
719.932	35518.77
720.275	35521.93
720.617	35512.22
720.96	35382.73
721.303	35368.72
721.646	35426.12
721.989	35334.59
722.331	35587.69
722.674	35479.22
723.016	35594.25
723.359	35569.16
723.701	35672.44
724.044	35462.95
724.386	35394.03
724.729	35679.44
725.071	35505.21
725.413	35473.12
725.755	35461.37
726.097	35411.43
726.439	35313.13
726.782	35274.71
727.124	35404.2
727.465	35127.82
727.807	35198.33
728.149	35151.77
728.491	35008.05
728.833	34944.77
729.175	34702.29
729.516	34672.01
729.858	34662.07
730.199	34676.08
730.541	34349.31
730.882	34310.21
731.224	34519.7
731.565	34141.4
731.906	34076.32
732.248	34164
732.589	33895.08
732.93	33747.52
733.271	33792.94
733.612	33904.12
733.953	33842.88
734.294	33695.09
734.635	33615.54
734.976	33733.05
735.317	33592.04
735.658	33812.37
735.999	33966.27
736.339	33864.58
736.68	33900.51
737.021	33897.34
737.361	33848.98
737.702	34109.09
738.042	33949.09
738.383	34029.32
738.723	34175.53
739.063	34165.58
739.404	34276.54
739.744	34273.15
740.084	34263.66
740.424	34427.5
740.764	34253.72
741.104	34351.79
741.444	34130.33
741.784	34104.34
742.124	34303.66
742.464	34101.86
742.804	34188.63
743.143	34060.95
743.483	33974.4
743.823	33881.75
744.162	33968.98
744.502	33812.83
744.841	33649.67
745.181	33742.77
745.52	33514.53
745.86	33692.38
746.199	33389.56
746.538	33349.33
746.877	33509.33
747.216	33451.48
747.556	33385.04
747.895	33324.02
748.234	33263.91
748.573	33152.73
748.911	33192.28
749.25	33175.55
749.589	33154.31
749.928	33251.71
750.267	33200.86
750.605	33152.73
750.944	33212.39
751.283	33237.25
751.621	33348.66
751.96	33223.46
752.298	33392.05
752.636	33554.3
752.975	33338.49
