Data from blue_chair_FLMS001491_00075.txt Node
Date: Wed Feb 08 10:31:44 GMT 2017
User: dcchb
Spectrometer: FLMS00149
Trigger mode: 0
Integration Time (sec): 2.000000E-2
Scans to average: 10
Electric dark correction enabled: true
Nonlinearity correction enabled: false
Boxcar width: 0
XAxis mode: Wavelengths
Number of Pixels in Spectrum: 2048
>>>>>Begin Spectral Data<<<<<
341.393	-18.78
341.776	-18.78
342.16	-18.78
342.543	-57.43
342.927	-73.02
343.31	-59.01
343.693	-81.16
344.077	-61.95
344.46	-58.78
344.843	-57.88
345.226	-32.34
345.61	-42.06
345.993	-37.77
346.376	-7.03
346.759	4.27
347.142	35
347.525	37.26
347.908	69.12
348.291	80.2
348.674	107.54
349.057	104.6
349.44	123.81
349.823	123.81
350.206	164.04
350.588	168.78
350.971	203.81
351.354	195.67
351.737	215.56
352.119	225.05
352.502	238.61
352.884	234.54
353.267	245.84
353.65	254.43
354.032	265.95
354.414	272.96
354.797	283.58
355.179	291.94
355.562	271.83
355.944	291.72
356.326	303.24
356.709	333.3
357.091	292.85
357.473	292.39
357.855	281.09
358.238	300.3
358.62	299.17
359.002	322.68
359.384	329.68
359.766	297.59
360.148	307.31
360.53	326.06
360.912	319.29
361.294	308.89
361.676	309.79
362.057	294.43
362.439	294.2
362.821	279.96
363.203	290.13
363.584	315.44
363.966	291.04
364.348	293.07
364.729	284.94
365.111	292.62
365.493	298.72
365.874	285.39
366.256	282.45
366.637	286.07
367.019	274.09
367.4	272.28
367.781	273.18
368.163	254.88
368.544	262.79
368.925	284.94
369.306	249.68
369.688	274.31
370.069	265.5
370.45	268.21
370.831	284.71
371.212	279.06
371.593	281.09
371.974	303.92
372.355	285.61
372.736	282
373.117	281.55
373.498	273.86
373.879	273.86
374.26	275.44
374.641	282
375.021	259.63
375.402	290.81
375.783	263.47
376.163	260.3
376.544	268.44
376.925	287.65
377.305	283.13
377.686	278.83
378.066	269.8
378.447	293.07
378.827	294.88
379.208	291.72
379.588	282.22
379.968	277.03
380.349	276.57
380.729	280.19
381.109	293.98
381.489	281.55
381.87	302.56
382.25	287.65
382.63	274.31
383.01	302.56
383.39	284.26
383.77	311.6
384.15	302.56
384.53	303.69
384.91	297.37
385.29	273.86
385.67	287.87
386.049	291.26
386.429	293.75
386.809	279.06
387.189	294.65
387.568	313.18
387.948	283.13
388.328	308.21
388.707	301.43
389.087	307.76
389.466	305.5
389.846	304.82
390.225	317.25
390.605	302.56
390.984	296.24
391.363	305.27
391.743	310.92
392.122	301.88
392.501	297.14
392.881	304.37
393.26	323.13
393.639	339.85
394.018	289.46
394.397	303.69
394.776	296.24
395.155	314.09
395.534	324.93
395.913	317.93
396.292	325.61
396.671	300.3
397.05	313.41
397.429	306.86
397.808	291.26
398.186	318.16
398.565	306.63
398.944	319.51
399.323	314.31
399.701	340.75
400.08	314.99
400.458	321.32
400.837	331.04
401.215	330.36
401.594	326.06
401.972	342.11
402.351	331.94
402.729	315.22
403.107	342.56
403.486	318.61
403.864	339.62
404.242	341.43
404.62	333.97
404.999	327.65
405.377	350.47
405.755	351.15
406.133	351.83
406.511	356.57
406.889	353.41
407.267	354.76
407.645	352.5
408.023	348.44
408.401	362.67
408.779	348.89
409.156	349.79
409.534	363.13
409.912	365.61
410.29	352.96
410.667	376.46
411.045	361.77
411.422	374.88
411.8	365.16
412.178	348.21
412.555	387.31
412.933	357.25
413.31	385.05
413.687	357.7
414.065	376.69
414.442	387.76
414.819	376.01
415.197	378.49
415.574	380.53
415.951	400.19
416.328	385.72
416.705	392.73
417.082	383.01
417.46	395.67
417.837	387.08
418.214	381.2
418.591	395.67
418.967	370.58
419.344	402.22
419.721	379.62
420.098	405.61
420.475	403.8
420.852	400.41
421.228	397.25
421.605	388.21
421.982	398.61
422.358	398.38
422.735	400.64
423.111	407.64
423.488	433.63
423.864	424.14
424.241	436.57
424.617	425.05
424.994	421.43
425.37	433.18
425.746	411.49
426.123	422.56
426.499	426.4
426.875	434.08
427.251	451.49
427.627	460.52
428.003	450.58
428.379	444.71
428.756	468.21
429.132	454.88
429.507	455.55
429.883	446.97
430.259	467.53
430.635	476.8
431.011	465.95
431.387	470.24
431.763	461.2
432.138	504.59
432.514	463.01
432.89	480.64
433.265	482.9
433.641	489.9
434.016	494.65
434.392	500.3
434.767	491.03
435.143	517.7
435.518	518.15
435.894	521.99
436.269	537.36
436.644	502.78
437.02	534.87
437.395	527.87
437.77	536.68
438.145	549.79
438.52	559.28
438.895	557.02
439.271	531.71
439.646	561.09
440.021	575.78
440.395	557.7
440.77	554.31
441.145	573.29
441.52	589.11
441.895	572.61
442.27	604.93
442.645	577.58
443.019	595.66
443.394	593.63
443.769	583.91
444.143	592.95
444.518	613.29
444.892	609.9
445.267	615.55
445.641	601.76
446.016	625.27
446.39	627.98
446.764	623.68
447.139	625.27
447.513	602.22
447.887	645.6
448.262	628.66
448.636	634.53
449.01	628.43
449.384	639.5
449.758	652.16
450.132	636.79
450.506	646.06
450.88	652.61
451.254	682.21
451.628	644.25
452.002	684.47
452.376	676.34
452.75	688.77
453.123	690.58
453.497	688.99
453.871	714.08
454.244	695.32
454.618	703.68
454.992	712.72
455.365	695.32
455.739	707.52
456.112	724.47
456.486	713.63
456.859	734.42
457.232	731.03
457.606	739.61
457.979	720.63
458.352	782.32
458.725	724.02
459.099	762.21
459.472	761.99
459.845	772.61
460.218	766.96
460.591	750.01
460.964	776.9
461.337	790.01
461.71	782.55
462.083	824.58
462.456	794.53
462.829	789.56
463.201	799.72
463.574	772.61
463.947	814.87
464.32	832.27
464.692	830.23
465.065	832.49
465.438	830.68
465.81	841.08
466.183	841.08
466.555	865.03
466.928	878.59
467.3	858.93
467.672	872.49
468.045	842.89
468.417	857.35
468.789	890.34
469.161	886.28
469.534	918.59
469.906	892.38
470.278	898.03
470.65	896.9
471.022	914.75
471.394	902.32
471.766	937.8
472.138	953.39
472.51	953.39
472.882	983
473.253	958.82
473.625	960.4
473.997	989.55
474.369	962.88
474.74	1006.27
475.112	995.43
475.484	987.97
475.855	1005.6
476.227	1025.71
476.598	1013.73
476.97	1025.03
477.341	1056.44
477.713	1048.98
478.084	1067.06
478.455	1078.59
478.827	1082.2
479.198	1117.68
479.569	1103.22
479.94	1113.16
480.311	1111.35
480.682	1142.31
481.053	1126.95
481.424	1134.18
481.795	1175.53
482.166	1166.04
482.537	1170.79
482.908	1203.1
483.279	1197
483.65	1190
484.021	1212.14
484.391	1200.62
484.762	1201.97
485.133	1211.47
485.503	1216.44
485.874	1204.69
486.244	1244.91
486.615	1236.32
486.985	1277.68
487.356	1256.66
487.726	1276.77
488.097	1295.76
488.467	1281.07
488.837	1316.55
489.207	1322.87
489.578	1317.45
489.948	1339.6
490.318	1308.86
490.688	1323.55
491.058	1328.52
491.428	1333.72
491.798	1321.52
492.168	1338.02
492.538	1368.3
492.908	1341.86
493.278	1370.78
493.648	1324.46
494.017	1360.16
494.387	1361.07
494.757	1358.35
495.126	1362.65
495.496	1366.94
495.866	1365.81
496.235	1372.82
496.605	1350.67
496.974	1371.91
497.344	1364.23
497.713	1363.55
498.082	1362.87
498.452	1399.93
498.821	1393.83
499.19	1378.47
499.559	1377.79
499.928	1375.3
500.298	1393.16
500.667	1373.04
501.036	1328.07
501.405	1352.25
501.774	1375.53
502.143	1366.72
502.512	1349.99
502.88	1371.46
503.249	1374.85
503.618	1382.76
503.987	1354.06
504.356	1356.77
504.724	1355.19
505.093	1357.22
505.462	1361.97
505.83	1344.57
506.199	1348.41
506.567	1340.28
506.936	1362.42
507.304	1350.9
507.672	1350.22
508.041	1338.92
508.409	1357.68
508.777	1353.16
509.145	1356.32
509.514	1368.52
509.882	1349.54
510.25	1344.57
510.618	1332.14
510.986	1322.2
511.354	1348.86
511.722	1346.38
512.09	1321.97
512.458	1318.58
512.826	1333.95
513.193	1344.8
513.561	1336.43
513.929	1311.58
514.297	1344.12
514.664	1333.5
515.032	1341.86
515.4	1337.34
515.767	1333.04
516.135	1302.76
516.502	1273.38
516.869	1273.16
517.237	1286.72
517.604	1293.27
517.972	1278.81
518.339	1294.18
518.706	1279.49
519.073	1274.51
519.44	1258.7
519.808	1290.33
520.175	1279.94
520.542	1295.08
520.909	1278.13
521.276	1252.37
521.643	1246.04
522.009	1260.05
522.376	1293.95
522.743	1251.46
523.11	1247.62
523.477	1261.63
523.843	1265.25
524.21	1274.97
524.577	1263.67
524.943	1259.6
525.31	1267.74
525.676	1262.54
526.043	1275.42
526.409	1255.53
526.776	1267.74
527.142	1252.37
527.508	1259.6
527.874	1244.91
528.241	1266.15
528.607	1268.19
528.973	1239.49
529.339	1267.51
529.705	1297.11
530.071	1235.42
530.437	1248.07
530.803	1237.68
531.169	1227.51
531.535	1246.49
531.901	1230.22
532.267	1274.97
532.632	1223.89
532.998	1251.46
533.364	1277.45
533.73	1249.2
534.095	1255.31
534.461	1245.36
534.826	1262.31
535.192	1242.2
535.557	1248.98
535.923	1267.74
536.288	1245.59
536.653	1248.07
537.019	1216.89
537.384	1244.01
537.749	1239.94
538.114	1208.3
538.479	1247.17
538.845	1224.8
539.21	1224.35
539.575	1226.61
539.94	1241.07
540.305	1227.28
540.67	1234.52
541.034	1219.6
541.399	1193.61
541.764	1212.37
542.129	1215.76
542.494	1248.53
542.858	1218.7
543.223	1203.78
543.587	1220.5
543.952	1230.9
544.316	1214.4
544.681	1192.03
545.045	1197.68
545.41	1236.1
545.774	1220.5
546.138	1208.75
546.503	1187.06
546.867	1189.09
547.231	1206.27
547.595	1200.84
547.959	1190.22
548.324	1176.44
548.688	1199.49
549.052	1185.48
549.416	1189.09
549.779	1169.43
550.143	1162.43
550.507	1182.77
550.871	1175.76
551.235	1176.89
551.599	1173.95
551.962	1175.76
552.326	1181.86
552.689	1206.95
553.053	1152.48
553.417	1183.9
553.78	1192.93
554.143	1169.21
554.507	1185.03
554.87	1159.26
555.234	1157.91
555.597	1168.3
555.96	1159.72
556.323	1183.44
556.686	1193.39
557.05	1176.44
557.413	1170.79
557.776	1156.55
558.139	1148.64
558.502	1163.56
558.865	1133.28
559.228	1186.61
559.59	1189.09
559.953	1159.04
560.316	1176.66
560.679	1173.5
561.041	1183.22
561.404	1181.86
561.767	1191.58
562.129	1178.02
562.492	1170.11
562.854	1195.87
563.217	1167.17
563.579	1194.74
563.941	1179.38
564.304	1197.68
564.666	1185.03
565.028	1182.09
565.39	1188.87
565.753	1184.12
566.115	1162.88
566.477	1197.91
566.839	1204.01
567.201	1171.69
567.563	1183.67
567.925	1204.23
568.287	1209.21
568.648	1204.01
569.01	1201.3
569.372	1247.4
569.734	1220.5
570.095	1219.37
570.457	1219.15
570.819	1201.3
571.18	1211.92
571.542	1222.09
571.903	1233.39
572.265	1232.48
572.626	1206.72
572.987	1231.8
573.349	1211.69
573.71	1238.13
574.071	1212.14
574.432	1244.91
574.794	1253.5
575.155	1247.85
575.516	1252.82
575.877	1244.23
576.238	1246.27
576.599	1271.12
576.96	1254.18
577.32	1243.33
577.681	1269.99
578.042	1247.17
578.403	1260.96
578.763	1270.45
579.124	1278.13
579.485	1286.72
579.845	1297.34
580.206	1274.97
580.566	1300.5
580.927	1284.46
581.287	1284.23
581.648	1328.3
582.008	1289.43
582.368	1313.84
582.728	1300.5
583.089	1312.25
583.449	1298.47
583.809	1302.08
584.169	1289.88
584.529	1309.77
584.889	1325.36
585.249	1288.07
585.609	1290.79
585.969	1318.36
586.329	1305.93
586.688	1314.06
587.048	1321.97
587.408	1301.41
587.768	1297.11
588.127	1301.41
588.487	1316.1
588.846	1308.86
589.206	1305.25
589.565	1298.02
589.925	1312.25
590.284	1303.44
590.643	1333.27
591.003	1301.63
591.362	1314.06
591.721	1334.17
592.08	1336.89
592.44	1309.54
592.799	1317
593.158	1310.9
593.517	1306.83
593.876	1298.02
594.235	1300.73
594.593	1308.41
594.952	1305.93
595.311	1312.71
595.67	1345.02
596.029	1336.43
596.387	1322.42
596.746	1308.19
597.104	1331.91
597.463	1327.17
597.822	1316.1
598.18	1291.46
598.538	1281.97
598.897	1307.06
599.255	1319.71
599.613	1324.46
599.972	1333.04
600.33	1291.01
600.688	1295.98
601.046	1303.44
601.404	1316.32
601.762	1299.6
602.12	1311.12
602.478	1316.55
602.836	1312.93
603.194	1324.23
603.552	1333.95
603.91	1293.05
604.268	1313.84
604.625	1319.26
604.983	1342.08
605.341	1290.33
605.698	1321.97
606.056	1312.93
606.413	1302.31
606.771	1328.07
607.128	1301.18
607.485	1294.18
607.843	1319.71
608.2	1325.13
608.557	1334.4
608.914	1325.59
609.272	1312.25
609.629	1320.39
609.986	1322.65
610.343	1318.81
610.7	1346.38
611.057	1317.23
611.414	1322.42
611.771	1336.66
612.127	1330.78
612.484	1321.97
612.841	1294.85
613.198	1317.23
613.554	1318.58
613.911	1320.61
614.267	1330.11
614.624	1370.78
614.98	1349.77
615.337	1334.85
615.693	1334.17
616.05	1309.54
616.406	1343.44
616.762	1322.65
617.118	1329.2
617.475	1362.42
617.831	1334.63
618.187	1387.05
618.543	1329.65
618.899	1345.7
619.255	1329.88
619.611	1316.1
619.967	1329.43
620.323	1333.04
620.678	1354.51
621.034	1317.23
621.39	1325.59
621.746	1328.98
622.101	1340.05
622.457	1339.15
622.812	1375.3
623.168	1359.94
623.523	1344.8
623.879	1328.07
624.234	1352.03
624.589	1368.52
624.945	1359.03
625.3	1366.04
625.655	1349.54
626.01	1338.47
626.365	1356.32
626.72	1331.91
627.075	1343.21
627.43	1334.85
627.785	1364.23
628.14	1357.45
628.495	1383.66
628.85	1348.86
629.205	1347.73
629.559	1353.61
629.914	1347.28
630.269	1361.52
630.623	1324.68
630.978	1343.89
631.332	1339.15
631.687	1385.7
632.041	1347.28
632.396	1363.55
632.75	1333.27
633.104	1349.31
633.459	1333.5
633.813	1348.64
634.167	1392.03
634.521	1342.08
634.875	1350.44
635.229	1334.17
635.583	1355.42
635.937	1351.35
636.291	1347.05
636.645	1333.5
636.999	1373.95
637.352	1374.4
637.706	1359.48
638.06	1348.64
638.413	1323.55
638.767	1337.79
639.121	1343.67
639.474	1369.65
639.828	1364.91
640.181	1332.14
640.534	1327.17
640.888	1352.25
641.241	1340.95
641.594	1342.99
641.947	1341.86
642.301	1348.86
642.654	1360.61
643.007	1347.05
643.36	1364.91
643.713	1348.86
644.066	1374.4
644.419	1337.79
644.771	1325.81
645.124	1369.43
645.477	1330.56
645.83	1323.55
646.182	1349.99
646.535	1354.29
646.888	1353.83
647.24	1341.18
647.593	1322.2
647.945	1316.1
648.298	1353.83
648.65	1316.77
649.002	1326.04
649.355	1381.4
649.707	1335.3
650.059	1358.13
650.411	1369.65
650.763	1352.25
651.115	1385.25
651.467	1372.37
651.819	1374.4
652.171	1370.11
652.523	1398.58
652.875	1380.5
653.227	1363.78
653.578	1370.56
653.93	1398.13
654.282	1397
654.633	1366.94
654.985	1377.56
655.337	1345.25
655.688	1370.33
656.039	1405.81
656.391	1425.7
656.742	1375.53
657.094	1394.51
657.445	1405.81
657.796	1427.05
658.147	1395.42
658.498	1389.31
658.849	1420.73
659.2	1420.73
659.551	1403.55
659.902	1415.53
660.253	1400.84
660.604	1405.58
660.955	1417.56
661.306	1389.09
661.656	1414.4
662.007	1421.4
662.358	1409.88
662.708	1415.08
663.059	1412.36
663.409	1409.2
663.76	1433.61
664.11	1441.97
664.461	1402.42
664.811	1411.69
665.161	1403.55
665.511	1406.71
665.862	1411.69
666.212	1417.79
666.562	1413.49
666.912	1407.17
667.262	1408.75
667.612	1383.44
667.962	1426.15
668.312	1415.98
668.662	1439.03
669.011	1412.14
669.361	1411.46
669.711	1416.88
670.06	1407.17
670.41	1420.5
670.76	1407.62
671.109	1406.49
671.459	1408.97
671.808	1397
672.157	1414.4
672.507	1396.09
672.856	1385.47
673.205	1379.82
673.554	1403.1
673.904	1390.67
674.253	1389.54
674.602	1391.35
674.951	1397.22
675.3	1339.15
675.649	1357.9
675.998	1394.51
676.346	1388.18
676.695	1357.9
677.044	1390.9
677.393	1375.53
677.741	1372.82
678.09	1385.47
678.438	1380.27
678.787	1374.4
679.135	1372.59
679.484	1368.98
679.832	1368.98
680.181	1358.13
680.529	1345.47
680.877	1356.77
681.225	1373.95
681.573	1366.26
681.922	1328.3
682.27	1358.81
682.618	1365.81
682.966	1336.89
683.314	1302.76
683.661	1326.26
684.009	1330.56
684.357	1328.52
684.705	1315.42
685.053	1315.87
685.4	1316.77
685.748	1346.15
686.095	1331.01
686.443	1301.63
686.79	1325.13
687.138	1303.67
687.485	1296.89
687.832	1319.03
688.18	1285.14
688.527	1307.28
688.874	1315.87
689.221	1287.85
689.568	1303.67
689.915	1273.61
690.262	1258.92
690.609	1271.12
690.956	1280.16
691.303	1288.98
691.65	1279.71
691.997	1275.64
692.344	1274.74
692.69	1291.69
693.037	1264.35
693.383	1269.32
693.73	1283.55
694.077	1276.77
694.423	1246.49
694.769	1235.19
695.116	1247.4
695.462	1254.63
695.808	1215.98
696.155	1225.48
696.501	1241.75
696.847	1212.37
697.193	1215.08
697.539	1192.71
697.885	1220.96
698.231	1210.11
698.577	1216.21
698.923	1241.07
699.269	1204.69
699.614	1195.65
699.96	1224.35
700.306	1239.71
700.651	1191.13
700.997	1172.6
701.342	1215.08
701.688	1214.86
702.033	1206.27
702.379	1184.35
702.724	1185.7
703.069	1216.89
703.415	1177.34
703.76	1212.6
704.105	1192.71
704.45	1179.38
704.795	1205.14
705.14	1155.65
705.485	1193.84
705.83	1154.52
706.175	1164.91
706.52	1181.41
706.865	1216.89
707.209	1186.83
707.554	1188.42
707.899	1183.22
708.243	1181.18
708.588	1174.63
708.932	1160.62
709.277	1150.22
709.621	1188.19
709.966	1189.32
710.31	1185.93
710.654	1207.62
710.998	1213.5
711.342	1184.57
711.687	1168.75
712.031	1189.09
712.375	1206.72
712.719	1173.05
713.063	1158.59
713.407	1194.29
713.75	1176.44
714.094	1204.01
714.438	1211.01
714.782	1207.62
715.125	1216.66
715.469	1204.91
715.812	1176.44
716.156	1175.53
716.499	1177.12
716.843	1219.83
717.186	1191.58
717.53	1203.56
717.873	1210.11
718.216	1216.89
718.559	1227.06
718.902	1197.45
719.246	1230.45
719.589	1202.88
719.932	1218.7
720.275	1229.32
720.617	1216.21
720.96	1227.06
721.303	1206.27
721.646	1233.84
721.989	1233.16
722.331	1235.42
722.674	1262.99
723.016	1248.75
723.359	1223.67
723.701	1260.28
724.044	1253.27
724.386	1250.33
724.729	1278.13
725.071	1279.94
725.413	1251.01
725.755	1303.21
726.097	1262.99
726.439	1304.12
726.782	1272.03
727.124	1288.07
727.465	1323.55
727.807	1325.13
728.149	1289.88
728.491	1314.74
728.833	1318.58
729.175	1300.05
729.516	1316.55
729.858	1357.22
730.199	1339.15
730.541	1317.9
730.882	1338.47
731.224	1353.38
731.565	1339.82
731.906	1364.68
732.248	1382.53
732.589	1362.87
732.93	1390.67
733.271	1390.22
733.612	1381.63
733.953	1387.05
734.294	1393.16
734.635	1438.58
734.976	1422.53
735.317	1431.35
735.658	1420.73
735.999	1410.56
736.339	1448.97
736.68	1475.19
737.021	1456.88
737.361	1461.63
737.702	1489.65
738.042	1500.27
738.383	1496.43
738.723	1511.8
739.063	1518.58
739.404	1521.97
739.744	1543.89
740.084	1540.5
740.424	1559.7
740.764	1553.6
741.104	1557.9
741.444	1610.1
741.784	1618.46
742.124	1620.49
742.464	1637.89
742.804	1654.17
743.143	1658.23
743.483	1684.9
743.823	1693.71
744.162	1741.85
744.502	1720.6
744.841	1762.86
745.181	1744.78
745.52	1797.66
745.86	1823.43
746.199	1803.54
746.538	1849.41
746.877	1849.41
747.216	1902.97
747.556	1901.39
747.895	1928.51
748.234	1980.94
748.573	1961.5
748.911	2024.78
749.25	2038.79
749.589	2052.8
749.928	2082.18
750.267	2117.66
750.605	2175.28
750.944	2182.29
751.283	2238.56
751.621	2269.06
751.96	2261.83
752.298	2324.66
752.636	2370.08
752.975	2415.73
753.313	2448.04
753.651	2470.19
753.989	2546.35
754.327	2535.95
754.666	2609.85
755.004	2627.02
755.342	2662.73
755.679	2732.56
756.017	2759
756.355	2805.55
756.693	2820.91
757.031	2870.18
757.368	2891.42
757.706	2943.62
758.044	2971.42
758.381	2995.15
758.719	3075.15
759.056	3137.97
759.394	3210.51
759.731	3218.87
760.068	3267.68
760.405	3313.78
760.743	3352.88
761.08	3405.53
761.417	3434.68
761.754	3479.65
762.091	3525.53
762.428	3568.24
762.765	3546.55
763.102	3646.88
763.438	3671.06
763.775	3722.59
764.112	3749.03
764.449	3837.38
764.785	3810.72
765.122	3910.38
765.458	3928.68
765.795	3925.74
766.131	4031.28
766.467	4022.92
766.804	4079.86
767.14	4112.63
767.476	4097.27
767.812	4144.95
768.148	4243.48
768.485	4234.66
768.821	4249.35
769.157	4242.57
769.492	4281.89
769.828	4302.68
770.164	4380.2
770.5	4366.86
770.836	4427.43
771.171	4444.6
771.507	4417.26
771.842	4447.09
772.178	4482.79
