Data from blue_shiny_book_FLMS001491_00085.txt Node
Date: Wed Feb 08 15:27:40 GMT 2017
User: dcchb
Spectrometer: FLMS00149
Trigger mode: 0
Integration Time (sec): 2.000000E-2
Scans to average: 10
Electric dark correction enabled: true
Nonlinearity correction enabled: false
Boxcar width: 0
XAxis mode: Wavelengths
Number of Pixels in Spectrum: 2048
>>>>>Begin Spectral Data<<<<<
341.393	-22.36
341.776	-22.36
342.16	-22.36
342.543	-52.41
342.927	-76.59
343.31	-56.26
343.693	-68.68
344.077	-63.04
344.46	-65.29
344.843	-48.35
345.226	-59.65
345.61	-24.84
345.993	-9.03
346.376	-5.64
346.759	4.53
347.142	9.73
347.525	50.63
347.908	49.96
348.291	83.18
348.674	83.63
349.057	119.11
349.44	136.51
349.823	143.29
350.206	156.62
350.588	213.34
350.971	210.63
351.354	226.45
351.737	248.14
352.119	273.68
352.502	261.48
352.884	275.49
353.267	281.81
353.65	298.76
354.032	292.44
354.414	311.64
354.797	308.71
355.179	307.12
355.562	305.54
355.944	326.79
356.326	336.28
356.709	336.73
357.091	364.98
357.473	365.88
357.855	342.83
358.238	340.12
358.62	339.21
359.002	352.77
359.384	356.84
359.766	359.33
360.148	345.54
360.53	351.64
360.912	346.67
361.294	348.03
361.676	327.92
362.057	351.19
362.439	332.66
362.821	350.97
363.203	325.2
363.584	329.95
363.966	346.22
364.348	325.2
364.729	329.5
365.111	326.11
365.493	342.15
365.874	340.34
366.256	334.02
366.637	334.69
367.019	319.33
367.4	334.24
367.781	343.28
368.163	316.84
368.544	325.2
368.925	330.85
369.306	344.19
369.688	321.36
370.069	333.56
370.45	346.45
370.831	313.9
371.212	343.73
371.593	354.81
371.974	328.82
372.355	360.23
372.736	343.28
373.117	346.9
373.498	357.07
373.879	352.1
374.26	341.02
374.641	328.14
375.021	353.9
375.402	359.78
375.783	366.11
376.163	373.56
376.544	389.16
376.925	369.04
377.305	381.92
377.686	348.03
378.066	354.81
378.447	374.02
378.827	381.25
379.208	384.64
379.588	375.6
379.968	364.75
380.349	374.92
380.729	388.25
381.109	373.79
381.489	397.07
381.87	383.51
382.25	362.49
382.63	404.3
383.01	397.52
383.39	398.42
383.77	402.26
384.15	415.6
384.53	413.56
384.91	419.21
385.29	406.33
385.67	437.06
386.049	415.6
386.429	421.25
386.809	455.6
387.189	443.84
387.568	435.03
387.948	449.72
388.328	462.37
388.707	454.24
389.087	459.44
389.466	459.89
389.846	475.26
390.225	476.39
390.605	470.74
390.984	478.42
391.363	476.61
391.743	461.02
392.122	494.46
392.501	508.25
392.881	502.6
393.26	515.25
393.639	522.49
394.018	510.51
394.397	504.18
394.776	525.42
395.155	522.26
395.534	539.21
395.913	535.59
396.292	556.61
396.671	563.39
397.05	560.45
397.429	548.7
397.808	543.28
398.186	552.77
398.565	575.37
398.944	572.43
399.323	585.08
399.701	591.19
400.08	618.3
400.458	604.29
400.837	603.16
401.215	614.46
401.594	610.85
401.972	603.84
402.351	612.88
402.729	627.79
403.107	652.2
403.486	658.75
403.864	653.56
404.242	658.08
404.62	681.35
404.999	699.2
405.377	684.97
405.755	700.11
406.133	705.08
406.511	691.75
406.889	711.63
407.267	755.7
407.645	735.81
408.023	747.79
408.401	753.44
408.779	763.84
409.156	804.51
409.534	790.95
409.912	815.81
410.29	827.56
410.667	832.99
411.045	833.44
411.422	856.71
411.8	854.68
412.178	883.38
412.555	872.53
412.933	915.47
413.31	934
413.687	936.94
414.065	951.4
414.442	934
414.819	941.68
415.197	956.83
415.574	999.99
415.951	1013.32
416.328	1000.89
416.705	1021.23
417.082	1057.84
417.46	1073.88
417.837	1055.58
418.214	1071.85
418.591	1094.45
418.967	1107.1
419.344	1086.77
419.721	1096.48
420.098	1096.71
420.475	1124.05
420.852	1126.54
421.228	1161.57
421.605	1197.95
421.982	1193.66
422.358	1188.68
422.735	1231.39
423.111	1224.84
423.488	1253.99
423.864	1234.56
424.241	1289.02
424.617	1299.87
424.994	1245.86
425.37	1319.75
425.746	1329.7
426.123	1367.89
426.499	1376.02
426.875	1406.53
427.251	1417.6
427.627	1449.69
428.003	1472.07
428.379	1475
428.756	1456.7
429.132	1498.73
429.507	1576.92
429.883	1549.35
430.259	1585.06
430.635	1570.82
431.011	1607.88
431.387	1661.21
431.763	1665.96
432.138	1703.7
432.514	1731.27
432.89	1747.31
433.265	1779.63
433.641	1791.83
434.016	1830.7
434.392	1850.13
434.767	1882.45
435.143	1842.9
435.518	1903.01
435.894	1931.04
436.269	1984.82
436.644	1996.57
437.02	2037.02
437.395	2001.54
437.77	2049.68
438.145	2122.67
438.52	2101.43
438.895	2134.2
439.271	2128.77
439.646	2200.63
440.021	2204.25
440.395	2244.25
440.77	2224.81
441.145	2266.4
441.52	2318.37
441.895	2298.94
442.27	2338.48
442.645	2348.2
443.019	2399.05
443.394	2377.58
443.769	2410.57
444.143	2432.04
444.518	2434.98
444.892	2429.55
445.267	2504.36
445.641	2518.59
446.016	2508.87
446.39	2556.33
446.764	2589.55
447.139	2589.55
447.513	2607.86
447.887	2616.44
448.262	2674.97
448.636	2643.11
449.01	2685.14
449.384	2711.81
449.758	2731.92
450.132	2792.94
450.506	2751.58
450.88	2825.02
451.254	2835.19
451.628	2872.71
452.002	2929.88
452.376	2951.57
452.75	2976.43
453.123	3035.19
453.497	3057.33
453.871	3131.91
454.244	3191.34
454.618	3181.63
454.992	3225.92
455.365	3241.96
455.739	3312.24
456.112	3366.25
456.486	3395.41
456.859	3433.37
457.232	3533.25
457.606	3510.88
457.979	3539.36
458.352	3646.02
458.725	3662.52
459.099	3738.45
459.472	3778.9
459.845	3840.14
460.218	3833.36
460.591	3893.25
460.964	3949.29
461.337	4042.17
461.71	4112.22
462.083	4130.3
462.456	4192.45
462.829	4156.52
463.201	4282.61
463.574	4299.79
463.947	4373.91
464.32	4460.91
464.692	4515.6
465.065	4502.27
465.438	4563.51
465.81	4660.68
466.183	4696.84
466.555	4780.91
466.928	4862.26
467.3	4876.27
467.672	4975.02
468.045	5095.25
468.417	5114.68
468.789	5140.44
469.161	5198.07
469.534	5316.26
469.906	5456.59
470.278	5474.67
470.65	5536.59
471.022	5652.52
471.394	5704.5
471.766	5790.14
472.138	5839.18
472.51	5990.82
472.882	6111.94
473.253	6168.21
473.625	6211.15
473.997	6400.52
474.369	6502.44
474.74	6546.96
475.112	6666.28
475.484	6774.3
475.855	6911.92
476.227	7019.04
476.598	7176.77
476.97	7229.88
477.341	7364.34
477.713	7443.66
478.084	7503.09
478.455	7683.65
478.827	7784.67
479.198	8016.98
479.569	8131.78
479.94	8268.5
480.311	8444.31
480.682	8536.74
481.053	8819.44
481.424	8929.72
481.795	9025.31
482.166	9152.77
482.537	9294.68
482.908	9517.28
483.279	9631.17
483.65	9769.7
484.021	10007.43
484.391	10139.86
484.762	10219.86
485.133	10364.04
485.503	10481.77
485.874	10736
486.244	10839.96
486.615	11013.51
486.985	11174.41
487.356	11406.95
487.726	11477.23
488.097	11674.74
488.467	11721.29
488.837	12041.96
489.207	12227.72
489.578	12361.95
489.948	12503.87
490.318	12710.64
490.688	12770.75
491.058	13001.71
491.428	13221.36
491.798	13332.77
492.168	13572.99
492.538	13691.86
492.908	13835.36
493.278	13939.31
493.648	14040.77
494.017	14252.52
494.387	14349.69
494.757	14453.87
495.126	14675.11
495.496	14738.61
495.866	14864.03
496.235	15107.64
496.605	15222.66
496.974	15280.97
497.344	15577.46
497.713	15619.49
498.082	15773.38
498.452	16009.99
498.821	16035.3
499.19	16081.4
499.559	16316.2
499.928	16399.58
500.298	16466.7
500.667	16605.45
501.036	16586.47
501.405	16832.57
501.774	16945.33
502.143	17073.24
502.512	17132.45
502.88	17438.88
503.249	17392.33
503.618	17552.55
503.987	17658.31
504.356	17777.4
504.724	17979.88
505.093	17957.96
505.462	18082.25
505.83	18232.98
506.199	18412.64
506.567	18584.61
506.936	18538.06
507.304	18715.45
507.672	18872.29
508.041	18849.46
508.409	19112.28
508.777	19226.4
509.145	19393.85
509.514	19568.31
509.882	19688.76
510.25	19717.69
510.618	19947.96
510.986	20051.69
511.354	20193.16
511.722	20349.76
512.09	20606.03
512.458	20528.06
512.826	20673.82
513.193	20839.47
513.561	20983.42
513.929	21028.39
514.297	21176.18
514.664	21286.69
515.032	21436.51
515.4	21526.45
515.767	21711.08
516.135	21932.32
516.502	21834.24
516.869	22334.34
517.237	22464.06
517.604	22425.41
517.972	22823.59
518.339	22876.7
518.706	22964.61
519.073	23126.86
519.44	23241.21
519.808	23608.66
520.175	23396.91
520.542	23705.38
520.909	23757.36
521.276	23882.32
521.643	24134.07
522.009	24249.77
522.376	24462.42
522.743	24516.66
523.11	24913.48
523.477	25127.26
523.843	25317.09
524.21	25712.56
524.577	25947.58
524.943	26038.88
525.31	26106.45
525.676	26450.62
526.043	26617.62
526.409	26639.99
526.776	26950.94
527.142	27002.47
527.508	27139.64
527.874	27325.62
528.241	27436.58
528.607	27461.21
528.973	27723.35
529.339	27693.98
529.705	28100.07
530.071	28232.49
530.437	28447.18
530.803	28767.17
531.169	28842.65
531.535	28913.38
531.901	29058.91
532.267	29458
532.632	29550.65
532.998	29828.61
533.364	29973.92
533.73	30093.01
534.095	30146.57
534.461	30124.87
534.826	30410.74
535.192	30328.71
535.557	30499.1
535.923	30452.32
536.288	30606.67
536.653	30659.09
537.019	30595.14
537.384	30931.18
537.749	30957.39
538.114	31313.09
538.479	31312.64
538.845	31430.83
539.21	31564.16
539.575	31750.14
539.94	31880.31
540.305	32115.33
540.67	32136.34
541.034	32391.25
541.399	32397.81
541.764	32489.78
542.129	32539.72
542.494	32460.4
542.858	32572.49
543.223	32594.64
543.587	32719.38
543.952	32741.53
544.316	32748.31
544.681	32824.69
545.045	32901.97
545.41	33212.47
545.774	33201.18
546.138	33212.7
546.503	33353.04
546.867	33524.1
547.231	33862.63
547.595	33973.58
547.959	34084.09
548.324	34211.54
548.688	34299.23
549.052	34260.36
549.416	34405.21
549.779	34423.29
550.143	34399.11
550.507	34627.35
550.871	34580.57
551.235	34467.36
551.599	34815.14
551.962	34803.39
552.326	34818.31
552.689	34947.12
553.053	34775.82
553.417	34936.72
553.78	35381.91
554.143	35265.53
554.507	35485.41
554.87	35828.68
555.234	36208.1
555.597	36008.33
555.96	36232.06
556.323	36560.63
556.686	36560.41
557.05	36821.42
557.413	36805.37
557.776	36655.32
558.139	37051.92
558.502	36956.33
558.865	36987.29
559.228	37167.62
559.59	37200.39
559.953	37081.3
560.316	37385.7
560.679	37383.66
561.041	37587.95
561.404	37860.04
561.767	38002.86
562.129	37824.56
562.492	38436.74
562.854	38295.05
563.217	38469.96
563.579	38732.78
563.941	38948.14
564.304	39129.61
564.666	39511.29
565.028	39451.86
565.39	39721.91
565.753	39912.41
566.115	39837.84
566.477	39946.76
566.839	40147.21
567.201	40216.58
567.563	40325.06
567.925	40412.28
568.287	40390.82
568.648	40451.38
569.01	40497.25
569.372	40703.12
569.734	40454.77
570.095	40749.23
570.457	40993.06
570.819	41133.85
571.18	41244.81
571.542	41398.02
571.903	41687.28
572.265	41786.03
572.626	41930.21
572.987	42157.1
573.349	42307.15
573.71	42611.32
574.071	42703.3
574.432	42764.54
574.794	42976.51
575.155	43048.6
575.516	42783.75
575.877	42815.16
576.238	42847.7
576.599	42981.48
576.96	42841.15
577.32	42842.5
577.681	43034.81
578.042	42942.61
578.403	42994.14
578.763	43136.06
579.124	43204.3
579.485	43290.85
579.845	43598.87
580.206	43646.78
580.566	43537.4
580.927	43740.33
581.287	43871.18
581.648	43751.41
582.008	44204.95
582.368	44124.73
582.728	44301
583.089	44274.78
583.449	44402.46
583.809	44301
584.169	44567.88
584.529	44459.86
584.889	44533.08
585.249	44291.73
585.609	43990.95
585.969	44290.37
586.329	43985.3
586.688	44124.28
587.048	44002.25
587.408	43913.44
587.768	44136.48
588.127	43964.28
588.487	43894
588.846	44252.18
589.206	44064.84
589.565	44006.09
589.925	44404.5
590.284	44259.42
590.643	44432.52
591.003	44570.14
591.362	44770.81
591.721	44641.78
592.08	44635.68
592.44	44879.96
592.799	44948.44
593.158	44812.17
593.517	44802.9
593.876	44779.18
594.235	44688.78
594.593	44622.34
594.952	44870.7
595.311	44547.77
595.67	44601.1
596.029	44613.76
596.387	44682.46
596.746	44507.09
597.104	44472.07
597.463	44537.37
597.822	44589.35
598.18	44668.22
598.538	44664.6
598.897	44891.94
599.255	44468.45
599.613	45173.74
599.972	44995.67
600.33	44988.21
600.688	45060.07
601.046	45244.02
601.404	45368.76
601.762	45298.71
602.12	45637.01
602.478	45573.51
602.836	45556.78
603.194	45398.37
603.552	45326.05
603.91	45246.28
604.268	45403.79
604.625	45199.96
604.983	45288.77
605.341	45008.32
605.698	45288.99
606.056	45365.37
606.413	45163.12
606.771	45284.7
607.128	45407.86
607.485	45288.31
607.843	45285.6
608.2	45586.84
608.557	45531.92
608.914	45418.93
609.272	45713.39
609.629	45764.91
609.986	46006.94
610.343	45833.16
610.7	46039.26
611.057	46065.92
611.414	46020.05
611.771	46081.29
612.127	46379.59
612.484	46455.52
612.841	46662.97
613.198	46481.73
613.554	46548.17
613.911	46651.44
614.267	46437.66
614.624	46584.55
614.98	46566.25
615.337	46714.94
615.693	46517.89
616.05	46433.82
616.406	46596.98
616.762	46485.35
617.118	46509.3
617.475	46471.11
617.831	46641.27
618.187	46727.15
618.543	46687.37
618.899	46754.94
619.255	46633.82
619.611	46671.1
619.967	46889.85
620.323	46824.09
620.678	46726.24
621.034	46819.8
621.39	46959.46
621.746	46811.44
622.101	47394.93
622.457	47169.4
622.812	47290.97
623.168	47331.65
623.523	47262.95
623.879	47447.58
624.234	47295.72
624.589	47396.96
624.945	47439.44
625.3	47460.91
625.655	47315.15
626.01	47328.26
626.365	47290.07
626.72	47221.37
627.075	47121.04
627.43	47057.99
627.785	46928.95
628.14	46931.89
628.495	46871.78
628.85	46861.38
629.205	46622.52
629.559	46815.51
629.914	46667.26
630.269	46746.81
630.623	46632.69
630.978	46681.5
631.332	46866.35
631.687	46820.93
632.041	46723.31
632.396	46792.91
632.75	46779.58
633.104	46855.73
633.459	46632.69
633.813	46747.49
634.167	46739.8
634.521	46528.51
634.875	46801.5
635.229	46697.09
635.583	46584.33
635.937	46544.78
636.291	46469.98
636.645	46479.24
636.999	46259.59
637.352	46449.41
637.706	46113.15
638.06	46272.92
638.413	46066.6
638.767	45947.28
639.121	45858.7
639.474	45457.8
639.828	45552.26
640.181	45648.98
640.534	45568.53
640.888	45223.91
641.241	45240.86
641.594	45491.93
641.947	45439.27
642.301	45417.58
642.654	45453.73
643.007	45502.55
643.36	45326.28
643.713	45236.56
644.066	45618.7
644.419	45360.63
644.771	45452.6
645.124	45341.19
645.477	45344.58
645.83	45127.42
646.182	44829.8
646.535	44392.75
646.888	44318.4
647.24	43792.53
647.593	44065.52
647.945	43771.29
648.298	43668.7
648.65	43576.72
649.002	43424.18
649.355	43772.42
649.707	43923.38
650.059	44037.95
650.411	44527.66
650.763	44672.96
651.115	44743.02
651.467	44589.58
651.819	44429.81
652.171	44345.74
652.523	44385.97
652.875	44232.3
653.227	44162.02
653.578	44502.8
653.93	44499.64
654.282	44267.1
654.633	44098.52
654.985	44183.03
655.337	44164.5
655.688	44350.03
656.039	44573.53
656.391	44115.01
656.742	44368.79
657.094	44509.58
657.445	44690.14
657.796	44608.78
658.147	44597.94
658.498	44564.27
658.849	44582.57
659.2	44613.76
659.551	44245.4
659.902	44582.57
660.253	44330.6
660.604	44504.83
660.955	44243.37
661.306	44216.7
661.656	44002.02
662.007	43981.23
662.358	43902.59
662.708	43792.31
663.059	43700.33
663.409	43415.37
663.76	43797.05
664.11	43621.01
664.461	43615.14
664.811	43767.45
665.161	43374.24
665.511	43433.22
665.862	43610.17
666.212	43766.09
666.562	43859.88
666.912	43729.71
667.262	43806.32
667.612	43950.27
667.962	43894.45
668.312	43861.69
668.662	44019.2
669.011	44065.97
669.361	44197.27
669.711	44034.79
670.06	43884.74
670.41	44023.94
670.76	43955.47
671.109	44072.75
671.459	43838.41
671.808	43811.74
672.157	43873.89
672.507	43624.18
672.856	43603.61
673.205	43644.97
673.554	43653.33
673.904	43290.85
674.253	43529.49
674.602	43317.75
674.951	42742.62
675.3	42478.22
675.649	42988.26
675.998	42962.95
676.346	42915.04
676.695	42945.78
677.044	42659.68
677.393	42480.71
677.741	42733.58
678.09	42474.38
678.438	42463.53
678.787	42562.74
679.135	42614.49
679.484	42429.41
679.832	42680.7
680.181	42527.94
680.529	42636.18
680.877	42540.36
681.225	42640.25
681.573	42787.82
681.922	42639.8
682.27	42693.58
682.618	42779.23
682.966	42501.72
683.314	42564.09
683.661	42389.41
684.009	42153.93
684.357	42183.54
684.705	42088.62
685.053	42167.27
685.4	42066.25
685.748	41907.39
686.095	41707.62
686.443	41471.69
686.79	41454.07
687.138	41302.88
687.485	41365.48
687.832	41169.55
688.18	41139.72
688.527	40733.41
688.874	40595.56
689.221	40436.47
689.568	40430.82
689.915	40299.29
690.262	40243.25
690.609	40102.91
690.956	39934.78
691.303	39921.22
691.65	39744.96
691.997	39697.28
692.344	39485.08
692.69	39476.94
693.037	39466.55
693.383	39405.31
693.73	39478.98
694.077	39346.32
694.423	39401.24
694.769	39217.51
695.116	39237.17
695.462	39203.05
695.808	39041.93
696.155	39321.47
696.501	38899.56
696.847	38967.8
697.193	38718.54
697.539	38809.39
697.885	38726.68
698.231	38436.52
698.577	38383.64
698.923	38428.38
699.269	37961.73
699.614	37914.05
699.96	37747.04
700.306	37808.96
700.651	37468.41
700.997	37329.2
701.342	37169.21
701.688	37047.4
702.033	36843.11
702.379	36759.73
702.724	36622.33
703.069	36703.23
703.415	36291.04
703.76	36182.11
704.105	36108.44
704.45	36085.17
704.795	35914.32
705.14	35870.26
705.485	35805.17
705.83	35618.29
706.175	35766.08
706.52	35564.05
706.865	35584.16
707.209	35549.59
707.554	35481.57
707.899	35468.69
708.243	35245.42
708.588	35365.41
708.932	35303.04
709.277	35352.3
709.621	35234.34
709.966	35081.8
710.31	35143.5
710.654	34963.16
710.998	34994.12
711.342	35113.89
711.687	34968.81
712.031	34864.18
712.375	34746.67
712.719	34676.39
713.063	34553.68
713.407	34499.67
713.75	34264.42
714.094	34271.2
714.438	34031.21
714.782	34019.23
715.125	33664.67
715.469	33794.38
715.812	33675.74
716.156	33457.44
716.499	33327.05
716.843	33310.32
717.186	33057
717.53	33135.87
717.873	33109.43
718.216	32917.79
718.559	32974.74
718.902	32716.89
719.246	32775.65
719.589	32887.28
719.932	32667.63
720.275	32743.33
720.617	32657.91
720.96	32697.91
721.303	32900.84
721.646	32770
721.989	32835.31
722.331	32826.72
722.674	32886.61
723.016	32855.42
723.359	32939.04
723.701	33022.42
724.044	32713.05
724.386	32520.29
724.729	32751.02
725.071	32779.94
725.413	32721.87
725.755	32647.52
726.097	32572.27
726.439	32413.63
726.782	32503.11
727.124	32447.52
727.465	32149.9
727.807	32218.83
728.149	32013.18
728.491	32050.47
728.833	31978.83
729.175	31807.77
729.516	31830.36
729.858	31762.12
730.199	31688.9
730.541	31759.63
730.882	31757.82
731.224	31715.79
731.565	31514.44
731.906	31356.03
732.248	31441.45
732.589	31245.07
732.93	31302.47
733.271	31202.13
733.612	31318.06
733.953	31316.03
734.294	31184.73
734.635	31236.93
734.976	31356.48
735.317	31165.52
735.658	31329.59
735.999	31283.49
736.339	31421.79
736.68	31413.88
737.021	31360.77
737.361	31202.36
737.702	31444.84
738.042	31481.22
738.383	31353.77
738.723	31560.31
739.063	31582.01
739.404	31716.47
739.744	31624.72
740.084	31598.96
740.424	31559.86
740.764	31506.53
741.104	31483.48
741.444	31429.02
741.784	31323.94
742.124	31423.37
742.464	31393.54
742.804	31330.26
743.143	31230.15
743.483	31338.4
743.823	31137.5
744.162	31121
744.502	31164.17
744.841	31050.05
745.181	31219.08
745.52	31025.64
745.86	31043.49
746.199	31053.66
746.538	30973.44
746.877	30922.59
747.216	30976.83
747.556	30881.91
747.895	30875.59
748.234	30757.62
748.573	30793.78
748.911	30769.37
749.25	30979.31
749.589	30827.9
749.928	30989.93
750.267	31028.58
750.605	30864.29
750.944	30940.44
751.283	31056.37
751.621	31143.15
751.96	31111.96
752.298	31213.66
752.636	31243.26
752.975	31196.48
753.313	31229.93
753.651	31457.94
