Data from blue_chair_FLMS001491_00003.txt Node
Date: Wed Feb 08 10:28:55 GMT 2017
User: dcchb
Spectrometer: FLMS00149
Trigger mode: 0
Integration Time (sec): 2.000000E-2
Scans to average: 10
Electric dark correction enabled: true
Nonlinearity correction enabled: false
Boxcar width: 0
XAxis mode: Wavelengths
Number of Pixels in Spectrum: 2048
>>>>>Begin Spectral Data<<<<<
341.393	-3.45
341.776	-3.45
342.16	-3.45
342.543	-80.51
342.927	-61.75
343.31	-57.46
343.693	-64.91
344.077	-68.53
344.46	-33.73
344.843	-56.55
345.226	-30.56
345.61	-29.66
345.993	-16.1
346.376	-9.77
346.759	7.63
347.142	10.34
347.525	23.22
347.908	71.13
348.291	63.22
348.674	74.52
349.057	117.23
349.44	115.42
349.823	120.84
350.206	166.04
350.588	152.48
350.971	177.57
351.354	204.91
351.737	203.55
352.119	213.27
352.502	219.37
352.884	233.61
353.267	233.61
353.65	253.27
354.032	253.27
354.414	297.79
354.797	281.29
355.179	295.08
355.562	309.54
355.944	291.69
356.326	300.5
356.709	301.63
357.091	317.22
357.473	292.14
357.855	307.73
358.238	297.79
358.62	309.77
359.002	328.75
359.384	305.02
359.766	306.15
360.148	317.45
360.53	302.99
360.912	307.05
361.294	291.46
361.676	314.74
362.057	300.73
362.439	294.17
362.821	291.69
363.203	309.31
363.584	295.53
363.966	290.78
364.348	283.55
364.729	288.07
365.111	301.4
365.493	291.91
365.874	264.8
366.256	289.2
366.637	272.25
367.019	264.57
367.4	286.04
367.781	283.1
368.163	283.55
368.544	252.37
368.925	262.54
369.306	279.48
369.688	278.35
370.069	274.96
370.45	276.32
370.831	263.67
371.212	289.43
371.593	289.43
371.974	279.48
372.355	267.73
372.736	256.89
373.117	273.83
373.498	268.86
373.879	291.91
374.26	289.65
374.641	261.86
375.021	273.38
375.402	279.26
375.783	279.94
376.163	302.99
376.544	274.96
376.925	272.48
377.305	273.38
377.686	293.04
378.066	282.42
378.447	281.07
378.827	295.3
379.208	288.75
379.588	285.36
379.968	281.29
380.349	289.43
380.729	282.65
381.109	285.36
381.489	295.53
381.87	286.94
382.25	288.3
382.63	325.13
383.01	298.24
383.39	307.96
383.77	300.27
384.15	292.59
384.53	293.27
384.91	284.68
385.29	290.56
385.67	308.64
386.049	299.37
386.429	302.08
386.809	294.85
387.189	292.59
387.568	279.94
387.948	290.11
388.328	311.57
388.707	310.44
389.087	305.7
389.466	285.81
389.846	295.08
390.225	316.77
390.605	308.18
390.984	310.44
391.363	316.55
391.743	300.5
392.122	317.45
392.501	295.08
392.881	303.66
393.26	310.44
393.639	312.25
394.018	310.22
394.397	312.7
394.776	327.62
395.155	298.69
395.534	301.18
395.913	321.97
396.292	318.58
396.671	320.16
397.05	318.13
397.429	313.16
397.808	332.82
398.186	322.87
398.565	324
398.944	308.18
399.323	314.29
399.701	327.17
400.08	337.34
400.458	314.06
400.837	319.48
401.215	329.65
401.594	335.3
401.972	333.72
402.351	339.37
402.729	317.9
403.107	338.24
403.486	347.5
403.864	341.63
404.242	346.15
404.62	354.51
404.999	343.66
405.377	347.05
405.755	352.7
406.133	344.12
406.511	335.3
406.889	336.43
407.267	368.3
407.645	356.32
408.023	362.19
408.401	365.13
408.779	370.56
409.156	372.59
409.534	371.23
409.912	388.86
410.29	380.95
410.667	382.31
411.045	391.8
411.422	397
411.8	382.98
412.178	382.31
412.555	383.66
412.933	411.23
413.31	393.15
413.687	391.12
414.065	392.93
414.442	375.75
414.819	389.76
415.197	387.05
415.574	411.23
415.951	424.34
416.328	392.48
416.705	388.41
417.082	401.74
417.46	399.26
417.837	410.33
418.214	401.29
418.591	409.42
418.967	415.3
419.344	422.98
419.721	408.07
420.098	426.6
420.475	429.54
420.852	418.01
421.228	406.71
421.605	414.62
421.982	427.05
422.358	441.51
422.735	441.51
423.111	452.14
423.488	455.3
423.864	441.51
424.241	455.98
424.617	444.9
424.994	440.61
425.37	467.5
425.746	458.46
426.123	469.54
426.499	463.43
426.875	493.04
427.251	467.05
427.627	490.55
428.003	496.88
428.379	499.59
428.756	481.74
429.132	482.42
429.507	486.94
429.883	479.25
430.259	476.99
430.635	499.14
431.011	507.5
431.387	517.44
431.763	538.23
432.138	527.61
432.514	519.25
432.89	534.84
433.265	544.34
433.641	553.15
434.016	549.76
434.392	547.95
434.767	549.76
435.143	573.04
435.518	567.61
435.894	537.1
436.269	562.64
436.644	595.86
437.02	603.77
437.395	589.53
437.77	571.91
438.145	616.42
438.52	606.26
438.895	614.84
439.271	616.88
439.646	610.55
440.021	628.18
440.395	628.18
440.77	616.65
441.145	644.45
441.52	660.94
441.895	649.19
442.27	672.24
442.645	667.27
443.019	677.44
443.394	650.32
443.769	672.92
444.143	696.65
444.518	683.54
444.892	680.6
445.267	712.24
445.641	700.94
446.016	714.28
446.39	702.52
446.764	697.1
447.139	731.45
447.513	744.1
447.887	735.74
448.262	716.76
448.636	708.85
449.01	734.39
449.384	736.42
449.758	755.18
450.132	703.88
450.506	752.01
450.88	765.8
451.254	740.71
451.628	787.27
452.002	790.43
452.376	783.65
452.75	769.19
453.123	778.45
453.497	805.35
453.871	804.89
454.244	803.99
454.618	808.51
454.992	814.84
455.365	803.76
455.739	826.81
456.112	834.27
456.486	843.31
456.859	848.06
457.232	860.26
457.606	846.93
457.979	880.37
458.352	885.8
458.725	882.63
459.099	883.99
459.472	892.12
459.845	903.65
460.218	888.96
460.591	934.38
460.964	910.43
461.337	915.63
461.71	937.55
462.083	928.05
462.456	938.68
462.829	951.1
463.201	928.96
463.574	958.11
463.947	954.04
464.32	936.19
464.692	983.87
465.065	992.69
465.438	1005.11
465.81	1008.05
466.183	999.69
466.555	1006.02
466.928	1033.36
467.3	1017.09
467.672	1034.27
468.045	1025.91
468.417	1027.94
468.789	1073.36
469.161	1072.23
469.534	1079.01
469.906	1080.82
470.278	1084.43
470.65	1076.3
471.022	1117.43
471.394	1136.86
471.766	1123.3
472.138	1119.01
472.51	1141.83
472.882	1153.59
473.253	1167.37
473.625	1151.1
473.997	1220.7
474.369	1212.57
474.74	1192
475.112	1215.5
475.484	1245.56
475.855	1244.66
476.227	1224.77
476.598	1250.31
476.97	1238.78
477.341	1281.27
477.713	1303.19
478.084	1313.81
478.455	1307.25
478.827	1311.77
479.198	1353.81
479.569	1328.5
479.94	1375.05
480.311	1364.88
480.682	1385.44
481.053	1404.88
481.424	1397.65
481.795	1433.13
482.166	1413.24
482.537	1447.82
482.908	1458.44
483.279	1441.71
483.65	1485.78
484.021	1453.01
484.391	1475.61
484.762	1487.36
485.133	1488.94
485.503	1474.03
485.874	1513.8
486.244	1548.6
486.615	1539.34
486.985	1545.89
487.356	1575.95
487.726	1532.33
488.097	1558.55
488.467	1580.92
488.837	1569.39
489.207	1582.5
489.578	1594.03
489.948	1595.83
490.318	1622.5
490.688	1596.51
491.058	1605.1
491.428	1608.71
491.798	1625.89
492.168	1630.41
492.538	1640.8
492.908	1631.09
493.278	1639.22
493.648	1644.65
494.017	1639.67
494.387	1640.8
494.757	1641.03
495.126	1646.68
495.496	1642.39
495.866	1647.36
496.235	1658.43
496.605	1655.27
496.974	1643.06
497.344	1631.77
497.713	1633.12
498.082	1658.2
498.452	1669.96
498.821	1663.63
499.19	1655.95
499.559	1660.92
499.928	1658.88
500.298	1629.05
500.667	1644.87
501.036	1637.41
501.405	1638.77
501.774	1636.51
502.143	1637.19
502.512	1631.54
502.88	1610.97
503.249	1609.84
503.618	1596.74
503.987	1615.49
504.356	1609.62
504.724	1627.92
505.093	1594.48
505.462	1606.45
505.83	1624.53
506.199	1604.87
506.567	1584.08
506.936	1588.6
507.304	1579.34
507.672	1613.69
508.041	1608.04
508.409	1577.3
508.777	1583.18
509.145	1592.67
509.514	1605.33
509.882	1577.76
510.25	1590.41
510.618	1563.07
510.986	1553.8
511.354	1559.22
511.722	1568.94
512.09	1541.82
512.458	1563.74
512.826	1553.57
513.193	1569.17
513.561	1523.29
513.929	1561.48
514.297	1559.9
514.664	1533.01
515.032	1540.69
515.4	1523.97
515.767	1498.66
516.135	1528.72
516.502	1494.14
516.869	1486.01
517.237	1517.42
517.604	1514.25
517.972	1482.62
518.339	1525.55
518.706	1500.02
519.073	1494.82
519.44	1488.49
519.808	1487.59
520.175	1471.09
520.542	1491.66
520.909	1437.87
521.276	1441.71
521.643	1425.44
522.009	1472.9
522.376	1461.15
522.743	1468.83
523.11	1406.69
523.477	1449.85
523.843	1427.48
524.21	1430.41
524.577	1428.38
524.943	1453.24
525.31	1426.57
525.676	1445.78
526.043	1447.59
526.409	1427.02
526.776	1463.86
527.142	1420.25
527.508	1448.72
527.874	1444.88
528.241	1462.96
528.607	1441.94
528.973	1437.87
529.339	1435.16
529.705	1422.28
530.071	1420.02
530.437	1421.6
530.803	1419.34
531.169	1458.89
531.535	1404.88
531.901	1412.79
532.267	1418.21
532.632	1382.96
532.998	1388.61
533.364	1417.31
533.73	1433.58
534.095	1398.32
534.461	1429.28
534.826	1418.44
535.192	1408.27
535.557	1403.07
535.923	1388.16
536.288	1434.93
536.653	1424.76
537.019	1395.61
537.384	1394.26
537.749	1406.01
538.114	1392.45
538.479	1379.12
538.845	1402.39
539.21	1401.71
539.575	1390.42
539.94	1394.26
540.305	1389.51
540.67	1387.48
541.034	1368.5
541.399	1376.4
541.764	1372.79
542.129	1354.48
542.494	1361.26
542.858	1380.25
543.223	1371.43
543.587	1363.3
543.952	1370.53
544.316	1373.24
544.681	1342.96
545.045	1335.95
545.41	1374.14
545.774	1336.86
546.138	1358.33
546.503	1365.33
546.867	1323.98
547.231	1347.7
547.595	1345.22
547.959	1366.01
548.324	1330.76
548.688	1335.05
549.052	1326.24
549.416	1337.08
549.779	1333.69
550.143	1302.73
550.507	1304.77
550.871	1314.26
551.235	1314.71
551.599	1351.32
551.962	1334.6
552.326	1322.17
552.689	1296.41
553.053	1325.56
553.417	1306.8
553.78	1295.73
554.143	1286.69
554.507	1286.24
554.87	1321.04
555.234	1286.69
555.597	1311.1
555.96	1306.8
556.323	1306.12
556.686	1309.74
557.05	1301.83
557.413	1327.14
557.776	1307.25
558.139	1288.27
558.502	1288.95
558.865	1282.4
559.228	1314.71
559.59	1303.64
559.953	1278.33
560.316	1312
560.679	1304.32
561.041	1299.12
561.404	1272.9
561.767	1296.63
562.129	1286.92
562.492	1303.86
562.854	1296.41
563.217	1304.54
563.579	1292.34
563.941	1309.29
564.304	1298.67
564.666	1310.87
565.028	1314.49
565.39	1318.78
565.753	1288.95
566.115	1309.97
566.477	1300.7
566.839	1327.14
567.201	1334.15
567.563	1339.12
567.925	1343.86
568.287	1349.74
568.648	1344.99
569.01	1320.36
569.372	1335.05
569.734	1333.47
570.095	1341.6
570.457	1349.51
570.819	1335.5
571.18	1339.8
571.542	1365.78
571.903	1359.46
572.265	1359.68
572.626	1368.72
572.987	1366.69
573.349	1396.97
573.71	1408.27
574.071	1359.23
574.432	1371.88
574.794	1385.22
575.155	1385.22
575.516	1378.21
575.877	1380.02
576.238	1387.93
576.599	1393.13
576.96	1416.18
577.32	1391.55
577.681	1393.35
578.042	1393.13
578.403	1432.45
578.763	1417.31
579.124	1432.9
579.485	1439.23
579.845	1431.09
580.206	1437.87
580.566	1463.41
580.927	1426.12
581.287	1429.06
581.648	1439.91
582.008	1434.93
582.368	1443.52
582.728	1445.56
583.089	1430.87
583.449	1461.37
583.809	1445.78
584.169	1457.76
584.529	1476.29
584.889	1479.9
585.249	1453.69
585.609	1450.75
585.969	1495.72
586.329	1434.03
586.688	1472.22
587.048	1458.21
587.408	1464.99
587.768	1482.84
588.127	1441.49
588.487	1464.76
588.846	1471.77
589.206	1478.77
589.565	1484.88
589.925	1462.05
590.284	1473.13
590.643	1500.92
591.003	1510.64
591.362	1465.67
591.721	1453.01
592.08	1478.77
592.44	1492.56
592.799	1485.55
593.158	1488.04
593.517	1476.51
593.876	1485.33
594.235	1456.63
594.593	1479.23
594.952	1501.15
595.311	1475.61
595.67	1454.37
596.029	1463.63
596.387	1499.57
596.746	1488.27
597.104	1474.26
597.463	1470.19
597.822	1486.91
598.18	1471.09
598.538	1475.16
598.897	1476.06
599.255	1462.96
599.613	1489.85
599.972	1510.86
600.33	1469.28
600.688	1490.3
601.046	1475.61
601.404	1490.98
601.762	1455.27
602.12	1493.24
602.478	1463.63
602.836	1507.93
603.194	1474.03
603.552	1463.18
603.91	1468.15
604.268	1468.61
604.625	1469.51
604.983	1453.46
605.341	1459.11
605.698	1477.64
606.056	1457.76
606.413	1466.35
606.771	1493.01
607.128	1464.99
607.485	1446.23
607.843	1477.64
608.2	1470.41
608.557	1472.67
608.914	1497.98
609.272	1440.13
609.629	1468.83
609.986	1470.87
610.343	1481.94
610.7	1468.38
611.057	1462.96
611.414	1499.34
611.771	1479
612.127	1476.74
612.484	1492.56
612.841	1505.44
613.198	1474.93
613.554	1490.75
613.911	1474.71
614.267	1489.4
614.624	1483.07
614.98	1480.36
615.337	1517.64
615.693	1493.01
616.05	1479.45
616.406	1497.31
616.762	1492.11
617.118	1475.84
617.475	1491.43
617.831	1500.7
618.187	1502.28
618.543	1501.15
618.899	1499.57
619.255	1519.45
619.611	1514.93
619.967	1523.97
620.323	1522.39
620.678	1489.62
621.034	1516.51
621.39	1497.53
621.746	1469.51
622.101	1506.57
622.457	1518.32
622.812	1499.57
623.168	1515.84
623.523	1496.18
623.879	1488.94
624.234	1516.51
624.589	1514.71
624.945	1524.65
625.3	1515.16
625.655	1500.24
626.01	1519.9
626.365	1517.19
626.72	1547.93
627.075	1513.8
627.43	1530.3
627.785	1531.43
628.14	1533.01
628.495	1535.04
628.85	1526.68
629.205	1501.6
629.559	1539.79
629.914	1544.54
630.269	1525.55
630.623	1524.88
630.978	1525.33
631.332	1537.76
631.687	1542.95
632.041	1555.61
632.396	1520.13
632.75	1519.68
633.104	1529.17
633.459	1505.21
633.813	1500.92
634.167	1546.12
634.521	1521.26
634.875	1514.93
635.229	1513.8
635.583	1512.67
635.937	1510.86
636.291	1506.8
636.645	1485.55
636.999	1511.77
637.352	1498.66
637.706	1484.2
638.06	1483.52
638.413	1521.94
638.767	1520.36
639.121	1504.31
639.474	1526.46
639.828	1520.58
640.181	1537.3
640.534	1522.16
640.888	1530.75
641.241	1519.23
641.594	1516.74
641.947	1541.15
642.301	1526.68
642.654	1535.95
643.007	1514.03
643.36	1504.76
643.713	1532.78
644.066	1539.79
644.419	1528.26
644.771	1512.45
645.124	1508.38
645.477	1502.95
645.83	1543.86
646.182	1510.41
646.535	1513.8
646.888	1507.93
647.24	1510.19
647.593	1521.26
647.945	1522.84
648.298	1525.33
648.65	1512.67
649.002	1510.64
649.355	1532.33
649.707	1532.78
650.059	1533.46
650.411	1557.87
650.763	1540.47
651.115	1553.8
651.467	1543.63
651.819	1566.23
652.171	1563.07
652.523	1543.63
652.875	1551.09
653.227	1540.92
653.578	1577.76
653.93	1532.11
654.282	1587.47
654.633	1571.43
654.985	1561.48
655.337	1596.74
655.688	1563.52
656.039	1594.93
656.391	1583.4
656.742	1600.58
657.094	1583.63
657.445	1574.14
657.796	1590.41
658.147	1606.23
658.498	1619.56
658.849	1584.76
659.2	1592.22
659.551	1602.84
659.902	1620.69
660.253	1561.71
660.604	1608.94
660.955	1602.84
661.306	1615.27
661.656	1599.22
662.007	1613.23
662.358	1619.11
662.708	1624.08
663.059	1596.29
663.409	1589.96
663.76	1599.68
664.11	1615.72
664.461	1652.56
664.811	1587.92
665.161	1636.06
665.511	1616.62
665.862	1628.15
666.212	1631.54
666.562	1651.43
666.912	1636.28
667.262	1646.23
667.612	1629.28
667.962	1627.02
668.312	1625.21
668.662	1595.38
669.011	1593.57
669.361	1610.3
669.711	1615.04
670.06	1624.31
670.41	1609.62
670.76	1601.26
671.109	1629.73
671.459	1596.06
671.808	1630.86
672.157	1596.29
672.507	1593.8
672.856	1582.5
673.205	1590.41
673.554	1595.61
673.904	1601.48
674.253	1593.8
674.602	1601.48
674.951	1575.5
675.3	1564.87
675.649	1575.5
675.998	1570.98
676.346	1601.03
676.695	1571.65
677.044	1577.98
677.393	1581.82
677.741	1582.95
678.09	1569.62
678.438	1561.94
678.787	1545.89
679.135	1572.56
679.484	1565.1
679.832	1579.79
680.181	1539.11
680.529	1554.03
680.877	1562.16
681.225	1564.42
681.573	1561.71
681.922	1536.17
682.27	1547.7
682.618	1538.89
682.966	1520.58
683.314	1530.75
683.661	1528.26
684.009	1523.29
684.357	1519.45
684.705	1514.03
685.053	1508.6
685.4	1507.93
685.748	1508.15
686.095	1498.89
686.443	1467.7
686.79	1495.5
687.138	1498.44
687.485	1495.27
687.832	1500.24
688.18	1495.95
688.527	1484.42
688.874	1515.61
689.221	1484.42
689.568	1450.3
689.915	1446.01
690.262	1470.19
690.609	1452.11
690.956	1457.53
691.303	1435.39
691.65	1440.13
691.997	1437.42
692.344	1443.07
692.69	1421.83
693.037	1436.74
693.383	1420.25
693.73	1415.95
694.077	1414.82
694.423	1409.85
694.769	1408.95
695.116	1403.52
695.462	1408.27
695.808	1417.76
696.155	1394.94
696.501	1394.03
696.847	1399.68
697.193	1408.72
697.539	1396.29
697.885	1388.38
698.231	1374.6
698.577	1371.21
698.923	1384.54
699.269	1392.9
699.614	1368.5
699.96	1321.72
700.306	1375.27
700.651	1343.64
700.997	1355.39
701.342	1358.33
701.688	1348.16
702.033	1365.56
702.379	1360.36
702.724	1352.9
703.069	1346.8
703.415	1332.34
703.76	1333.92
704.105	1351.32
704.45	1317.2
704.795	1314.26
705.14	1333.92
705.485	1324.43
705.83	1335.05
706.175	1354.03
706.52	1328.72
706.865	1329.63
707.209	1355.61
707.554	1349.74
707.899	1344.31
708.243	1332.56
708.588	1319.23
708.932	1323.3
709.277	1336.18
709.621	1351.32
709.966	1308.84
710.31	1335.95
710.654	1312.9
710.998	1305.45
711.342	1317.65
711.687	1300.93
712.031	1339.12
712.375	1335.5
712.719	1337.76
713.063	1364.2
713.407	1329.4
713.75	1310.64
714.094	1362.17
714.438	1340.7
714.782	1359
715.125	1328.72
715.469	1352.68
715.812	1367.37
716.156	1354.48
716.499	1326.91
716.843	1362.39
717.186	1341.15
717.53	1377.31
717.873	1360.36
718.216	1373.69
718.559	1354.03
718.902	1369.85
719.246	1397.42
719.589	1394.26
719.932	1361.72
720.275	1385.22
720.617	1375.73
720.96	1406.91
721.303	1384.09
721.646	1435.84
721.989	1407.14
722.331	1385.9
722.674	1417.53
723.016	1406.46
723.359	1422.28
723.701	1417.08
724.044	1400.36
724.386	1446.01
724.729	1440.36
725.071	1426.8
725.413	1433.58
725.755	1438.78
726.097	1441.71
726.439	1464.99
726.782	1445.78
727.124	1468.15
727.465	1472.67
727.807	1475.84
728.149	1475.84
728.491	1456.4
728.833	1487.81
729.175	1492.56
729.516	1528.04
729.858	1497.08
730.199	1520.36
730.541	1531.65
730.882	1537.08
731.224	1540.47
731.565	1538.89
731.906	1543.86
732.248	1578.66
732.589	1578.21
732.93	1576.85
733.271	1585.44
733.612	1603.29
733.953	1631.99
734.294	1624.31
734.635	1655.04
734.976	1656.17
735.317	1655.49
735.658	1649.39
735.999	1686.9
736.339	1667.24
736.68	1696.4
737.021	1684.87
737.361	1718.32
737.702	1726.9
738.042	1721.71
738.383	1730.07
738.723	1741.37
739.063	1771.87
739.404	1807.13
739.744	1807.35
740.084	1803.06
740.424	1826.11
740.764	1868.14
741.104	1873.34
741.444	1864.98
741.784	1883.06
742.124	1904.53
742.464	1920.8
742.804	1955.82
743.143	1954.24
743.483	1992.43
743.823	2004.64
744.162	2035.82
744.502	2070.4
744.841	2071.53
745.181	2133.67
745.52	2141.36
745.86	2137.06
746.199	2168.7
746.538	2230.62
746.877	2245.76
747.216	2278.98
747.556	2308.81
747.895	2328.7
748.234	2362.37
748.573	2371.41
748.911	2417.73
749.25	2438.07
749.589	2476.94
749.928	2496.15
750.267	2565.53
750.605	2627.45
750.944	2632.64
751.283	2678.07
751.621	2737.95
751.96	2757.39
752.298	2824.5
752.636	2885.29
752.975	2862.47
753.313	2956.02
753.651	2982.01
753.989	3035.8
754.327	3096.36
754.666	3111.95
755.004	3205.06
755.342	3247.77
755.679	3292.96
756.017	3326.86
756.355	3368.67
756.693	3429.46
757.031	3509
757.368	3497.25
757.706	3560.75
758.044	3601.43
758.381	3673.75
758.719	3786.28
759.056	3796.45
759.394	3840.52
759.731	3856.34
760.068	3919.61
760.405	3977.69
760.743	4049.33
761.08	4112.15
761.417	4135.43
761.754	4228.08
762.091	4300.4
762.428	4305.37
762.765	4324.58
763.102	4443.22
763.438	4446.38
763.775	4440.5
764.112	4561.41
764.449	4560.95
764.785	4666.04
765.122	4632.14
765.458	4698.13
765.795	4747.39
766.131	4780.16
766.467	4817.9
766.804	4885.46
767.14	4954.16
767.476	4959.81
767.812	4973.82
768.148	5048.62
768.485	5059.92
768.821	5092.46
769.157	5140.6
769.492	5125.68
769.828	5200.48
770.164	5129.3
770.5	5227.15
770.836	5303.08
771.171	5308.28
771.507	5336.75
