Data from blue_clamp_base_FLMS001491_00082.txt Node
Date: Wed Feb 08 15:16:37 GMT 2017
User: dcchb
Spectrometer: FLMS00149
Trigger mode: 0
Integration Time (sec): 2.000000E-2
Scans to average: 10
Electric dark correction enabled: true
Nonlinearity correction enabled: false
Boxcar width: 0
XAxis mode: Wavelengths
Number of Pixels in Spectrum: 2048
>>>>>Begin Spectral Data<<<<<
341.393	-3.88
341.776	-3.88
342.16	-3.88
342.543	-70.77
342.927	-71.45
343.31	-58.8
343.693	-61.28
344.077	-78.91
344.46	-58.8
344.843	-67.84
345.226	-28.74
345.61	-47.95
345.993	-13.15
346.376	-1.62
346.759	12.84
347.142	24.82
347.525	45.38
347.908	55.1
348.291	62.55
348.674	103.23
349.057	113.17
349.44	123.34
349.823	141.87
350.206	164.47
350.588	210.57
350.971	217.81
351.354	251.93
351.737	239.73
352.119	252.15
352.502	269.1
352.884	267.07
353.267	314.75
353.65	313.62
354.032	317.69
354.414	305.49
354.797	315.88
355.179	331.93
355.562	309.1
355.944	319.5
356.326	345.94
356.709	332.83
357.091	343.45
357.473	368.08
357.855	355.43
358.238	351.81
358.62	370.8
359.002	367.41
359.384	341.19
359.766	368.08
360.148	324.69
360.53	354.75
360.912	352.04
361.294	355.88
361.676	346.39
362.057	353.62
362.439	342.55
362.821	349.55
363.203	340.29
363.584	365.82
363.966	342.55
364.348	350.68
364.729	355.2
365.111	361.76
365.493	321.31
365.874	345.26
366.256	336.22
366.637	307.97
367.019	323.11
367.4	343.23
367.781	339.16
368.163	354.3
368.544	334.64
368.925	335.32
369.306	356.33
369.688	330.34
370.069	342.32
370.45	330.12
370.831	329.67
371.212	340.74
371.593	338.71
371.974	335.99
372.355	355.88
372.736	351.59
373.117	377.12
373.498	354.52
373.879	345.26
374.26	351.59
374.641	340.97
375.021	357.69
375.402	346.62
375.783	350.91
376.163	352.49
376.544	377.35
376.925	368.31
377.305	388.42
377.686	374.41
378.066	356.33
378.447	378.48
378.827	370.57
379.208	360.85
379.588	384.35
379.968	388.2
380.349	387.29
380.729	361.76
381.109	387.52
381.489	391.36
381.87	382.32
382.25	406.27
382.63	402.43
383.01	407.18
383.39	404.24
383.77	407.18
384.15	403.56
384.53	405.6
384.91	432.49
385.29	394.75
385.67	408.76
386.049	438.59
386.429	423.68
386.809	439.27
387.189	430
387.568	423.9
387.948	438.36
388.328	437.01
388.707	441.75
389.087	413.96
389.466	454.86
389.846	443.79
390.225	463
390.605	476.1
390.984	466.16
391.363	461.41
391.743	458.02
392.122	464.35
392.501	466.84
392.881	475.88
393.26	500.28
393.639	486.05
394.018	497.57
394.397	501.87
394.776	500.28
395.155	525.82
395.534	517.01
395.913	517.68
396.292	528.76
396.671	516.33
397.05	534.41
397.429	551.81
397.808	543.45
398.186	552.03
398.565	573.73
398.944	578.93
399.323	552.94
399.701	559.26
400.08	565.37
400.458	586.16
400.837	597.46
401.215	585.93
401.594	612.14
401.972	614.86
402.351	603.78
402.729	628.42
403.107	623.44
403.486	652.82
403.864	616.66
404.242	654.63
404.62	671.35
404.999	655.08
405.377	687.85
405.755	681.52
406.133	703.67
406.511	706.83
406.889	676.78
407.267	696.21
407.645	737.57
408.023	738.92
408.401	740.28
408.779	748.64
409.156	776.66
409.534	766.72
409.912	780.73
410.29	808.3
410.667	825.02
411.045	817.11
411.422	815.3
411.8	835.87
412.178	829.31
412.555	860.05
412.933	889.43
413.31	900.72
413.687	881.06
414.065	889.65
414.442	897.79
414.819	939.59
415.197	925.81
415.574	919.93
415.951	947.28
416.328	978.69
416.705	966.49
417.082	977.33
417.46	988.18
417.837	986.82
418.214	1007.84
418.591	1000.61
418.967	1016.88
419.344	1027.95
419.721	1060.04
420.098	1069.76
420.475	1046.26
420.852	1037.67
421.228	1098.91
421.605	1107.73
421.982	1108.4
422.358	1123.32
422.735	1106.14
423.111	1139.14
423.488	1145.24
423.864	1162.86
424.241	1180.04
424.617	1193.6
424.994	1232.02
425.37	1226.37
425.746	1203.99
426.123	1257.78
426.499	1252.58
426.875	1264.33
427.251	1269.3
427.627	1320.83
428.003	1333.48
428.379	1345.46
428.756	1381.84
429.132	1359.24
429.507	1387.27
429.883	1425
430.259	1413.93
430.635	1452.57
431.011	1469.07
431.387	1499.58
431.763	1549.52
432.138	1516.53
432.514	1546.36
432.89	1566.02
433.265	1591.78
433.641	1603.31
434.016	1630.2
434.392	1674.04
434.767	1689.86
435.143	1692.79
435.518	1707.26
435.894	1730.53
436.269	1746.8
436.644	1762.4
437.02	1797.42
437.395	1805.56
437.77	1833.36
438.145	1848.27
438.52	1873.35
438.895	1891.66
439.271	1893.92
439.646	1944.09
440.021	1957.19
440.395	1988.61
440.77	1967.14
441.145	1990.64
441.52	2031.32
441.895	2002.62
442.27	2049.17
442.645	2060.92
443.019	2081.48
443.394	2095.95
443.769	2112.22
444.143	2126.91
444.518	2144.76
444.892	2139.56
445.267	2173.01
445.641	2196.51
446.016	2182.05
446.39	2195.38
446.764	2245.77
447.139	2245.32
447.513	2269.73
447.887	2276.73
448.262	2332.1
448.636	2337.3
449.01	2324.42
449.384	2326.22
449.758	2385.66
450.132	2417.3
450.506	2456.62
450.88	2454.36
451.254	2465.66
451.628	2462.94
452.002	2490.06
452.376	2512.66
452.75	2594.69
453.123	2582.26
453.497	2600.57
453.871	2650.06
454.244	2729.38
454.618	2713.78
454.992	2694.12
455.365	2713.11
455.739	2815.93
456.112	2840.33
456.486	2844.63
456.859	2888.24
457.232	2951.97
457.606	2952.65
457.979	2962.59
458.352	3040.1
458.725	3085.3
459.099	3066.54
459.472	3139.31
459.845	3140.21
460.218	3228.35
460.591	3213.88
460.964	3216.37
461.337	3328.68
461.71	3342.02
462.083	3404.84
462.456	3403.03
462.829	3401.22
463.201	3473.99
463.574	3455.23
463.947	3519.41
464.32	3634.44
464.692	3618.85
465.065	3654.55
465.438	3702.46
465.81	3818.61
466.183	3794.43
466.555	3892.74
466.928	3910.59
467.3	3876.92
467.672	3929.12
468.045	4052.96
468.417	4058.61
468.789	4042.34
469.161	4109.45
469.534	4184.71
469.906	4249.11
470.278	4310.8
470.65	4321.43
471.022	4440.07
471.394	4497.47
471.766	4538.82
472.138	4568.65
472.51	4669.21
472.882	4707.18
473.253	4732.04
473.625	4823.11
473.997	4907.85
474.369	4944.69
474.74	4993.27
475.112	5060.39
475.484	5102.87
475.855	5251.57
476.227	5270.78
476.598	5425.35
476.97	5424.22
477.341	5509.42
477.713	5616.53
478.084	5623.54
478.455	5758.68
478.827	5866.7
479.198	5967.48
479.569	5934.72
479.94	6124.54
480.311	6185.78
480.682	6280.92
481.053	6384.65
481.424	6471.43
481.795	6476.85
482.166	6646.11
482.537	6691.08
482.908	6827.57
483.279	6848.37
483.65	6926.33
484.021	7113.67
484.391	7182.82
484.762	7207.23
485.133	7240.45
485.503	7307.79
485.874	7426.2
486.244	7471.85
486.615	7675.91
486.985	7736.93
487.356	7824.38
487.726	7876.59
488.097	8039.75
488.467	8017.83
488.837	8186.41
489.207	8258.95
489.578	8345.95
489.948	8359.74
490.318	8479.96
490.688	8512.73
491.058	8601.77
491.428	8735.32
491.798	8763.34
492.168	8893.74
492.538	8914.53
492.908	8986.16
493.278	9093.73
493.648	9074.75
494.017	9171.92
494.387	9294.63
494.757	9256.44
495.126	9386.15
495.496	9336.21
495.866	9401.29
496.235	9513.83
496.605	9583.43
496.974	9649.2
497.344	9705.47
497.713	9747.95
498.082	9807.84
498.452	9875.86
498.821	9926.02
499.19	9868.85
499.559	9978
499.928	9999.92
500.298	10040.37
500.667	10164.89
501.036	10073.37
501.405	10142.74
501.774	10163.53
502.143	10216.64
502.512	10201.5
502.88	10405.11
503.249	10347.26
503.618	10388.84
503.987	10429.74
504.356	10453.24
504.724	10558.78
505.093	10560.36
505.462	10570.98
505.83	10611.66
506.199	10757.64
506.567	10843.51
506.936	10785.21
507.304	10911.31
507.672	10880.12
508.041	10959.9
508.409	11015.04
508.777	11064.3
509.145	11090.06
509.514	11154.69
509.882	11217.74
510.25	11224.07
510.618	11328.47
510.986	11282.15
511.354	11399.88
511.722	11495.47
512.09	11625.64
512.458	11506.77
512.826	11589.71
513.193	11659.76
513.561	11666.32
513.929	11714
514.297	11845.75
514.664	11841.91
515.032	11927.78
515.4	11904.73
515.767	12047.1
516.135	12096.14
516.502	12020.21
516.869	12254.32
517.237	12199.86
517.604	12220.2
517.972	12235.79
518.339	12291.84
518.706	12396.24
519.073	12483.92
519.44	12501.32
519.808	12670.13
520.175	12629.23
520.542	12718.04
520.909	12775.44
521.276	12735.22
521.643	12910.35
522.009	13007.53
522.376	13079.16
522.743	12980.63
523.11	13186.96
523.477	13316.9
523.843	13331.58
524.21	13385.59
524.577	13523.44
524.943	13609.77
525.31	13614.74
525.676	13723.21
526.043	13770.89
526.409	13714.17
526.776	13897.67
527.142	13969.76
527.508	13988.97
527.874	14056.09
528.241	14197.32
528.607	14263.31
528.973	14287.49
529.339	14378.56
529.705	14426.02
530.071	14487.49
530.437	14585.34
530.803	14674.15
531.169	14719.12
531.535	14776.52
531.901	14841.83
532.267	14808.83
532.632	15034.59
532.998	15045.66
533.364	15099.67
533.73	15085.21
534.095	15233.23
534.461	15115.94
534.826	15355.94
535.192	15364.07
535.557	15449.95
535.923	15392.32
536.288	15457.4
536.653	15628.93
537.019	15490.62
537.384	15622.15
537.749	15717.96
538.114	15638.19
538.479	15738.98
538.845	15864.85
539.21	15861.91
539.575	15899.65
539.94	15897.39
540.305	16027.78
540.67	15990.5
541.034	16053.77
541.399	16160.66
541.764	16169.02
542.129	16180.32
542.494	16258.97
542.858	16378.28
543.223	16287.66
543.587	16386.87
543.952	16357.72
544.316	16507.77
544.681	16478.62
545.045	16517.72
545.41	16643.36
545.774	16587.54
546.138	16651.95
546.503	16751.38
546.867	16667.99
547.231	16803.13
547.595	16788.89
547.959	16874.54
548.324	16971.71
548.688	17019.62
549.052	17019.62
549.416	17071.15
549.779	17098.72
550.143	17138.94
550.507	17250.8
550.871	17250.58
551.235	17219.17
551.599	17449.44
551.962	17363.79
552.326	17327.86
552.689	17509.55
553.053	17445.37
553.417	17520.85
553.78	17848.08
554.143	17732.37
554.507	17688.53
554.87	17884.23
555.234	17946.83
555.597	17849.88
555.96	17820.05
556.323	18028.86
556.686	17958.13
557.05	18172.59
557.413	18108.86
557.776	18173.94
558.139	18249.87
558.502	18335.52
558.865	18352.92
559.228	18478.34
559.59	18479.7
559.953	18481.96
560.316	18631.56
560.679	18660.26
561.041	18717.88
561.404	18902.96
561.767	18931.44
562.129	18912
562.492	19136.18
562.854	19054.82
563.217	19145.44
563.579	19164.65
563.941	19274.48
564.304	19305.44
564.666	19412.55
565.028	19495.49
565.39	19623.85
565.753	19628.14
566.115	19752.21
566.477	19850.96
566.839	19795.6
567.201	20027.23
567.563	19938.42
567.925	20089.6
568.287	20157.17
568.648	20247.79
569.01	20324.39
569.372	20359.87
569.734	20388.57
570.095	20418.63
570.457	20526.88
570.819	20589.7
571.18	20608.91
571.542	20700.88
571.903	20789.47
572.265	20864.95
572.626	20854.32
572.987	20859.97
573.349	21034.21
573.71	21006.86
574.071	21025.39
574.432	21183.81
574.794	21339.28
575.155	21241.21
575.516	21239.4
575.877	21355.1
576.238	21406.63
576.599	21555.32
576.96	21393.97
577.32	21467.19
577.681	21650.24
578.042	21659.73
578.403	21597.36
578.763	21658.6
579.124	21757.13
579.485	21846.16
579.845	21808.65
580.206	21833.28
580.566	21895.2
580.927	21934.3
581.287	21981.07
581.648	21917.35
582.008	22042.32
582.368	22013.84
582.728	21998.25
583.089	21946.27
583.449	22025.59
583.809	22114.63
584.169	22149.88
584.529	22088.42
584.889	22303.55
585.249	22136.32
585.609	22125.93
585.969	22216.32
586.329	22161.63
586.688	22194.4
587.048	22258.13
587.408	22188.53
587.768	22161.63
588.127	22179.04
588.487	22113.05
588.846	22349.65
589.206	22171.58
589.565	22143.1
589.925	22294.96
590.284	22162.31
590.643	22292.25
591.003	22268.07
591.362	22430.1
591.721	22325.47
592.08	22362.08
592.44	22458.12
592.799	22390.33
593.158	22451.8
593.517	22377.67
593.876	22337.9
594.235	22417.9
594.593	22349.88
594.952	22527.95
595.311	22354.4
595.67	22557.33
596.029	22588.29
596.387	22643.43
596.746	22630.78
597.104	22494.96
597.463	22538.35
597.822	22604.11
598.18	22532.02
598.538	22569.31
598.897	22679.36
599.255	22431.23
599.613	22894.04
599.972	22783.09
600.33	22699.93
600.688	22593.49
601.046	22705.58
601.404	22838.68
601.762	22777.21
602.12	22848.62
602.478	22795.06
602.836	22908.96
603.194	22740.38
603.552	22773.14
603.91	22732.69
604.268	22855.18
604.625	22793.71
604.983	22864.22
605.341	22724.56
605.698	22979.69
606.056	22908.28
606.413	22892.24
606.771	23026.47
607.128	23025.34
607.485	22866.02
607.843	22978.11
608.2	23053.14
608.557	23165.45
608.914	22982.18
609.272	23146.92
609.629	23146.24
609.986	23259.69
610.343	23107.82
610.7	23326.12
611.057	23237.09
611.414	23238.44
611.771	23296.97
612.127	23321.83
612.484	23414.71
612.841	23465.1
613.198	23342.17
613.554	23355.95
613.911	23530.41
614.267	23439.79
614.624	23431.88
614.98	23493.13
615.337	23569.51
615.693	23527.02
616.05	23406.12
616.406	23594.59
616.762	23493.13
617.118	23535.38
617.475	23627.58
617.831	23619.22
618.187	23710.29
618.543	23738.54
618.899	23810.41
619.255	23781.93
619.611	23723.85
619.967	23764.08
620.323	23866.45
620.678	23820.8
621.034	23724.98
621.39	23736.73
621.746	23655.15
622.101	24006.11
622.457	23898.54
622.812	23886.56
623.168	23893.57
623.523	23957.07
623.879	24096.27
624.234	23938.99
624.589	23934.7
624.945	24051.3
625.3	24006.11
625.655	23974.02
626.01	23915.26
626.365	24033
626.72	24028.25
627.075	23980.57
627.43	24051.98
627.785	23918.65
628.14	23989.84
628.495	24113.45
628.85	24031.64
629.205	23944.64
629.559	24196.16
629.914	23913
630.269	24151.64
630.623	24098.76
630.978	23999.78
631.332	24112.54
631.687	24229.83
632.041	24029.83
632.396	24064.18
632.75	24003.62
633.104	24082.26
633.459	24024.64
633.813	23984.41
634.167	23922.27
634.521	23929.72
634.875	23956.62
635.229	24032.32
635.583	23938.99
635.937	23924.98
636.291	23957.29
636.645	23867.8
636.999	23969.04
637.352	24034.13
637.706	23847.24
638.06	23949.16
638.413	23850.86
638.767	23769.28
639.121	23909.61
639.474	23745.32
639.828	23859.9
640.181	23927.92
640.534	23924.53
640.888	23872.32
641.241	23719.79
641.594	23842.72
641.947	23774.7
642.301	23743.97
642.654	23845.88
643.007	23914.13
643.36	23829.16
643.713	23828.03
644.066	23917.52
644.419	23821.48
644.771	23633.46
645.124	23466.91
645.477	23446.35
645.83	23284.32
646.182	23186.01
646.535	23233.02
646.888	23240.7
647.24	23234.83
647.593	23345.56
647.945	23317.99
648.298	23311.21
648.65	23160.25
649.002	23190.08
649.355	23186.69
649.707	23367.03
650.059	23340.59
650.411	23535.16
650.763	23654.25
651.115	23997.29
651.467	23873.91
651.819	23860.35
652.171	23875.04
652.523	23840.46
652.875	23870.52
653.227	23724.53
653.578	24034.35
653.93	23802.95
654.282	23873.23
654.633	23742.38
654.985	23825.77
655.337	23913
655.688	23876.39
656.039	23910.74
656.391	23839.78
656.742	23891.31
657.094	23883.4
657.445	23931.76
657.796	23890.85
658.147	23924.75
658.498	23847.69
658.849	23916.62
659.2	23908.26
659.551	23783.74
659.902	23858.99
660.253	23879.1
660.604	23953.45
660.955	23839.33
661.306	24089.72
661.656	23746.9
662.007	23947.35
662.358	23884.98
662.708	23887.92
663.059	23739.45
663.409	23638.43
663.76	23908.48
664.11	23819.44
664.461	23897.18
664.811	23880.69
665.161	23796.62
665.511	23750.29
665.862	23812.44
666.212	23829.84
666.562	23905.32
666.912	23807.02
667.262	23755.94
667.612	23757.3
667.962	23766.79
668.312	23601.37
668.662	23795.26
669.011	23736.28
669.361	23617.42
669.711	23673.91
670.06	23580.81
670.41	23495.84
670.76	23569.06
671.109	23639.79
671.459	23545.78
671.808	23485.89
672.157	23568.38
672.507	23438.21
672.856	23429.17
673.205	23350.3
673.554	23479.57
673.904	23317.99
674.253	23360.25
674.602	23310.53
674.951	22908.06
675.3	22904.44
675.649	23257.2
675.998	22980.14
676.346	23134.26
676.695	23176.07
677.044	23012.91
677.393	23072.12
677.741	23038.45
678.09	22921.39
678.438	22933.59
678.787	22963.2
679.135	22938.34
679.484	22784.44
679.832	22840.49
680.181	22617.22
680.529	22717.78
680.877	22606.59
681.225	22596.65
681.573	22720.26
681.922	22558.91
682.27	22544
682.618	22557.1
682.966	22513.49
683.314	22451.34
683.661	22408.18
684.009	22341.29
684.357	22312.82
684.705	22195.31
685.053	22243.67
685.4	22212.93
685.748	22068.76
686.095	21983.33
686.443	21957.57
686.79	22001.86
687.138	21990.79
687.485	22007.29
687.832	21912.83
688.18	22085.48
688.527	21847.74
688.874	21678.71
689.221	21628.54
689.568	21633.51
689.915	21710.35
690.262	21636.9
690.609	21645.72
690.956	21540.63
691.303	21563.46
691.65	21526.17
691.997	21451.82
692.344	21248.66
692.69	21298.83
693.037	21342.67
693.383	21171.83
693.73	21286.63
694.077	21102.23
694.423	21157.82
694.769	21078.95
695.116	21029.46
695.462	20995.56
695.808	21025.62
696.155	20966.64
696.501	20833.76
696.847	20868.11
697.193	20658.4
697.539	20849.58
697.885	20675.35
698.231	20633.54
698.577	20645.97
698.923	20583.6
699.269	20533.43
699.614	20384.73
699.96	20393.77
700.306	20452.75
700.651	20365.3
700.997	20384.51
701.342	20295.02
701.688	20230.84
702.033	20197.39
702.379	20169.6
702.724	20191.97
703.069	20131.86
703.415	20017.51
703.76	20030.62
704.105	20040.56
704.45	19916.95
704.795	19938.42
705.14	19825.43
705.485	19777.74
705.83	19785.65
706.175	19762.38
706.52	19690.29
706.865	19684.19
707.209	19707.46
707.554	19626.56
707.899	19568.93
708.243	19530.29
708.588	19529.61
708.932	19397.41
709.277	19520.12
709.621	19467.92
709.966	19223.18
710.31	19336.85
710.654	19259.11
710.998	19334.36
711.342	19334.14
711.687	19258.21
712.031	19241.26
712.375	19185.89
712.719	19198.55
713.063	19182.73
713.407	19289.85
713.75	19144.54
714.094	19105.67
714.438	19003.98
714.782	19089.85
715.125	19035.84
715.469	19046.24
715.812	18956.75
716.156	18905
716.499	18820.93
716.843	18919.46
717.186	18819.12
717.53	19022.06
717.873	18920.36
718.216	18818.9
718.559	18803.08
718.902	18739.8
719.246	18714.49
719.589	18674.72
719.932	18638.56
720.275	18695.06
720.617	18632.91
720.96	18614.61
721.303	18639.69
721.646	18647.83
721.989	18519.47
722.331	18669.75
722.674	18527.61
723.016	18522.63
723.359	18496.87
723.701	18566.02
724.044	18347.72
724.386	18348.63
724.729	18486.25
725.071	18413.03
725.413	18475.4
725.755	18352.24
726.097	18335.07
726.439	18243.77
726.782	18262.08
727.124	18387.72
727.465	18325.35
727.807	18294.62
728.149	18332.36
728.491	18235.41
728.833	18237.44
729.175	18166.26
729.516	18138.92
729.858	18246.03
730.199	18243.09
730.541	18234.96
730.882	18217.11
731.224	18196.54
731.565	18140.95
731.906	18179.82
732.248	18227.5
732.589	18153.38
732.93	18092.36
733.271	18181.85
733.612	18136.66
733.953	18196.32
734.294	18073.83
734.635	18106.37
734.976	18138.92
735.317	17999.48
735.658	18165.13
735.999	18027.96
736.339	18044.91
736.68	18131.23
737.021	18046.71
737.361	18025.25
737.702	18170.78
738.042	18160.61
738.383	18069.54
738.723	18108.41
739.063	18140.5
739.404	18272.25
739.744	18139.37
740.084	18141.18
740.424	18125.36
740.764	18053.27
741.104	18265.69
741.444	18242.64
741.784	18168.97
742.124	18204.68
742.464	18251.23
742.804	18241.06
743.143	18295.52
743.483	18312.02
743.823	18274.05
744.162	18206.94
744.502	18318.35
744.841	18396.99
745.181	18369.87
745.52	18271.12
745.86	18400.83
746.199	18454.16
746.538	18481.96
746.877	18456.65
747.216	18536.19
747.556	18435.41
747.895	18507.95
748.234	18439.47
748.573	18417.33
748.911	18519.02
749.25	18563.09
749.589	18542.29
749.928	18587.94
750.267	18640.6
750.605	18552.69
750.944	18587.72
751.283	18582.97
751.621	18643.08
751.96	18567.15
752.298	18715.85
752.636	18707.49
752.975	18622.52
753.313	18606.25
753.651	18806.92
753.989	18639.69
