Data from blue_chair_FLMS001491_00035.txt Node
Date: Wed Feb 08 10:30:36 GMT 2017
User: dcchb
Spectrometer: FLMS00149
Trigger mode: 0
Integration Time (sec): 2.000000E-2
Scans to average: 10
Electric dark correction enabled: true
Nonlinearity correction enabled: false
Boxcar width: 0
XAxis mode: Wavelengths
Number of Pixels in Spectrum: 2048
>>>>>Begin Spectral Data<<<<<
341.393	-15.54
341.776	-15.54
342.16	-15.54
342.543	-53.05
342.927	-81.52
343.31	-73.39
343.693	-53.5
344.077	-68.64
344.46	-63.22
344.843	-62.09
345.226	-47.63
345.61	-28.64
345.993	-11.02
346.376	-1.53
346.759	12.94
347.142	29.43
347.525	24.91
347.908	57
348.291	70.11
348.674	96.33
349.057	118.92
349.44	108.53
349.823	146.04
350.206	139.04
350.588	172.03
350.971	183.78
351.354	182.88
351.737	226.94
352.119	214.51
352.502	235.98
352.884	227.85
353.267	256.55
353.65	258.13
354.032	292.03
354.414	256.55
354.797	285.47
355.179	293.61
355.562	300.61
355.944	301.97
356.326	297.45
356.709	298.13
357.091	317.11
357.473	313.04
357.855	309.43
358.238	318.47
358.62	292.03
359.002	302.87
359.384	303.33
359.766	327.96
360.148	323.66
360.53	323.44
360.912	308.75
361.294	297.22
361.676	286.83
362.057	293.61
362.439	292.7
362.821	299.48
363.203	303.78
363.584	299.26
363.966	297.9
364.348	288.41
364.729	297
365.111	288.41
365.493	269.88
365.874	282.99
366.256	276.43
366.637	285.02
367.019	288.86
367.4	287.05
367.781	292.93
368.163	258.13
368.544	279.15
368.925	274.4
369.306	292.03
369.688	262.2
370.069	271.91
370.45	259.94
370.831	290.44
371.212	267.85
371.593	277.56
371.974	292.93
372.355	291.12
372.736	277.34
373.117	276.43
373.498	280.05
373.879	293.61
374.26	264.68
374.641	281.63
375.021	290.67
375.402	272.82
375.783	288.41
376.163	276.21
376.544	264.23
376.925	282.99
377.305	296.77
377.686	295.87
378.066	298.35
378.447	288.86
378.827	284.12
379.208	278.92
379.588	278.69
379.968	319.82
380.349	298.81
380.729	287.51
381.109	292.03
381.489	299.71
381.87	291.57
382.25	293.16
382.63	276.89
383.01	309.2
383.39	280.28
383.77	291.8
384.15	296.77
384.53	288.64
384.91	305.36
385.29	299.94
385.67	296.09
386.049	301.74
386.429	305.81
386.809	298.35
387.189	275.08
387.568	311.69
387.948	320.5
388.328	311.23
388.707	303.55
389.087	301.07
389.466	314.17
389.846	306.26
390.225	308.97
390.605	321.86
390.984	315.08
391.363	298.13
391.743	312.82
392.122	313.49
392.501	307.39
392.881	307.39
393.26	306.26
393.639	319.82
394.018	311.91
394.397	317.11
394.776	311.23
395.155	310.78
395.534	308.97
395.913	315.75
396.292	318.92
396.671	313.49
397.05	342.42
397.429	325.7
397.808	334.06
398.186	327.51
398.565	337.67
398.944	351.46
399.323	330.44
399.701	331.12
400.08	306.26
400.458	315.08
400.837	325.92
401.215	353.72
401.594	332.93
401.972	334.51
402.351	337.45
402.729	331.12
403.107	354.17
403.486	334.06
403.864	330.67
404.242	327.96
404.62	351.91
404.999	341.06
405.377	351.91
405.755	350.1
406.133	345.81
406.511	338.35
406.889	338.58
407.267	355.75
407.645	362.53
408.023	347.62
408.401	355.08
408.779	369.99
409.156	371.57
409.534	375.87
409.912	366.6
410.29	363.66
410.667	355.53
411.045	382.19
411.422	384.68
411.8	373.38
412.178	370.89
412.555	380.84
412.933	373.83
413.31	387.16
413.687	391.23
414.065	382.65
414.442	379.26
414.819	385.81
415.197	377.45
415.574	386.71
415.951	394.62
416.328	388.07
416.705	390.1
417.082	384.68
417.46	379.48
417.837	384.91
418.214	385.58
418.591	399.14
418.967	399.37
419.344	412.7
419.721	402.31
420.098	418.58
420.475	407.5
420.852	383.32
421.228	404.34
421.605	398.92
421.982	427.84
422.358	420.38
422.735	412.7
423.111	403.44
423.488	416.32
423.864	410.44
424.241	432.59
424.617	427.16
424.994	423.1
425.37	430.55
425.746	435.07
426.123	447.5
426.499	439.59
426.875	434.85
427.251	445.02
427.627	454.96
428.003	448.63
428.379	462.87
428.756	451.12
429.132	457.67
429.507	466.94
429.883	454.51
430.259	463.32
430.635	475.52
431.011	470.1
431.387	459.48
431.763	479.82
432.138	479.82
432.514	467.84
432.89	471.23
433.265	495.18
433.641	500.38
434.016	494.05
434.392	500.61
434.767	532.7
435.143	482.3
435.518	526.6
435.894	515.98
436.269	543.77
436.644	543.32
437.02	543.32
437.395	529.99
437.77	563.88
438.145	548.29
438.52	554.17
438.895	555.3
439.271	567.27
439.646	555.07
440.021	605.24
440.395	551
440.77	572.7
441.145	573.37
441.52	595.07
441.895	580.15
442.27	610.21
442.645	588.74
443.019	601.17
443.394	564.79
443.769	626.03
444.143	614.96
444.518	615.86
444.892	618.57
445.267	623.32
445.641	602.98
446.016	618.35
446.39	622.19
446.764	615.18
447.139	640.27
447.513	629.42
447.887	623.54
448.262	639.14
448.636	646.59
449.01	653.82
449.384	678.46
449.758	655.86
450.132	648.63
450.506	683.43
450.88	645.24
451.254	642.3
451.628	681.17
452.002	703.31
452.376	673.03
452.75	673.26
453.123	692.02
453.497	692.47
453.871	699.7
454.244	704.67
454.618	698.34
454.992	708.96
455.365	736.76
455.739	713.94
456.112	729.98
456.486	734.05
456.859	728.85
457.232	761.39
457.606	741.51
457.979	734.05
458.352	768.4
458.725	769.53
459.099	768.4
459.472	780.83
459.845	793.48
460.218	787.38
460.591	786.25
460.964	785.12
461.337	818.79
461.71	823.76
462.083	820.83
462.456	801.62
462.829	812.92
463.201	866.47
463.574	842.29
463.947	853.37
464.32	880.94
464.692	864.44
465.065	877.1
465.438	885.46
465.81	861.05
466.183	870.09
466.555	880.94
466.928	869.86
467.3	906.02
467.672	921.16
468.045	927.26
468.417	940.82
468.789	971.56
469.161	944.66
469.534	937.88
469.906	957.09
470.278	954.38
470.65	972.46
471.022	997.77
471.394	1006.36
471.766	980.14
472.138	1005.23
472.51	1027.6
472.882	1040.71
473.253	1011.1
473.625	1032.12
473.997	1067.15
474.369	1056.3
474.74	1069.63
475.112	1086.58
475.484	1102.85
475.855	1093.59
476.227	1109.86
476.598	1131.55
476.97	1133.13
477.341	1162.51
477.713	1167.94
478.084	1151.44
478.455	1191.44
478.827	1197.31
479.198	1198.44
479.569	1221.49
479.94	1233.7
480.311	1230.31
480.682	1236.41
481.053	1251.32
481.424	1317.76
481.795	1292
482.166	1318.44
482.537	1312.79
482.908	1343.98
483.279	1301.94
483.65	1340.36
484.021	1369.74
484.391	1378.1
484.762	1367.25
485.133	1376.74
485.503	1402.05
485.874	1395.73
486.244	1412.45
486.615	1429.85
486.985	1480.02
487.356	1453.8
487.726	1480.7
488.097	1449.51
488.467	1500.13
488.837	1510.3
489.207	1513.01
489.578	1529.51
489.948	1544.65
490.318	1523.63
490.688	1551.43
491.058	1554.14
491.428	1607.25
491.798	1571.31
492.168	1594.82
492.538	1604.08
492.908	1598.21
493.278	1618.09
493.648	1588.04
494.017	1630.52
494.387	1629.62
494.757	1640.69
495.126	1642.95
495.496	1649.28
495.866	1670.97
496.235	1642.05
496.605	1637.53
496.974	1666
497.344	1653.35
497.713	1688.37
498.082	1688.83
498.452	1666.45
498.821	1679.11
499.19	1676.17
499.559	1687.02
499.928	1663.52
500.298	1690.18
500.667	1717.3
501.036	1709.39
501.405	1684.98
501.774	1689.05
502.143	1675.04
502.512	1708.49
502.88	1701.25
503.249	1706.23
503.618	1729.28
503.987	1705.1
504.356	1701.48
504.724	1723.63
505.093	1720.92
505.462	1711.42
505.83	1717.07
506.199	1684.98
506.567	1746.68
506.936	1754.13
507.304	1714.14
507.672	1741.48
508.041	1725.21
508.409	1722.72
508.777	1748.94
509.145	1748.26
509.514	1748.26
509.882	1768.15
510.25	1733.57
510.618	1737.19
510.986	1754.81
511.354	1778.77
511.722	1734.47
512.09	1768.6
512.458	1733.34
512.826	1746.45
513.193	1726.34
513.561	1737.64
513.929	1741.03
514.297	1763.17
514.664	1742.16
515.032	1747.58
515.4	1751.42
515.767	1774.47
516.135	1768.37
516.502	1735.83
516.869	1802.04
517.237	1763.85
517.604	1747.36
517.972	1760.46
518.339	1727.02
518.706	1747.36
519.073	1747.36
519.44	1726.79
519.808	1734.93
520.175	1737.86
520.542	1763.63
520.909	1783.06
521.276	1754.13
521.643	1737.41
522.009	1768.37
522.376	1734.7
522.743	1766.56
523.11	1793.91
523.477	1742.61
523.843	1761.37
524.21	1760.69
524.577	1766.34
524.943	1758.88
525.31	1762.95
525.676	1741.93
526.043	1808.14
526.409	1784.87
526.776	1757.98
527.142	1771.08
527.508	1736.51
527.874	1778.54
528.241	1777.41
528.607	1753.68
528.973	1750.97
529.339	1746.23
529.705	1762.95
530.071	1765.89
530.437	1773.8
530.803	1755.04
531.169	1770.41
531.535	1783.06
531.901	1774.02
532.267	1769.95
532.632	1773.57
532.998	1754.59
533.364	1760.24
533.73	1755.26
534.095	1740.8
534.461	1755.94
534.826	1791.65
535.192	1775.15
535.557	1764.3
535.923	1770.41
536.288	1740.35
536.653	1767.92
537.019	1740.8
537.384	1756.17
537.749	1753.23
538.114	1760.24
538.479	1743.06
538.845	1728.82
539.21	1744.42
539.575	1772.21
539.94	1729.05
540.305	1721.37
540.67	1737.19
541.034	1720.01
541.399	1721.59
541.764	1715.72
542.129	1702.61
542.494	1706.23
542.858	1736.96
543.223	1709.62
543.587	1699.9
543.952	1706.9
544.316	1691.09
544.681	1687.02
545.045	1717.98
545.41	1682.95
545.774	1723.4
546.138	1696.06
546.503	1680.24
546.867	1708.26
547.231	1667.58
547.595	1706.23
547.959	1696.74
548.324	1672.1
548.688	1690.41
549.052	1682.95
549.416	1677.75
549.779	1636.17
550.143	1653.8
550.507	1650.41
550.871	1637.3
551.235	1660.58
551.599	1670.3
551.962	1643.86
552.326	1670.3
552.689	1641.6
553.053	1629.84
553.417	1624.19
553.78	1620.8
554.143	1648.37
554.507	1636.4
554.87	1627.13
555.234	1642.73
555.597	1655.61
555.96	1623.06
556.323	1643.63
556.686	1619.22
557.05	1652.89
557.413	1646.11
557.776	1602.95
558.139	1635.72
558.502	1637.53
558.865	1639.34
559.228	1629.62
559.59	1627.81
559.953	1614.03
560.316	1630.3
560.679	1641.14
561.041	1631.43
561.404	1648.6
561.767	1645.44
562.129	1630.97
562.492	1649.05
562.854	1683.4
563.217	1652.44
563.579	1647.02
563.941	1637.3
564.304	1640.01
564.666	1660.58
565.028	1662.16
565.39	1640.69
565.753	1622.39
566.115	1659.9
566.477	1636.85
566.839	1669.62
567.201	1685.44
567.563	1652.44
567.925	1668.94
568.287	1670.07
568.648	1651.99
569.01	1677.3
569.372	1684.98
569.734	1674.14
570.095	1695.15
570.457	1682.05
570.819	1729.95
571.18	1655.15
571.542	1686.34
571.903	1711.42
572.265	1693.12
572.626	1691.09
572.987	1706.9
573.349	1720.24
573.71	1733.34
574.071	1741.25
574.432	1709.84
574.794	1765.43
575.155	1716.17
575.516	1735.15
575.877	1720.69
576.238	1730.86
576.599	1739.9
576.96	1735.15
577.32	1744.87
577.681	1769.28
578.042	1762.27
578.403	1765.89
578.763	1748.26
579.124	1746.45
579.485	1757.3
579.845	1788.71
580.206	1787.35
580.566	1773.12
580.927	1786.9
581.287	1793.23
581.648	1776.28
582.008	1835.71
582.368	1770.63
582.728	1815.83
583.089	1779.9
583.449	1793.23
583.809	1795.49
584.169	1796.17
584.529	1785.77
584.889	1806.79
585.249	1828.48
585.609	1819.9
585.969	1809.95
586.329	1804.3
586.688	1794.36
587.048	1795.04
587.408	1801.37
587.768	1803.85
588.127	1816.05
588.487	1790.52
588.846	1800.91
589.206	1831.19
589.565	1794.59
589.925	1788.26
590.284	1786
590.643	1815.15
591.003	1776.73
591.362	1799.11
591.721	1814.02
592.08	1801.82
592.44	1793.91
592.799	1831.65
593.158	1815.6
593.517	1800.69
593.876	1788.71
594.235	1832.32
594.593	1792.55
594.952	1797.3
595.311	1804.3
595.67	1795.49
596.029	1830.52
596.387	1826.68
596.746	1791.65
597.104	1800.24
597.463	1795.49
597.822	1815.38
598.18	1803.62
598.538	1811.53
598.897	1811.08
599.255	1801.37
599.613	1822.83
599.972	1798.88
600.33	1785.32
600.688	1786.9
601.046	1794.81
601.404	1810.4
601.762	1805.88
602.12	1809.05
602.478	1790.97
602.836	1796.39
603.194	1808.6
603.552	1785.77
603.91	1796.17
604.268	1776.28
604.625	1807.92
604.983	1813.57
605.341	1826.22
605.698	1820.57
606.056	1793.91
606.413	1840.01
606.771	1806.56
607.128	1799.11
607.485	1806.34
607.843	1791.87
608.2	1805.21
608.557	1819.22
608.914	1807.24
609.272	1832.32
609.629	1807.24
609.986	1815.15
610.343	1808.14
610.7	1817.64
611.057	1815.38
611.414	1791.2
611.771	1848.6
612.127	1832.32
612.484	1837.07
612.841	1836.84
613.198	1821.93
613.554	1801.82
613.911	1861.7
614.267	1796.17
614.624	1833
614.98	1854.02
615.337	1831.87
615.693	1822.38
616.05	1824.19
616.406	1854.92
616.762	1847.01
617.118	1858.31
617.475	1856.28
617.831	1883.85
618.187	1844.98
618.543	1836.17
618.899	1874.36
619.255	1833.23
619.611	1858.09
619.967	1879.33
620.323	1844.53
620.678	1860.12
621.034	1821.7
621.39	1819.9
621.746	1858.31
622.101	1856.96
622.457	1836.17
622.812	1847.92
623.168	1830.29
623.523	1855.83
623.879	1842.04
624.234	1870.97
624.589	1877.52
624.945	1857.18
625.3	1875.94
625.655	1871.65
626.01	1852.21
626.365	1891.08
626.72	1847.01
627.075	1873.23
627.43	1862.61
627.785	1842.49
628.14	1856.5
628.495	1898.31
628.85	1882.04
629.205	1871.65
629.559	1872.32
629.914	1855.6
630.269	1887.69
630.623	1884.53
630.978	1892.66
631.332	1849.95
631.687	1835.26
632.041	1833.91
632.396	1858.31
632.75	1848.6
633.104	1857.41
633.459	1848.37
633.813	1848.37
634.167	1849.05
634.521	1853.57
634.875	1839.56
635.229	1833
635.583	1822.16
635.937	1870.52
636.291	1861.93
636.645	1852.21
636.999	1840.91
637.352	1832.78
637.706	1848.14
638.06	1820.57
638.413	1845.21
638.767	1825.32
639.121	1851.76
639.474	1831.19
639.828	1849.73
640.181	1862.15
640.534	1830.97
640.888	1855.15
641.241	1866.45
641.594	1847.69
641.947	1848.6
642.301	1847.69
642.654	1831.87
643.007	1842.72
643.36	1828.26
643.713	1838.65
644.066	1801.37
644.419	1840.01
644.771	1832.32
645.124	1807.01
645.477	1823.51
645.83	1814.92
646.182	1810.18
646.535	1789.39
646.888	1830.29
647.24	1830.74
647.593	1812.21
647.945	1789.16
648.298	1799.78
648.65	1795.94
649.002	1777.64
649.355	1825.77
649.707	1778.54
650.059	1840.01
650.411	1819.44
650.763	1856.5
651.115	1840.23
651.467	1858.31
651.819	1835.49
652.171	1842.95
652.523	1825.32
652.875	1858.99
653.227	1872.1
653.578	1842.72
653.93	1838.43
654.282	1833.68
654.633	1870.97
654.985	1840.01
655.337	1855.83
655.688	1861.93
656.039	1829.16
656.391	1837.97
656.742	1853.57
657.094	1833.23
657.445	1828.26
657.796	1847.92
658.147	1842.49
658.498	1840.91
658.849	1862.61
659.2	1862.38
659.551	1844.98
659.902	1887.69
660.253	1866.9
660.604	1880.01
660.955	1853.12
661.306	1856.73
661.656	1863.06
662.007	1839.78
662.358	1884.3
662.708	1861.25
663.059	1856.05
663.409	1854.25
663.76	1895.37
664.11	1869.39
664.461	1865.77
664.811	1863.28
665.161	1843.17
665.511	1847.69
665.862	1883.4
666.212	1847.01
666.562	1851.31
666.912	1858.76
667.262	1873.68
667.612	1849.95
667.962	1856.5
668.312	1861.25
668.662	1853.12
669.011	1838.2
669.361	1846.79
669.711	1858.09
670.06	1869.16
670.41	1852.89
670.76	1850.63
671.109	1858.09
671.459	1859.89
671.808	1850.4
672.157	1835.04
672.507	1854.25
672.856	1851.08
673.205	1846.56
673.554	1852.21
673.904	1864.87
674.253	1830.29
674.602	1846.34
674.951	1839.78
675.3	1799.56
675.649	1842.49
675.998	1826.45
676.346	1811.76
676.695	1829.61
677.044	1832.55
677.393	1829.39
677.741	1826
678.09	1809.73
678.438	1794.81
678.787	1837.3
679.135	1802.49
679.484	1829.16
679.832	1826.68
680.181	1818.77
680.529	1800.24
680.877	1802.49
681.225	1795.72
681.573	1820.57
681.922	1788.26
682.27	1775.15
682.618	1780.8
682.966	1764.3
683.314	1781.25
683.661	1762.72
684.009	1783.29
684.357	1788.48
684.705	1746.9
685.053	1739.45
685.4	1755.26
685.748	1739.22
686.095	1724.3
686.443	1744.87
686.79	1742.61
687.138	1724.08
687.485	1732.44
687.832	1708.26
688.18	1706.45
688.527	1709.84
688.874	1733.12
689.221	1727.24
689.568	1689.96
689.915	1703.51
690.262	1697.86
690.609	1707.36
690.956	1693.12
691.303	1661.71
691.65	1677.07
691.997	1674.81
692.344	1669.84
692.69	1679.33
693.037	1673.68
693.383	1654.48
693.73	1667.81
694.077	1652.67
694.423	1639.79
694.769	1657.87
695.116	1622.61
695.462	1633.23
695.808	1624.65
696.155	1643.18
696.501	1635.49
696.847	1616.51
697.193	1638.21
697.539	1618.55
697.885	1604.76
698.231	1577.42
698.577	1613.8
698.923	1605.21
699.269	1602.95
699.614	1590.98
699.96	1610.18
700.306	1599.79
700.651	1590.52
700.997	1586.68
701.342	1557.08
701.688	1553.46
702.033	1588.72
702.379	1565.44
702.724	1575.16
703.069	1572.9
703.415	1582.84
703.76	1566.12
704.105	1561.37
704.45	1565.89
704.795	1570.86
705.14	1590.07
705.485	1543.29
705.83	1539.45
706.175	1565.67
706.52	1560.02
706.865	1520.47
707.209	1571.99
707.554	1554.59
707.899	1559.11
708.243	1527.02
708.588	1566.79
708.932	1542.16
709.277	1523.41
709.621	1534.93
709.966	1533.58
710.31	1524.31
710.654	1534.71
710.998	1546.23
711.342	1523.86
711.687	1543.52
712.031	1522.28
712.375	1568.38
712.719	1548.49
713.063	1534.25
713.407	1532.67
713.75	1542.39
714.094	1527.93
714.438	1564.08
714.782	1537.42
715.125	1581.71
715.469	1568.38
715.812	1546.68
716.156	1560.47
716.499	1561.6
716.843	1561.37
717.186	1568.83
717.53	1568.6
717.873	1562.28
718.216	1552.56
718.559	1569.96
718.902	1541.03
719.246	1577.87
719.589	1563.18
719.932	1576.96
720.275	1558.21
720.617	1584.2
720.96	1566.34
721.303	1553.46
721.646	1590.3
721.989	1591.88
722.331	1602.05
722.674	1592.11
723.016	1577.42
723.359	1623.97
723.701	1593.46
724.044	1594.82
724.386	1585.1
724.729	1620.8
725.071	1605.44
725.413	1649.5
725.755	1629.17
726.097	1614.7
726.439	1574.93
726.782	1622.39
727.124	1621.03
727.465	1646.11
727.807	1623.52
728.149	1646.11
728.491	1633.01
728.833	1665.1
729.175	1656.06
729.516	1676.4
729.858	1664.65
730.199	1646.79
730.541	1701.48
730.882	1692.22
731.224	1673.46
731.565	1642.5
731.906	1726.79
732.248	1713.91
732.589	1683.63
732.93	1679.56
733.271	1724.3
733.612	1727.92
733.953	1743.06
734.294	1749.84
734.635	1746.68
734.976	1750.97
735.317	1762.72
735.658	1703.06
735.999	1740.35
736.339	1739.9
736.68	1761.14
737.021	1804.98
737.361	1768.82
737.702	1815.6
738.042	1803.85
738.383	1810.86
738.723	1815.83
739.063	1829.16
739.404	1834.13
739.744	1848.14
740.084	1861.02
740.424	1860.8
740.764	1884.07
741.104	1942.83
741.444	1905.09
741.784	1923.17
742.124	1955.26
742.464	1963.85
742.804	1981.93
743.143	1993.22
743.483	1997.74
743.823	1991.42
744.162	2031.64
744.502	2033.22
744.841	2052.21
745.181	2080.91
745.52	2077.29
745.86	2128.59
746.199	2131.53
746.538	2140.79
746.877	2164.97
747.216	2179.43
747.556	2199.77
747.895	2203.61
748.234	2218.3
748.573	2252.88
748.911	2289.94
749.25	2330.39
749.589	2363.38
749.928	2376.27
750.267	2407.45
750.605	2409.71
750.944	2459.43
751.283	2482.48
751.621	2516.83
751.96	2544.62
752.298	2584.4
752.636	2642.02
752.975	2638.63
753.313	2648.35
753.651	2736.03
753.989	2759.31
754.327	2828.91
754.666	2838.63
755.004	2881.34
755.342	2925.63
755.679	2928.57
756.017	3015.12
756.355	3023.93
756.693	3075.91
757.031	3153.42
757.368	3173.98
757.706	3178.73
758.044	3231.61
758.381	3273.42
758.719	3300.99
759.056	3357.03
759.394	3376.69
759.731	3446.75
760.068	3506.18
760.405	3481.77
760.743	3563.35
761.08	3592.05
761.417	3613.75
761.754	3669.11
762.091	3701.43
762.428	3691.03
762.765	3775.55
763.102	3804.48
763.438	3841.09
763.775	3846.28
764.112	3907.07
764.449	3947.75
764.785	3946.39
765.122	4009.44
765.458	4050.35
765.795	4077.46
766.131	4086.73
766.467	4095.77
766.804	4168.99
767.14	4159.5
767.476	4205.37
767.812	4194.75
768.148	4284.01
768.485	4312.49
768.821	4265.48
769.157	4309.77
769.492	4360.85
769.828	4350.9
770.164	4394.52
770.5	4401.07
770.836	4453.05
771.171	4408.98
771.507	4450.33
771.842	4427.28
