Data from blue_chair_FLMS001491_00037.txt Node
Date: Wed Feb 08 10:30:37 GMT 2017
User: dcchb
Spectrometer: FLMS00149
Trigger mode: 0
Integration Time (sec): 2.000000E-2
Scans to average: 10
Electric dark correction enabled: true
Nonlinearity correction enabled: false
Boxcar width: 0
XAxis mode: Wavelengths
Number of Pixels in Spectrum: 2048
>>>>>Begin Spectral Data<<<<<
341.393	-18.69
341.776	-18.69
342.16	-18.69
342.543	-67.5
342.927	-34.96
343.31	-69.08
343.693	-66.82
344.077	-75.63
344.46	-47.39
344.843	-37.67
345.226	-31.12
345.61	-24.34
345.993	-16.43
346.376	2.78
346.759	17.92
347.142	12.05
347.525	27.41
347.908	45.04
348.291	69.22
348.674	96.11
349.057	97.92
349.44	97.92
349.823	134.76
350.206	146.06
350.588	167.3
350.971	167.52
351.354	196.45
351.737	203.46
352.119	238.26
352.502	238.03
352.884	244.36
353.267	265.83
353.65	264.02
354.032	275.54
354.414	291.36
354.797	294.53
355.179	295.2
355.562	283.68
355.944	287.97
356.326	310.34
356.709	301.53
357.091	308.99
357.473	328.42
357.855	315.09
358.238	318.25
358.62	314.64
359.002	292.94
359.384	319.16
359.766	293.85
360.148	305.37
360.53	300.18
360.912	281.42
361.294	304.24
361.676	304.92
362.057	307.86
362.439	307.18
362.821	267.18
363.203	299.27
363.584	276.67
363.966	304.47
364.348	288.88
364.729	295.2
365.111	290.23
365.493	292.94
365.874	304.92
366.256	292.27
366.637	301.08
367.019	287.97
367.4	276.45
367.781	280.52
368.163	296.79
368.544	303.34
368.925	292.27
369.306	283
369.688	268.09
370.069	277.13
370.45	273.51
370.831	294.75
371.212	263.57
371.593	278.26
371.974	287.07
372.355	276.22
372.736	273.74
373.117	268.76
373.498	286.16
373.879	286.84
374.26	278.93
374.641	266.73
375.021	273.28
375.402	282.1
375.783	289.1
376.163	302.89
376.544	305.15
376.925	297.01
377.305	290.01
377.686	280.74
378.066	307.18
378.447	287.97
378.827	320.29
379.208	283.68
379.588	287.75
379.968	306.05
380.349	288.2
380.729	285.94
381.109	297.69
381.489	292.49
381.87	290.91
382.25	275.09
382.63	284.81
383.01	316.22
383.39	293.62
383.77	302.21
384.15	305.6
384.53	296.56
384.91	283.68
385.29	292.49
385.67	302.89
386.049	293.62
386.429	308.76
386.809	307.41
387.189	300.18
387.568	295.88
387.948	298.82
388.328	314.64
388.707	294.53
389.087	301.76
389.466	299.72
389.846	290.68
390.225	294.98
390.605	305.37
390.984	317.12
391.363	318.03
391.743	320.29
392.122	329.55
392.501	312.83
392.881	318.71
393.26	319.84
393.639	313.51
394.018	327.52
394.397	299.95
394.776	305.83
395.155	335.2
395.534	316.9
395.913	307.41
396.292	316.67
396.671	315.32
397.05	305.37
397.429	297.92
397.808	311.25
398.186	325.94
398.565	318.48
398.944	329.55
399.323	330.46
399.701	349.21
400.08	325.26
400.458	309.67
400.837	326.84
401.215	334.53
401.594	337.24
401.972	346.73
402.351	334.98
402.729	334.75
403.107	356.45
403.486	339.72
403.864	337.69
404.242	333.62
404.62	328.88
404.999	353.51
405.377	350.34
405.755	334.98
406.133	345.6
406.511	353.06
406.889	353.96
407.267	355.32
407.645	367.74
408.023	365.94
408.401	346.73
408.779	356.9
409.156	353.06
409.534	353.51
409.912	361.42
410.29	361.87
410.667	363.68
411.045	387.41
411.422	352.6
411.8	361.19
412.178	366.61
412.555	383.79
412.933	360.51
413.31	382.66
413.687	392.6
414.065	364.81
414.442	399.16
414.819	405.26
415.197	398.48
415.574	381.08
415.951	367.07
416.328	385.6
416.705	394.86
417.082	404.81
417.46	382.89
417.837	388.53
418.214	390.79
418.591	385.15
418.967	394.64
419.344	397.8
419.721	391.02
420.098	390.57
420.475	420.62
420.852	404.35
421.228	425.82
421.605	433.96
421.982	397.8
422.358	391.47
422.735	427.18
423.111	426.5
423.488	414.97
423.864	427.86
424.241	433.05
424.617	426.73
424.994	432.6
425.37	426.27
425.746	434.18
426.123	433.28
426.499	431.92
426.875	420.62
427.251	440.74
427.627	450.68
428.003	440.06
428.379	472.6
428.756	437.57
429.132	458.36
429.507	470.34
429.883	460.62
430.259	460.17
430.635	465.37
431.011	458.14
431.387	473.28
431.763	493.84
432.138	471.02
432.514	473.73
432.89	496.1
433.265	498.59
433.641	494.75
434.016	492.26
434.392	486.39
434.767	504.46
435.143	501.07
435.518	499.94
435.894	525.25
436.269	530.9
436.644	530.68
437.02	504.69
437.395	544.69
437.77	543.11
438.145	534.97
438.52	538.59
438.895	562.09
439.271	555.99
439.646	559.38
440.021	551.69
440.395	586.72
440.77	554.86
441.145	586.04
441.52	575.2
441.895	584.01
442.27	584.01
442.645	593.28
443.019	610.22
443.394	604.35
443.769	603.67
444.143	626.72
444.518	631.69
444.892	613.61
445.267	611.13
445.641	615.2
446.016	613.84
446.39	633.5
446.764	631.92
447.139	635.31
447.513	635.99
447.887	642.99
448.262	626.27
448.636	625.82
449.01	643.9
449.384	667.4
449.758	653.16
450.132	647.29
450.506	624.23
450.88	668.3
451.254	651.13
451.628	678.7
452.002	659.26
452.376	664.01
452.75	704.23
453.123	698.13
453.497	693.39
453.871	715.08
454.244	688.87
454.618	718.7
454.992	720.73
455.365	709.2
455.739	734.06
456.112	745.36
456.486	743.33
456.859	717.79
457.232	755.98
457.606	760.5
457.979	726.83
458.352	757.11
458.725	795.98
459.099	777.9
459.472	800.95
459.845	775.19
460.218	796.66
460.591	764.8
460.964	790.56
461.337	815.64
461.71	821.97
462.083	813.83
462.456	833.5
462.829	823.78
463.201	819.94
463.574	845.92
463.947	830.56
464.32	870.56
464.692	854.29
465.065	854.51
465.438	878.69
465.81	891.57
466.183	890.22
466.555	917.56
466.928	908.97
467.3	909.2
467.672	909.65
468.045	929.09
468.417	946.03
468.789	939.48
469.161	944
469.534	970.21
469.906	953.72
470.278	982.19
470.65	967.73
471.022	977.45
471.394	968.18
471.766	981.74
472.138	992.81
472.51	1031.23
472.882	1018.35
473.253	1015.86
473.625	1017.22
473.997	1051.34
474.369	1051.57
474.74	1072.81
475.112	1083.88
475.484	1079.59
475.855	1120.49
476.227	1119.14
476.598	1127.27
476.97	1104
477.341	1151
477.713	1169.31
478.084	1139.48
478.455	1185.12
478.827	1171.11
479.198	1207.27
479.569	1218.34
479.94	1222.86
480.311	1220.6
480.682	1261.05
481.053	1268.51
481.424	1288.4
481.795	1276.2
482.166	1295.18
482.537	1274.39
482.908	1333.14
483.279	1348.51
483.65	1339.47
484.021	1340.15
484.391	1400.49
484.762	1399.36
485.133	1373.59
485.503	1430.99
485.874	1393.71
486.244	1406.59
486.615	1452.69
486.985	1450.2
487.356	1470.09
487.726	1475.74
488.097	1465.34
488.467	1496.53
488.837	1494.27
489.207	1512.57
489.578	1522.06
489.948	1565.23
490.318	1556.41
490.688	1512.12
491.058	1574.04
491.428	1569.52
491.798	1604.32
492.168	1606.36
492.538	1606.58
492.908	1586.47
493.278	1568.16
493.648	1619.92
494.017	1638.45
494.387	1616.98
494.757	1612.01
495.126	1630.99
495.496	1638.45
495.866	1661.72
496.235	1644.32
496.605	1653.36
496.974	1660.82
497.344	1700.82
497.713	1685.9
498.082	1691.1
498.452	1688.39
498.821	1700.14
499.19	1683.19
499.559	1706.47
499.928	1707.37
500.298	1696.75
500.667	1708.73
501.036	1679.12
501.405	1702.17
501.774	1680.93
502.143	1730.87
502.512	1724.09
502.88	1703.08
503.249	1745.56
503.618	1731.1
503.987	1701.04
504.356	1705.34
504.724	1723.19
505.093	1701.95
505.462	1729.97
505.83	1703.3
506.199	1720.03
506.567	1741.49
506.936	1754.15
507.304	1760.93
507.672	1734.04
508.041	1757.54
508.409	1731.32
508.777	1720.03
509.145	1759.57
509.514	1767.03
509.882	1721.16
510.25	1730.19
510.618	1769.52
510.986	1723.64
511.354	1750.99
511.722	1729.29
512.09	1768.61
512.458	1759.35
512.826	1768.16
513.193	1772
513.561	1770.87
513.929	1753.92
514.297	1783.75
514.664	1755.05
515.032	1782.62
515.4	1745.56
515.767	1756.41
516.135	1737.43
516.502	1739.69
516.869	1752.11
517.237	1749.18
517.604	1761.15
517.972	1754.6
518.339	1744.43
518.706	1757.31
519.073	1752.79
519.44	1757.54
519.808	1765.67
520.175	1768.16
520.542	1736.52
520.909	1743.98
521.276	1732
521.643	1765.45
522.009	1745.11
522.376	1758.89
522.743	1763.41
523.11	1755.96
523.477	1759.57
523.843	1786.46
524.21	1785.56
524.577	1737.65
524.943	1774.04
525.31	1741.27
525.676	1800.25
526.043	1767.71
526.409	1781.72
526.776	1767.26
527.142	1757.54
527.508	1779.23
527.874	1786.69
528.241	1771.1
528.607	1797.09
528.973	1747.14
529.339	1734.94
529.705	1758.89
530.071	1772.68
530.437	1778.55
530.803	1767.26
531.169	1787.37
531.535	1772.68
531.901	1784.66
532.267	1769.97
532.632	1765
532.998	1754.15
533.364	1735.84
533.73	1765
534.095	1761.61
534.461	1786.24
534.826	1798.67
535.192	1772.23
535.557	1768.61
535.923	1767.48
536.288	1755.73
536.653	1761.38
537.019	1764.54
537.384	1782.85
537.749	1756.41
538.114	1725.22
538.479	1738.33
538.845	1741.04
539.21	1706.69
539.575	1734.94
539.94	1716.64
540.305	1708.95
540.67	1726.8
541.034	1719.35
541.399	1718.9
541.764	1753.02
542.129	1696.75
542.494	1725.67
542.858	1705.34
543.223	1733.36
543.587	1693.36
543.952	1709.18
544.316	1694.49
544.681	1689.74
545.045	1698.11
545.41	1682.06
545.774	1705.56
546.138	1709.63
546.503	1689.07
546.867	1668.95
547.231	1684.77
547.595	1688.61
547.959	1716.86
548.324	1650.42
548.688	1683.87
549.052	1687.94
549.416	1668.95
549.779	1662.63
550.143	1641.38
550.507	1676.18
550.871	1676.86
551.235	1644.55
551.599	1636.64
551.962	1638.45
552.326	1650.87
552.689	1647.71
553.053	1629.41
553.417	1605.9
553.78	1645.9
554.143	1652.91
554.507	1640.71
554.87	1633.25
555.234	1645.9
555.597	1628.73
555.96	1616.53
556.323	1612.46
556.686	1633.02
557.05	1668.05
557.413	1596.64
557.776	1619.24
558.139	1655.85
558.502	1639.58
558.865	1628.95
559.228	1642.74
559.59	1637.09
559.953	1626.02
560.316	1668.05
560.679	1630.31
561.041	1646.81
561.404	1592.35
561.767	1680.25
562.129	1625.11
562.492	1640.48
562.854	1637.32
563.217	1620.82
563.579	1633.47
563.941	1651.33
564.304	1664.43
564.666	1653.36
565.028	1679.8
565.39	1663.08
565.753	1643.42
566.115	1665.34
566.477	1676.64
566.839	1660.14
567.201	1685.68
567.563	1653.81
567.925	1651.1
568.287	1680.7
568.648	1681.16
569.01	1696.52
569.372	1669.18
569.734	1682.74
570.095	1661.72
570.457	1717.99
570.819	1717.77
571.18	1713.02
571.542	1708.95
571.903	1706.92
572.265	1706.24
572.626	1701.49
572.987	1696.07
573.349	1726.8
573.71	1757.54
574.071	1710.53
574.432	1707.82
574.794	1735.39
575.155	1703.3
575.516	1727.48
575.877	1738.1
576.238	1762.06
576.599	1739.23
576.96	1732.45
577.32	1739.23
577.681	1740.59
578.042	1751.21
578.403	1752.57
578.763	1768.16
579.124	1765.9
579.485	1739.91
579.845	1773.36
580.206	1772
580.566	1778.55
580.927	1765.67
581.287	1795.73
581.648	1772
582.008	1759.8
582.368	1764.32
582.728	1777.43
583.089	1800.02
583.449	1808.84
583.809	1797.76
584.169	1795.96
584.529	1812.68
584.889	1816.97
585.249	1799.8
585.609	1784.66
585.969	1805.67
586.329	1806.12
586.688	1814.94
587.048	1830.98
587.408	1799.12
587.768	1807.03
588.127	1815.62
588.487	1802.51
588.846	1804.99
589.206	1821.04
589.565	1812
589.925	1822.17
590.284	1774.94
590.643	1824.43
591.003	1789.63
591.362	1788.95
591.721	1800.93
592.08	1783.75
592.44	1796.63
592.799	1805.22
593.158	1818.78
593.517	1795.5
593.876	1836.63
594.235	1814.03
594.593	1780.59
594.952	1803.19
595.311	1813.36
595.67	1796.63
596.029	1851.55
596.387	1793.92
596.746	1814.71
597.104	1803.19
597.463	1820.81
597.822	1784.66
598.18	1801.83
598.538	1798.89
598.897	1801.83
599.255	1819.91
599.613	1776.52
599.972	1792.79
600.33	1764.77
600.688	1807.03
601.046	1812.45
601.404	1791.66
601.762	1789.4
602.12	1806.58
602.478	1768.84
602.836	1807.71
603.194	1771.78
603.552	1791.21
603.91	1806.8
604.268	1818.55
604.625	1804.54
604.983	1822.17
605.341	1833.24
605.698	1788.5
606.056	1806.8
606.413	1812.45
606.771	1805.45
607.128	1799.57
607.485	1821.94
607.843	1795.96
608.2	1762.96
608.557	1819.68
608.914	1788.5
609.272	1810.19
609.629	1827.14
609.986	1823.98
610.343	1804.32
610.7	1841.38
611.057	1828.95
611.414	1805.67
611.771	1803.64
612.127	1826.46
612.484	1812.9
612.841	1835.28
613.198	1821.94
613.554	1858.1
613.911	1819.46
614.267	1812.23
614.624	1841.83
614.98	1837.08
615.337	1821.72
615.693	1834.37
616.05	1828.95
616.406	1842.51
616.762	1797.99
617.118	1850.87
617.475	1844.99
617.831	1850.42
618.187	1827.14
618.543	1846.8
618.899	1839.8
619.255	1852
619.611	1872.11
619.967	1841.83
620.323	1843.86
620.678	1868.27
621.034	1868.27
621.39	1839.8
621.746	1850.19
622.101	1850.42
622.457	1828.05
622.812	1851.1
623.168	1898.1
623.523	1863.52
623.879	1872.34
624.234	1869.63
624.589	1845.9
624.945	1858.55
625.3	1871.66
625.655	1841.15
626.01	1865.33
626.365	1887.25
626.72	1851.32
627.075	1875.5
627.43	1876.86
627.785	1879.34
628.14	1896.29
628.495	1854.49
628.85	1901.04
629.205	1822.17
629.559	1894.03
629.914	1875.28
630.269	1874.15
630.623	1848.84
630.978	1861.26
631.332	1863.98
631.687	1847.03
632.041	1849.74
632.396	1869.17
632.75	1853.58
633.104	1851.77
633.459	1877.54
633.813	1865.11
634.167	1869.85
634.521	1868.95
634.875	1860.36
635.229	1834.37
635.583	1876.41
635.937	1862.85
636.291	1854.03
636.645	1839.8
636.999	1849.29
637.352	1826.92
637.706	1843.41
638.06	1866.46
638.413	1854.71
638.767	1838.89
639.121	1867.14
639.474	1844.77
639.828	1847.25
640.181	1842.28
640.534	1844.09
640.888	1812.9
641.241	1855.84
641.594	1809.74
641.947	1808.61
642.301	1831.66
642.654	1845.45
643.007	1835.5
643.36	1860.36
643.713	1843.64
644.066	1850.87
644.419	1840.25
644.771	1823.98
645.124	1828.5
645.477	1805.9
645.83	1784.66
646.182	1791.66
646.535	1815.39
646.888	1805.22
647.24	1809.97
647.593	1798.89
647.945	1791.44
648.298	1794.83
648.65	1792.34
649.002	1818.55
649.355	1817.65
649.707	1792.11
650.059	1793.92
650.411	1801.38
650.763	1830.53
651.115	1833.24
651.467	1807.71
651.819	1850.19
652.171	1847.25
652.523	1851.32
652.875	1835.95
653.227	1845.22
653.578	1848.84
653.93	1838.21
654.282	1830.76
654.633	1826.46
654.985	1855.84
655.337	1834.6
655.688	1834.15
656.039	1851.32
656.391	1826.46
656.742	1830.3
657.094	1878.44
657.445	1820.14
657.796	1842.73
658.147	1831.21
658.498	1861.04
658.849	1879.12
659.2	1854.71
659.551	1849.51
659.902	1852.45
660.253	1879.34
660.604	1849.51
660.955	1873.02
661.306	1879.34
661.656	1846.58
662.007	1856.97
662.358	1856.74
662.708	1853.81
663.059	1845.45
663.409	1876.41
663.76	1837.99
664.11	1877.76
664.461	1895.61
664.811	1869.63
665.161	1842.51
665.511	1865.78
665.862	1851.32
666.212	1880.25
666.562	1874.37
666.912	1874.15
667.262	1852.23
667.612	1873.24
667.962	1875.28
668.312	1859.68
668.662	1836.86
669.011	1848.84
669.361	1841.83
669.711	1834.15
670.06	1870.53
670.41	1854.26
670.76	1848.61
671.109	1850.42
671.459	1860.13
671.808	1851.32
672.157	1846.35
672.507	1833.47
672.856	1852.9
673.205	1834.37
673.554	1825.11
673.904	1835.05
674.253	1861.94
674.602	1807.03
674.951	1806.35
675.3	1800.7
675.649	1805.67
675.998	1820.59
676.346	1816.97
676.695	1828.72
677.044	1812.45
677.393	1835.73
677.741	1810.87
678.09	1803.86
678.438	1800.02
678.787	1791.21
679.135	1801.38
679.484	1791.89
679.832	1818.55
680.181	1783.75
680.529	1782.17
680.877	1779.91
681.225	1818.78
681.573	1810.19
681.922	1779.68
682.27	1760.25
682.618	1796.63
682.966	1748.73
683.314	1762.06
683.661	1782.17
684.009	1767.93
684.357	1752.57
684.705	1738.1
685.053	1737.88
685.4	1747.37
685.748	1730.87
686.095	1715.96
686.443	1734.26
686.79	1739.69
687.138	1699.69
687.485	1728.39
687.832	1717.77
688.18	1718.9
688.527	1710.76
688.874	1732
689.221	1737.65
689.568	1679.12
689.915	1690.87
690.262	1715.05
690.609	1729.29
690.956	1705.56
691.303	1663.53
691.65	1674.15
691.997	1682.96
692.344	1661.04
692.69	1711.21
693.037	1642.97
693.383	1642.29
693.73	1680.48
694.077	1678.44
694.423	1657.43
694.769	1661.27
695.116	1633.25
695.462	1672.79
695.808	1636.19
696.155	1626.47
696.501	1586.47
696.847	1658.33
697.193	1607.03
697.539	1597.99
697.885	1626.02
698.231	1611.1
698.577	1606.36
698.923	1587.6
699.269	1581.27
699.614	1600.25
699.96	1588.73
700.306	1598.45
700.651	1587.83
700.997	1581.05
701.342	1590.31
701.688	1573.81
702.033	1564.78
702.379	1576.98
702.724	1584.89
703.069	1597.54
703.415	1535.4
703.76	1582.63
704.105	1543.76
704.45	1560.03
704.795	1573.59
705.14	1574.27
705.485	1547.15
705.83	1565.45
706.175	1539.47
706.52	1578.11
706.865	1557.77
707.209	1533.14
707.554	1558
707.899	1572.68
708.243	1528.17
708.588	1546.47
708.932	1531.56
709.277	1574.04
709.621	1560.48
709.966	1553.48
710.31	1532.69
710.654	1542.18
710.998	1536.53
711.342	1553.7
711.687	1533.36
712.031	1547.15
712.375	1530.65
712.719	1557.54
713.063	1547.6
713.407	1515.29
713.75	1542.85
714.094	1543.53
714.438	1550.09
714.782	1530.65
715.125	1553.48
715.469	1553.7
715.812	1550.54
716.156	1544.89
716.499	1559.58
716.843	1556.64
717.186	1561.39
717.53	1567.49
717.873	1575.17
718.216	1554.83
718.559	1553.93
718.902	1545.79
719.246	1585.57
719.589	1594.15
719.932	1554.15
720.275	1591.44
720.617	1592.57
720.96	1541.05
721.303	1592.35
721.646	1600.25
721.989	1587.6
722.331	1593.48
722.674	1583.98
723.016	1578.56
723.359	1586.7
723.701	1569.52
724.044	1603.87
724.386	1586.47
724.729	1595.06
725.071	1591.44
725.413	1618.79
725.755	1626.24
726.097	1612.01
726.439	1604.77
726.782	1607.03
727.124	1638.22
727.465	1599.58
727.807	1648.61
728.149	1637.54
728.491	1659.01
728.833	1669.86
729.175	1649.52
729.516	1653.59
729.858	1666.47
730.199	1677.54
730.541	1659.46
730.882	1659.01
731.224	1647.26
731.565	1653.59
731.906	1689.07
732.248	1702.62
732.589	1703.98
732.93	1718.44
733.271	1719.12
733.612	1703.98
733.953	1737.2
734.294	1728.84
734.635	1744.88
734.976	1735.17
735.317	1735.39
735.658	1741.49
735.999	1758.22
736.339	1746.24
736.68	1785.79
737.021	1789.63
737.361	1804.32
737.702	1781.49
738.042	1805.45
738.383	1841.38
738.723	1828.05
739.063	1880.93
739.404	1867.14
739.744	1825.56
740.084	1834.6
740.424	1863.75
740.764	1885.22
741.104	1883.64
741.444	1909.62
741.784	1905.11
742.124	1950.75
742.464	1986.46
742.804	1998.21
743.143	1969.74
743.483	1995.72
743.823	1980.36
744.162	2023.29
744.502	2055.61
744.841	2030.3
745.181	2072.33
745.52	2063.52
745.86	2073.91
746.199	2135.38
746.538	2147.13
746.877	2173.35
747.216	2189.84
747.556	2235.49
747.895	2227.81
748.234	2229.84
748.573	2259.45
748.911	2324.08
749.25	2349.61
749.589	2331.76
749.928	2334.25
750.267	2395.26
750.605	2442.72
750.944	2469.61
751.283	2503.96
751.621	2501.7
751.96	2577.18
752.298	2589.38
752.636	2642.71
752.975	2639.55
753.313	2678.87
753.651	2729.04
753.989	2768.13
754.327	2808.36
754.666	2848.81
755.004	2897.17
755.342	2909.82
755.679	2956.38
756.017	2996.38
756.355	3057.39
756.693	3045.19
757.031	3132.42
757.368	3158.41
757.706	3215.58
758.044	3222.13
758.381	3286.76
758.719	3314.79
759.056	3369.02
759.394	3425.29
759.731	3409.47
760.068	3470.94
760.405	3476.82
760.743	3512.97
761.08	3614.66
761.417	3604.04
761.754	3675
762.091	3717.26
762.428	3742.35
762.765	3762.23
763.102	3808.11
763.438	3819.63
763.775	3859.86
764.112	3924.04
764.449	3954.54
764.785	4004.03
765.122	3959.97
765.458	4057.82
765.795	4072.96
766.131	4133.75
766.467	4107.31
766.804	4164.03
767.14	4158.61
767.476	4225.04
767.812	4208.55
768.148	4257.81
768.485	4234.31
768.821	4275.21
769.157	4305.95
769.492	4312.05
769.828	4387.53
770.164	4409.67
770.5	4363.57
770.836	4379.84
771.171	4459.84
771.507	4427.07
771.842	4444.7
