Data from blue_clamp_base_FLMS001491_00049.txt Node
Date: Wed Feb 08 15:16:04 GMT 2017
User: dcchb
Spectrometer: FLMS00149
Trigger mode: 0
Integration Time (sec): 2.000000E-2
Scans to average: 10
Electric dark correction enabled: true
Nonlinearity correction enabled: false
Boxcar width: 0
XAxis mode: Wavelengths
Number of Pixels in Spectrum: 2048
>>>>>Begin Spectral Data<<<<<
341.393	-2.66
341.776	-2.66
342.16	-2.66
342.543	-59.6
342.927	-78.13
343.31	-68.42
343.693	-73.39
344.077	-62.77
344.46	-60.28
344.843	-66.83
345.226	-34.29
345.61	-40.17
345.993	-11.24
346.376	-4.69
346.759	0.96
347.142	17.23
347.525	45.93
347.908	81.18
348.291	86.61
348.674	88.87
349.057	101.3
349.44	116.89
349.823	149.66
350.206	168.87
350.588	186.94
350.971	211.12
351.354	228.53
351.737	229.2
352.119	270.56
352.502	261.74
352.884	290.67
353.267	269.2
353.65	285.7
354.032	309.43
354.414	324.12
354.797	306.26
355.179	341.29
355.562	317.34
355.944	332.25
356.326	337
356.709	333.83
357.091	338.58
357.473	340.16
357.855	348.97
358.238	338.8
358.62	351.01
359.002	370.67
359.384	376.09
359.766	343.55
360.148	328.86
360.53	369.09
360.912	334.28
361.294	359.82
361.676	332.25
362.057	327.73
362.439	354.17
362.821	327.51
363.203	337
363.584	346.94
363.966	329.54
364.348	334.28
364.729	349.65
365.111	333.38
365.493	347.17
365.874	336.32
366.256	318.92
366.637	338.35
367.019	357.11
367.4	344.45
367.781	322.53
368.163	323.89
368.544	320.27
368.925	327.05
369.306	328.41
369.688	329.31
370.069	333.83
370.45	337.45
370.831	353.72
371.212	329.31
371.593	330.67
371.974	350.78
372.355	329.77
372.736	324.57
373.117	311.46
373.498	360.5
373.879	357.79
374.26	321.63
374.641	330.9
375.021	344.68
375.402	347.62
375.783	330.22
376.163	351.23
376.544	354.62
376.925	372.7
377.305	348.07
377.686	333.61
378.066	371.57
378.447	355.75
378.827	358.01
379.208	365.7
379.588	357.56
379.968	369.76
380.349	369.09
380.729	348.97
381.109	360.95
381.489	376.54
381.87	371.57
382.25	381.29
382.63	388.07
383.01	375.87
383.39	399.14
383.77	372.25
384.15	388.97
384.53	394.4
384.91	383.55
385.29	381.06
385.67	397.79
386.049	384.91
386.429	403.89
386.809	425.81
387.189	424.45
387.568	392.36
387.948	419.03
388.328	402.76
388.707	440.95
389.087	423.1
389.466	435.53
389.846	451.8
390.225	433.49
390.605	467.39
390.984	431.46
391.363	433.27
391.743	452.7
392.122	458.8
392.501	448.86
392.881	482.98
393.26	469.65
393.639	473.04
394.018	457.67
394.397	477.78
394.776	490.67
395.155	480.5
395.534	495.18
395.913	489.76
396.292	495.41
396.671	536.09
397.05	513.72
397.429	536.09
397.808	536.77
398.186	544.67
398.565	530.66
398.944	539.03
399.323	540.61
399.701	559.36
400.08	554.39
400.458	548.52
400.837	556.2
401.215	570.89
401.594	587.61
401.972	569.31
402.351	575.41
402.729	584
403.107	603.43
403.486	581.51
403.864	600.04
404.242	613.83
404.62	616.54
404.999	617.22
405.377	644.11
405.755	642.3
406.133	657.89
406.511	659.25
406.889	656.31
407.267	694.73
407.645	692.47
408.023	685.46
408.401	681.62
408.779	720.26
409.156	714.61
409.534	737.44
409.912	725.69
410.29	753.93
410.667	766.59
411.045	770.66
411.422	754.61
411.8	760.94
412.178	808.85
412.555	814.5
412.933	799.36
413.31	805.91
413.687	827.15
414.065	829.87
414.442	845.68
414.819	855.85
415.197	875.97
415.574	876.19
415.951	854.95
416.328	891.11
416.705	866.02
417.082	906.02
417.46	925
417.837	928.62
418.214	928.85
418.591	960.48
418.967	954.83
419.344	967.49
419.721	995.96
420.098	981.95
420.475	970.65
420.852	981.5
421.228	1016.98
421.605	1030.31
421.982	1006.58
422.358	1049.29
422.735	1051.78
423.111	1071.44
423.488	1068.5
423.864	1085.9
424.241	1092.01
424.617	1088.16
424.994	1118.45
425.37	1119.58
425.746	1126.35
426.123	1144.21
426.499	1156.86
426.875	1175.84
427.251	1202.74
427.627	1216.97
428.003	1205.67
428.379	1242.06
428.756	1236.18
429.132	1257.88
429.507	1283.86
429.883	1293.13
430.259	1298.78
430.635	1332.22
431.011	1353.92
431.387	1363.41
431.763	1387.36
432.138	1418.1
432.514	1419
432.89	1426.23
433.265	1463.07
433.641	1462.62
434.016	1472.33
434.392	1498.32
434.767	1542.39
435.143	1522.95
435.518	1543.74
435.894	1536.74
436.269	1580.13
436.644	1599.56
437.02	1619.67
437.395	1638.21
437.77	1670.75
438.145	1677.75
438.52	1694.7
438.895	1718.88
439.271	1725.43
439.646	1799.33
440.021	1771.76
440.395	1792.55
440.77	1793.46
441.145	1832.78
441.52	1874.58
441.895	1831.65
442.27	1857.18
442.645	1904.19
443.019	1894.02
443.394	1880.23
443.769	1934.24
444.143	1916.62
444.518	1953.23
444.892	1952.32
445.267	1982.15
445.641	1996.16
446.016	2009.27
446.39	2052.66
446.764	2050.62
447.139	2027.8
447.513	2052.21
447.887	2088.82
448.262	2072.32
448.636	2108.25
449.01	2135.14
449.384	2172.2
449.758	2173.33
450.132	2176.95
450.506	2206.1
450.88	2220.34
451.254	2235.93
451.628	2233.22
452.002	2269.6
452.376	2294.69
452.75	2331.97
453.123	2357.51
453.497	2370.16
453.871	2381.46
454.244	2437.05
454.618	2413.1
454.992	2492.42
455.365	2478.64
455.739	2540.55
456.112	2534.45
456.486	2579.2
456.859	2605.64
457.232	2628.01
457.606	2696.48
457.979	2682.92
458.352	2713.43
458.725	2734.45
459.099	2785.97
459.472	2802.92
459.845	2824.39
460.218	2874.56
460.591	2884.05
460.964	2914.1
461.337	2949.81
461.71	3020.99
462.083	3044.72
462.456	3046.3
462.829	3068.9
463.201	3112.07
463.574	3091.5
463.947	3166.98
464.32	3229.8
464.692	3259.41
465.065	3232.06
465.438	3334.21
465.81	3337.6
466.183	3418.27
466.555	3480.19
466.928	3421.89
467.3	3459.85
467.672	3513.64
468.045	3587.31
468.417	3576.46
468.789	3630.92
469.161	3625.95
469.534	3739.85
469.906	3805.61
470.278	3809.22
470.65	3818.49
471.022	3937.13
471.394	4008.99
471.766	3995.43
472.138	4025.71
472.51	4095.09
472.882	4171.47
473.253	4233.62
473.625	4252.6
473.997	4322.2
474.369	4339.83
474.74	4356.55
475.112	4458.92
475.484	4531.01
475.855	4568.07
476.227	4624.12
476.598	4714.51
476.97	4755.41
477.341	4870.66
477.713	4893.26
478.084	4966.48
478.455	5046.93
478.827	5102.3
479.198	5191.78
479.569	5199.47
479.94	5306.81
480.311	5372.12
480.682	5500.7
481.053	5598.78
481.424	5574.6
481.795	5705.44
482.166	5716.74
482.537	5793.8
482.908	5842.16
483.279	5904.76
483.65	5972.78
484.021	6093.46
484.391	6152.44
484.762	6186.11
485.133	6251.87
485.503	6278.54
485.874	6405.54
486.244	6473.11
486.615	6529.15
486.985	6585.42
487.356	6718.75
487.726	6719.65
488.097	6815.02
488.467	6836.03
488.837	6921.68
489.207	6974.34
489.578	7047.55
489.948	7089.59
490.318	7146.99
490.688	7201.68
491.058	7231.28
491.428	7371.16
491.798	7426.75
492.168	7485.96
492.538	7489.13
492.908	7535.23
493.278	7601.44
493.648	7672.62
494.017	7656.13
494.387	7687.76
494.757	7782.68
495.126	7815.44
495.496	7856.35
495.866	7831.49
496.235	7910.36
496.605	7974.76
496.974	8044.59
497.344	8022.22
497.713	8092.95
498.082	8153.29
498.452	8178.37
498.821	8163.46
499.19	8209.78
499.559	8299.5
499.928	8273.74
500.298	8284.81
500.667	8412.04
501.036	8324.36
501.405	8401.87
501.774	8361.42
502.143	8467.4
502.512	8490.68
502.88	8483.68
503.249	8512.6
503.618	8526.39
503.987	8573.84
504.356	8594.18
504.724	8639.83
505.093	8646.38
505.462	8701.52
505.83	8672.14
506.199	8727.28
506.567	8821.75
506.936	8779.03
507.304	8855.42
507.672	8902.42
508.041	8960.27
508.409	9000.05
508.777	8953.04
509.145	9051.12
509.514	9005.47
509.882	9114.39
510.25	9079.37
510.618	9115.07
510.986	9101.06
511.354	9209.76
511.722	9259.02
512.09	9253.82
512.458	9237.55
512.826	9371.56
513.193	9355.97
513.561	9381.73
513.929	9444.55
514.297	9488.62
514.664	9490.43
515.032	9562.52
515.4	9620.37
515.767	9573.82
516.135	9648.62
516.502	9594.38
516.869	9734.49
517.237	9568.62
517.604	9635.96
517.972	9781.95
518.339	9728.84
518.706	9813.81
519.073	9846.35
519.44	9866.24
519.808	9885.67
520.175	9872.34
520.542	9989.62
520.909	10058.55
521.276	10056.29
521.643	10154.37
522.009	10106.23
522.376	10230.97
522.743	10198.43
523.11	10282.72
523.477	10400.01
523.843	10359.33
524.21	10454.24
524.577	10503.96
524.943	10554.13
525.31	10652.88
525.676	10669.61
526.043	10724.29
526.409	10761.13
526.776	10784.18
527.142	10838.87
527.508	10798.87
527.874	10950.73
528.241	10984.85
528.607	10991.41
528.973	11110.95
529.339	11081.35
529.705	11178.29
530.071	11232.98
530.437	11222.13
530.803	11298.97
531.169	11376.71
531.535	11403.6
531.901	11433.88
532.267	11405.18
532.632	11460.09
532.998	11511.17
533.364	11612.18
533.73	11545.29
534.095	11648.79
534.461	11673.65
534.826	11820.08
535.192	11802.46
535.557	11858.95
535.923	11844.49
536.288	11850.59
536.653	11929.23
537.019	11819.63
537.384	12041.55
537.749	12046.52
538.114	12049.01
538.479	12107.08
538.845	12093.75
539.21	12107.76
539.575	12209.23
539.94	12208.32
540.305	12267.76
540.67	12284.93
541.034	12308.43
541.399	12395.21
541.764	12357.92
542.129	12409.45
542.494	12451.25
542.858	12506.85
543.223	12502.78
543.587	12544.81
543.952	12514.53
544.316	12616
544.681	12556.79
545.045	12631.14
545.41	12685.6
545.774	12696.9
546.138	12671.14
546.503	12810.57
546.867	12781.42
547.231	12881.07
547.595	12911.81
547.959	12922.88
548.324	12934.41
548.688	12927.4
549.052	13044.01
549.416	12974.18
549.779	13063.44
550.143	12996.55
550.507	13120.16
550.871	13169.65
551.235	13126.27
551.599	13224.57
551.962	13219.6
552.326	13280.39
552.689	13373.49
553.053	13296.43
553.417	13381.4
553.78	13522.41
554.143	13368.52
554.507	13468.85
554.87	13486.71
555.234	13614.39
555.597	13567.16
555.96	13587.95
556.323	13651.22
556.686	13732.8
557.05	13761.95
557.413	13770.54
557.776	13738
558.139	13835.62
558.502	13881.73
558.865	13888.05
559.228	13959.46
559.59	14029.52
559.953	13971.44
560.316	14193.58
560.679	14120.14
561.041	14272.22
561.404	14289.17
561.767	14314.03
562.129	14294.14
562.492	14441.03
562.854	14442.16
563.217	14416.85
563.579	14459.56
563.941	14641.48
564.304	14612.33
564.666	14738.43
565.028	14777.07
565.39	14748.14
565.753	14857.29
566.115	14939.32
566.477	14979.55
566.839	15004.86
567.201	15019.77
567.563	15055.48
567.925	15284.85
568.287	15182.93
568.648	15161.01
569.01	15242.37
569.372	15369.37
569.734	15347.9
570.095	15427.22
570.457	15528.24
570.819	15523.04
571.18	15601.68
571.542	15600.1
571.903	15716.71
572.265	15741.34
572.626	15854.1
572.987	15834.22
573.349	15885.97
573.71	15968.45
574.071	16018.62
574.432	16101.78
574.794	16197.82
575.155	16153.76
575.516	16108.56
575.877	16181.55
576.238	16317.37
576.599	16332.06
576.96	16304.71
577.32	16345.62
577.681	16464.03
578.042	16512.16
578.403	16436.91
578.763	16439.62
579.124	16545.61
579.485	16595.78
579.845	16562.56
580.206	16659.05
580.566	16653.63
580.927	16703.8
581.287	16737.24
581.648	16632.84
582.008	16716.91
582.368	16690.47
582.728	16801.65
583.089	16718.71
583.449	16711.48
583.809	16784.7
584.169	16933.4
584.529	16776.34
584.889	16899.27
585.249	16914.19
585.609	16770.69
585.969	16898.6
586.329	16910.8
586.688	16883.68
587.048	16873.29
587.408	16875.77
587.768	16889.56
588.127	16916.67
588.487	16869.67
588.846	16983.34
589.206	16928.42
589.565	16960.06
589.925	17018.37
590.284	16933.17
590.643	17077.8
591.003	17063.11
591.362	16977.01
591.721	17136.1
592.08	17167.06
592.44	17023.11
592.799	17023.56
593.158	17124.8
593.517	17051.13
593.876	17100.85
594.235	17056.56
594.593	17077.57
594.952	17180.62
595.311	17063.79
595.67	17132.71
596.029	17321.18
596.387	17303.33
596.746	17334.52
597.104	17222.2
597.463	17124.13
597.822	17321.86
598.18	17346.27
598.538	17239.15
598.897	17351.46
599.255	17125.93
599.613	17443.67
599.972	17238.02
600.33	17346.04
600.688	17263.78
601.046	17359.83
601.404	17347.4
601.762	17373.61
602.12	17490.22
602.478	17355.76
602.836	17473.27
603.194	17369.09
603.552	17396.66
603.91	17342.43
604.268	17447.28
604.625	17397.79
604.983	17532.25
605.341	17397.79
605.698	17449.54
606.056	17574.06
606.413	17513.04
606.771	17547.39
607.128	17617.9
607.485	17433.95
607.843	17551.69
608.2	17699.48
608.557	17643.43
608.914	17501.29
609.272	17773.6
609.629	17779.93
609.986	17707.84
610.343	17682.08
610.7	17767.5
611.057	17753.26
611.414	17695.18
611.771	17842.07
612.127	17945.35
612.484	17767.95
612.841	17877.55
613.198	17840.27
613.554	17871.9
613.911	17937.89
614.267	17913.26
614.624	17827.61
614.98	18001.84
615.337	18069.64
615.693	18097.89
616.05	17960.49
616.406	18077.55
616.762	17936.53
617.118	18082.74
617.475	18075.97
617.831	18125.68
618.187	18127.72
618.543	18237.09
618.899	18318.9
619.255	18119.35
619.611	18251.78
619.967	18241.38
620.323	18325
620.678	18242.97
621.034	18240.25
621.39	18198.9
621.746	18152.57
622.101	18488.38
622.457	18258.11
622.812	18331.55
623.168	18334.49
623.523	18437.54
623.879	18362.74
624.234	18285.45
624.589	18521.6
624.945	18405.67
625.3	18447.71
625.655	18472.11
626.01	18397.09
626.365	18551.21
626.72	18565.22
627.075	18580.13
627.43	18577.42
627.785	18447.26
628.14	18532
628.495	18616.74
628.85	18631.21
629.205	18475.05
629.559	18569.06
629.914	18521.6
630.269	18624.65
630.623	18539.23
630.978	18589.17
631.332	18610.19
631.687	18694.71
632.041	18618.55
632.396	18653.58
632.75	18608.38
633.104	18654.93
633.459	18643.86
633.813	18653.13
634.167	18628.27
634.521	18661.71
634.875	18665.78
635.229	18633.24
635.583	18601.15
635.937	18581.04
636.291	18536.52
636.645	18607.93
636.999	18646.8
637.352	18699.45
637.706	18666.01
638.06	18655.39
638.413	18713.69
638.767	18597.76
639.121	18719.56
639.474	18626.01
639.828	18753.91
640.181	18647.25
640.534	18637.31
640.888	18677.76
641.241	18590.98
641.594	18661.71
641.947	18768.38
642.301	18633.92
642.654	18773.35
643.007	18731.32
643.36	18789.17
643.713	18688.6
644.066	18823.06
644.419	18726.8
644.771	18609.06
645.124	18405.67
645.477	18331.1
645.83	18262.63
646.182	18244.77
646.535	18328.16
646.888	18414.49
647.24	18370.19
647.593	18499.23
647.945	18418.56
648.298	18429.85
648.65	18390.76
649.002	18323.87
649.355	18419.01
649.707	18376.75
650.059	18370.65
650.411	18659
650.763	18786
651.115	18931.31
651.467	18881.59
651.819	18976.73
652.171	18955.49
652.523	18919.79
652.875	19026.67
653.227	18930.41
653.578	19038.43
653.93	19039.56
654.282	19005.43
654.633	18942.84
654.985	19006.34
655.337	18984.19
655.688	19073.45
656.039	19119.55
656.391	18952.33
656.742	18999.56
657.094	19054.47
657.445	19013.79
657.796	19098.54
658.147	19134.47
658.498	19055.15
658.849	19139.21
659.2	19031.65
659.551	19092.44
659.902	19157.29
660.253	19145.54
660.604	19073.68
660.955	18981.03
661.306	19166.33
661.656	19009.95
662.007	19167.91
662.358	19190.74
662.708	19215.6
663.059	19187.8
663.409	18988.03
663.76	19188.93
664.11	19113.45
664.461	19332.66
664.811	19189.61
665.161	19184.64
665.511	19106.45
665.862	19124.07
666.212	19338.08
666.562	19240.23
666.912	19267.12
667.262	19154.13
667.612	19145.77
667.962	19214.01
668.312	19128.37
668.662	19201.81
669.011	19166.11
669.361	19103.28
669.711	19119.33
670.06	18987.13
670.41	19056.28
670.76	18975.83
671.109	18967.47
671.459	18986.68
671.808	18956.62
672.157	18995.49
672.507	18787.59
672.856	18830.52
673.205	18886.11
673.554	18893.57
673.904	18748.26
674.253	18945.1
674.602	18763.18
674.951	18538.78
675.3	18437.54
675.649	18676.4
675.998	18731.77
676.346	18597.99
676.695	18698.77
677.044	18471.66
677.393	18495.62
677.741	18458.33
678.09	18466.92
678.438	18449.06
678.787	18552.11
679.135	18476.86
679.484	18350.08
679.832	18329.07
680.181	18202.29
680.529	18353.92
680.877	18217.43
681.225	18096.08
681.573	18224.21
681.922	18070.32
682.27	18125
682.618	17999.36
682.966	18002.75
683.314	18089.52
683.661	17916.87
684.009	17928.62
684.357	17862.41
684.705	17842.07
685.053	17880.94
685.4	17759.14
685.748	17725.01
686.095	17776.31
686.443	17693.83
686.79	17623.55
687.138	17624.9
687.485	17630.55
687.832	17635.52
688.18	17674.39
688.527	17557.56
688.874	17627.16
689.221	17507.39
689.568	17477.79
689.915	17370.9
690.262	17412.71
690.609	17366.61
690.956	17304.23
691.303	17356.21
691.65	17198.25
691.997	17174.52
692.344	17224.69
692.69	17231.92
693.037	17161.41
693.383	17051.36
693.73	17126.61
694.077	16969.33
694.423	17104.92
694.769	16994.41
695.116	16913.06
695.462	16935.88
695.808	16867.18
696.155	16924.58
696.501	16858.14
696.847	16785.83
697.193	16685.04
697.539	16697.47
697.885	16637.59
698.231	16612.95
698.577	16638.94
698.923	16672.16
699.269	16671.48
699.614	16545.61
699.96	16469.68
700.306	16543.58
700.651	16502.67
700.997	16453.64
701.342	16459.28
701.688	16457.93
702.033	16336.58
702.379	16395.78
702.724	16298.61
703.069	16433.07
703.415	16208.67
703.76	16222.68
704.105	16242.34
704.45	16257.71
704.795	16109.92
705.14	16170.25
705.485	16156.92
705.83	15969.13
706.175	16104.27
706.52	16090.25
706.865	16151.27
707.209	16032.4
707.554	16039.41
707.899	16065.62
708.243	15972.07
708.588	15909.92
708.932	15855.68
709.277	15868.11
709.621	16007.77
709.966	15862.46
710.31	15823.6
710.654	15750.38
710.998	15756.03
711.342	15765.52
711.687	15817.04
712.031	15712.86
712.375	15698.4
712.719	15767.1
713.063	15679.19
713.407	15745.41
713.75	15673.32
714.094	15782.01
714.438	15626.76
714.782	15542.25
715.125	15665.41
715.469	15632.87
715.812	15553.32
716.156	15575.47
716.499	15558.29
716.843	15608.69
717.186	15538.4
717.53	15552.19
717.873	15614.34
718.216	15499.99
718.559	15484.62
718.902	15358.97
719.246	15429.03
719.589	15374.79
719.932	15411.4
720.275	15361.69
720.617	15357.62
720.96	15299.99
721.303	15390.61
721.646	15424.51
721.989	15311.07
722.331	15378.64
722.674	15329.37
723.016	15344.06
723.359	15314.23
723.701	15298.64
724.044	15223.16
724.386	15251.41
724.729	15293.21
725.071	15255.93
725.413	15189.04
725.755	15171.63
726.097	15075.14
726.439	15148.13
726.782	15193.33
727.124	15288.69
727.465	15070.85
727.807	15192.88
728.149	15134.57
728.491	15143.84
728.833	15193.33
729.175	15191.07
729.516	15114.01
729.858	15086.89
730.199	15182.71
730.541	15158.08
730.882	15157.85
731.224	15233.1
731.565	15149.26
731.906	15130.05
732.248	15182.03
732.589	15100.45
732.93	15067.68
733.271	15164.4
733.612	15186.1
733.953	15172.31
734.294	15229.94
734.635	15109.04
734.976	15218.64
735.317	15130.51
735.658	15153.1
735.999	15203.95
736.339	15120.56
736.68	15167.12
737.021	15227.23
737.361	15160.56
737.702	15344.06
738.042	15216.15
738.383	15276.04
738.723	15332.76
739.063	15250.95
739.404	15405.08
739.744	15306.77
740.084	15311.29
740.424	15357.39
740.764	15329.37
741.104	15411.85
741.444	15440.78
741.784	15377.28
742.124	15539.31
742.464	15435.81
742.804	15492.08
743.143	15482.36
743.483	15546.99
743.823	15529.59
744.162	15528.69
744.502	15572.75
744.841	15579.99
745.181	15782.47
745.52	15700.66
745.86	15698.85
746.199	15743.82
746.538	15718.97
746.877	15804.16
747.216	15852.52
747.556	15823.14
747.895	15917.6
748.234	15752.86
748.573	15943.37
748.911	15945.63
749.25	16059.75
749.589	16009.13
749.928	16060.65
750.267	15955.34
750.605	16015
750.944	16121.21
751.283	16033.99
751.621	16119.63
751.96	16073.76
752.298	16126.86
752.636	16205.05
752.975	16059.3
753.313	16130.71
753.651	16292.28
753.989	16190.14
754.327	16208.9
754.666	16306.75
755.004	16219.07
755.342	16403.69
755.679	16270.59
