Data from blue_shiny_book_FLMS001491_00001.txt Node
Date: Wed Feb 08 15:26:26 GMT 2017
User: dcchb
Spectrometer: FLMS00149
Trigger mode: 0
Integration Time (sec): 2.000000E-2
Scans to average: 10
Electric dark correction enabled: true
Nonlinearity correction enabled: false
Boxcar width: 0
XAxis mode: Wavelengths
Number of Pixels in Spectrum: 2048
>>>>>Begin Spectral Data<<<<<
341.393	-11.55
341.776	-11.55
342.16	-11.55
342.543	-43.19
342.927	-67.15
343.31	-72.57
343.693	-63.98
344.077	-57.88
344.46	-65.56
344.843	-50.65
345.226	-40.93
345.61	-42.96
345.993	-22.63
346.376	-1.61
346.759	39.29
347.142	26.86
347.525	43.13
347.908	42.46
348.291	79.74
348.674	86.3
349.057	100.99
349.44	118.39
349.823	170.81
350.206	152.96
350.588	213.3
350.971	236.8
351.354	246.52
351.737	238.38
352.119	271.6
352.502	275.44
352.884	279.51
353.267	278.16
353.65	309.79
354.032	305.95
354.414	317.7
354.797	312.28
355.179	343.47
355.562	349.12
355.944	334.43
356.326	352.05
356.709	355.67
357.091	341.43
357.473	359.51
357.855	386.63
358.238	343.47
358.62	355.67
359.002	353.86
359.384	360.64
359.766	354.76
360.148	340.53
360.53	346.63
360.912	362
361.294	351.15
361.676	346.4
362.057	357.93
362.439	362.67
362.821	361.77
363.203	331.49
363.584	365.16
363.966	362.67
364.348	369.68
364.729	356.12
365.111	347.31
365.493	345.95
365.874	350.92
366.256	352.28
366.637	336.91
367.019	362.22
367.4	355.89
367.781	356.12
368.163	353.86
368.544	360.41
368.925	333.07
369.306	347.99
369.688	373.97
370.069	378.04
370.45	349.34
370.831	364.48
371.212	350.7
371.593	347.76
371.974	354.54
372.355	355.22
372.736	361.77
373.117	374.65
373.498	352.5
373.879	354.99
374.26	369.45
374.641	360.19
375.021	359.74
375.402	352.05
375.783	378.27
376.163	387.53
376.544	373.97
376.925	380.53
377.305	378.27
377.686	393.63
378.066	392.28
378.447	378.04
378.827	416.23
379.208	394.09
379.588	385.72
379.968	395.22
380.349	394.54
380.729	400.87
381.109	404.48
381.489	416.01
381.87	407.64
382.25	428.44
382.63	411.94
383.01	419.4
383.39	440.41
383.77	408.77
384.15	436.12
384.53	449.9
384.91	447.64
385.29	445.16
385.67	444.03
386.049	460.75
386.429	474.54
386.809	454.42
387.189	474.08
387.568	463.69
387.948	481.32
388.328	481.54
388.707	500.75
389.087	486.06
389.466	486.96
389.846	490.13
390.225	498.94
390.605	508.43
390.984	502.11
391.363	511.6
391.743	531.71
392.122	521.99
392.501	534.19
392.881	539.17
393.26	534.65
393.639	543.69
394.018	550.47
394.397	556.34
394.776	587.07
395.155	564.93
395.534	570.13
395.913	571.71
396.292	590.46
396.671	590.01
397.05	598.37
397.429	589.11
397.808	595.21
398.186	609.45
398.565	622.55
398.944	620.29
399.323	625.27
399.701	638.6
400.08	666.85
400.458	647.64
400.837	665.26
401.215	662.33
401.594	664.81
401.972	684.7
402.351	695.55
402.729	706.85
403.107	695.09
403.486	697.35
403.864	715.66
404.242	716.34
404.62	727.86
404.999	738.94
405.377	749.78
405.755	774.64
406.133	756.34
406.511	773.51
406.889	790.46
407.267	806.96
407.645	796.79
408.023	817.35
408.401	840.18
408.779	819.61
409.156	859.16
409.534	844.24
409.912	884.92
410.29	896.22
410.667	906.84
411.045	903.9
411.422	937.8
411.8	940.96
412.178	948.87
412.555	955.88
412.933	952.04
413.31	998.14
413.687	1012.37
414.065	1020.74
414.442	1060.51
414.819	1037.46
415.197	1054.41
415.574	1086.04
415.951	1101.64
416.328	1088.08
416.705	1111.58
417.082	1111.58
417.46	1118.36
417.837	1145.25
418.214	1158.13
418.591	1164.69
418.967	1191.13
419.344	1160.62
419.721	1221.18
420.098	1203.33
420.475	1221.86
420.852	1252.82
421.228	1257.57
421.605	1274.06
421.982	1284.46
422.358	1307.51
422.735	1306.6
423.111	1328.07
423.488	1338.92
423.864	1382.76
424.241	1379.82
424.617	1398.13
424.994	1414.4
425.37	1430.89
425.746	1429.99
426.123	1442.42
426.499	1470.22
426.875	1449.2
427.251	1531.91
427.627	1539.14
428.003	1546.6
428.379	1611.23
428.756	1603.77
429.132	1651
429.507	1679.93
429.883	1669.76
430.259	1707.5
430.635	1713.15
431.011	1711.11
431.387	1746.59
431.763	1802.64
432.138	1826.59
432.514	1804.9
432.89	1868.85
433.265	1910.43
433.641	1928.51
434.016	1986.13
434.392	1966.47
434.767	2025.68
435.143	1989.75
435.518	2036.53
435.894	2073.36
436.269	2135.28
436.644	2134.38
437.02	2167.6
437.395	2147.26
437.77	2235.39
438.145	2260.7
438.52	2263.42
438.895	2335.96
439.271	2340.48
439.646	2393.36
440.021	2383.64
440.395	2421.38
440.77	2350.64
441.145	2401.04
441.52	2434.48
441.895	2452.11
442.27	2509.96
442.645	2511.54
443.019	2529.62
443.394	2568.04
443.769	2621.37
444.143	2574.14
444.518	2614.59
444.892	2611.2
445.267	2660.92
445.641	2683.07
446.016	2671.31
446.39	2716.74
446.764	2734.82
447.139	2716.96
447.513	2756.74
447.887	2829.5
448.262	2800.58
448.636	2866.34
449.01	2878.77
449.384	2929.39
449.758	2958.54
450.132	2987.24
450.506	2973
450.88	2986.79
451.254	2995.37
451.628	3034.24
452.002	3057.07
452.376	3088.93
452.75	3191.75
453.123	3184.29
453.497	3224.29
453.871	3330.73
454.244	3353.1
454.618	3405.76
454.992	3427
455.365	3405.98
455.739	3524.62
456.112	3500.67
456.486	3536.15
456.859	3573.89
457.232	3659.08
457.606	3708.8
457.979	3714.22
458.352	3853.88
458.725	3844.16
459.099	3907.44
459.472	4042.8
459.845	4072.41
460.218	4114.44
460.591	4131.84
460.964	4130.71
461.337	4225.62
461.71	4313.3
462.083	4389.23
462.456	4350.37
462.829	4370.25
463.201	4424.26
463.574	4512.4
463.947	4542.23
464.32	4696.35
464.692	4745.61
465.065	4830.13
465.438	4854.76
465.81	4959.39
466.183	4980.86
466.555	5076.45
466.928	5098.82
467.3	5123.68
467.672	5141.98
468.045	5317.8
468.417	5324.58
468.789	5347.63
469.161	5458.81
469.534	5561.41
469.906	5700.84
470.278	5748.07
470.65	5810.89
471.022	5951.45
471.394	6103.09
471.766	6122.97
472.138	6160.04
472.51	6299.92
472.882	6425.11
473.253	6459.46
473.625	6525.22
473.997	6628.5
474.369	6715.5
474.74	6820.81
475.112	6938.77
475.484	7004.99
475.855	7185.77
476.227	7275.49
476.598	7511.41
476.97	7618.3
477.341	7719.09
477.713	7933.77
478.084	7952.98
478.455	8113.2
478.827	8076.14
479.198	8460.54
479.569	8405.4
479.94	8647.2
480.311	8723.58
480.682	8943.69
481.053	9209
481.424	9310.24
481.795	9401.08
482.166	9645.82
482.537	9720.17
482.908	9998.8
483.279	10058.69
483.65	10245.8
484.021	10459.58
484.391	10576.87
484.762	10687.37
485.133	10742.29
485.503	10863.64
485.874	11173.24
486.244	11175.5
486.615	11436.06
486.985	11605.99
487.356	11872.2
487.726	12064.06
488.097	12356.48
488.467	12374.79
488.837	12687.55
489.207	12885.51
489.578	12954.66
489.948	13109.68
490.318	13321.43
490.688	13322.56
491.058	13514.42
491.428	13775.2
491.798	13808.42
492.168	14117.79
492.538	14154.4
492.908	14293.83
493.278	14548.97
493.648	14576.99
494.017	14833.03
494.387	15060.59
494.757	15198.89
495.126	15425.33
495.496	15436.18
495.866	15577.64
496.235	15780.57
496.605	15890.18
496.974	16002.04
497.344	16105.09
497.713	16179.43
498.082	16299.2
498.452	16470.73
498.821	16640.89
499.19	16637.5
499.559	16896.25
499.928	16940.54
500.298	17130.37
500.667	17322.91
501.036	17278.61
501.405	17612.62
501.774	17617.14
502.143	17886.96
502.512	17905.04
502.88	18078.59
503.249	18127.18
503.618	18245.82
503.987	18336.66
504.356	18366.49
504.724	18487.85
505.093	18621.85
505.462	18702.3
505.83	18813.94
506.199	19046.02
506.567	19339.58
506.936	19230.65
507.304	19582.96
507.672	19630.87
508.041	19785.21
508.409	19937.3
508.777	20154.02
509.145	20415.25
509.514	20208.25
509.882	20460.45
510.25	20488.92
510.618	20742.48
510.986	20702.25
511.354	21015.24
511.722	21195.8
512.09	21368
512.458	21309.47
512.826	21509.69
513.193	21584.04
513.561	21870.58
513.929	21958.94
514.297	22204.36
514.664	22366.39
515.032	22538.59
515.4	22649.77
515.767	22714.63
516.135	22970.22
516.502	22809.32
516.869	23153.94
517.237	23377.44
517.604	23346.48
517.972	23574.95
518.339	23814.03
518.706	23848.84
519.073	23978.55
519.44	24157.75
519.808	24458.09
520.175	24462.61
520.542	24963.84
520.909	25018.75
521.276	25126.99
521.643	25363.6
522.009	25601.11
522.376	25673.2
522.743	25888.1
523.11	26073.64
523.477	26384.14
523.843	26465.94
524.21	26721.53
524.577	26985.93
524.943	27126.04
525.31	27160.84
525.676	27446.71
526.043	27550.21
526.409	27862.29
526.776	28059.57
527.142	28096.41
527.508	28523.29
527.874	28651.87
528.241	28899.1
528.607	29015.48
528.973	29266.32
529.339	29270.16
529.705	29481.91
530.071	29642.81
530.437	29876.02
530.803	29986.3
531.169	30183.36
531.535	30214.77
531.901	30226.3
532.267	30571.15
532.632	30939.95
532.998	31019.5
533.364	31170.68
533.73	31339.03
534.095	31616.09
534.461	31576.09
534.826	31801.62
535.192	32017.89
535.557	32150.76
535.923	32168.84
536.288	32389.63
536.653	32398.22
537.019	32396.18
537.384	32705.1
537.749	32784.19
538.114	32762.05
538.479	32788.94
538.845	33124.52
539.21	32966.79
539.575	33241.36
539.94	33405.65
540.305	33665.98
540.67	33627.34
541.034	33855.35
541.399	33970.38
541.764	33960.66
542.129	34265.29
542.494	34342.57
542.858	34416.92
543.223	34496.69
543.587	34743.24
543.952	34892.84
544.316	34869.79
544.681	34870.69
545.045	35155.21
545.41	35089.67
545.774	35132.61
546.138	35082.67
546.503	35162.66
546.867	35352.71
547.231	35588.19
547.595	35752.25
547.959	35808.75
548.324	35909.99
548.688	36112.02
549.052	36292.35
549.416	36392.46
549.779	36608.05
550.143	36637.65
550.507	36982.28
550.871	37000.81
551.235	36936.85
551.599	37284.19
551.962	37210.74
552.326	37215.49
552.689	37416.84
553.053	37259.78
553.417	37432.89
553.78	37756.49
554.143	37469.04
554.507	37775.48
554.87	37883.72
555.234	38134.79
555.597	38016.83
555.96	38264.73
556.323	38566.19
556.686	38566.19
557.05	38843.24
557.413	39054.09
557.776	39304.02
558.139	39438.93
558.502	39669.44
558.865	39713.28
559.228	39906.27
559.59	40102.87
559.953	40079.14
560.316	40238.69
560.679	40203.43
561.041	40481.39
561.404	40420.15
561.767	40799.58
562.129	40565.68
562.492	41008.61
562.854	40940.14
563.217	41075.05
563.579	41144.2
563.941	41329.51
564.304	41645.66
564.666	41985.08
565.028	41933.33
565.39	42150.05
565.753	42428.01
566.115	42603.6
566.477	42990.25
566.839	43044.04
567.201	43245.39
567.563	43326.29
567.925	43606.73
568.287	43445.38
568.648	43566.06
569.01	43793.17
569.372	43867.97
569.734	43544.59
570.095	43840.4
570.457	43970.79
570.819	43826.62
571.18	43937.8
571.542	44077.46
571.903	44137.34
572.265	44313.61
572.626	44491.68
572.987	44667.72
573.349	44981.84
573.71	45085.79
574.071	45322.62
574.432	45480.36
574.794	45769.62
575.155	45829.28
575.516	45646
575.877	45944.07
576.238	46127.35
576.599	46209.15
576.96	46201.47
577.32	46392.42
577.681	46307.68
578.042	46262.94
578.403	46236.72
578.763	46221.13
579.124	46169.83
579.485	46256.83
579.845	46357.85
580.206	46170.28
580.566	46261.58
580.927	46258.42
581.287	46455.93
581.648	46393.55
582.008	46788.8
582.368	46776.59
582.728	46981.79
583.089	46937.04
583.449	47081.45
583.809	47197.83
584.169	47376.13
584.529	47336.58
584.889	47668.55
585.249	47394.66
585.609	47382.68
585.969	47637.59
586.329	47438.05
586.688	47458.84
587.048	47339.29
587.408	47208.45
587.768	47005.52
588.127	47002.58
588.487	46906.99
588.846	47150.37
589.206	46801.45
589.565	46941.11
589.925	47050.71
590.284	46880.32
590.643	47086.87
591.003	47183.36
591.362	47417.26
591.721	47401.66
592.08	47494.54
592.44	47644.14
592.799	47772.5
593.158	47784.48
593.517	47916.45
593.876	47967.75
594.235	47948.99
594.593	48067.63
594.952	48157.8
595.311	48005.49
595.67	47925.04
596.029	48030.35
596.387	48013.17
596.746	47981.76
597.104	47590.58
597.463	47678.04
597.822	47838.94
598.18	47544.71
598.538	47443.02
598.897	47703.35
599.255	47284.6
599.613	47866.51
599.972	47548.78
600.33	47724.37
600.688	47654.99
601.046	47915.32
601.404	48169.78
601.762	47960.29
602.12	48308.76
602.478	48389.43
602.836	48518.24
603.194	48305.59
603.552	48640.73
603.91	48373.84
604.268	48594.85
604.625	48527.74
604.983	48654.96
605.341	48396.67
605.698	48654.06
606.056	48732.02
606.413	48591.24
606.771	48740.84
607.128	48638.47
607.485	48212.49
607.843	48307.85
608.2	48423.56
608.557	48408.64
608.914	48387.85
609.272	48685.02
609.629	48640.73
609.986	48812.47
610.343	48605.25
610.7	48847.27
611.057	48827.61
611.414	48868.74
611.771	48996.88
612.127	49439.12
612.484	49371.33
612.841	49595.05
613.198	49484.55
613.554	49590.31
613.911	49735.84
614.267	49745.78
614.624	49709.85
614.98	49788.95
615.337	49858.55
615.693	49749.62
616.05	49694.26
616.406	49873.91
616.762	49657.42
617.118	49532.45
617.475	49640.02
617.831	49466.92
618.187	49604.32
618.543	49534.49
618.899	49681.6
619.255	49556.63
619.611	49571.55
619.967	49665.56
620.323	49704.43
620.678	49592.11
621.034	49619.23
621.39	49610.19
621.746	49531.55
622.101	50062.38
622.457	49735.39
622.812	49965.89
623.168	50210.85
623.523	50207.01
623.879	50295.82
624.234	50162.72
624.589	50402.26
624.945	50349.38
625.3	50354.58
625.655	50343.28
626.01	50287.46
626.365	50368.14
626.72	50210.18
627.075	50137.64
627.43	50069.16
627.785	49890.41
628.14	49912.33
628.495	49948.71
628.85	49773.8
629.205	49715.95
629.559	49778.55
629.914	49664.43
630.269	49530.87
630.623	49526.35
630.978	49420.37
631.332	49729.96
631.687	49691.32
632.041	49676.63
632.396	49804.31
632.75	49630.98
633.104	49788.27
633.459	49673.02
633.813	49787.59
634.167	49794.37
634.521	49916.63
634.875	49827.59
635.229	49765.67
635.583	49580.81
635.937	49692
636.291	49762.51
636.645	49670.98
636.999	49566.35
637.352	49673.47
637.706	49385.34
638.06	49600.25
638.413	49195.97
638.767	49040.94
639.121	49076.42
639.474	48838.46
639.828	48789.2
640.181	48789.42
640.534	48731.57
640.888	48645.92
641.241	48428.3
641.594	48493.39
641.947	48547.17
642.301	48423.56
642.654	48520.5
643.007	48465.36
643.36	48419.04
643.713	48304.24
644.066	48594.4
644.419	48540.84
644.771	48485.93
645.124	48420.85
645.477	48405.48
645.83	48163.23
646.182	47847.08
646.535	47623.13
646.888	47506.07
647.24	47337.94
647.593	47504.71
647.945	47302.23
648.298	47141.11
648.65	47049.13
649.002	47040.54
649.355	47173.42
649.707	47029.47
650.059	47305.17
650.411	47831.03
650.763	47826.96
651.115	48028.99
651.467	47786.06
651.819	47634.65
652.171	47615.67
652.523	47457.25
652.875	47474.43
653.227	47284.38
653.578	47713.97
653.93	47604.82
654.282	47298.16
654.633	47082.58
654.985	47352.17
655.337	47371.38
655.688	47301.33
656.039	47562.34
656.391	47110.6
656.742	47333.42
657.094	47491.83
657.445	47690.24
657.796	47729.11
658.147	47556.24
658.498	47676.68
658.849	47712.84
659.2	47773.86
659.551	47618.38
659.902	47723.69
660.253	47640.53
660.604	47748.09
660.955	47542.22
661.306	47550.81
661.656	47385.62
662.007	47392.4
662.358	47262.91
662.708	47242.12
663.059	47180.65
663.409	47005.74
663.76	47194.21
664.11	46979.08
664.461	46904.5
664.811	46843.03
665.161	46826.09
665.511	46749.25
665.862	46676.94
666.212	46908.57
666.562	46958.29
666.912	46758.29
667.262	46683.49
667.612	46842.58
667.962	46927.1
668.312	46851.17
668.662	47096.36
669.011	47065.17
669.361	47086.64
669.711	47134.78
670.06	47104.72
670.41	47048.45
670.76	47082.8
671.109	47344.26
671.459	47071.73
671.808	47089.81
672.157	47248.9
672.507	47069.02
672.856	47106.3
673.205	47001.9
673.554	47182.69
673.904	46994.22
674.253	47087.32
674.602	46848.46
674.951	46077.4
675.3	45887.13
675.649	46513.33
675.998	46260.9
676.346	46183.84
676.695	46328.92
677.044	46013.68
677.393	45859.1
677.741	46000.34
678.09	45828.6
678.438	45659.34
678.787	45723.97
679.135	45766.23
679.484	45607.59
679.832	45812.55
680.181	45588.83
680.529	45727.36
680.877	45755.38
681.225	45620.24
681.573	45993.79
681.922	45894.36
682.27	45697.98
682.618	45831.76
682.966	45718.32
683.314	45908.6
683.661	45881.7
684.009	45498.66
684.357	45440.58
684.705	45509.74
685.053	45572.33
685.4	45426.57
685.748	45246.01
686.095	45239.01
686.443	45153.36
686.79	45031.1
687.138	44954.04
687.485	44730.1
687.832	44483.55
688.18	44590.44
688.527	44378.24
688.874	44138.7
689.221	43925.37
689.568	43851.25
689.915	43626.4
690.262	43702.55
690.609	43487.42
690.956	43341.21
691.303	43170.14
691.65	43035.22
691.997	43009.69
692.344	42813.31
692.69	42687.66
693.037	42781.67
693.383	42428.91
693.73	42625.97
694.077	42417.61
694.423	42496.26
694.769	42404.05
695.116	42370.16
695.462	42485.41
695.808	42241.35
696.155	42485.41
696.501	42181.46
696.847	42143.72
697.193	41932.43
697.539	42215.13
697.885	41927.46
698.231	41775.14
698.577	41786.44
698.923	41696.5
699.269	41462.16
699.614	41272.78
699.96	41158.44
700.306	41249.06
700.651	40947.37
700.997	40726.81
701.342	40430.77
701.688	40417.67
702.033	40147.62
702.379	40003.89
702.724	39899.94
703.069	39938.36
703.415	39325.94
703.76	39284.36
704.105	39234.87
704.45	39082.79
704.795	38879.18
705.14	38704.26
705.485	38741.33
705.83	38645.28
706.175	38717.82
706.52	38650.71
706.865	38510.37
707.209	38530.71
707.554	38400.54
707.899	38416.81
708.243	38257.04
708.588	38261.56
708.932	38217.05
709.277	38219.98
709.621	38353.99
709.966	38147.9
710.31	38369.36
710.654	38097.05
710.998	38276.93
711.342	38212.3
711.687	38179.98
712.031	38001.68
712.375	37840.11
712.719	37785.64
713.063	37892.08
713.407	37702.26
713.75	37444.86
714.094	37428.82
714.438	37150.86
714.782	37356.73
715.125	37048.72
715.469	37015.95
715.812	36707.93
716.156	36468.39
716.499	36371.9
716.843	36252.58
717.186	36201.73
717.53	36239.92
717.873	36021.85
718.216	35913.83
718.559	35723.55
718.902	35540.96
719.246	35682.88
719.589	35480.62
719.932	35398.14
720.275	35469.1
720.617	35454.18
720.96	35394.75
721.303	35403.79
721.646	35454.86
721.989	35423.67
722.331	35450.34
722.674	35585.02
723.016	35624.12
723.359	35480.85
723.701	35644.68
724.044	35377.12
724.386	35293.28
724.729	35733.27
725.071	35539.83
725.413	35523.33
725.755	35522.2
726.097	35437.01
726.439	35387.97
726.782	35143
727.124	35313.62
727.465	35132.61
727.807	35124.47
728.149	35020.29
728.491	34891.03
728.833	34953.85
729.175	34756.8
729.516	34589.8
729.858	34637.71
730.199	34572.17
730.541	34354.1
730.882	34437.26
731.224	34404.04
731.565	34018.29
731.906	34112.07
732.248	34123.37
732.589	33909.14
732.93	33797.05
733.271	33850.38
733.612	33870.95
733.953	33821.23
734.294	33756.82
734.635	33684.96
734.976	33739.65
735.317	33588.24
735.658	33705.3
735.999	33914.79
736.339	33705.07
736.68	33995.46
737.021	33845.18
737.361	33771.06
737.702	33967.21
738.042	34001.11
738.383	34014.67
738.723	34112.52
739.063	34042.92
739.404	34350.48
739.744	34219.18
740.084	34309.8
740.424	34361.1
740.764	34380.08
741.104	34398.39
741.444	34195
741.784	34065.97
742.124	34289.01
742.464	34212.18
742.804	34115.68
743.143	33927.22
743.483	33954.56
743.823	33750.27
744.162	33886.99
744.502	33774.9
744.841	33722.02
745.181	33729.93
745.52	33580.11
745.86	33523.16
746.199	33464.18
746.538	33519.32
746.877	33468.92
747.216	33482.48
747.556	33417.17
747.895	33345.76
748.234	33298.08
748.573	33199.55
748.911	33214.69
749.25	33209.95
749.589	33153
749.928	33237.06
750.267	33157.52
750.605	33217.4
750.944	33308.02
751.283	33190.29
751.621	33317.97
751.96	33211.08
752.298	33428.47
752.636	33483.61
752.975	33351.86
753.313	33402.48
