Data from blue_clamp_base_FLMS001491_00081.txt Node
Date: Wed Feb 08 15:16:37 GMT 2017
User: dcchb
Spectrometer: FLMS00149
Trigger mode: 0
Integration Time (sec): 2.000000E-2
Scans to average: 10
Electric dark correction enabled: true
Nonlinearity correction enabled: false
Boxcar width: 0
XAxis mode: Wavelengths
Number of Pixels in Spectrum: 2048
>>>>>Begin Spectral Data<<<<<
341.393	1.38
341.776	1.38
342.16	1.38
342.543	-52.17
342.927	-53.08
343.31	-77.03
343.693	-62.34
344.077	-56.69
344.46	-70.03
344.843	-55.34
345.226	-53.08
345.61	-18.05
345.993	-7.43
346.376	0.71
346.759	9.29
347.142	16.3
347.525	44.09
347.908	52.46
348.291	93.36
348.674	90.2
349.057	93.59
349.44	125.45
349.823	161.15
350.206	164.09
350.588	214.94
350.971	209.29
351.354	231.66
351.737	255.39
352.119	268.95
352.502	264.2
352.884	277.08
353.267	289.74
353.65	305.33
354.032	317.99
354.414	328.38
354.797	319.34
355.179	353.47
355.562	327.25
355.944	342.84
356.326	334.93
356.709	352.56
357.091	350.08
357.473	354.6
357.855	369.96
358.238	365.89
358.62	349.62
359.002	350.98
359.384	345.78
359.766	355.27
360.148	346.23
360.53	368.61
360.912	336.97
361.294	344.2
361.676	351.88
362.057	368.15
362.439	361.15
362.821	320.02
363.203	350.53
363.584	336.74
363.966	333.58
364.348	328.83
364.729	317.53
365.111	343.75
365.493	346.91
365.874	348.04
366.256	331.77
366.637	332.9
367.019	348.72
367.4	364.99
367.781	329.96
368.163	349.85
368.544	341.71
368.925	342.17
369.306	358.89
369.688	347.14
370.069	342.39
370.45	351.88
370.831	341.26
371.212	317.31
371.593	350.08
371.974	356.86
372.355	356.4
372.736	349.62
373.117	358.44
373.498	364.31
373.879	354.14
374.26	341.71
374.641	330.42
375.021	349.62
375.402	345.33
375.783	353.01
376.163	377.42
376.544	358.44
376.925	374.26
377.305	374.93
377.686	344.2
378.066	360.02
378.447	374.71
378.827	387.36
379.208	375.39
379.588	371.54
379.968	374.48
380.349	374.71
380.729	372
381.109	396.18
381.489	395.5
381.87	395.5
382.25	395.27
382.63	410.64
383.01	384.42
383.39	388.94
383.77	406.12
384.15	418.77
384.53	428.94
384.91	416.97
385.29	411.54
385.67	412.67
386.049	419.9
386.429	414.93
386.809	451.54
387.189	428.04
387.568	446.34
387.948	454.48
388.328	429.4
388.707	439.79
389.087	436.85
389.466	432.79
389.846	457.64
390.225	442.28
390.605	476.63
390.984	451.54
391.363	457.87
391.743	463.07
392.122	480.24
392.501	473.91
392.881	496.74
393.26	490.18
393.639	515.95
394.018	506.46
394.397	502.16
394.776	478.21
395.155	509.62
395.534	533.57
395.913	494.48
396.292	543.29
396.671	541.71
397.05	564.99
397.429	556.17
397.808	535.61
398.186	542.84
398.565	547.13
398.944	565.21
399.323	574.48
399.701	597.98
400.08	604.53
400.458	583.06
400.837	592.56
401.215	606.11
401.594	616.74
401.972	603.18
402.351	604.76
402.729	617.41
403.107	651.31
403.486	646.56
403.864	606.11
404.242	660.58
404.62	656.28
404.999	688.6
405.377	677.3
405.755	675.26
406.133	678.43
406.511	690.41
406.889	723.4
407.267	717.3
407.645	727.01
408.023	738.99
408.401	746.45
408.779	769.05
409.156	759.1
409.534	775.15
409.912	786.45
410.29	806.33
410.667	809.27
411.045	809.05
411.422	826.22
411.8	824.87
412.178	834.13
412.555	849.72
412.933	867.35
413.31	879.1
413.687	899.67
414.065	896.05
414.442	891.3
414.819	949.38
415.197	923.85
415.574	940.79
415.951	952.09
416.328	969.49
416.705	955.48
417.082	961.13
417.46	986.22
417.837	982.6
418.214	1008.82
418.591	1027.35
418.967	1033.22
419.344	1009.95
419.721	1062.37
420.098	1030.06
420.475	1071.19
420.852	1083.62
421.228	1111.64
421.605	1092.88
421.982	1098.3
422.358	1139.43
422.735	1127.91
423.111	1146.89
423.488	1157.51
423.864	1149.83
424.241	1184.86
424.617	1199.77
424.994	1186.44
425.37	1193.44
425.746	1190.73
426.123	1236.83
426.499	1251.07
426.875	1278.86
427.251	1275.7
427.627	1308.92
428.003	1298.53
428.379	1337.62
428.756	1357.28
429.132	1397.73
429.507	1395.25
429.883	1387.34
430.259	1421.01
430.635	1444.51
431.011	1451.74
431.387	1507.79
431.763	1537.39
432.138	1527.22
432.514	1571.29
432.89	1564.73
433.265	1592.08
433.641	1622.81
434.016	1615.13
434.392	1633.43
434.767	1675.92
435.143	1710.04
435.518	1713.2
435.894	1724.5
436.269	1773.09
436.644	1758.4
437.02	1805.4
437.395	1784.39
437.77	1830.04
438.145	1872.97
438.52	1883.82
438.895	1894.44
439.271	1919.98
439.646	1931.05
440.021	1973.76
440.395	1952.29
440.77	1969.24
441.145	1980.54
441.52	2053.76
441.895	2023.7
442.27	2062.8
442.645	2052.86
443.019	2089.01
443.394	2079.3
443.769	2103.48
444.143	2108
444.518	2165.4
444.892	2146.19
445.267	2162.01
445.641	2199.97
446.016	2197.94
446.39	2225.51
446.764	2224.83
447.139	2234.55
447.513	2281.78
447.887	2265.73
448.262	2288.33
448.636	2280.65
449.01	2369.23
449.384	2353.64
449.758	2369.23
450.132	2387.76
450.506	2423.69
450.88	2453.07
451.254	2451.49
451.628	2500.3
452.002	2490.58
452.376	2514.54
452.75	2545.5
453.123	2585.72
453.497	2624.59
453.871	2626.85
454.244	2664.82
454.618	2688.32
454.992	2758.15
455.365	2759.05
455.739	2813.97
456.112	2840.18
456.486	2837.24
456.859	2874.98
457.232	2933.06
457.606	2962.66
457.979	2989.55
458.352	3016.22
458.725	3078.59
459.099	3058.03
459.472	3174.41
459.845	3126.27
460.218	3204.69
460.591	3185.48
460.964	3272.48
461.337	3325.59
461.71	3329.66
462.083	3399.49
462.456	3385.93
462.829	3391.8
463.201	3508.18
463.574	3486.49
463.947	3538.69
464.32	3602.19
464.692	3637.67
465.065	3678.35
465.438	3702.98
465.81	3764.45
466.183	3788.4
466.555	3898.46
466.928	3912.24
467.3	3870.21
467.672	3936.87
468.045	4036.98
468.417	4027.49
468.789	4092.12
469.161	4139.13
469.534	4179.35
469.906	4253.25
470.278	4293.02
470.65	4300.48
471.022	4380.93
471.394	4453.24
471.766	4450.53
472.138	4569.17
472.51	4628.38
472.882	4709.96
473.253	4702.05
473.625	4837.19
473.997	4890.75
474.369	4969.39
474.74	4978.88
475.112	5087.58
475.484	5130.97
475.855	5224.52
476.227	5233.11
476.598	5412.09
476.97	5384.29
477.341	5536.83
477.713	5614.57
478.084	5654.57
478.455	5765.75
478.827	5763.72
479.198	5943.83
479.569	5946.09
479.94	6161.9
480.311	6125.97
480.682	6256.13
481.053	6375.68
481.424	6443.02
481.795	6465.17
482.166	6590.82
482.537	6679.17
482.908	6828.32
483.279	6799.4
483.65	6897.47
484.021	7087.75
484.391	7107.86
484.762	7172.95
485.133	7204.81
485.503	7329.33
485.874	7448.65
486.244	7496.1
486.615	7591.69
486.985	7660.62
487.356	7793.04
487.726	7844.57
488.097	7996.88
488.467	7984.68
488.837	8183.54
489.207	8241.85
489.578	8312.13
489.948	8349.64
490.318	8433.03
490.688	8440.48
491.058	8579.69
491.428	8727.93
491.798	8708.73
492.168	8825.78
492.538	8876.18
492.908	8957.53
493.278	9054.48
493.648	9088.38
494.017	9190.07
494.387	9197.07
494.757	9254.93
495.126	9358.2
495.496	9307.58
495.866	9411.31
496.235	9542.6
496.605	9536.27
496.974	9529.95
497.344	9649.72
497.713	9690.17
498.082	9720
498.452	9843.61
498.821	9801.58
499.19	9896.04
499.559	9942.37
499.928	9976.26
500.298	9945.08
500.667	10108.46
501.036	10068.46
501.405	10093.55
501.774	10128.58
502.143	10232.53
502.512	10254.22
502.88	10342.81
503.249	10281.11
503.618	10296.25
503.987	10344.84
504.356	10390.94
504.724	10468.23
505.093	10491.05
505.462	10564.5
505.83	10561.11
506.199	10647.43
506.567	10791.38
506.936	10750.93
507.304	10783.02
507.672	10899.63
508.041	10850.82
508.409	11014.88
508.777	10971.04
509.145	10980.3
509.514	11088.1
509.882	11118.83
510.25	11218.49
510.618	11299.62
510.986	11258.26
511.354	11379.62
511.722	11404.7
512.09	11487.18
512.458	11479.73
512.826	11493.96
513.193	11573.51
513.561	11594.98
513.929	11633.62
514.297	11813.28
514.664	11813.28
515.032	11854.41
515.4	11944.35
515.767	11990.67
516.135	12044.68
516.502	11958.36
516.869	12164.45
517.237	12128.97
517.604	12098.47
517.972	12274.73
518.339	12256.66
518.706	12307.28
519.073	12311.57
519.44	12457.1
519.808	12580.49
520.175	12575.97
520.542	12661.39
520.909	12695.29
521.276	12718.56
521.643	12870.88
522.009	12899.35
522.376	12952
522.743	13042.62
523.11	13058.22
523.477	13180.92
523.843	13318.1
524.21	13334.14
524.577	13470.18
524.943	13449.17
525.31	13635.38
525.676	13573.23
526.043	13685.77
526.409	13747.46
526.776	13808.7
527.142	13900.68
527.508	13975.71
527.874	14081.47
528.241	14079.43
528.607	14149.03
528.973	14288.24
529.339	14310.16
529.705	14338.63
530.071	14509.93
530.437	14614.79
530.803	14643.03
531.169	14634.22
531.535	14667.67
531.901	14739.53
532.267	14740.43
532.632	14782.69
532.998	14893.42
533.364	15026.07
533.73	15042.12
534.095	15137.26
534.461	15111.72
534.826	15252.28
535.192	15257.48
535.557	15445.27
535.923	15301.77
536.288	15344.26
536.653	15569.34
537.019	15488.89
537.384	15593.74
537.749	15616.79
538.114	15630.8
538.479	15716.45
538.845	15841.42
539.21	15723.23
539.575	15796.9
539.94	15826.5
540.305	16046.39
540.67	15905.6
541.034	15985.6
541.399	16122.77
541.764	15988.99
542.129	16082.77
542.494	16154.18
542.858	16236.66
543.223	16250.67
543.587	16300.84
543.952	16273.5
544.316	16434.62
544.681	16276.21
545.045	16417
545.41	16506.03
545.774	16570.67
546.138	16572.47
546.503	16574.51
546.867	16623.55
547.231	16714.62
547.595	16765.01
547.959	16937.66
548.324	16786.71
548.688	16941.5
549.052	16988.28
549.416	16966.14
549.779	16982.63
550.143	17041.61
550.507	17176.98
550.871	17247.71
551.235	17157.09
551.599	17321.61
551.962	17367.71
552.326	17337.2
552.689	17492.9
553.053	17388.05
553.417	17505.78
553.78	17627.14
554.143	17694.7
554.507	17697.64
554.87	17648.6
555.234	17908.26
555.597	17731.09
555.96	17791.88
556.323	17937.64
556.686	17979.67
557.05	18001.59
557.413	18053.11
557.776	18044.53
558.139	18193.22
558.502	18200.23
558.865	18307.8
559.228	18313.67
559.59	18470.73
559.953	18392.76
560.316	18632.76
560.679	18725.64
561.041	18704.4
561.404	18802.02
561.767	18920.89
562.129	18873.66
562.492	18971.73
562.854	18977.16
563.217	19039.08
563.579	19086.76
563.941	19255.79
564.304	19265.28
564.666	19365.62
565.028	19343.02
565.39	19493.75
565.753	19581.89
566.115	19648.55
566.477	19664.14
566.839	19797.02
567.201	19857.59
567.563	19873.4
567.925	19976.68
568.287	19997.02
568.648	20001.08
569.01	20244.02
569.372	20307.29
569.734	20223.9
570.095	20413.05
570.457	20544.57
570.819	20560.84
571.18	20434.52
571.542	20620.05
571.903	20673.83
572.265	20701.86
572.626	20816.43
572.987	20798.8
573.349	20898.91
573.71	20992.47
574.071	21058.68
574.432	21049.19
574.794	21253.48
575.155	21222.52
575.516	21030.21
575.877	21207.61
576.238	21262.29
576.599	21398.34
576.96	21348.62
577.32	21372.12
577.681	21530.54
578.042	21557.65
578.403	21512
578.763	21620.25
579.124	21662.28
579.485	21757.42
579.845	21807.14
580.206	21770.76
580.566	21753.58
580.927	21795.61
581.287	21812.56
581.648	21854.37
582.008	21903.86
582.368	21958.77
582.728	21953.8
583.089	21951.99
583.449	21988.38
583.809	22002.16
584.169	22008.26
584.529	22094.36
584.889	22210.29
585.249	21985.21
585.609	22013.91
585.969	22078.54
586.329	22077.64
586.688	22100.24
587.048	22144.98
587.408	22081.93
587.768	22019.79
588.127	22065.21
588.487	22003.52
588.846	22242.16
589.206	22201.03
589.565	22113.57
589.925	22209.61
590.284	22094.36
590.643	22243.29
591.003	22324.41
591.362	22275.6
591.721	22278.99
592.08	22194.25
592.44	22231.31
592.799	22300.46
593.158	22351.3
593.517	22334.13
593.876	22342.04
594.235	22304.53
594.593	22241.03
594.952	22308.37
595.311	22302.27
595.67	22375.71
596.029	22473.56
596.387	22582.03
596.746	22620.22
597.104	22395.82
597.463	22410.29
597.822	22487.35
598.18	22413.22
598.538	22474.24
598.897	22561.02
599.255	22426.78
599.613	22816.83
599.972	22471.98
600.33	22622.94
600.688	22513.79
601.046	22628.13
601.404	22664.74
601.762	22654.12
602.12	22815.25
602.478	22758.98
602.836	22786.77
603.194	22595.37
603.552	22760.33
603.91	22667
604.268	22700.67
604.625	22670.84
604.983	22738.64
605.341	22699.32
605.698	22832.2
606.056	22884.4
606.413	22805.76
606.771	22944.74
607.128	23017.95
607.485	22845.3
607.843	22795.59
608.2	22940.67
608.557	23085.07
608.914	22941.8
609.272	23064.73
609.629	23085.52
609.986	23185.63
610.343	23050.27
610.7	23237.38
611.057	23156.93
611.414	23163.94
611.771	23223.6
612.127	23371.84
612.484	23244.84
612.841	23365.29
613.198	23287.78
613.554	23338.4
613.911	23327.32
614.267	23411.84
614.624	23235.35
614.98	23360.32
615.337	23515.34
615.693	23393.54
616.05	23488.9
616.406	23581.33
616.762	23520.31
617.118	23496.36
617.475	23383.59
617.831	23633.31
618.187	23560.76
618.543	23673.3
618.899	23786.07
619.255	23646.86
619.611	23741.78
619.967	23842.57
620.323	23661.55
620.678	23711.95
621.034	23802.11
621.39	23697.26
621.746	23616.81
622.101	23834.88
622.457	23740.19
622.812	23769.57
623.168	23890.7
623.523	23886.63
623.879	23942.45
624.234	23811.61
624.589	23951.94
624.945	23958.27
625.3	23954.2
625.655	23860.42
626.01	23975.9
626.365	23987.87
626.72	23939.96
627.075	23999.85
627.43	23881.43
627.785	23945.39
628.14	23907.65
628.495	23989.23
628.85	24025.16
629.205	23982.45
629.559	24047.76
629.914	23895.9
630.269	24026.74
630.623	23949.46
630.978	23978.15
631.332	24006.4
631.687	24112.84
632.041	24041.2
632.396	23998.04
632.75	23798.5
633.104	24049.11
633.459	23966.86
633.813	23942.68
634.167	23782.45
634.521	23949.46
634.875	23878.95
635.229	23977.25
635.583	23779.52
635.937	23858.61
636.291	23851.6
636.645	23769.8
636.999	23840.76
637.352	23793.3
637.706	23875.33
638.06	23919.63
638.413	23866.52
638.767	23875.33
639.121	23897.03
639.474	23718.73
639.828	23753.98
640.181	23771.15
640.534	23816.35
640.888	23750.36
641.241	23692.74
641.594	23701.78
641.947	23848.67
642.301	23751.72
642.654	23828.33
643.007	23911.49
643.36	23792.17
643.713	23687.32
644.066	23898.38
644.419	23598.96
644.771	23525.29
645.124	23302.69
645.477	23293.43
645.83	23165.07
646.182	23205.52
646.535	23097.95
646.888	23196.03
647.24	23156.26
647.593	23322.8
647.945	23237.84
648.298	23089.82
648.65	23090.27
649.002	23119.42
649.355	23221.56
649.707	23206.65
650.059	23296.14
650.411	23508.79
650.763	23651.16
651.115	23828.1
651.467	23863.13
651.819	23727.99
652.171	23848.44
652.523	23800.08
652.875	23792.62
653.227	23694.55
653.578	23935.9
653.93	23756.47
654.282	23649.58
654.633	23748.1
654.985	23756.47
655.337	23784.71
655.688	23726.41
656.039	23975.67
656.391	23787.88
656.742	23758.27
657.094	23808.67
657.445	23982.22
657.796	23798.5
658.147	23729.12
658.498	23839.85
658.849	23890.25
659.2	23743.36
659.551	23784.04
659.902	23887.54
660.253	23875.56
660.604	23859.51
660.955	23721.89
661.306	23829.91
661.656	23812.51
662.007	23905.39
662.358	23866.97
662.708	23932.28
663.059	23716.69
663.409	23735.22
663.76	23824.26
664.11	23823.81
664.461	23863.81
664.811	23778.39
665.161	23766.86
665.511	23753.3
665.862	23793.98
666.212	23896.58
666.562	23795.79
666.912	23701.1
667.262	23636.47
667.612	23663.36
667.962	23655.9
668.312	23595.57
668.662	23656.81
669.011	23724.83
669.361	23578.84
669.711	23637.6
670.06	23561.22
670.41	23514.21
670.76	23496.81
671.109	23555.57
671.459	23531.39
671.808	23360.54
672.157	23509.47
672.507	23386.98
672.856	23373.2
673.205	23282.58
673.554	23396.93
673.904	23195.12
674.253	23332.07
674.602	23239.19
674.951	22952.65
675.3	22778.86
675.649	23048.69
675.998	23049.37
676.346	23026.32
676.695	23101.34
677.044	22937.05
677.393	23035.81
677.741	23106.99
678.09	22763.95
678.438	22798.52
678.787	22800.33
679.135	22829.94
679.484	22791.75
679.832	22786.55
680.181	22586.1
680.529	22685.76
680.877	22562.82
681.225	22581.81
681.573	22708.36
681.922	22452.32
682.27	22444.41
682.618	22517.85
682.966	22376.16
683.314	22380
683.661	22351.3
684.009	22288.71
684.357	22166.68
684.705	22088.94
685.053	22157.86
685.4	22118.77
685.748	22132.1
686.095	22047.13
686.443	21881.94
686.79	21977.08
687.138	21992.9
687.485	21914.03
687.832	21902.73
688.18	21907.25
688.527	21700.93
688.874	21723.3
689.221	21635.84
689.568	21616.18
689.915	21701.38
690.262	21577.77
690.609	21494.15
690.956	21435.85
691.303	21449.86
691.65	21405.12
691.997	21352.91
692.344	21235.63
692.69	21157.89
693.037	21303.2
693.383	21137.1
693.73	21251.67
694.077	21058.68
694.423	21036.54
694.769	20941.62
695.116	20984.11
695.462	20930.1
695.808	20883.55
696.155	21052.58
696.501	20781.63
696.847	20904.34
697.193	20652.59
697.539	20807.62
697.885	20667.51
698.231	20576.44
698.577	20645.36
698.923	20573.27
699.269	20479.26
699.614	20389.1
699.96	20448.98
700.306	20395.2
700.651	20296.67
700.997	20227.52
701.342	20230.91
701.688	20168.31
702.033	20100.74
702.379	20092.38
702.724	20144.81
703.069	20084.92
703.415	19916.79
703.76	20020.29
704.105	19974.19
704.45	19936
704.795	19724.48
705.14	19684.48
705.485	19752.5
705.83	19705.72
706.175	19733.97
706.52	19735.55
706.865	19611.94
707.209	19689.23
707.554	19490.36
707.899	19608.78
708.243	19529.91
708.588	19418.05
708.932	19354.55
709.277	19444.26
709.621	19445.84
709.966	19138.06
710.31	19307.77
710.654	19163.14
710.998	19248.34
711.342	19317.94
711.687	19287.88
712.031	19161.56
712.375	19115.91
712.719	19080.43
713.063	19116.14
713.407	19186.42
713.75	19086.53
714.094	19003.37
714.438	18950.49
714.782	19002.24
715.125	18986.65
715.469	19005.4
715.812	18932.41
716.156	18734.68
716.499	18804.96
716.843	18807.67
717.186	18828.01
717.53	18865.75
717.873	18846.31
718.216	18818.97
718.559	18667.33
718.902	18571.74
719.246	18721.12
719.589	18670.5
719.932	18542.14
720.275	18579.65
720.617	18666.66
720.96	18472.54
721.303	18456.94
721.646	18615.13
721.989	18413.33
722.331	18478.19
722.674	18517.73
723.016	18486.77
723.359	18414.91
723.701	18439.77
724.044	18437.96
724.386	18372.65
724.729	18547.79
725.071	18470.5
725.413	18428.02
725.755	18344.18
726.097	18207.69
726.439	18258.08
726.782	18329.49
727.124	18308.47
727.465	18239.1
727.807	18192.77
728.149	18184.86
728.491	18162.49
728.833	18203.39
729.175	18226.22
729.516	18149.38
729.858	18142.15
730.199	18267.12
730.541	18122.49
730.882	18071.64
731.224	18246.78
731.565	18150.29
731.906	18127.01
732.248	18135.82
732.589	18138.99
732.93	18029.38
733.271	18087.24
733.612	18077.75
733.953	18142.6
734.294	18026.22
734.635	18140.79
734.976	18091.08
735.317	18045.66
735.658	17963.85
735.999	18063.73
736.339	18011.76
736.68	18102.15
737.021	18081.59
737.361	18064.64
737.702	18145.54
738.042	18026.67
738.383	18116.84
738.723	18187.8
739.063	18172.66
739.404	18152.32
739.744	18122.49
740.084	18123.17
740.424	18214.92
740.764	18055.6
741.104	18191.64
741.444	18145.09
741.784	18147.57
742.124	18230.51
742.464	18170.62
742.804	18292.2
743.143	18223.73
743.483	18245.88
743.823	18163.84
744.162	18324.74
744.502	18301.47
744.841	18212.66
745.181	18371.3
745.52	18272.54
745.86	18302.82
746.199	18311.86
746.538	18310.28
746.877	18370.62
747.216	18435.25
747.556	18514.8
747.895	18520.22
748.234	18493.78
748.573	18489.94
748.911	18456.49
749.25	18621.46
749.589	18476.6
749.928	18583.49
750.267	18570.61
750.605	18589.14
750.944	18656.71
751.283	18515.93
751.621	18575.81
751.96	18591.4
752.298	18600.44
752.636	18707.56
752.975	18556.6
753.313	18658.97
753.651	18667.11
753.989	18683.38
754.327	18722.93
754.666	18623.95
