Data from blue_clamp_base_FLMS001491_00077.txt Node
Date: Wed Feb 08 15:16:30 GMT 2017
User: dcchb
Spectrometer: FLMS00149
Trigger mode: 0
Integration Time (sec): 2.000000E-2
Scans to average: 10
Electric dark correction enabled: true
Nonlinearity correction enabled: false
Boxcar width: 0
XAxis mode: Wavelengths
Number of Pixels in Spectrum: 2048
>>>>>Begin Spectral Data<<<<<
341.393	-28.01
341.776	-28.01
342.16	-28.01
342.543	-63.04
342.927	-77.05
343.31	-57.84
343.693	-66.2
344.077	-70.27
344.46	-56.26
344.843	-51.28
345.226	-48.12
345.61	-46.54
345.993	-22.13
346.376	-1.57
346.759	-5.41
347.142	13.8
347.525	69.84
347.908	64.65
348.291	75.27
348.674	83.4
349.057	118.66
349.44	124.53
349.823	151.42
350.206	156.62
350.588	187.35
350.971	200.01
351.354	240.46
351.737	237.97
352.119	265.77
352.502	268.48
352.884	275.94
353.267	283.4
353.65	307.35
354.032	308.93
354.414	320.23
354.797	307.35
355.179	308.71
355.562	322.49
355.944	331.3
356.326	325.88
356.709	324.98
357.091	331.76
357.473	349.61
357.855	328.14
358.238	343.73
358.62	338.08
359.002	340.8
359.384	332.43
359.766	347.35
360.148	348.03
360.53	340.57
360.912	347.58
361.294	343.96
361.676	330.85
362.057	322.72
362.439	314.58
362.821	326.11
363.203	334.47
363.584	319.33
363.966	322.72
364.348	324.07
364.729	348.93
365.111	315.71
365.493	305.99
365.874	334.69
366.256	341.25
366.637	318.42
367.019	318.42
367.4	332.21
367.781	323.62
368.163	322.04
368.544	332.21
368.925	314.13
369.306	325.66
369.688	317.75
370.069	310.29
370.45	315.94
370.831	324.53
371.212	326.56
371.593	330.4
371.974	329.72
372.355	301.25
372.736	313.68
373.117	317.07
373.498	329.27
373.879	321.81
374.26	323.85
374.641	327.01
375.021	320.68
375.402	331.3
375.783	355.71
376.163	350.06
376.544	353
376.925	361.13
377.305	330.85
377.686	338.99
378.066	345.77
378.447	349.61
378.827	356.84
379.208	342.6
379.588	341.25
379.968	361.59
380.349	332.89
380.729	360.23
381.109	371.08
381.489	378.76
381.87	376.95
382.25	356.16
382.63	359.78
383.01	369.27
383.39	365.88
383.77	349.61
384.15	377.63
384.53	366.11
384.91	357.97
385.29	373.34
385.67	385.31
386.049	398.2
386.429	392.32
386.809	384.86
387.189	381.7
387.568	392.77
387.948	409.27
388.328	383.96
388.707	393.45
389.087	407.24
389.466	438.42
389.846	424.64
390.225	397.74
390.605	402.72
390.984	403.62
391.363	420.34
391.743	420.57
392.122	423.73
392.501	430.06
392.881	445.43
393.26	440.91
393.639	422.83
394.018	449.95
394.397	464.18
394.776	450.17
395.155	477.29
395.534	445.88
395.913	475.48
396.292	457.86
396.671	477.74
397.05	488.36
397.429	489.72
397.808	492.43
398.186	458.31
398.565	525.65
398.944	500.34
399.323	489.27
399.701	513.9
400.08	510.06
400.458	529.04
400.837	519.1
401.215	521.13
401.594	527.91
401.972	536.5
402.351	543.28
402.729	545.31
403.107	549.38
403.486	548.47
403.864	585.99
404.242	551.41
404.62	551.86
404.999	565.2
405.377	604.52
405.755	574.69
406.133	579.21
406.511	607.23
406.889	627.12
407.267	606.78
407.645	609.94
408.023	652.2
408.401	638.42
408.779	637.29
409.156	657.85
409.534	647.91
409.912	684.06
410.29	684.52
410.667	665.76
411.045	690.84
411.422	703.95
411.8	726.55
412.178	725.42
412.555	741.92
412.933	737.85
413.31	748.92
413.687	773.55
414.065	764.06
414.442	774.23
414.819	780.11
415.197	787.79
415.574	811.74
415.951	811.74
416.328	815.13
416.705	806.77
417.082	863.04
417.46	814.23
417.837	834.79
418.214	852.65
418.591	807.22
418.967	840.9
419.344	849.26
419.721	889.93
420.098	889.71
420.475	885.64
420.852	879.09
421.228	891.74
421.605	912.98
421.982	912.53
422.358	928.35
422.735	950.5
423.111	932.64
423.488	940.78
423.864	962.25
424.241	987.56
424.617	1015.35
424.994	1001.12
425.37	1001.34
425.746	1009.25
426.123	1035.92
426.499	1030.04
426.875	1040.66
427.251	1055.58
427.627	1079.53
428.003	1104.62
428.379	1114.56
428.756	1119.76
429.132	1143.94
429.507	1151.85
429.883	1159.98
430.259	1181
430.635	1186.42
431.011	1222.13
431.387	1264.84
431.763	1243.15
432.138	1266.42
432.514	1285.63
432.89	1268.23
433.265	1323.37
433.641	1315.46
434.016	1315.91
434.392	1367.66
434.767	1374.67
435.143	1350.26
435.518	1401.33
435.894	1399.07
436.269	1422.12
436.644	1461.44
437.02	1443.14
437.395	1466.19
437.77	1514.32
438.145	1491.5
438.52	1532.18
438.895	1518.39
439.271	1565.4
439.646	1582.12
440.021	1567.66
440.395	1618.05
440.77	1609.92
441.145	1638.62
441.52	1667.31
441.895	1623.93
442.27	1675.22
442.645	1656.92
443.019	1673.19
443.394	1698.05
443.769	1719.97
444.143	1690.37
444.518	1748.67
444.892	1756.8
445.267	1737.14
445.641	1795.45
446.016	1778.5
446.39	1793.41
446.764	1794.32
447.139	1838.61
447.513	1851.04
447.887	1824.37
448.262	1848.1
448.636	1893.07
449.01	1929.68
449.384	1926.74
449.758	1930.36
450.132	1957.02
450.506	1940.75
450.88	1978.72
451.254	1980.53
451.628	1981.2
452.002	2037.25
452.376	2027.08
452.75	2064.14
453.123	2054.88
453.497	2096
453.871	2127.64
454.244	2144.59
454.618	2108.21
454.992	2209.9
455.365	2212.84
455.739	2221.65
456.112	2281.76
456.486	2272.95
456.859	2287.41
457.232	2357.47
457.606	2345.72
457.979	2372.16
458.352	2434.07
458.725	2412.61
459.099	2445.15
459.472	2514.3
459.845	2552.04
460.218	2571.02
460.591	2573.96
460.964	2583.22
461.337	2615.54
461.71	2678.14
462.083	2702.54
462.456	2750.9
462.829	2708.64
463.201	2744.35
463.574	2794.97
463.947	2768.3
464.32	2818.92
464.692	2880.39
465.065	2890.11
465.438	2947.06
465.81	2968.07
466.183	2990.44
466.555	3060.95
466.928	3053.04
467.3	3057.79
467.672	3102.53
468.045	3156.32
468.417	3168.97
468.789	3185.92
469.161	3222.08
469.534	3298.68
469.906	3323.99
470.278	3350.43
470.65	3396.76
471.022	3499.81
471.394	3497.55
471.766	3597.43
472.138	3531.22
472.51	3625.68
472.882	3690.31
473.253	3733.93
473.625	3743.42
473.997	3846.69
474.369	3837.2
474.74	3873.81
475.112	3945.22
475.484	3986.8
475.855	4024.77
476.227	4076.97
476.598	4135.5
476.97	4196.74
477.341	4289.39
477.713	4314.93
478.084	4318.77
478.455	4457.75
478.827	4463.17
479.198	4582.49
479.569	4598.54
479.94	4679.21
480.311	4692.55
480.682	4805.54
481.053	4885.99
481.424	4951.52
481.795	4979.09
482.166	5039.43
482.537	5078.98
482.908	5196.04
483.279	5249.14
483.65	5302.93
484.021	5416.37
484.391	5417.05
484.762	5430.38
485.133	5487.55
485.503	5537.5
485.874	5671.73
486.244	5635.57
486.615	5769.13
486.985	5778.85
487.356	5792.18
487.726	5873.08
488.097	5954.66
488.467	5954.43
488.837	6025.17
489.207	6105.39
489.578	6196.46
489.948	6254.76
490.318	6281.66
490.688	6253.86
491.058	6352.84
491.428	6431.48
491.798	6474.19
492.168	6529.33
492.538	6539.28
492.908	6579.73
493.278	6687.52
493.648	6682.55
494.017	6725.26
494.387	6764.36
494.757	6816.33
495.126	6802.55
495.496	6806.84
495.866	6887.97
496.235	6904.24
496.605	6928.19
496.974	6990.79
497.344	7045.03
497.713	7100.62
498.082	7075.53
498.452	7153.27
498.821	7129.77
499.19	7152.37
499.559	7195.98
499.928	7175.64
500.298	7212.71
500.667	7269.65
501.036	7233.95
501.405	7369.31
501.774	7325.02
502.143	7370.67
502.512	7370.22
502.88	7454.73
503.249	7428.97
503.618	7363.89
503.987	7444.11
504.356	7543.32
504.724	7520.95
505.093	7487.05
505.462	7507.84
505.83	7538.12
506.199	7663.77
506.567	7633.03
506.936	7694.95
507.304	7738.12
507.672	7727.49
508.041	7758.68
508.409	7837.77
508.777	7814.95
509.145	7883.2
509.514	7896.98
509.882	7877.55
510.25	7900.6
510.618	7932.46
510.986	7993.02
511.354	8042.74
511.722	8007.49
512.09	8109.86
512.458	8082.06
512.826	8127.48
513.193	8200.02
513.561	8194.83
513.929	8218.56
514.297	8257.42
514.664	8284.99
515.032	8310.3
515.4	8352.56
515.767	8342.85
516.135	8382.17
516.502	8307.37
516.869	8437.08
517.237	8433.01
517.604	8415.16
517.972	8488.6
518.339	8540.58
518.706	8508.49
519.073	8513.01
519.44	8601.6
519.808	8646.57
520.175	8613.8
520.542	8663.29
520.909	8780.12
521.276	8726.79
521.643	8861.93
522.009	8908.48
522.376	8873
522.743	8884.98
523.11	8991.42
523.477	9010.62
523.843	9045.65
524.21	9121.58
524.577	9180.34
524.943	9215.37
525.31	9199.09
525.676	9310.28
526.043	9283.84
526.409	9388.24
526.776	9347.34
527.142	9434.34
527.508	9447
527.874	9510.5
528.241	9604.73
528.607	9533.55
528.973	9703.49
529.339	9653.09
529.705	9724.73
530.071	9777.84
530.437	9777.61
530.803	9818.51
531.169	9903.26
531.535	9843.6
531.901	9970.6
532.267	9954.1
532.632	10021.67
532.998	10073.2
533.364	10135.57
533.73	10029.81
534.095	10170.37
534.461	10183.48
534.826	10214.89
535.192	10265.96
535.557	10325.62
535.923	10282.68
536.288	10308.9
536.653	10357.03
537.019	10292.62
537.384	10375.79
537.749	10397.93
538.114	10404.94
538.479	10486.74
538.845	10583.46
539.21	10571.26
539.575	10506.4
539.94	10593.41
540.305	10644.03
540.67	10616.68
541.034	10676.34
541.399	10696
541.764	10757.7
542.129	10736
542.494	10764.93
542.858	10844.25
543.223	10805.83
543.587	10918.37
543.952	10921.31
544.316	10961.99
544.681	10912.5
545.045	10976.45
545.41	11016.67
545.774	11084.24
546.138	11077.46
546.503	11074.75
546.867	11095.09
547.231	11192.49
547.595	11181.87
547.959	11158.14
548.324	11268.42
548.688	11287.85
549.052	11283.11
549.416	11311.81
549.779	11281.98
550.143	11330.79
550.507	11439.49
550.871	11418.7
551.235	11449.88
551.599	11486.94
551.962	11527.62
552.326	11546.6
552.689	11611.01
553.053	11606.94
553.417	11539.6
553.78	11705.47
554.143	11673.61
554.507	11769.42
554.87	11701.4
555.234	11866.14
555.597	11757.45
555.96	11862.08
556.323	11841.06
556.686	11820.49
557.05	11914.96
557.413	11981.62
557.776	12005.12
558.139	12076.31
558.502	11970.55
558.865	12062.75
559.228	12179.35
559.59	12169.19
559.953	12197.66
560.316	12345.9
560.679	12266.58
561.041	12400.82
561.404	12381.38
561.767	12534.83
562.129	12405.79
562.492	12534.6
562.854	12608.04
563.217	12587.25
563.579	12577.54
563.941	12692.34
564.304	12733.01
564.666	12873.12
565.028	12792.9
565.39	12839.45
565.753	12923.74
566.115	12942.95
566.477	12988.83
566.839	13034.02
567.201	13156.73
567.563	13107.24
567.925	13218.42
568.287	13276.73
568.648	13302.94
569.01	13355.82
569.372	13351.75
569.734	13322.38
570.095	13497.51
570.457	13507.46
570.819	13540
571.18	13536.16
571.542	13702.25
571.903	13668.13
572.265	13755.36
572.626	13714
572.987	13785.64
573.349	13803.72
573.71	13867.67
574.071	13940.89
574.432	13970.49
574.794	14078.29
575.155	14027.22
575.516	14075.58
575.877	14170.49
576.238	14110.15
576.599	14188.57
576.96	14218.4
577.32	14123.48
577.681	14318.28
578.042	14356.47
578.403	14318.96
578.763	14383.14
579.124	14450.48
579.485	14412.74
579.845	14475.34
580.206	14424.49
580.566	14468.79
580.927	14459.29
581.287	14582.68
581.648	14532.97
582.008	14623.13
582.368	14634.21
582.728	14663.58
583.089	14591.27
583.449	14595.56
583.809	14592.62
584.169	14576.58
584.529	14586.3
584.889	14752.62
585.249	14731.15
585.609	14655.9
585.969	14723.92
586.329	14677.37
586.688	14781.77
587.048	14781.55
587.408	14702.68
587.768	14727.31
588.127	14790.36
588.487	14830.36
588.846	14943.58
589.206	14781.55
589.565	14790.13
589.925	14889.79
590.284	14805.5
590.643	14943.35
591.003	14925.05
591.362	15044.36
591.721	14935.21
592.08	15005.95
592.44	14882.11
592.799	15012.95
593.158	14873.75
593.517	14995.78
593.876	15031.71
594.235	14969.11
594.593	14955.33
594.952	15006.85
595.311	14945.61
595.67	15023.57
596.029	15193.06
596.387	15156
596.746	15162.78
597.104	15053.86
597.463	15048.66
597.822	15090.69
598.18	15071.71
598.538	15074.42
598.897	15173.85
599.255	15134.31
599.613	15364.58
599.972	15175.66
600.33	15192.38
600.688	15196
601.046	15286.17
601.404	15264.92
601.762	15143.34
602.12	15244.81
602.478	15311.93
602.836	15341.08
603.194	15094.76
603.552	15284.58
603.91	15244.36
604.268	15357.12
604.625	15286.84
604.983	15331.59
605.341	15235.09
605.698	15349.89
606.056	15400.06
606.413	15494.3
606.771	15466.73
607.128	15437.57
607.485	15447.29
607.843	15335.66
608.2	15529.78
608.557	15510.57
608.914	15438.48
609.272	15501.75
609.629	15603.9
609.986	15579.04
610.343	15518.7
610.7	15591.69
611.057	15638.92
611.414	15575.42
611.771	15608.64
612.127	15735.87
612.484	15837.34
612.841	15744.68
613.198	15624.46
613.554	15785.14
613.911	15837.11
614.267	15812.71
614.624	15751.24
614.98	15781.75
615.337	15867.62
615.693	15849.99
616.05	15862.2
616.406	15949.43
616.762	15899.03
617.118	15887.96
617.475	15930.22
617.831	16017.22
618.187	15932.93
618.543	15975.19
618.899	16014.73
619.255	16048.63
619.611	15994.85
619.967	16095.18
620.323	16065.81
620.678	16132.47
621.034	16029.65
621.39	16087.05
621.746	16162.08
622.101	16322.52
622.457	16168.63
622.812	16191.9
623.168	16244.33
623.523	16261.06
623.879	16259.47
624.234	16233.71
624.589	16272.35
624.945	16252.69
625.3	16381.28
625.655	16309.42
626.01	16332.01
626.365	16359.58
626.72	16314.84
627.075	16360.71
627.43	16357.32
627.785	16289.3
628.14	16337.21
628.495	16356.42
628.85	16425.34
629.205	16465.57
629.559	16507.38
629.914	16402.75
630.269	16484.78
630.623	16368.4
630.978	16379.7
631.332	16426.02
631.687	16536.3
632.041	16493.37
632.396	16498.11
632.75	16364.78
633.104	16485.68
633.459	16444.33
633.813	16434.16
634.167	16488.17
634.521	16476.87
634.875	16503.31
635.229	16560.03
635.583	16451.78
635.937	16479.13
636.291	16521.16
636.645	16524.78
636.999	16462.86
637.352	16604.78
637.706	16422.63
638.06	16636.19
638.413	16562.06
638.767	16529.3
639.121	16547.38
639.474	16467.6
639.828	16511.44
640.181	16592.8
640.534	16589.18
640.888	16535.17
641.241	16509.41
641.594	16491.56
641.947	16717.54
642.301	16661.72
642.654	16654.04
643.007	16645
643.36	16631.22
643.713	16689.97
644.066	16777.88
644.419	16546.7
644.771	16551.9
645.124	16339.02
645.477	16309.64
645.83	16383.99
646.182	16275.52
646.535	16235.97
646.888	16367.27
647.24	16301.51
647.593	16467.6
647.945	16513.25
648.298	16309.19
648.65	16330.66
649.002	16415.18
649.355	16368.4
649.707	16332.92
650.059	16416.31
650.411	16584.21
650.763	16574.72
651.115	16900.59
651.467	16896.52
651.819	16886.35
652.171	16867.82
652.523	16793.02
652.875	16937.87
653.227	16841.83
653.578	16896.52
653.93	16932.68
654.282	16880.02
654.633	16915.28
654.985	16847.71
655.337	17026.23
655.688	16993.92
656.039	16946.91
656.391	16883.19
656.742	16976.29
657.094	17035.5
657.445	17030.53
657.796	17059.68
658.147	17029.4
658.498	17040.92
658.849	17094.03
659.2	17120.47
659.551	17037.98
659.902	17087.7
660.253	17045.89
660.604	17178.77
660.955	17056.97
661.306	17207.7
661.656	17089.06
662.007	17138.32
662.358	17100.81
662.708	17179.68
663.059	17189.39
663.409	17074.82
663.76	17225.1
664.11	17132.9
664.461	17134.48
664.811	17063.52
665.161	17137.19
665.511	17066.91
665.862	17120.69
666.212	17091.99
666.562	17095.16
666.912	17022.62
667.262	17068.72
667.612	17128.15
667.962	17156.63
668.312	17070.98
668.662	17158.43
669.011	17036.85
669.361	16970.64
669.711	16889.97
670.06	16926.35
670.41	16990.08
670.76	17002.5
671.109	16996.4
671.459	16906.46
671.808	16939.23
672.157	16970.87
672.507	16757.31
672.856	16771.78
673.205	16761.83
673.554	16812.91
673.904	16668.5
674.253	16793.02
674.602	16742.17
674.951	16517.32
675.3	16362.52
675.649	16666.92
675.998	16605.23
676.346	16499.02
676.695	16574.49
677.044	16509.86
677.393	16459.24
677.741	16582.4
678.09	16480.03
678.438	16425.8
678.787	16476.87
679.135	16463.76
679.484	16381.5
679.832	16332.92
680.181	16353.93
680.529	16378.11
680.877	16249.3
681.225	16234.62
681.573	16307.16
681.922	16177.67
682.27	16122.3
682.618	16125.01
682.966	16086.14
683.314	16089.76
683.661	15948.75
684.009	15926.83
684.357	15954.17
684.705	15881.18
685.053	15966.15
685.4	15942.42
685.748	15770.9
686.095	15846.83
686.443	15769.77
686.79	15802.99
687.138	15809.77
687.485	15766.15
687.832	15692.71
688.18	15702.43
688.527	15676.89
688.874	15551.24
689.221	15553.96
689.568	15503.56
689.915	15521.64
690.262	15525.03
690.609	15425.37
690.956	15412.49
691.303	15433.73
691.65	15466.95
691.997	15383.56
692.344	15311.02
692.69	15289.1
693.037	15328.42
693.383	15140.41
693.73	15194.19
694.077	15130.01
694.423	15112.39
694.769	15115.1
695.116	15064.02
695.462	15118.26
695.808	15134.76
696.155	15099.5
696.501	14971.82
696.847	14967.53
697.193	14891.6
697.539	15036.68
697.885	14867.87
698.231	14881.43
698.577	14926.4
698.923	14836.23
699.269	14825.84
699.614	14679.4
699.96	14713.53
700.306	14731.15
700.651	14664.49
700.997	14639.86
701.342	14672.62
701.688	14609.8
702.033	14692.06
702.379	14559.18
702.724	14643.24
703.069	14698.84
703.415	14469.92
703.76	14516.02
704.105	14431.73
704.45	14464.72
704.795	14523.02
705.14	14403.03
705.485	14402.12
705.83	14389.01
706.175	14412.74
706.52	14401.44
706.865	14375.68
707.209	14266.98
707.554	14314.44
707.899	14322.12
708.243	14144.73
708.588	14208
708.932	14104.28
709.277	14133.88
709.621	14245.29
709.966	14128
710.31	14059.31
710.654	14046.2
710.998	14131.85
711.342	14100.66
711.687	14096.82
712.031	14032.41
712.375	14083.03
712.719	14112.41
713.063	14031.51
713.407	14059.08
713.75	14020.66
714.094	14056.37
714.438	13956.48
714.782	14044.62
715.125	13931.17
715.469	13959.2
715.812	13949.7
716.156	13914
716.499	13900.67
716.843	13925.52
717.186	13818.18
717.53	13952.87
717.873	13932.3
718.216	13908.12
718.559	13853.89
718.902	13808.24
719.246	13841.01
719.589	13853.66
719.932	13690.95
720.275	13778.86
720.617	13759.65
720.96	13813.89
721.303	13769.14
721.646	13751.06
721.989	13779.99
722.331	13831.97
722.674	13746.09
723.016	13705.87
723.359	13671.07
723.701	13717.17
724.044	13663.61
724.386	13670.84
724.729	13766.88
725.071	13697.06
725.413	13652.99
725.755	13730.73
726.097	13644.85
726.439	13622.03
726.782	13637.4
727.124	13751.29
727.465	13595.81
727.807	13622.93
728.149	13533.67
728.491	13566.66
728.833	13689.82
729.175	13621.35
729.516	13578.87
729.858	13610.05
730.199	13726.66
730.541	13679.65
730.882	13595.59
731.224	13660.67
731.565	13527.57
731.906	13611.18
732.248	13637.17
732.589	13530.96
732.93	13568.7
733.271	13574.35
733.612	13597.17
733.953	13720.56
734.294	13628.81
734.635	13624.29
734.976	13658.86
735.317	13579.77
735.658	13593.56
735.999	13668.13
736.339	13629.49
736.68	13596.49
737.021	13687.79
737.361	13608.92
737.702	13691.86
738.042	13745.19
738.383	13747.9
738.723	13739.31
739.063	13788.35
739.404	13811.85
739.744	13881.23
740.084	13689.82
740.424	13887.11
740.764	13867.67
741.104	13880.1
741.444	13889.82
741.784	13810.95
742.124	13949.48
742.464	13995.8
742.804	13951.96
743.143	13877.16
743.483	14005.3
743.823	13967.1
744.162	13992.64
744.502	14004.84
744.841	14044.16
745.181	14067.89
745.52	14136.14
745.86	14101.11
746.199	14197.15
746.538	14144.95
746.877	14139.98
747.216	14216.14
747.556	14194.44
747.895	14286.42
748.234	14278.06
748.573	14280.32
748.911	14371.61
749.25	14406.64
749.589	14256.14
749.928	14452.74
750.267	14265.4
750.605	14438.96
750.944	14373.42
751.283	14405.74
751.621	14517.37
751.96	14396.02
752.298	14496.13
752.636	14538.16
752.975	14545.85
753.313	14536.58
753.651	14598.95
753.989	14481.67
754.327	14560.54
754.666	14598.05
755.004	14713.53
755.342	14705.16
755.679	14646.41
756.017	14487.77
756.355	14743.36
756.693	14707.65
