Data from blue_surface_keyboard_FLMS001491_076.txt Node
Date: Tue Feb 07 11:13:38 GMT 2017
User: dcchb
Spectrometer: FLMS00149
Trigger mode: 0
Integration Time (sec): 2.000000E-2
Scans to average: 10
Electric dark correction enabled: true
Nonlinearity correction enabled: false
Boxcar width: 0
XAxis mode: Wavelengths
Number of Pixels in Spectrum: 2048
>>>>>Begin Spectral Data<<<<<
341.393	-15.64
341.776	-15.64
342.16	-15.64
342.543	-70.32
342.927	-66.71
343.31	-74.84
343.693	-68.74
344.077	-73.03
344.46	-77.1
344.843	-58.8
345.226	-47.05
345.61	-23.77
345.993	-22.41
346.376	9.45
346.759	14.42
347.142	35.44
347.525	39.28
347.908	59.62
348.291	83.35
348.674	87.19
349.057	117.02
349.44	121.54
349.823	150.24
350.206	156.79
350.588	147.52
350.971	193.85
351.354	185.04
351.737	227.3
352.119	202.66
352.502	217.35
352.884	233.17
353.267	248.99
353.65	261.42
354.032	272.04
354.414	286.73
354.797	284.7
355.179	285.37
355.562	288.31
355.944	294.64
356.326	298.71
356.709	305.94
357.091	272.49
357.473	302.32
357.855	304.36
358.238	333.28
358.62	328.54
359.002	289.44
359.384	330.57
359.766	318.82
360.148	313.85
360.53	313.4
360.912	310.68
361.294	287.41
361.676	289.89
362.057	303.45
362.439	325.82
362.821	310.68
363.203	321.53
363.584	285.83
363.966	319.27
364.348	295.54
364.729	293.96
365.111	281.08
365.493	290.12
365.874	287.41
366.256	297.58
366.637	276.79
367.019	277.46
367.4	287.86
367.781	277.46
368.163	284.02
368.544	275.66
368.925	268.88
369.306	308.2
369.688	275.88
370.069	261.19
370.45	272.49
370.831	266.62
371.212	259.39
371.593	289.22
371.974	262.32
372.355	263.45
372.736	288.54
373.117	291.48
373.498	256.45
373.879	269.78
374.26	271.81
374.641	274.07
375.021	284.02
375.402	277.46
375.783	263.23
376.163	291.7
376.544	274.98
376.925	291.93
377.305	287.41
377.686	271.36
378.066	298.48
378.447	308.65
378.827	275.66
379.208	283.11
379.588	281.53
379.968	278.82
380.349	319.27
380.729	278.82
381.109	294.87
381.489	298.03
381.87	313.85
382.25	301.64
382.63	298.93
383.01	293.74
383.39	301.19
383.77	293.96
384.15	283.34
384.53	305.49
384.91	306.62
385.29	305.26
385.67	289.44
386.049	300.06
386.429	307.52
386.809	288.31
387.189	312.04
387.568	328.08
387.948	292.38
388.328	301.87
388.707	312.27
389.087	306.39
389.466	306.16
389.846	296
390.225	297.58
390.605	315.88
390.984	286.5
391.363	329.21
391.743	292.83
392.122	298.25
392.501	297.8
392.881	313.85
393.26	291.02
393.639	317.92
394.018	304.81
394.397	314.3
394.776	320.4
395.155	333.73
395.534	318.37
395.913	316.56
396.292	324.92
396.671	322.44
397.05	306.39
397.429	308.65
397.808	317.01
398.186	332.15
398.565	317.01
398.944	328.76
399.323	337.58
399.701	314.98
400.08	311.36
400.458	318.14
400.837	356.78
401.215	318.37
401.594	324.02
401.972	316.11
402.351	346.62
402.729	338.71
403.107	335.09
403.486	318.59
403.864	343.45
404.242	331.47
404.62	359.04
404.999	322.66
405.377	316.11
405.755	352.94
406.133	327.18
406.511	324.47
406.889	340.51
407.267	343.45
407.645	347.52
408.023	334.64
408.401	341.87
408.779	352.04
409.156	337.8
409.534	345.49
409.912	337.58
410.29	355.2
410.667	368.08
411.045	355.43
411.422	352.94
411.8	352.94
412.178	368.08
412.555	347.07
412.933	384.81
413.31	350.23
413.687	371.47
414.065	371.25
414.442	352.94
414.819	377.57
415.197	368.54
415.574	380.96
415.951	376.44
416.328	383.68
416.705	363.11
417.082	375.99
417.46	374.64
417.837	363.34
418.214	379.16
418.591	379.38
418.967	382.32
419.344	379.83
419.721	377.35
420.098	398.37
420.475	403.56
420.852	388.2
421.228	381.19
421.605	373.51
421.982	392.72
422.358	410.79
422.735	396.33
423.111	392.94
423.488	385.03
423.864	402.21
424.241	399.27
424.617	400.63
424.994	410.12
425.37	405.82
425.746	398.14
426.123	409.66
426.499	403.56
426.875	396.11
427.251	419.38
427.627	421.87
428.003	405.6
428.379	420.51
428.756	418.25
429.132	419.83
429.507	435.65
429.883	418.7
430.259	439.27
430.635	441.75
431.011	447.18
431.387	426.84
431.763	442.43
432.138	431.58
432.514	433.39
432.89	458.93
433.265	468.42
433.641	458.02
434.016	445.82
434.392	433.84
434.767	461.41
435.143	471.58
435.518	451.7
435.894	468.42
436.269	475.43
436.644	465.26
437.02	462.32
437.395	466.16
437.77	460.74
438.145	470
438.52	471.36
438.895	475.2
439.271	496.67
439.646	466.61
440.021	494.18
440.395	461.19
440.77	464.8
441.145	453.96
441.52	484.24
441.895	495.54
442.27	508.42
442.645	506.84
443.019	487.4
443.394	492.6
443.769	512.26
444.143	502.32
444.518	515.42
444.892	507.06
445.267	519.04
445.641	528.98
446.016	504.35
446.39	533.73
446.764	515.88
447.139	535.99
447.513	525.14
447.887	538.47
448.262	533.73
448.636	553.39
449.01	532.82
449.384	528.31
449.758	516.1
450.132	538.25
450.506	528.53
450.88	533.28
451.254	545.48
451.628	539.6
452.002	549.55
452.376	546.84
452.75	541.19
453.123	529.89
453.497	553.16
453.871	574.41
454.244	568.08
454.618	571.47
454.992	588.87
455.365	595.2
455.739	561.3
456.112	593.39
456.486	594.29
456.859	571.47
457.232	583.22
457.606	587.51
457.979	588.19
458.352	612.37
458.725	618.02
459.099	609.21
459.472	609.21
459.845	604.91
460.218	622.77
460.591	617.79
460.964	616.66
461.337	635.65
461.71	600.62
462.083	626.61
462.456	643.33
462.829	625.25
463.201	677.91
463.574	647.62
463.947	651.92
464.32	648.08
464.692	660.73
465.065	664.12
465.438	656.89
465.81	673.84
466.183	669.77
466.555	668.64
466.928	683.56
467.3	707.51
467.672	703.67
468.045	697.34
468.417	695.53
468.789	712.26
469.161	703.22
469.534	722.88
469.906	689.66
470.278	732.14
470.65	736.66
471.022	744.57
471.394	756.77
471.766	737.34
472.138	762.88
472.51	760.16
472.882	765.59
473.253	784.57
473.625	778.02
473.997	799.48
474.369	773.04
474.74	797.22
475.112	806.49
475.484	817.79
475.855	817.34
476.227	832.7
476.598	825.92
476.97	852.36
477.341	842.42
477.713	863.89
478.084	869.99
478.455	876.32
478.827	898.69
479.198	896.88
479.569	885.13
479.94	899.14
480.311	900.95
480.682	920.84
481.053	952.47
481.424	933.27
481.795	967.39
482.166	960.84
482.537	965.58
482.908	983.66
483.279	982.3
483.65	992.02
484.021	1021.63
484.391	996.54
484.762	1004.23
485.133	1011.23
485.503	1030.66
485.874	1049.87
486.244	1037.67
486.615	1068.4
486.985	1064.79
487.356	1084.45
487.726	1086.26
488.097	1072.92
488.467	1074.73
488.837	1096.88
489.207	1119.93
489.578	1125.58
489.948	1102.75
490.318	1117.44
490.688	1140.49
491.058	1134.84
491.428	1151.79
491.798	1131.91
492.168	1162.86
492.538	1148.63
492.908	1177.33
493.278	1212.58
493.648	1172.13
494.017	1192.69
494.387	1190.21
494.757	1224.56
495.126	1204.9
495.496	1187.5
495.866	1211.45
496.235	1230.66
496.605	1215.52
496.974	1205.12
497.344	1237.89
497.713	1231.79
498.082	1254.16
498.452	1277.44
498.821	1241.05
499.19	1213.94
499.559	1245.57
499.928	1254.16
500.298	1243.77
500.667	1265.01
501.036	1277.44
501.405	1262.3
501.774	1282.18
502.143	1264.56
502.512	1265.69
502.88	1269.53
503.249	1278.12
503.618	1282.18
503.987	1298
504.356	1293.03
504.724	1306.59
505.093	1293.93
505.462	1293.48
505.83	1316.53
506.199	1298.23
506.567	1328.06
506.936	1314.5
507.304	1300.26
507.672	1286.48
508.041	1325.12
508.409	1326.02
508.777	1326.48
509.145	1332.13
509.514	1321.5
509.882	1326.48
510.25	1342.97
510.618	1332.58
510.986	1334.16
511.354	1345.46
511.722	1327.61
512.09	1369.41
512.458	1326.93
512.826	1339.58
513.193	1356.76
513.561	1378
513.929	1387.04
514.297	1361.5
514.664	1386.81
515.032	1369.19
515.4	1389.98
515.767	1386.59
516.135	1382.29
516.502	1377.1
516.869	1377.77
517.237	1385.91
517.604	1377.55
517.972	1383.88
518.339	1390.66
518.706	1382.29
519.073	1364.44
519.44	1408.51
519.808	1404.67
520.175	1415.97
520.542	1399.24
520.909	1409.86
521.276	1383.88
521.643	1413.25
522.009	1403.76
522.376	1440.6
522.743	1423.42
523.11	1437.43
523.477	1420.03
523.843	1453.25
524.21	1450.77
524.577	1466.81
524.943	1439.69
525.31	1468.85
525.676	1469.3
526.043	1458.68
526.409	1431.11
526.776	1474.95
527.142	1495.06
527.508	1454.61
527.874	1469.52
528.241	1491.44
528.607	1493.48
528.973	1474.5
529.339	1475.63
529.705	1491.44
530.071	1496.64
530.437	1502.52
530.803	1508.84
531.169	1492.57
531.535	1545
531.901	1503.19
532.267	1496.64
532.632	1505.68
532.998	1515.85
533.364	1540.71
533.73	1518.79
534.095	1536.19
534.461	1524.21
534.826	1536.87
535.192	1526.02
535.557	1522.63
535.923	1526.7
536.288	1543.42
536.653	1532.57
537.019	1535.74
537.384	1514.04
537.749	1521.95
538.114	1543.42
538.479	1546.81
538.845	1526.02
539.21	1525.34
539.575	1545.68
539.94	1540.93
540.305	1545.23
540.67	1570.09
541.034	1545.23
541.399	1551.33
541.764	1543.87
542.129	1540.26
542.494	1532.8
542.858	1557.43
543.223	1558.56
543.587	1576.64
543.952	1530.54
544.316	1555.85
544.681	1554.72
545.045	1539.8
545.41	1567.37
545.774	1575.28
546.138	1570.09
546.503	1591.1
546.867	1575.51
547.231	1574.61
547.595	1559.46
547.959	1539.8
548.324	1571.89
548.688	1590.88
549.052	1563.53
549.416	1582.51
549.779	1585
550.143	1572.35
550.507	1571.89
550.871	1587.26
551.235	1568.96
551.599	1573.7
551.962	1573.93
552.326	1594.04
552.689	1599.69
553.053	1554.94
553.417	1582.51
553.78	1580.71
554.143	1596.75
554.507	1600.14
554.87	1598.79
555.234	1596.75
555.597	1608.95
555.96	1564.66
556.323	1609.41
556.686	1612.34
557.05	1645.34
557.413	1600.14
557.776	1590.88
558.139	1649.41
558.502	1619.58
558.865	1628.39
559.228	1637.65
559.59	1618.45
559.953	1609.63
560.316	1636.75
560.679	1610.99
561.041	1631.1
561.404	1614.15
561.767	1631.55
562.129	1647.6
562.492	1622.97
562.854	1650.08
563.217	1659.12
563.579	1635.39
563.941	1675.17
564.304	1650.54
564.666	1646.24
565.028	1655.28
565.39	1634.49
565.753	1675.17
566.115	1646.02
566.477	1655.96
566.839	1679.91
567.201	1680.37
567.563	1681.04
567.925	1674.26
568.287	1667.71
568.648	1689.18
569.01	1692.34
569.372	1725.11
569.734	1708.61
570.095	1693.25
570.457	1696.41
570.819	1717.43
571.18	1707.26
571.542	1739.8
571.903	1713.58
572.265	1730.99
572.626	1720.14
572.987	1708.84
573.349	1742.06
573.71	1697.09
574.071	1736.64
574.432	1749.74
574.794	1757.88
575.155	1761.27
575.516	1715.39
575.877	1758.78
576.238	1720.59
576.599	1740.48
576.96	1752.23
577.32	1741.38
577.681	1785.67
578.042	1774.37
578.403	1770.98
578.763	1768.72
579.124	1768.5
579.485	1777.54
579.845	1757.43
580.206	1774.6
580.566	1747.03
580.927	1771.89
581.287	1759.23
581.648	1766.69
582.008	1817.54
582.368	1781.15
582.728	1764.66
583.089	1750.65
583.449	1784.32
583.809	1764.88
584.169	1764.88
584.529	1772.79
584.889	1793.58
585.249	1793.36
585.609	1802.4
585.969	1778.89
586.329	1774.6
586.688	1736.64
587.048	1795.16
587.408	1787.71
587.768	1775.28
588.127	1813.47
588.487	1762.4
588.846	1805.56
589.206	1779.8
589.565	1765.11
589.925	1781.15
590.284	1784.09
590.643	1816.18
591.003	1787.03
591.362	1782.96
591.721	1783.19
592.08	1813.02
592.44	1794.03
592.799	1798.1
593.158	1787.48
593.517	1780.93
593.876	1791.32
594.235	1821.6
594.593	1811.66
594.952	1811.44
595.311	1806.92
595.67	1813.47
596.029	1813.92
596.387	1811.44
596.746	1810.08
597.104	1815.28
597.463	1809.18
597.822	1813.7
598.18	1789.06
598.538	1810.53
598.897	1826.35
599.255	1788.61
599.613	1862.06
599.972	1813.47
600.33	1839.23
600.688	1806.92
601.046	1840.14
601.404	1834.94
601.762	1803.75
602.12	1830.64
602.478	1818.21
602.836	1813.92
603.194	1855.5
603.552	1810.53
603.91	1822.06
604.268	1844.43
604.625	1822.06
604.983	1839.01
605.341	1829.51
605.698	1860.25
606.056	1842.62
606.413	1836.75
606.771	1861.15
607.128	1864.32
607.485	1846.24
607.843	1855.5
608.2	1853.47
608.557	1853.92
608.914	1852.11
609.272	1869.06
609.629	1833.13
609.986	1875.61
610.343	1882.85
610.7	1871.32
611.057	1897.76
611.414	1890.98
611.771	1908.16
612.127	1902.05
612.484	1880.81
612.841	1877.65
613.198	1880.59
613.554	1883.98
613.911	1911.77
614.267	1890.08
614.624	1898.66
614.98	1904.09
615.337	1904.09
615.693	1922.39
616.05	1897.76
616.406	1907.25
616.762	1918.78
617.118	1919.23
617.475	1931.21
617.831	1916.29
618.187	1936.86
618.543	1914.71
618.899	1897.31
619.255	1953.35
619.611	1933.24
619.967	1931.43
620.323	1930.08
620.678	1959.91
621.034	1944.09
621.39	1945.22
621.746	1946.8
622.101	1954.71
622.457	1940.02
622.812	1980.02
623.168	1975.95
623.523	1961.71
623.879	1954.26
624.234	1977.31
624.589	1973.24
624.945	1978.89
625.3	1976.4
625.655	1985.22
626.01	2020.24
626.365	1996.97
626.72	1995.39
627.075	1979.79
627.43	2000.81
627.785	2004.2
628.14	1985.22
628.495	1993.13
628.85	2003.07
629.205	1997.42
629.559	2004.42
629.914	1990.64
630.269	1980.24
630.623	2016.85
630.978	2038.32
631.332	2046.01
631.687	2020.7
632.041	2006.68
632.396	2046.23
632.75	2000.13
633.104	2016.18
633.459	2015.05
633.813	2013.69
634.167	2018.21
634.521	2032.22
634.875	2041.71
635.229	2016.4
635.583	2061.15
635.937	2052.79
636.291	2043.75
636.645	2036.29
636.999	2027.02
637.352	2063.63
637.706	2079.22
638.06	2092.56
638.413	2079.22
638.767	2037.64
639.121	2067.93
639.474	2086.91
639.828	2085.78
640.181	2081.94
640.534	2069.73
640.888	2108.83
641.241	2093.46
641.594	2091.2
641.947	2100.47
642.301	2086.23
642.654	2113.8
643.007	2147.25
643.36	2105.66
643.713	2103.18
644.066	2122.61
644.419	2138.21
644.771	2151.31
645.124	2116.51
645.477	2106.57
645.83	2113.8
646.182	2113.57
646.535	2103.86
646.888	2111.31
647.24	2097.08
647.593	2139.79
647.945	2161.26
648.298	2152.67
648.65	2168.94
649.002	2167.36
649.355	2143.86
649.707	2156.06
650.059	2187.47
650.411	2216.85
650.763	2252.33
651.115	2220.01
651.467	2249.62
651.819	2274.93
652.171	2250.75
652.523	2279.45
652.875	2261.82
653.227	2279.67
653.578	2323.51
653.93	2275.38
654.282	2288.71
654.633	2321.48
654.985	2349.5
655.337	2353.12
655.688	2361.7
656.039	2348.37
656.391	2346.34
656.742	2346.79
657.094	2378.88
657.445	2424.07
657.796	2403.74
658.147	2391.99
658.498	2408.03
658.849	2453.68
659.2	2422.72
659.551	2483.51
659.902	2470.4
660.253	2422.94
660.604	2433.34
660.955	2492.1
661.306	2487.35
661.656	2523.73
662.007	2502.49
662.358	2531.19
662.708	2548.14
663.059	2522.15
663.409	2528.7
663.76	2523.96
664.11	2558.08
664.461	2585.2
664.811	2599.89
665.161	2617.29
665.511	2621.81
665.862	2585.2
666.212	2671.75
666.562	2664.52
666.912	2634.46
667.262	2623.62
667.612	2683.28
667.962	2683.05
668.312	2713.11
668.662	2689.15
669.011	2683.05
669.361	2730.73
669.711	2729.38
670.06	2726.67
670.41	2698.64
670.76	2755.37
671.109	2740.9
671.459	2748.13
671.808	2775.25
672.157	2772.77
672.507	2763.27
672.856	2815.25
673.205	2780
673.554	2842.14
673.904	2830.39
674.253	2845.76
674.602	2868.58
674.951	2831.75
675.3	2822.26
675.649	2874.23
675.998	2892.54
676.346	2895.7
676.695	2917.85
677.044	2885.31
677.393	2929.15
677.741	2917.62
678.09	2954
678.438	2938.41
678.787	2978.64
679.135	2988.13
679.484	2945.87
679.832	2986.77
680.181	2970.5
680.529	2975.92
680.877	2993.78
681.225	2997.17
681.573	2981.35
681.922	3045.08
682.27	3039.65
682.618	3023.15
682.966	3024.96
683.314	3039.2
683.661	3019.31
684.009	3055.47
684.357	3053.21
684.705	3031.29
685.053	3043.49
685.4	3092.53
685.748	3092.31
686.095	3087.11
686.443	3087.79
686.79	3084.85
687.138	3119.2
687.485	3106.32
687.832	3105.41
688.18	3133.66
688.527	3107.45
688.874	3129.82
689.221	3142.47
689.568	3115.13
689.915	3145.64
690.262	3105.19
690.609	3141.34
690.956	3114.45
691.303	3123.27
691.65	3097.5
691.997	3117.16
692.344	3128.69
692.69	3134.11
693.037	3165.07
693.383	3110.38
693.73	3122.36
694.077	3113.32
694.423	3100.22
694.769	3080.55
695.116	3110.84
695.462	3092.53
695.808	3106.77
696.155	3135.92
696.501	3076.03
696.847	3124.17
697.193	3070.61
697.539	3095.02
697.885	3088.46
698.231	3064.28
698.577	3124.4
698.923	3074.68
699.269	3095.02
699.614	3051.18
699.96	3067.45
700.306	3050.27
700.651	3054.79
700.997	3069.93
701.342	3088.69
701.688	3031.52
702.033	3028.8
702.379	3083.94
702.724	3050.05
703.069	3059.31
703.415	2987
703.76	3050.5
704.105	3032.87
704.45	3037.39
704.795	3047.79
705.14	3029.48
705.485	3002.82
705.83	3011.86
706.175	2982.93
706.52	3028.8
706.865	3022.25
707.209	3014.12
707.554	2962.14
707.899	3030.39
708.243	3001.01
708.588	3006.66
708.932	2956.26
709.277	2985.42
709.621	2982.03
709.966	2967.79
710.31	2961.24
710.654	2987.68
710.998	2937.06
711.342	2975.25
711.687	2970.05
712.031	2984.96
712.375	2999.65
712.719	2987.68
713.063	2950.16
713.407	3005.3
713.75	2953.55
714.094	2972.76
714.438	2953.1
714.782	2981.12
715.125	2964.17
715.469	2960.78
715.812	2965.3
716.156	2972.31
716.499	2944.51
716.843	2956.49
717.186	2932.08
717.53	3006.66
717.873	2960.56
718.216	2961.46
718.559	2921.01
718.902	2908.36
719.246	2994.68
719.589	2951.29
719.932	2922.82
720.275	2959.43
720.617	2897.51
720.96	2924.85
721.303	2903.16
721.646	2944.96
721.989	2902.71
722.331	2911.52
722.674	2948.13
723.016	2973.89
723.359	2924.63
723.701	2929.6
724.044	2920.11
724.386	2917.62
724.729	2896.6
725.071	2913.55
725.413	2913.33
725.755	2924.63
726.097	2925.3
726.439	2932.54
726.782	2905.87
727.124	2941.35
727.465	2934.57
727.807	2931.86
728.149	2916.94
728.491	2949.26
728.833	2963.27
729.175	2955.81
729.516	2963.04
729.858	2972.76
730.199	2993.33
730.541	2935.7
730.882	2965.76
731.224	2973.44
731.565	2976.6
731.906	2957.85
732.248	2935.47
732.589	2962.82
732.93	2983.61
733.271	2973.44
733.612	2951.29
733.953	2978.64
734.294	2964.63
734.635	2975.02
734.976	2988.58
735.317	2952.42
735.658	3021.8
735.999	2975.92
736.339	2985.87
736.68	3029.03
737.021	3018.86
737.361	3011.4
737.702	3027.22
738.042	3018.41
738.383	3040.56
738.723	3029.48
739.063	3018.41
739.404	3051.85
739.744	3060.67
740.084	3029.26
740.424	3081.46
740.764	3099.54
741.104	3097.96
741.444	3051.63
741.784	3104.73
742.124	3107.45
742.464	3084.62
742.804	3133.43
743.143	3101.57
743.483	3095.92
743.823	3119.42
744.162	3099.09
744.502	3165.98
744.841	3132.3
745.181	3149.25
745.52	3203.04
745.86	3220.44
746.199	3204.39
746.538	3215.24
746.877	3236.48
747.216	3286.2
747.556	3287.1
747.895	3304.96
748.234	3285.75
748.573	3321.9
748.911	3301.57
749.25	3350.6
749.589	3338.17
749.928	3330.49
750.267	3386.76
750.605	3411.85
750.944	3395.12
751.283	3411.39
751.621	3456.36
751.96	3465.18
752.298	3473.54
752.636	3484.16
752.975	3530.71
753.313	3526.64
753.651	3524.38
753.989	3515.35
754.327	3555.8
754.666	3612.07
755.004	3604.38
755.342	3665.17
755.679	3660.43
756.017	3628.34
756.355	3668.79
756.693	3719.41
757.031	3761.21
757.368	3700.65
757.706	3775.68
758.044	3805.96
758.381	3793.76
758.719	3783.13
759.056	3843.25
759.394	3813.19
759.731	3802.57
760.068	3867.2
760.405	3854.77
760.743	3870.82
761.08	3896.8
761.417	3922.57
761.754	3936.8
762.091	3930.7
762.428	3949.23
762.765	3973.19
763.102	3956.01
763.438	3965.5
763.775	3975.9
764.112	3972.51
764.449	3996.24
764.785	4029
765.122	3945.84
765.458	4001.66
765.795	3998.04
766.131	3994.2
766.467	4017.25
766.804	4024.71
767.14	4044.15
767.476	4001.66
767.812	3974.09
768.148	4007.54
768.485	3996.46
768.821	4007.08
769.157	4076.23
769.492	3995.33
769.828	4018.38
770.164	4018.16
770.5	3986.29
770.836	4037.82
771.171	4000.3
771.507	4017.25
771.842	3988.55
772.178	3994.2
