Data from blue_surface_keyboard_FLMS001491_072.txt Node
Date: Tue Feb 07 11:13:37 GMT 2017
User: dcchb
Spectrometer: FLMS00149
Trigger mode: 0
Integration Time (sec): 2.000000E-2
Scans to average: 10
Electric dark correction enabled: true
Nonlinearity correction enabled: false
Boxcar width: 0
XAxis mode: Wavelengths
Number of Pixels in Spectrum: 2048
>>>>>Begin Spectral Data<<<<<
341.393	-14.9
341.776	-14.9
342.16	-14.9
342.543	-54
342.927	-74.79
343.31	-62.36
343.693	-75.92
344.077	-79.08
344.46	-55.13
344.843	-42.92
345.226	-31.4
345.61	-27.78
345.993	-28.01
346.376	-14.22
346.759	19.22
347.142	26.91
347.525	32.56
347.908	59.45
348.291	68.03
348.674	102.84
349.057	107.81
349.44	134.93
349.823	142.61
350.206	155.72
350.588	155.26
350.971	166.56
351.354	178.31
351.737	217.86
352.119	242.49
352.502	246.56
352.884	259.89
353.267	253.11
353.65	271.87
354.032	277.75
354.414	275.71
354.797	292.44
355.179	289.72
355.562	296.28
355.944	311.19
356.326	292.89
356.709	326.33
357.091	299.89
357.473	324.98
357.855	310.97
358.238	314.13
358.62	338.54
359.002	316.39
359.384	301.02
359.766	320.91
360.148	309.38
360.53	301.93
360.912	300.12
361.294	309.16
361.676	284.07
362.057	286.11
362.439	289.5
362.821	272.1
363.203	304.86
363.584	293.11
363.966	305.77
364.348	288.59
364.729	294.24
365.111	295.83
365.493	287.46
365.874	287.92
366.256	283.4
366.637	296.73
367.019	276.17
367.4	301.93
367.781	293.34
368.163	261.7
368.544	292.21
368.925	270.74
369.306	308.25
369.688	286.33
370.069	309.84
370.45	287.46
370.831	288.59
371.212	281.81
371.593	280.91
371.974	273.91
372.355	288.14
372.736	305.54
373.117	275.94
373.498	284.75
373.879	288.14
374.26	257.18
374.641	276.84
375.021	297.63
375.402	291.08
375.783	304.19
376.163	297.63
376.544	267.13
376.925	304.41
377.305	310.51
377.686	281.59
378.066	295.15
378.447	311.64
378.827	324.98
379.208	312.77
379.588	303.73
379.968	290.85
380.349	303.96
380.729	313.23
381.109	274.13
381.489	296.28
381.87	298.09
382.25	284.98
382.63	304.86
383.01	303.06
383.39	316.84
383.77	292.89
384.15	284.53
384.53	284.3
384.91	347.12
385.29	318.42
385.67	309.84
386.049	317.29
386.429	316.16
386.809	315.26
387.189	298.31
387.568	322.72
387.948	338.31
388.328	317.97
388.707	304.41
389.087	308.25
389.466	302.83
389.846	324.07
390.225	327.01
390.605	315.03
390.984	324.53
391.363	307.8
391.743	308.48
392.122	327.01
392.501	326.33
392.881	330.4
393.26	287.92
393.639	316.39
394.018	309.84
394.397	319.1
394.776	325.88
395.155	335.82
395.534	307.35
395.913	321.14
396.292	323.62
396.671	322.49
397.05	321.59
397.429	308.48
397.808	344.64
398.186	332.43
398.565	341.47
398.944	342.15
399.323	334.02
399.701	328.37
400.08	320.23
400.458	331.98
400.837	333.56
401.215	352.32
401.594	341.47
401.972	345.32
402.351	354.58
402.729	338.99
403.107	334.02
403.486	315.26
403.864	347.58
404.242	328.37
404.62	345.77
404.999	360.91
405.377	344.41
405.755	350.97
406.133	341.25
406.511	362.04
406.889	369.27
407.267	340.12
407.645	336.5
408.023	347.58
408.401	376.28
408.779	338.31
409.156	349.16
409.534	367.01
409.912	347.58
410.29	376.95
410.667	374.24
411.045	350.06
411.422	376.05
411.8	367.46
412.178	372.89
412.555	385.31
412.933	358.65
413.31	344.19
413.687	367.69
414.065	378.99
414.442	376.28
414.819	364.75
415.197	392.55
415.574	356.39
415.951	387.57
416.328	392.77
416.705	379.21
417.082	401.81
417.46	363.62
417.837	398.87
418.214	378.08
418.591	378.08
418.967	387.35
419.344	379.89
419.721	394.13
420.098	393.68
420.475	393.45
420.852	406.56
421.228	399.78
421.605	399.78
421.982	400.46
422.358	400.91
422.735	402.26
423.111	412.43
423.488	418.99
423.864	413.56
424.241	402.04
424.617	401.13
424.994	403.39
425.37	414.69
425.746	398.87
426.123	416.95
426.499	407.46
426.875	436.16
427.251	421.92
427.627	423.05
428.003	425.09
428.379	414.92
428.756	409.95
429.132	430.06
429.507	431.87
429.883	439.32
430.259	423.28
430.635	459.89
431.011	429.61
431.387	441.36
431.763	438.87
432.138	451.98
432.514	464.18
432.89	466.22
433.265	469.38
433.641	457.4
434.016	472.32
434.392	462.37
434.767	464.18
435.143	460.79
435.518	448.36
435.894	457.18
436.269	473
436.644	487.46
437.02	463.28
437.395	484.52
437.77	479.32
438.145	483.62
438.52	461.92
438.895	453.79
439.271	456.73
439.646	493.56
440.021	491.53
440.395	482.04
440.77	496.05
441.145	506.89
441.52	513.22
441.895	501.7
442.27	494.24
442.645	488.36
443.019	515.25
443.394	502.83
443.769	515.71
444.143	507.35
444.518	523.84
444.892	505.99
445.267	511.41
445.641	512.77
446.016	530.17
446.39	505.31
446.764	511.19
447.139	541.24
447.513	531.3
447.887	534.69
448.262	543.05
448.636	539.66
449.01	530.85
449.384	536.5
449.758	550.06
450.132	515.03
450.506	555.93
450.88	543.73
451.254	535.59
451.628	564.97
452.002	555.25
452.376	542.6
452.75	529.49
453.123	523.16
453.497	565.87
453.871	563.84
454.244	555.71
454.618	575.59
454.992	579.66
455.365	566.55
455.739	562.03
456.112	594.35
456.486	585.31
456.859	608.59
457.232	596.83
457.606	605.87
457.979	595.7
458.352	592.54
458.725	620.11
459.099	605.65
459.472	605.87
459.845	598.87
460.218	632.09
460.591	627.57
460.964	617.63
461.337	628.25
461.71	635.25
462.083	648.13
462.456	658.98
462.829	620.34
463.201	643.61
463.574	663.5
463.947	658.08
464.32	651.52
464.692	650.17
465.065	647.23
465.438	664.63
465.81	665.08
466.183	690.39
466.555	691.75
466.928	690.84
467.3	694.69
467.672	691.3
468.045	729.49
468.417	713.89
468.789	704.18
469.161	706.66
469.534	719.32
469.906	732.65
470.278	724.74
470.65	752.99
471.022	738.98
471.394	741.69
471.766	762.48
472.138	756.83
472.51	766.77
472.882	767.68
473.253	799.54
473.625	799.54
473.997	783.27
474.369	812.42
474.74	792.76
475.112	795.02
475.484	811.52
475.855	816.72
476.227	824.63
476.598	836.38
476.97	834.12
477.341	857.62
477.713	865.98
478.084	863.27
478.455	880.44
478.827	908.24
479.198	901.69
479.569	865.3
479.94	894.91
480.311	924.51
480.682	951.18
481.053	956.15
481.424	976.49
481.795	952.98
482.166	952.98
482.537	1010.84
482.908	986.2
483.279	998.41
483.65	1005.19
484.021	1011.51
484.391	1020.78
484.762	1030.04
485.133	1005.86
485.503	1047.22
485.874	1058.74
486.244	1046.09
486.615	1059.2
486.985	1044.28
487.356	1096.48
487.726	1073.21
488.097	1093.54
488.467	1065.97
488.837	1112.3
489.207	1128.35
489.578	1136.71
489.948	1112.75
490.318	1129.93
490.688	1149.36
491.058	1133.32
491.428	1167.22
491.798	1155.92
492.168	1160.66
492.538	1170.83
492.908	1184.16
493.278	1174.45
493.648	1176.25
494.017	1211.06
494.387	1211.73
494.757	1210.6
495.126	1209.93
495.496	1224.16
495.866	1207.67
496.235	1235.24
496.605	1208.8
496.974	1243.15
497.344	1220.32
497.713	1241.34
498.082	1238.4
498.452	1243.15
498.821	1262.81
499.19	1255.35
499.559	1255.35
499.928	1259.42
500.298	1266.65
500.667	1265.07
501.036	1265.74
501.405	1271.62
501.774	1249.7
502.143	1271.17
502.512	1275.23
502.88	1307.55
503.249	1294.67
503.618	1307.32
503.987	1281.56
504.356	1308.45
504.724	1303.48
505.093	1302.35
505.462	1314.78
505.83	1304.39
506.199	1310.49
506.567	1333.54
506.936	1315.91
507.304	1307.32
507.672	1312.52
508.041	1331.28
508.409	1328.34
508.777	1345.74
509.145	1330.15
509.514	1334.22
509.882	1319.75
510.25	1336.93
510.618	1326.98
510.986	1373.54
511.354	1367.66
511.722	1334.67
512.09	1368.34
512.458	1326.31
512.826	1358.85
513.193	1342.35
513.561	1364.5
513.929	1389.36
514.297	1403.37
514.664	1384.61
515.032	1365.18
515.4	1400.2
515.767	1415.34
516.135	1380.32
516.502	1376.02
516.869	1369.7
517.237	1391.84
517.604	1374.44
517.972	1389.58
518.339	1374.89
518.706	1387.55
519.073	1372.18
519.44	1413.76
519.808	1419.19
520.175	1399.98
520.542	1440.2
520.909	1400.88
521.276	1414.89
521.643	1418.51
522.009	1389.58
522.376	1420.99
522.743	1409.92
523.11	1437.94
523.477	1425.06
523.843	1462.57
524.21	1480.43
524.577	1453.76
524.943	1478.85
525.31	1459.64
525.676	1446.98
526.043	1461.67
526.409	1488.56
526.776	1486.08
527.142	1482.24
527.508	1488.79
527.874	1482.91
528.241	1482.24
528.607	1489.92
528.973	1501.67
529.339	1479.3
529.705	1494.21
530.071	1521.33
530.437	1517.04
530.803	1525.4
531.169	1498.28
531.535	1525.4
531.901	1540.09
532.267	1528.56
532.632	1534.66
532.998	1532.18
533.364	1532.18
533.73	1507.32
534.095	1537.6
534.461	1527.21
534.826	1550.03
535.192	1548.22
535.557	1569.01
535.923	1535.34
536.288	1525.4
536.653	1549.13
537.019	1545.96
537.384	1552.29
537.749	1529.69
538.114	1549.58
538.479	1546.41
538.845	1553.42
539.21	1571.5
539.575	1574.44
539.94	1544.15
540.305	1550.26
540.67	1543.7
541.034	1547.32
541.399	1546.64
541.764	1572.63
542.129	1544.83
542.494	1553.42
542.858	1534.21
543.223	1571.72
543.587	1573.98
543.952	1554.55
544.316	1585.28
544.681	1561.55
545.045	1553.19
545.41	1590.25
545.774	1581.89
546.138	1576.92
546.503	1573.76
546.867	1562.68
547.231	1591.61
547.595	1580.99
547.959	1559.07
548.324	1570.14
548.688	1559.3
549.052	1585.06
549.416	1581.44
549.779	1593.64
550.143	1576.24
550.507	1579.63
550.871	1574.21
551.235	1592.97
551.599	1565.4
551.962	1594.55
552.326	1611.27
552.689	1630.48
553.053	1592.29
553.417	1599.52
553.78	1592.29
554.143	1583.93
554.507	1595.23
554.87	1608.33
555.234	1623.25
555.597	1592.29
555.96	1594.55
556.323	1607.88
556.686	1624.38
557.05	1619.18
557.413	1627.99
557.776	1592.29
558.139	1642.68
558.502	1645.17
558.865	1602.68
559.228	1636.13
559.59	1627.77
559.953	1629.8
560.316	1634.1
560.679	1637.49
561.041	1661.89
561.404	1648.33
561.767	1636.81
562.129	1652.63
562.492	1651.27
562.854	1634.55
563.217	1673.19
563.579	1649.46
563.941	1677.03
564.304	1686.3
564.666	1639.75
565.028	1656.69
565.39	1651.27
565.753	1659.18
566.115	1650.59
566.477	1689.01
566.839	1672.74
567.201	1696.92
567.563	1699.63
567.925	1708.9
568.287	1693.3
568.648	1693.3
569.01	1674.55
569.372	1692.4
569.734	1700.99
570.095	1722.23
570.457	1701.89
570.819	1723.36
571.18	1687.43
571.542	1723.81
571.903	1713.42
572.265	1736.92
572.626	1726.75
572.987	1733.3
573.349	1761.55
573.71	1730.59
574.071	1737.14
574.432	1727.2
574.794	1764.49
575.155	1737.14
575.516	1743.02
575.877	1736.92
576.238	1748.22
576.599	1772.17
576.96	1751.83
577.32	1719.74
577.681	1786.18
578.042	1765.17
578.403	1771.72
578.763	1773.75
579.124	1773.53
579.485	1764.26
579.845	1774.43
580.206	1764.71
580.566	1772.85
580.927	1756.8
581.287	1770.59
581.648	1769.69
582.008	1784.6
582.368	1805.62
582.728	1778.5
583.089	1800.64
583.449	1769.91
583.809	1771.27
584.169	1772.4
584.529	1788.67
584.889	1777.59
585.249	1767.65
585.609	1797.03
585.969	1775.56
586.329	1776.24
586.688	1789.12
587.048	1762.45
587.408	1770.14
587.768	1768.33
588.127	1813.98
588.487	1777.59
588.846	1784.83
589.206	1788.44
589.565	1795.22
589.925	1809.46
590.284	1804.94
590.643	1790.93
591.003	1820.31
591.362	1787.99
591.721	1810.14
592.08	1786.41
592.44	1814.88
592.799	1783.92
593.158	1810.81
593.517	1823.47
593.876	1814.43
594.235	1818.27
594.593	1800.42
594.952	1830.93
595.311	1828.44
595.67	1792.06
596.029	1802.9
596.387	1812.62
596.746	1784.15
597.104	1773.75
597.463	1839.51
597.822	1843.36
598.18	1812.17
598.538	1821.21
598.897	1801.55
599.255	1828.44
599.613	1828.89
599.972	1822.79
600.33	1811.27
600.688	1850.36
601.046	1819.63
601.404	1821.89
601.762	1821.21
602.12	1837.48
602.478	1840.42
602.836	1860.53
603.194	1824.37
603.552	1835.67
603.91	1857.59
604.268	1880.64
604.625	1837.03
604.983	1869.12
605.341	1841.55
605.698	1857.59
606.056	1863.02
606.413	1865.05
606.771	1890.36
607.128	1849.01
607.485	1849.46
607.843	1865.73
608.2	1871.6
608.557	1848.78
608.914	1866.63
609.272	1858.72
609.629	1904.37
609.986	1886.74
610.343	1873.86
610.7	1889.68
611.057	1889.68
611.414	1877.7
611.771	1890.36
612.127	1908.89
612.484	1901.43
612.841	1904.37
613.198	1895.33
613.554	1919.74
613.911	1922
614.267	1921.77
614.624	1888.1
614.98	1927.2
615.337	1903.92
615.693	1906.63
616.05	1919.51
616.406	1946.4
616.762	1919.06
617.118	1929.68
617.475	1933.07
617.831	1929.68
618.187	1942.34
618.543	1937.36
618.899	1974.88
619.255	1964.48
619.611	1950.02
619.967	1958.15
620.323	1972.17
620.678	1973.75
621.034	1975.1
621.39	1936.46
621.746	1959.74
622.101	1988.89
622.457	1930.36
622.812	1945.95
623.168	1966.29
623.523	1941.66
623.879	1971.94
624.234	2000.41
624.589	1995.67
624.945	1950.47
625.3	1990.7
625.655	1975.33
626.01	1973.3
626.365	1988.89
626.72	1990.92
627.075	1975.1
627.43	2001.32
627.785	1985.95
628.14	1998.61
628.495	2019.62
628.85	1998.38
629.205	2018.49
629.559	2006.74
629.914	1988.89
630.269	2046.74
630.623	2029.11
630.978	2027.53
631.332	2023.46
631.687	2051.71
632.041	2038.15
632.396	2027.76
632.75	1997.48
633.104	2036.34
633.459	2017.14
633.813	2052.16
634.167	2065.04
634.521	2057.14
634.875	2041.99
635.229	2030.02
635.583	2061.88
635.937	2020.3
636.291	2066.63
636.645	2060.3
636.999	2056.91
637.352	2081.99
637.706	2053.29
638.06	2059.85
638.413	2058.04
638.767	2052.62
639.121	2058.04
639.474	2060.98
639.828	2081.99
640.181	2100.98
640.534	2103.91
640.888	2079.96
641.241	2071.15
641.594	2118.38
641.947	2107.76
642.301	2137.13
642.654	2100.98
643.007	2101.43
643.36	2136.68
643.713	2112.5
644.066	2136
644.419	2100.52
644.771	2124.25
645.124	2140.97
645.477	2132.16
645.83	2143.91
646.182	2129.68
646.535	2121.77
646.888	2130.58
647.24	2136.68
647.593	2184.82
647.945	2161.31
648.298	2182.56
648.65	2155.66
649.002	2131.03
649.355	2168.54
649.707	2207.19
650.059	2210.13
650.411	2235.66
650.763	2232.72
651.115	2258.03
651.467	2249.67
651.819	2307.98
652.171	2290.58
652.523	2291.48
652.875	2305.49
653.227	2308.65
653.578	2301.65
653.93	2316.34
654.282	2301.42
654.633	2347.3
654.985	2364.92
655.337	2345.04
655.688	2357.47
656.039	2338.26
656.391	2332.83
656.742	2368.31
657.094	2389.56
657.445	2386.39
657.796	2422.55
658.147	2424.13
658.498	2417.35
658.849	2448.31
659.2	2441.08
659.551	2464.36
659.902	2483.56
660.253	2444.02
660.604	2492.38
660.955	2479.5
661.306	2487.86
661.656	2479.04
662.007	2490.8
662.358	2530.12
662.708	2539.38
663.059	2506.39
663.409	2581.87
663.76	2574.41
664.11	2564.01
664.461	2610.57
664.811	2608.08
665.161	2648.76
665.511	2636.78
665.862	2630.23
666.212	2646.95
666.562	2638.14
666.912	2649.66
667.262	2643.11
667.612	2672.94
667.962	2698.93
668.312	2686.05
668.662	2710.45
669.011	2751.58
669.361	2721.52
669.711	2734.41
670.06	2711.58
670.41	2741.41
670.76	2764.46
671.109	2774.86
671.459	2785.7
671.808	2769.88
672.157	2813.73
672.507	2799.71
672.856	2804.23
673.205	2807.62
673.554	2824.8
673.904	2821.63
674.253	2842.88
674.602	2822.09
674.951	2833.16
675.3	2807.17
675.649	2916.55
675.998	2888.07
676.346	2907.06
676.695	2897.79
677.044	2886.49
677.393	2935.53
677.741	2938.02
678.09	2945.02
678.438	2983.21
678.787	2939.6
679.135	2997.9
679.484	2983.44
679.832	3018.24
680.181	2970.78
680.529	3011.01
680.877	3034.28
681.225	3045.58
681.573	3028.41
681.922	2974.4
682.27	3024.57
682.618	3003.55
682.966	3036.32
683.314	3077.45
683.661	3103.89
684.009	3051.69
684.357	3066.83
684.705	3060.05
685.053	3061.63
685.4	3090.1
685.748	3068.18
686.095	3061.85
686.443	3129.65
686.79	3087.39
687.138	3114.73
687.485	3109.08
687.832	3100.05
688.18	3144.34
688.527	3139.59
688.874	3109.76
689.221	3116.54
689.568	3133.27
689.915	3113.83
690.262	3121.29
690.609	3143.43
690.956	3131.68
691.303	3158.35
691.65	3140.27
691.997	3137.78
692.344	3160.16
692.69	3112.25
693.037	3121.06
693.383	3114.06
693.73	3129.2
694.077	3140.95
694.423	3124.68
694.769	3122.64
695.116	3114.73
695.462	3128.97
695.808	3148.18
696.155	3121.97
696.501	3084.45
696.847	3107.05
697.193	3113.6
697.539	3115.41
697.885	3073.15
698.231	3105.24
698.577	3106.6
698.923	3115.41
699.269	3111.8
699.614	3084.9
699.96	3065.7
700.306	3057.11
700.651	3061.18
700.997	3087.39
701.342	3080.84
701.688	3090.1
702.033	3056.88
702.379	3060.5
702.724	3088.29
703.069	3068.63
703.415	3057.79
703.76	3064.79
704.105	3029.76
704.45	3046.71
704.795	3042.87
705.14	3036.54
705.485	3044
705.83	3021.18
706.175	3068.63
706.52	2999.48
706.865	3027.51
707.209	3035.41
707.554	3014.62
707.899	3031.8
708.243	3026.15
708.588	3019.14
708.932	2982.31
709.277	3006.94
709.621	2991.8
709.966	3008.75
710.31	2987.51
710.654	2963.1
710.998	2954.06
711.342	3006.04
711.687	2974.85
712.031	2987.28
712.375	2967.85
712.719	2953.61
713.063	2986.15
713.407	2963.1
713.75	2948.19
714.094	2975.98
714.438	2984.34
714.782	2973.72
715.125	2982.76
715.469	2972.82
715.812	2980.95
716.156	2954.06
716.499	2981.86
716.843	2948.41
717.186	2976.89
717.53	2962.87
717.873	2925.13
718.216	2948.86
718.559	2957.22
718.902	2928.3
719.246	2958.58
719.589	2902.76
719.932	2953.83
720.275	2930.56
720.617	2919.94
720.96	2957.45
721.303	2919.71
721.646	2963.78
721.989	2928.3
722.331	2989.54
722.674	2961.74
723.016	2941.63
723.359	2927.85
723.701	2909.99
724.044	2913.84
724.386	2950.9
724.729	2957
725.071	2943.21
725.413	2969.2
725.755	2960.39
726.097	2913.16
726.439	2932.37
726.782	2897.79
727.124	2923.55
727.465	2943.44
727.807	2951.8
728.149	2954.51
728.491	2926.94
728.833	2939.15
729.175	2954.06
729.516	2967.85
729.858	2967.85
730.199	2944.8
730.541	3002.2
730.882	2949.32
731.224	2980.5
731.565	2976.89
731.906	2996.55
732.248	2977.56
732.589	2940.05
732.93	2948.86
733.271	2966.49
733.612	2970.11
733.953	2988.18
734.294	2986.83
734.635	2979.37
734.976	3000.84
735.317	2982.31
735.658	2989.54
735.999	2991.8
736.339	3019.14
736.68	3036.32
737.021	3030.22
737.361	2987.28
737.702	3040.61
738.042	3057.11
738.383	3015.53
738.723	3029.09
739.063	3028.64
739.404	3055.98
739.744	3081.29
740.084	3019.37
740.424	3060.05
740.764	3078.13
741.104	3112.47
741.444	3107.28
741.784	3094.17
742.124	3094.4
742.464	3137.56
742.804	3155.19
743.143	3132.36
743.483	3151.12
743.823	3126.94
744.162	3164
744.502	3128.97
744.841	3178.91
745.181	3208.29
745.52	3192.02
745.86	3192.02
746.199	3203.32
746.538	3236.99
746.877	3262.08
747.216	3210.55
747.556	3229.99
747.895	3288.52
748.234	3312.92
748.573	3307.5
748.911	3324.45
749.25	3340.72
749.589	3333.71
749.928	3324.22
750.267	3387.04
750.605	3397.44
750.944	3388.85
751.283	3432.47
751.621	3429.08
751.96	3422.75
752.298	3436.31
752.636	3491.9
752.975	3521.96
753.313	3506.36
753.651	3527.15
753.989	3555.4
754.327	3628.85
754.666	3595.85
755.004	3637.66
755.342	3639.01
755.679	3662.97
756.017	3662.52
756.355	3745.23
756.693	3695.06
757.031	3705.68
757.368	3764.66
757.706	3771.89
758.044	3787.94
758.381	3809.18
758.719	3804.89
759.056	3858.9
759.394	3857.54
759.731	3862.29
760.068	3896.86
760.405	3920.14
760.743	3881.04
761.08	3941.61
761.417	3878.33
761.754	3923.53
762.091	3894.15
762.428	3933.47
762.765	3960.36
763.102	3973.02
763.438	3986.35
763.775	3949.29
764.112	4034.26
764.449	4021.83
764.785	3989.51
765.122	4020.25
765.458	3972.79
765.795	4060.25
766.131	4035.16
766.467	4033.35
766.804	4024.77
767.14	4027.48
767.476	4031.55
767.812	4050.76
768.148	4077.42
768.485	4032
768.821	4037.2
769.157	4020.7
769.492	4039.23
769.828	4061.38
770.164	4026.35
770.5	3995.62
770.836	4039.23
771.171	4045.78
771.507	3996.52
771.842	3995.62
