Data from blue_clamp_base_FLMS001491_00023.txt Node
Date: Wed Feb 08 15:15:46 GMT 2017
User: dcchb
Spectrometer: FLMS00149
Trigger mode: 0
Integration Time (sec): 2.000000E-2
Scans to average: 10
Electric dark correction enabled: true
Nonlinearity correction enabled: false
Boxcar width: 0
XAxis mode: Wavelengths
Number of Pixels in Spectrum: 2048
>>>>>Begin Spectral Data<<<<<
341.393	-15
341.776	-15
342.16	-15
342.543	-35.56
342.927	-64.49
343.31	-65.39
343.693	-70.37
344.077	-62.68
344.46	-60.42
344.843	-59.97
345.226	-40.08
345.61	-28.33
345.993	-36.47
346.376	3.08
346.759	11.21
347.142	29.52
347.525	42.4
347.908	61.61
348.291	72.23
348.674	81.04
349.057	122.62
349.44	117.43
349.823	139.57
350.206	155.62
350.588	189.51
350.971	212.34
351.354	216.63
351.737	225.67
352.119	246.01
352.502	263.64
352.884	271.32
353.267	257.76
353.65	262.28
354.032	289.85
354.414	293.92
354.797	297.76
355.179	304.09
355.562	321.04
355.944	310.64
356.326	330.75
356.709	327.14
357.091	339.79
357.473	344.99
357.855	320.58
358.238	333.92
358.62	339.57
359.002	314.94
359.384	319.68
359.766	306.12
360.148	326.46
360.53	358.78
360.912	322.84
361.294	334.14
361.676	337.76
362.057	327.36
362.439	341.38
362.821	317.42
363.203	330.3
363.584	309.51
363.966	326.46
364.348	330.75
364.729	311.55
365.111	316.29
365.493	300.02
365.874	312.22
366.256	310.87
366.637	308.83
367.019	302.96
367.4	297.31
367.781	319
368.163	298.89
368.544	304.54
368.925	310.42
369.306	302.05
369.688	290.3
370.069	296.4
370.45	306.12
370.831	296.18
371.212	309.29
371.593	308.16
371.974	311.32
372.355	319.68
372.736	299.34
373.117	297.76
373.498	309.96
373.879	303.41
374.26	300.47
374.641	301.15
375.021	334.82
375.402	302.73
375.783	321.94
376.163	335.73
376.544	326.91
376.925	294.82
377.305	331.88
377.686	326.46
378.066	307.7
378.447	322.84
378.827	305.22
379.208	317.42
379.588	309.96
379.968	318.1
380.349	333.47
380.729	347.25
381.109	315.84
381.489	338.21
381.87	328.04
382.25	321.49
382.63	330.08
383.01	326.69
383.39	326.23
383.77	340.47
384.15	332.79
384.53	336.4
384.91	320.81
385.29	329.17
385.67	320.36
386.049	352.67
386.429	343.41
386.809	354.03
387.189	364.88
387.568	342.96
387.948	351.09
388.328	336.63
388.707	345.67
389.087	353.35
389.466	350.41
389.846	380.47
390.225	351.54
390.605	367.82
390.984	352.22
391.363	394.26
391.743	369.62
392.122	382.05
392.501	375.5
392.881	377.76
393.26	388.61
393.639	385.22
394.018	388.15
394.397	395.39
394.776	401.71
395.155	386.35
395.534	405.1
395.913	386.57
396.292	417.08
396.671	414.37
397.05	413.24
397.429	423.18
397.808	425.21
398.186	430.86
398.565	439.45
398.944	420.24
399.323	401.26
399.701	434.25
400.08	438.55
400.458	427.25
400.837	465.44
401.215	446.68
401.594	435.61
401.972	431.99
402.351	428.6
402.729	447.59
403.107	456.85
403.486	483.74
403.864	463.63
404.242	478.55
404.62	461.15
404.999	471.32
405.377	487.81
405.755	507.02
406.133	483.74
406.511	489.62
406.889	512.67
407.267	499.56
407.645	503.4
408.023	534.14
408.401	543.18
408.779	555.38
409.156	548.83
409.534	560.58
409.912	531.43
410.29	555.15
410.667	537.98
411.045	557.64
411.422	548.38
411.8	589.5
412.178	585.21
412.555	589.5
412.933	594.93
413.31	609.84
413.687	606.45
414.065	628.15
414.442	628.6
414.819	639.22
415.197	630.41
415.574	654.14
415.951	666.56
416.328	643.97
416.705	648.03
417.082	678.54
417.46	684.19
417.837	675.15
418.214	670.41
418.591	689.39
418.967	701.59
419.344	688.94
419.721	728.26
420.098	734.13
420.475	750.4
420.852	725.09
421.228	734.59
421.605	734.36
421.982	753.79
422.358	764.19
422.735	742.49
423.111	751.08
423.488	743.17
423.864	754.7
424.241	802.61
424.617	783.4
424.994	795.83
425.37	793.11
425.746	802.83
426.123	796.05
426.499	799.22
426.875	852.32
427.251	849.16
427.627	864.75
428.003	862.94
428.379	901.81
428.756	892.32
429.132	921.25
429.507	934.81
429.883	908.82
430.259	939.55
430.635	924.64
431.011	945.2
431.387	994.01
431.763	1013.22
432.138	993.56
432.514	986.33
432.89	993.11
433.265	1046.44
433.641	1041.92
434.016	1045.09
434.392	1064.29
434.767	1092.77
435.143	1096.38
435.518	1100
435.894	1127.8
436.269	1128.02
436.644	1155.59
437.02	1172.09
437.395	1171.18
437.77	1191.52
438.145	1191.75
438.52	1202.6
438.895	1226.1
439.271	1236.94
439.646	1257.74
440.021	1262.93
440.395	1265.19
440.77	1258.87
441.145	1280.79
441.52	1319.43
441.895	1296.38
442.27	1317.62
442.645	1312.42
443.019	1338.64
443.394	1368.01
443.769	1360.11
444.143	1391.07
444.518	1419.76
444.892	1412.08
445.267	1397.17
445.641	1408.69
446.016	1446.2
446.39	1429.03
446.764	1430.39
447.139	1480.1
447.513	1491.63
447.887	1466.77
448.262	1477.84
448.636	1494.57
449.01	1511.29
449.384	1514.9
449.758	1544.96
450.132	1564.39
450.506	1546.09
450.88	1576.37
451.254	1554.22
451.628	1615.24
452.002	1628.35
452.376	1615.47
452.75	1631.96
453.123	1651.17
453.497	1687.1
453.871	1714.67
454.244	1720.1
454.618	1725.07
454.992	1733.88
455.365	1766.87
455.739	1777.04
456.112	1833.54
456.486	1844.61
456.859	1843.48
457.232	1882.35
457.606	1860.88
457.979	1887.78
458.352	1940.66
458.725	1963.48
459.099	1965.06
459.472	2000.31
459.845	2004.16
460.218	2048.45
460.591	2041.44
460.964	2060.2
461.337	2113.31
461.71	2151.72
462.083	2132.51
462.456	2134.1
462.829	2160.54
463.201	2206.86
463.574	2226.75
463.947	2216.58
464.32	2280.08
464.692	2324.15
465.065	2294.77
465.438	2362.11
465.81	2349.91
466.183	2371.6
466.555	2440.3
466.928	2479.62
467.3	2434.88
467.672	2469.23
468.045	2541.54
468.417	2559.4
468.789	2554.65
469.161	2596.23
469.534	2646.17
469.906	2651.37
470.278	2710.58
470.65	2708.77
471.022	2788.99
471.394	2837.35
471.766	2812.72
472.138	2852.5
472.51	2889.56
472.882	2967.52
473.253	2974.98
473.625	3013.62
473.997	3070.34
474.369	3045.94
474.74	3117.8
475.112	3121.87
475.484	3215.42
475.855	3210
476.227	3265.14
476.598	3365.7
476.97	3361.41
477.341	3444.57
477.713	3468.52
478.084	3440.95
478.455	3514.17
478.827	3570.89
479.198	3706.94
479.569	3643.21
479.94	3757.78
480.311	3767.95
480.682	3853.37
481.053	3913.03
481.424	3962.07
481.795	3979.02
482.166	4029.19
482.537	4101.28
482.908	4139.92
483.279	4137.43
483.65	4258.11
484.021	4329.07
484.391	4295.17
484.762	4355.05
485.133	4365.68
485.503	4458.33
485.874	4492.45
486.244	4524.77
486.615	4585.33
486.985	4656.06
487.356	4711.66
487.726	4717.08
488.097	4805.21
488.467	4808.15
488.837	4873.69
489.207	4906
489.578	5009.05
489.948	4978.09
490.318	5037.75
490.688	5049.05
491.058	5081.14
491.428	5133.79
491.798	5171.08
492.168	5233.22
492.538	5302.15
492.908	5296.05
493.278	5397.51
493.648	5335.14
494.017	5417.4
494.387	5435.48
494.757	5460.34
495.126	5525.42
495.496	5522.93
495.866	5545.08
496.235	5584.18
496.605	5632.76
496.974	5592.08
497.344	5657.85
497.713	5663.5
498.082	5701.23
498.452	5777.84
498.821	5780.1
499.19	5791.18
499.559	5818.07
499.928	5827.33
500.298	5832.98
500.667	5923.83
501.036	5892.19
501.405	5891.74
501.774	5915.47
502.143	5938.74
502.512	5996.82
502.88	5977.39
503.249	6016.71
503.618	6019.64
503.987	6039.98
504.356	6042.47
504.724	6100.32
505.093	6092.18
505.462	6119.3
505.83	6142.8
506.199	6187.78
506.567	6263.25
506.936	6211.5
507.304	6290.15
507.672	6299.64
508.041	6274.55
508.409	6322.46
508.777	6324.49
509.145	6390.71
509.514	6406.75
509.882	6364.04
510.25	6425.28
510.618	6435.45
510.986	6458.73
511.354	6526.75
511.722	6558.39
512.09	6576.47
512.458	6508.9
512.826	6560.65
513.193	6594.09
513.561	6600.65
513.929	6584.37
514.297	6746.86
514.664	6734.2
515.032	6699.63
515.4	6684.03
515.767	6737.82
516.135	6724.26
516.502	6719.29
516.869	6810.36
517.237	6829.79
517.604	6813.75
517.972	6832.73
518.339	6925.83
518.706	6844.03
519.073	6867.08
519.44	6920.86
519.808	6955.44
520.175	7004.93
520.542	7029.33
520.909	7063.46
521.276	7050.35
521.643	7089.22
522.009	7098.94
522.376	7144.36
522.743	7160.4
523.11	7232.95
523.477	7242.89
523.843	7279.95
524.21	7310.46
524.577	7380.74
524.943	7387.74
525.31	7430.68
525.676	7415.99
526.043	7517.01
526.409	7530.56
526.776	7583.67
527.142	7599.49
527.508	7601.75
527.874	7600.62
528.241	7733.72
528.607	7680.84
528.973	7695.76
529.339	7717.23
529.705	7780.95
530.071	7770.56
530.437	7803.33
530.803	7898.46
531.169	7898.01
531.535	7885.13
531.901	7967.62
532.267	7995.64
532.632	7983.66
532.998	8054.39
533.364	7987.28
533.73	8032.92
534.095	8153.15
534.461	8106.59
534.826	8111.57
535.192	8150.66
535.557	8225.69
535.923	8181.85
536.288	8257.55
536.653	8275.63
537.019	8191.79
537.384	8318.34
537.749	8300.71
538.114	8302.97
538.479	8321.96
538.845	8333.48
539.21	8280.6
539.575	8323.09
539.94	8397.66
540.305	8441.05
540.67	8417.1
541.034	8433.82
541.399	8472.01
541.764	8421.16
542.129	8501.39
542.494	8519.69
542.858	8507.49
543.223	8518.56
543.587	8588.62
543.952	8619.8
544.316	8584.55
544.681	8598.56
545.045	8601.05
545.41	8663.64
545.774	8670.42
546.138	8705.45
546.503	8672
546.867	8707.93
547.231	8660.48
547.595	8780.7
547.959	8742.51
548.324	8761.94
548.688	8756.07
549.052	8826.58
549.416	8779.35
549.779	8808.05
550.143	8848.5
550.507	8887.37
550.871	8858.67
551.235	8827.03
551.599	8898.21
551.962	8918.55
552.326	8922.84
552.689	8978.44
553.053	8848.5
553.417	8969.85
553.78	9080.58
554.143	8949.51
554.507	9050.98
554.87	8981.15
555.234	9073.57
555.597	9064.99
555.96	9014.37
556.323	9093.91
556.686	9105.21
557.05	9123.97
557.413	9122.84
557.776	9213.46
558.139	9177.53
558.502	9098.66
558.865	9220.24
559.228	9235.38
559.59	9288.94
559.953	9298.2
560.316	9335.04
560.679	9299.56
561.041	9311.99
561.404	9403.74
561.767	9464.3
562.129	9388.59
562.492	9428.37
562.854	9524.86
563.217	9466.33
563.579	9542.04
563.941	9583.39
564.304	9551.08
564.666	9645.09
565.028	9677.4
565.39	9618.87
565.753	9662.94
566.115	9641.7
566.477	9713.56
566.839	9787
567.201	9804.63
567.563	9822.26
567.925	9813.89
568.287	9828.36
568.648	9896.15
569.01	9962.14
569.372	9949.26
569.734	9949.03
570.095	10013.66
570.457	10053.44
570.819	10126.88
571.18	10058.18
571.542	10102.7
571.903	10186.31
572.265	10120.78
572.626	10126.88
572.987	10252.08
573.349	10249.36
573.71	10234.22
574.071	10304.96
574.432	10289.81
574.794	10363.94
575.155	10498.62
575.516	10354.45
575.877	10429.47
576.238	10410.49
576.599	10514.44
576.96	10434.22
577.32	10443.93
577.681	10500.66
578.042	10598.28
578.403	10544.72
578.763	10550.15
579.124	10546.98
579.485	10655.68
579.845	10612.52
580.206	10628.79
580.566	10650.93
580.927	10718.28
581.287	10685.28
581.648	10709.69
582.008	10662.46
582.368	10631.95
582.728	10767.77
583.089	10633.31
583.449	10720.31
583.809	10744.27
584.169	10749.24
584.529	10793.08
584.889	10871.49
585.249	10805.73
585.609	10784.26
585.969	10790.82
586.329	10767.32
586.688	10783.81
587.048	10769.8
587.408	10818.16
587.768	10829.24
588.127	10789.46
588.487	10773.42
588.846	10907.88
589.206	10804.38
589.565	10866.75
589.925	10878.27
590.284	10836.47
590.643	10856.58
591.003	10942.45
591.362	10963.69
591.721	10906.07
592.08	10900.42
592.44	10923.24
592.799	10846.64
593.158	10908.33
593.517	10956.46
593.876	10954.66
594.235	10947.2
594.593	10980.64
594.952	10987.2
595.311	10943.81
595.67	10951.94
596.029	11070.36
596.387	11005.95
596.746	11029.46
597.104	11054.77
597.463	11005.73
597.822	10960.98
598.18	10936.35
598.538	11065.39
598.897	11148.32
599.255	10971.83
599.613	11120.07
599.972	11066.06
600.33	11119.17
600.688	11026.07
601.046	11149.45
601.404	11134.54
601.762	11126.63
602.12	11179.06
602.478	11169.79
602.836	11137.48
603.194	11126.85
603.552	11153.07
603.91	11094.54
604.268	11141.77
604.625	11121.43
604.983	11087.99
605.341	11088.44
605.698	11184.25
606.056	11179.96
606.413	11210.24
606.771	11278.26
607.128	11243.46
607.485	11239.62
607.843	11220.64
608.2	11309.67
608.557	11257.25
608.914	11221.77
609.272	11289.34
609.629	11294.53
609.986	11328.43
610.343	11227.87
610.7	11406.39
611.057	11286.4
611.414	11368.43
611.771	11407.75
612.127	11422.21
612.484	11387.86
612.841	11380.86
613.198	11377.47
613.554	11441.2
613.911	11478.03
614.267	11436.45
614.624	11457.92
614.98	11488.43
615.337	11530.23
615.693	11583.79
616.05	11448.65
616.406	11615.66
616.762	11564.36
617.118	11536.56
617.475	11539.05
617.831	11558.71
618.187	11556.45
618.543	11601.42
618.899	11620.63
619.255	11589.89
619.611	11706.05
619.967	11672.83
620.323	11695.2
620.678	11652.49
621.034	11645.94
621.39	11765.26
621.746	11676.67
622.101	11807.97
622.457	11749.89
622.812	11758.48
623.168	11799.83
623.523	11855.87
623.879	11802.32
624.234	11791.47
624.589	11765.71
624.945	11896.1
625.3	11855.87
625.655	11833.28
626.01	11807.74
626.365	11854.29
626.72	11855.65
627.075	11921.18
627.43	11930.9
627.785	11938.13
628.14	11935.65
628.495	11928.19
628.85	11901.52
629.205	11939.71
629.559	11942.65
629.914	11967.06
630.269	11932.03
630.623	11961.86
630.978	11913.95
631.332	11924.12
631.687	12073.5
632.041	11972.03
632.396	12090.44
632.75	12018.58
633.104	11968.87
633.459	11859.04
633.813	11943.1
634.167	11995.08
634.521	11988.75
634.875	11992.14
635.229	12042.99
635.583	11944.46
635.937	11971.35
636.291	11932.93
636.645	12008.41
636.999	11993.05
637.352	12082.54
637.706	12007.51
638.06	12024.68
638.413	12101.74
638.767	12024.46
639.121	12059.71
639.474	12060.39
639.828	12059.71
640.181	12034.63
640.534	12049.32
640.888	12036.43
641.241	12049.99
641.594	12030.11
641.947	12152.59
642.301	12112.37
642.654	12158.24
643.007	12058.13
643.36	12070.78
643.713	12109.2
644.066	12133.83
644.419	12075.98
644.771	12095.64
645.124	11978.58
645.477	12082.99
645.83	12027.85
646.182	11915.99
646.535	11918.25
646.888	11847.74
647.24	11706.27
647.593	11781.98
647.945	11743.79
648.298	11756.89
648.65	11721.19
649.002	11753.05
649.355	11875.76
649.707	11931.58
650.059	12024.23
650.411	12179.03
650.763	12185.58
651.115	12273.26
651.467	12226.94
651.819	12264.45
652.171	12303.77
652.523	12279.59
652.875	12191.69
653.227	12290.67
653.578	12313.94
653.93	12362.08
654.282	12400.95
654.633	12321.85
654.985	12401.17
655.337	12334.51
655.688	12300.83
656.039	12401.62
656.391	12297.9
656.742	12370.21
657.094	12333.38
657.445	12452.02
657.796	12436.88
658.147	12444.11
658.498	12412.02
658.849	12393.94
659.2	12350.55
659.551	12409.53
659.902	12457.89
660.253	12431.23
660.604	12503.32
660.955	12440.49
661.306	12452.24
661.656	12435.97
662.007	12455.86
662.358	12464.67
662.708	12433.49
663.059	12503.32
663.409	12432.58
663.76	12532.69
664.11	12447.27
664.461	12503.99
664.811	12532.24
665.161	12425.58
665.511	12438.46
665.862	12420.15
666.212	12508.06
666.562	12546.7
666.912	12451.79
667.262	12441.17
667.612	12460.15
667.962	12484.56
668.312	12370.66
668.662	12362.08
669.011	12405.92
669.361	12379.93
669.711	12417.44
670.06	12384.67
670.41	12271.68
670.76	12281.85
671.109	12365.47
671.459	12170.44
671.808	12258.8
672.157	12193.72
672.507	12093.83
672.856	12125.92
673.205	12117.79
673.554	12171.57
673.904	12134.29
674.253	12205.24
674.602	12095.19
674.951	11951.01
675.3	11859.94
675.649	12086.83
675.998	12005.25
676.346	11993.05
676.695	12044.57
677.044	11861.75
677.393	12014.06
677.741	11974.97
678.09	11968.41
678.438	11915.31
678.787	11934.52
679.135	11865.59
679.484	11802.32
679.832	11802.32
680.181	11730.68
680.529	11799.6
680.877	11771.58
681.225	11701.53
681.573	11786.27
681.922	11726.61
682.27	11645.94
682.618	11641.64
682.966	11604.36
683.314	11581.53
683.661	11588.99
684.009	11521.42
684.357	11468.54
684.705	11439.61
685.053	11421.54
685.4	11502.66
685.748	11391.48
686.095	11369.11
686.443	11323.01
686.79	11301.31
687.138	11367.53
687.485	11337.92
687.832	11252.05
688.18	11381.54
688.527	11175.89
688.874	11263.8
689.221	11236.23
689.568	11203.24
689.915	11154.2
690.262	11210.24
690.609	11190.13
690.956	11205.5
691.303	11121.88
691.65	11134.09
691.997	11100.87
692.344	11023.35
692.69	11053.86
693.037	11059.96
693.383	10958.27
693.73	10952.62
694.077	10934.77
694.423	10983.58
694.769	10949.23
695.116	10936.8
695.462	10923.7
695.808	10836.92
696.155	10871.95
696.501	10835.11
696.847	10863.81
697.193	10740.88
697.539	10877.37
697.885	10700.65
698.231	10679.63
698.577	10766.64
698.923	10730.93
699.269	10686.87
699.614	10603.03
699.96	10695.45
700.306	10669.47
700.651	10642.8
700.997	10544.95
701.342	10534.1
701.688	10615
702.033	10562.58
702.379	10603.93
702.724	10550.15
703.069	10597.6
703.415	10475.57
703.76	10494.1
704.105	10490.26
704.45	10578.62
704.795	10523.71
705.14	10399.19
705.485	10519.19
705.83	10453.88
706.175	10485.74
706.52	10471.73
706.865	10408.46
707.209	10430.6
707.554	10423.14
707.899	10361.22
708.243	10373.2
708.588	10331.62
708.932	10352.19
709.277	10349.02
709.621	10290.49
709.966	10276.26
710.31	10358.06
710.654	10221.12
710.998	10265.63
711.342	10265.18
711.687	10272.64
712.031	10141.34
712.375	10218.4
712.719	10206.2
713.063	10214.79
713.407	10264.05
713.75	10200.33
714.094	10212.75
714.438	10156.48
714.782	10138.18
715.125	10126.2
715.469	10137.05
715.812	10075.81
716.156	10105.41
716.499	10162.13
716.843	10097.73
717.186	9987.68
717.53	10114.68
717.873	10046.88
718.216	10120.78
718.559	10041.69
718.902	9938.19
719.246	9981.8
719.589	10011.63
719.932	9945.87
720.275	10002.59
720.617	9979.77
720.96	10005.3
721.303	10041.46
721.646	9983.83
721.989	9896.38
722.331	9931.86
722.674	9966.21
723.016	9987.22
723.359	9999.43
723.701	9967.79
724.044	9925.98
724.386	9881.69
724.729	9937.28
725.071	9938.41
725.413	9883.05
725.755	9844.18
726.097	9885.76
726.439	9822.48
726.782	9888.47
727.124	9932.76
727.465	9860.67
727.807	9872.88
728.149	9845.98
728.491	9917.39
728.833	9961.46
729.175	9965.98
729.516	9928.47
729.858	9860.45
730.199	9877.4
730.541	9916.26
730.882	9857.74
731.224	9935.02
731.565	9809.37
731.906	9897.51
732.248	9845.08
732.589	9861.8
732.93	9815.93
733.271	9892.31
733.612	9920.56
733.953	9952.87
734.294	9872.88
734.635	9796.49
734.976	9947.22
735.317	9965.3
735.658	9952.42
735.999	9916.04
736.339	9979.09
736.68	9941.8
737.021	9993.32
737.361	9909.26
737.702	10046.43
738.042	9907.23
738.383	9978.64
738.723	10048.01
739.063	10023.15
739.404	10074
739.744	10012.99
740.084	9972.76
740.424	9983.38
740.764	10087.33
741.104	10092.08
741.444	10070.38
741.784	10194.68
742.124	10138.86
742.464	10118.52
742.804	10152.87
743.143	10143.6
743.483	10142.7
743.823	10172.3
744.162	10207.1
744.502	10319.87
744.841	10212.53
745.181	10303.83
745.52	10293.88
745.86	10304.73
746.199	10385.18
746.538	10335.01
746.877	10301.79
747.216	10386.08
747.556	10331.85
747.895	10430.83
748.234	10409.59
748.573	10457.72
748.911	10471.5
749.25	10440.77
749.589	10471.5
749.928	10609.35
750.267	10666.3
750.605	10566.87
750.944	10610.71
751.283	10572.97
751.621	10607.55
751.96	10653.42
752.298	10660.2
752.636	10680.09
752.975	10672.63
753.313	10590.15
753.651	10709.92
753.989	10763.7
754.327	10715.57
754.666	10702.23
755.004	10780.42
755.342	10847.09
755.679	10875.34
756.017	10814.09
756.355	10832.4
756.693	10879.4
757.031	10864.26
757.368	10865.84
757.706	10820.65
758.044	10912.85
758.381	10946.75
758.719	10910.36
759.056	11026.29
759.394	11027.87
759.731	10932.28
