Data from blue_surface_keyboard_FLMS001491_074.txt Node
Date: Tue Feb 07 11:13:38 GMT 2017
User: dcchb
Spectrometer: FLMS00149
Trigger mode: 0
Integration Time (sec): 2.000000E-2
Scans to average: 10
Electric dark correction enabled: true
Nonlinearity correction enabled: false
Boxcar width: 0
XAxis mode: Wavelengths
Number of Pixels in Spectrum: 2048
>>>>>Begin Spectral Data<<<<<
341.393	-2.42
341.776	-2.42
342.16	-2.42
342.543	-64.33
342.927	-65.46
343.31	-61.4
343.693	-76.54
344.077	-78.57
344.46	-72.24
344.843	-65.92
345.226	-36.76
345.61	-35.41
345.993	-28.63
346.376	-3.32
346.759	14.31
347.142	48.88
347.525	41.43
347.908	60.41
348.291	75.1
348.674	110.12
349.057	108.54
349.44	106.28
349.823	141.76
350.206	140.63
350.588	169.11
350.971	200.52
351.354	207.3
351.737	214.3
352.119	233.06
352.502	214.98
352.884	238.48
353.267	262.66
353.65	284.36
354.032	265.83
354.414	292.94
354.797	288.65
355.179	281.87
355.562	294.75
355.944	272.83
356.326	304.92
356.709	314.41
357.091	304.02
357.473	331.81
357.855	327.97
358.238	341.53
358.62	329.33
359.002	326.16
359.384	304.47
359.766	309.67
360.148	321.19
360.53	303.57
360.912	293.62
361.294	307.41
361.676	306.05
362.057	306.5
362.439	326.39
362.821	301.31
363.203	325.49
363.584	289.78
363.966	300.4
364.348	280.97
364.729	290.46
365.111	300.18
365.493	287.75
365.874	300.63
366.256	289.1
366.637	286.84
367.019	297.01
367.4	282.32
367.781	266.05
368.163	292.04
368.544	298.59
368.925	280.52
369.306	296.56
369.688	283.45
370.069	282.55
370.45	281.65
370.831	292.27
371.212	287.52
371.593	296.79
371.974	264.7
372.355	290.01
372.736	286.16
373.117	265.37
373.498	285.71
373.879	292.72
374.26	287.07
374.641	290.23
375.021	293.62
375.402	282.78
375.783	281.87
376.163	279.16
376.544	303.57
376.925	294.53
377.305	297.69
377.686	304.47
378.066	291.59
378.447	304.7
378.827	323.9
379.208	292.94
379.588	316.67
379.968	294.3
380.349	290.91
380.729	298.37
381.109	293.85
381.489	305.15
381.87	282.1
382.25	276.67
382.63	289.55
383.01	310.8
383.39	304.47
383.77	322.77
384.15	300.18
384.53	301.31
384.91	286.39
385.29	315.32
385.67	292.27
386.049	313.96
386.429	322.77
386.809	304.24
387.189	318.03
387.568	289.1
387.948	306.05
388.328	322.77
388.707	295.2
389.087	308.76
389.466	286.84
389.846	312.38
390.225	309.44
390.605	322.55
390.984	315.09
391.363	315.54
391.743	304.7
392.122	294.3
392.501	300.63
392.881	339.27
393.26	324.13
393.639	310.12
394.018	319.38
394.397	331.59
394.776	322.77
395.155	317.35
395.534	322.55
395.913	307.41
396.292	337.46
396.671	310.12
397.05	321.87
397.429	324.36
397.808	315.99
398.186	301.31
398.565	339.5
398.944	344.24
399.323	340.63
399.701	324.13
400.08	312.83
400.458	318.93
400.837	324.36
401.215	310.12
401.594	333.85
401.972	338.82
402.351	337.01
402.729	346.73
403.107	323
403.486	332.27
403.864	334.75
404.242	345.6
404.62	334.53
404.999	333.17
405.377	358.25
405.755	350.57
406.133	334.3
406.511	329.55
406.889	326.84
407.267	348.08
407.645	345.15
408.023	358.71
408.401	348.99
408.779	367.74
409.156	372.49
409.534	349.21
409.912	353.73
410.29	337.46
410.667	366.16
411.045	354.41
411.422	364.13
411.8	357.58
412.178	370.23
412.555	360.97
412.933	370.46
413.31	352.6
413.687	374.07
414.065	377.91
414.442	390.57
414.819	378.37
415.197	364.35
415.574	388.31
415.951	366.16
416.328	366.16
416.705	389.89
417.082	380.4
417.46	384.69
417.837	385.15
418.214	384.92
418.591	386.05
418.967	398.7
419.344	391.47
419.721	383.56
420.098	378.59
420.475	365.94
420.852	402.55
421.228	397.8
421.605	391.7
421.982	409.33
422.358	388.76
422.735	393.05
423.111	383.79
423.488	405.26
423.864	394.86
424.241	412.04
424.617	420.17
424.994	428.08
425.37	414.52
425.746	387.63
426.123	396.9
426.499	410.68
426.875	436.9
427.251	426.5
427.627	421.3
428.003	433.96
428.379	429.44
428.756	418.59
429.132	428.76
429.507	441.64
429.883	431.92
430.259	436.9
430.635	408.87
431.011	439.16
431.387	447.97
431.763	435.31
432.138	443.22
432.514	450.68
432.89	439.16
433.265	465.6
433.641	449.78
434.016	449.55
434.392	459.49
434.767	447.06
435.143	453.62
435.518	447.52
435.894	457.46
436.269	461.53
436.644	459.27
437.02	494.75
437.395	463.79
437.77	478.93
438.145	477.8
438.52	464.01
438.895	492.26
439.271	488.87
439.646	486.84
440.021	481.41
440.395	483
440.77	499.27
441.145	489.55
441.52	503.56
441.895	508.31
442.27	506.95
442.645	491.81
443.019	505.59
443.394	522.32
443.769	517.57
444.143	524.12
444.518	512.15
444.892	519.15
445.267	512.15
445.641	519.15
446.016	528.42
446.39	520.73
446.764	516.67
447.139	527.06
447.513	524.35
447.887	541.53
448.262	557.57
448.636	532.26
449.01	531.58
449.384	549.89
449.758	545.14
450.132	541.3
450.506	551.47
450.88	535.88
451.254	529.1
451.628	542.66
452.002	548.53
452.376	548.53
452.75	551.92
453.123	548.3
453.497	550.11
453.871	544.24
454.244	537.46
454.618	577
454.992	572.71
455.365	591.92
455.739	577.91
456.112	604.57
456.486	574.07
456.859	579.94
457.232	593.73
457.606	597.8
457.979	614.74
458.352	589.89
458.725	589.43
459.099	594.41
459.472	624.01
459.845	621.52
460.218	597.8
460.591	613.61
460.964	640.96
461.337	614.29
461.71	643.67
462.083	635.76
462.456	634.86
462.829	624.69
463.201	662.43
463.574	626.49
463.947	652.03
464.32	651.35
464.692	645.93
465.065	648.64
465.438	652.03
465.81	668.53
466.183	650.22
466.555	708.3
466.928	682.54
467.3	667.85
467.672	678.02
468.045	711.69
468.417	711.46
468.789	715.31
469.161	706.72
469.534	725.48
469.906	741.29
470.278	719.15
470.65	755.3
471.022	749.66
471.394	756.89
471.766	749.88
472.138	764.34
472.51	759.82
472.882	778.13
473.253	772.48
473.625	771.12
473.997	788.07
474.369	809.09
474.74	800.5
475.112	824.68
475.484	846.83
475.855	837.79
476.227	816.32
476.598	819.03
476.97	877.34
477.341	870.78
477.713	849.09
478.084	885.47
478.455	885.47
478.827	882.53
479.198	885.92
479.569	890.89
479.94	919.59
480.311	941.51
480.682	946.49
481.053	947.39
481.424	977.9
481.795	969.76
482.166	972.93
482.537	971.57
482.908	989.65
483.279	973.83
483.65	1012.47
484.021	988.52
484.391	1004.34
484.762	1018.8
485.133	1021.96
485.503	1014.73
485.874	1058.12
486.244	1064.22
486.615	1052.25
486.985	1066.48
487.356	1101.74
487.726	1080.49
488.097	1091.34
488.467	1089.99
488.837	1102.64
489.207	1140.38
489.578	1121.85
489.948	1103.32
490.318	1140.38
490.688	1132.47
491.058	1135.63
491.428	1139.7
491.798	1142.19
492.168	1158.01
492.538	1174.73
492.908	1186.25
493.278	1184.45
493.648	1203.88
494.017	1179.47
494.387	1180.6
494.757	1194.39
495.126	1191.45
495.496	1225.12
495.866	1229.42
496.235	1216.54
496.605	1238.23
496.974	1225.58
497.344	1238.46
497.713	1250.21
498.082	1258.79
498.452	1252.24
498.821	1217.67
499.19	1219.93
499.559	1271
499.928	1235.29
500.298	1234.84
500.667	1274.16
501.036	1242.98
501.405	1277.33
501.774	1276.87
502.143	1261.73
502.512	1269.19
502.88	1296.99
503.249	1271.45
503.618	1281.84
503.987	1277.78
504.356	1287.27
504.724	1305.12
505.093	1294.05
505.462	1273.71
505.83	1294.95
506.199	1278.68
506.567	1297.21
506.936	1312.8
507.304	1305.12
507.672	1336.98
508.041	1304.67
508.409	1306.02
508.777	1324.56
509.145	1334.95
509.514	1343.54
509.882	1336.76
510.25	1352.35
510.618	1333.14
510.986	1332.92
511.354	1352.8
511.722	1380.6
512.09	1364.1
512.458	1351.67
512.826	1361.84
513.193	1327.72
513.561	1348.06
513.929	1369.53
514.297	1367.04
514.664	1367.94
515.032	1377.21
515.4	1379.02
515.767	1413.14
516.135	1423.99
516.502	1387.38
516.869	1402.07
517.237	1415.85
517.604	1395.97
517.972	1417.66
518.339	1411.56
518.706	1402.75
519.073	1401.62
519.44	1391.45
519.808	1412.24
520.175	1393.25
520.542	1424.67
520.909	1427.83
521.276	1425.57
521.643	1424.89
522.009	1419.47
522.376	1422.63
522.743	1445.23
523.11	1416.3
523.477	1453.14
523.843	1421.73
524.21	1468.96
524.577	1433.25
524.943	1469.86
525.31	1485.91
525.676	1471.44
526.043	1468.96
526.409	1488.39
526.776	1473.7
527.142	1477.09
527.508	1491.1
527.874	1475.96
528.241	1485.23
528.607	1482.97
528.973	1503.31
529.339	1497.88
529.705	1499.24
530.071	1498.34
530.437	1504.21
530.803	1520.71
531.169	1518
531.535	1512.8
531.901	1497.21
532.267	1519.58
532.632	1536.98
532.998	1509.64
533.364	1539.47
533.73	1503.76
534.095	1514.38
534.461	1548.5
534.826	1539.69
535.192	1542.4
535.557	1533.82
535.923	1523.87
536.288	1532.91
536.653	1520.26
537.019	1560.26
537.384	1550.09
537.749	1533.82
538.114	1525.23
538.479	1537.88
538.845	1550.31
539.21	1554.38
539.575	1541.95
539.94	1521.16
540.305	1523.65
540.67	1559.8
541.034	1574.27
541.399	1560.48
541.764	1566.13
542.129	1553.93
542.494	1536.53
542.858	1578.79
543.223	1553.7
543.587	1537.21
543.952	1569.07
544.316	1553.7
544.681	1544.66
545.045	1556.19
545.41	1535.17
545.774	1585.34
546.138	1570.65
546.503	1581.72
546.867	1544.89
547.231	1575.62
547.595	1551.89
547.959	1555.28
548.324	1579.01
548.688	1567.04
549.052	1575.17
549.416	1589.18
549.779	1567.26
550.143	1577.2
550.507	1578.56
550.871	1567.71
551.235	1567.04
551.599	1586.92
551.962	1615.4
552.326	1591.22
552.689	1570.65
553.053	1586.47
553.417	1588.96
553.78	1619.69
554.143	1634.6
554.507	1626.47
554.87	1619.92
555.234	1595.28
555.597	1592.12
555.96	1625.11
556.323	1617.2
556.686	1620.82
557.05	1603.87
557.413	1599.58
557.776	1604.55
558.139	1624.43
558.502	1636.19
558.865	1638.22
559.228	1597.32
559.59	1633.02
559.953	1633.93
560.316	1611.78
560.679	1645.9
561.041	1632.8
561.404	1643.64
561.767	1642.06
562.129	1641.61
562.492	1642.29
562.854	1627.15
563.217	1622.85
563.579	1654.49
563.941	1669.18
564.304	1666.92
564.666	1682.29
565.028	1683.42
565.39	1647.71
565.753	1660.37
566.115	1677.31
566.477	1681.16
566.839	1676.86
567.201	1687.03
567.563	1698.33
567.925	1694.49
568.287	1714.15
568.648	1681.38
569.01	1685.9
569.372	1674.6
569.734	1713.02
570.095	1701.72
570.457	1701.49
570.819	1682.96
571.18	1717.54
571.542	1729.06
571.903	1729.52
572.265	1706.69
572.626	1708.95
572.987	1739.23
573.349	1748.73
573.71	1741.04
574.071	1732.45
574.432	1707.82
574.794	1704.43
575.155	1729.74
575.516	1726.8
575.877	1747.6
576.238	1749.4
576.599	1765.45
576.96	1737.65
577.32	1743.75
577.681	1763.41
578.042	1733.58
578.403	1761.83
578.763	1764.09
579.124	1794.15
579.485	1739.46
579.845	1781.49
580.206	1754.37
580.566	1779.46
580.927	1762.74
581.287	1776.52
581.648	1764.77
582.008	1779.23
582.368	1772.68
582.728	1796.41
583.089	1781.04
583.449	1768.39
583.809	1768.16
584.169	1812
584.529	1755.5
584.889	1774.71
585.249	1775.39
585.609	1777.65
585.969	1781.94
586.329	1793.7
586.688	1777.2
587.048	1798.67
587.408	1772.68
587.768	1796.18
588.127	1783.3
588.487	1764.54
588.846	1786.24
589.206	1785.11
589.565	1767.26
589.925	1786.69
590.284	1812
590.643	1813.58
591.003	1782.4
591.362	1814.26
591.721	1819.68
592.08	1812.45
592.44	1811.55
592.799	1837.31
593.158	1820.36
593.517	1822.17
593.876	1826.69
594.235	1811.55
594.593	1812.23
594.952	1774.26
595.311	1797.99
595.67	1815.39
596.029	1820.36
596.387	1853.81
596.746	1816.29
597.104	1810.42
597.463	1833.92
597.822	1832.11
598.18	1831.89
598.538	1818.33
598.897	1827.37
599.255	1818.55
599.613	1826.01
599.972	1851.32
600.33	1832.11
600.688	1805.45
601.046	1832.79
601.404	1859
601.762	1850.42
602.12	1810.19
602.478	1872.34
602.836	1842.51
603.194	1843.86
603.552	1829.85
603.91	1849.74
604.268	1848.61
604.625	1850.64
604.983	1817.65
605.341	1867.37
605.698	1832.56
606.056	1860.81
606.413	1858.1
606.771	1873.47
607.128	1863.98
607.485	1834.37
607.843	1871.43
608.2	1861.94
608.557	1853.58
608.914	1891.32
609.272	1856.29
609.629	1892.9
609.986	1894.94
610.343	1854.94
610.7	1884.31
611.057	1886.57
611.414	1858.33
611.771	1921.6
612.127	1898.78
612.484	1930.64
612.841	1926.12
613.198	1910.98
613.554	1886.35
613.911	1905.56
614.267	1927.25
614.624	1897.42
614.98	1911.21
615.337	1917.76
615.693	1937.65
616.05	1913.24
616.406	1941.71
616.762	1906.24
617.118	1957.53
617.475	1935.61
617.831	1965.44
618.187	1948.72
618.543	1960.92
618.899	1942.17
619.255	1972.45
619.611	1927.7
619.967	1995.72
620.323	1955.95
620.678	1937.42
621.034	1938.78
621.39	1959.12
621.746	1955.27
622.101	2002.96
622.457	1960.7
622.812	1967.02
623.168	1968.61
623.523	1938.32
623.879	2004.99
624.234	2005.67
624.589	1977.87
624.945	1969.96
625.3	1958.89
625.655	1981.26
626.01	1988.72
626.365	1983.52
626.72	2002.28
627.075	1956.63
627.43	1976.52
627.785	1989.17
628.14	1995.05
628.495	2002.28
628.85	1987.59
629.205	1988.04
629.559	2013.58
629.914	2004.31
630.269	2024.88
630.623	1976.29
630.978	2015.16
631.332	2064.2
631.687	2041.37
632.041	2014.71
632.396	2017.19
632.75	2008.61
633.104	2027.59
633.459	2016.29
633.813	2022.62
634.167	2038.44
634.521	2044.31
634.875	2029.62
635.229	2070.98
635.583	2044.08
635.937	2023.29
636.291	2035.05
636.645	2047.02
636.999	2078.21
637.352	2045.89
637.706	2071.65
638.06	2073.24
638.413	2056.51
638.767	2077.08
639.121	2082.05
639.474	2075.27
639.828	2099.68
640.181	2079.34
640.534	2099.9
640.888	2099.9
641.241	2072.11
641.594	2126.79
641.947	2135.38
642.301	2131.77
642.654	2151.88
643.007	2115.5
643.36	2124.31
643.713	2144.42
644.066	2164.99
644.419	2134.25
644.771	2117.08
645.124	2144.87
645.477	2112.11
645.83	2108.26
646.182	2130.64
646.535	2118.21
646.888	2108.49
647.24	2149.17
647.593	2144.87
647.945	2168.83
648.298	2144.65
648.65	2142.39
649.002	2171.09
649.355	2160.47
649.707	2183.97
650.059	2170.64
650.411	2235.94
650.763	2259.67
651.115	2271.2
651.467	2277.52
651.819	2264.87
652.171	2278.65
652.523	2280.69
652.875	2285.66
653.227	2307.13
653.578	2309.16
653.93	2314.13
654.282	2298.77
654.633	2314.59
654.985	2341.48
655.337	2306.22
655.688	2362.04
656.039	2341.03
656.391	2379.67
656.742	2371.76
657.094	2392.55
657.445	2380.35
657.796	2426.45
658.147	2397.52
658.498	2431.65
658.849	2444.75
659.2	2456.28
659.551	2448.82
659.902	2511.64
660.253	2472.55
660.604	2502.83
660.955	2468.48
661.306	2512.77
661.656	2531.3
662.007	2511.19
662.358	2532.66
662.708	2525.2
663.059	2582.15
663.409	2534.92
663.76	2550.29
664.11	2584.86
664.461	2574.47
664.811	2612.21
665.161	2599.32
665.511	2637.52
665.862	2642.04
666.212	2604.75
666.562	2648.59
666.912	2623.5
667.262	2698.08
667.612	2666.44
667.962	2695.37
668.312	2690.17
668.662	2704.18
669.011	2694.92
669.361	2722.48
669.711	2712.32
670.06	2749.6
670.41	2752.54
670.76	2737.85
671.109	2745.54
671.459	2771.07
671.808	2768.13
672.157	2805.87
672.507	2789.38
672.856	2782.6
673.205	2797.74
673.554	2847.68
673.904	2855.36
674.253	2878.19
674.602	2850.39
674.951	2852.42
675.3	2828.02
675.649	2888.81
675.998	2884.97
676.346	2943.72
676.695	2910.05
677.044	2920.22
677.393	2913.67
677.741	2905.08
678.09	2936.49
678.438	2933.78
678.787	2954.8
679.135	2999.54
679.484	2969.71
679.832	3014.68
680.181	2955.93
680.529	2979.65
680.877	2980.11
681.225	3005.87
681.573	3048.8
681.922	3030.27
682.27	3031.63
682.618	3044.96
682.966	3043.38
683.314	3042.93
683.661	3066.43
684.009	3056.49
684.357	3060.56
684.705	3081.35
685.053	3060.33
685.4	3097.16
685.748	3079.99
686.095	3110.95
686.443	3070.5
686.79	3115.92
687.138	3143.94
687.485	3134
687.832	3113.21
688.18	3089.48
688.527	3139.88
688.874	3113.66
689.221	3155.02
689.568	3103.04
689.915	3065.98
690.262	3105.07
690.609	3124.28
690.956	3136.03
691.303	3142.13
691.65	3145.52
691.997	3117.95
692.344	3101.68
692.69	3103.27
693.037	3145.98
693.383	3089.03
693.73	3143.72
694.077	3093.55
694.423	3136.71
694.769	3103.49
695.116	3106.43
695.462	3122.47
695.808	3142.13
696.155	3169.03
696.501	3126.99
696.847	3097.16
697.193	3115.92
697.539	3111.4
697.885	3110.95
698.231	3106.2
698.577	3100.33
698.923	3121.57
699.269	3084.06
699.614	3062.36
699.96	3063.94
700.306	3086.54
700.651	3091.29
700.997	3076.37
701.342	3096.03
701.688	3062.36
702.033	3059.43
702.379	3082.25
702.724	3050.84
703.069	3049.48
703.415	3060.33
703.76	3037.73
704.105	3043.38
704.45	3017.39
704.795	3027.34
705.14	3054.91
705.485	3029.6
705.83	3037.28
706.175	3021.91
706.52	3033.66
706.865	3002.7
707.209	2999.09
707.554	3002.48
707.899	3022.36
708.243	2985.53
708.588	3045.87
708.932	2992.76
709.277	2970.16
709.621	3018.3
709.966	2991.18
710.31	3006.09
710.654	2971.07
710.998	2981.69
711.342	3005.42
711.687	2980.33
712.031	2960.67
712.375	2961.12
712.719	2961.35
713.063	2967.45
713.407	3015.36
713.75	2967
714.094	2961.57
714.438	2932.42
714.782	2972.65
715.125	2966.55
715.469	2982.14
715.812	2960.22
716.156	2916.38
716.499	2943.27
716.843	2951.63
717.186	2911.86
717.53	2983.04
717.873	2969.48
718.216	2968.58
718.559	2979.65
718.902	2938.3
719.246	2931.52
719.589	2935.13
719.932	2954.8
720.275	2938.07
720.617	2891.52
720.96	2942.59
721.303	2943.72
721.646	2924.97
721.989	2975.81
722.331	2945.98
722.674	2937.62
723.016	2914.12
723.359	2941.46
723.701	2941.24
724.044	2926.32
724.386	2954.8
724.729	2922.25
725.071	2927.23
725.413	2944.63
725.755	2921.58
726.097	2938.75
726.439	2974.23
726.782	2901.92
727.124	2944.63
727.465	2926.55
727.807	2909.82
728.149	2962.7
728.491	2913.67
728.833	2945.53
729.175	2984.62
729.516	2953.67
729.858	2930.39
730.199	2972.87
730.541	2978.07
730.882	2971.97
731.224	2952.54
731.565	2952.54
731.906	2979.88
732.248	2958.86
732.589	2993.66
732.93	2933.78
733.271	2988.47
733.612	2946.89
733.953	2989.37
734.294	3000.67
734.635	2948.02
734.976	2991.18
735.317	2975.36
735.658	3005.42
735.999	2981.24
736.339	2963.83
736.68	3004.29
737.021	2997.96
737.361	3005.19
737.702	3028.47
738.042	3011.74
738.383	3019.88
738.723	3034.79
739.063	3049.48
739.404	3044.06
739.744	3044.74
740.084	3070.05
740.424	3052.42
740.764	3069.82
741.104	3127.67
741.444	3098.97
741.784	3043.83
742.124	3080.67
742.464	3142.81
742.804	3139.65
743.143	3136.03
743.483	3141.91
743.823	3124.51
744.162	3132.19
744.502	3141.46
744.841	3208.57
745.181	3207.22
745.52	3179.65
745.86	3218.07
746.199	3198.4
746.538	3205.41
746.877	3252.41
747.216	3255.8
747.556	3214.9
747.895	3288.57
748.234	3284.05
748.573	3281.79
748.911	3299.19
749.25	3300.77
749.589	3327.67
749.928	3372.86
750.267	3416.7
750.605	3402.47
750.944	3396.82
751.283	3408.79
751.621	3435.01
751.96	3453.77
752.298	3484.05
752.636	3473.65
752.975	3512.29
753.313	3536.02
753.651	3538.96
753.989	3534.21
754.327	3559.53
754.666	3578.51
755.004	3667.54
755.342	3603.37
755.679	3670.48
756.017	3679.3
756.355	3724.72
756.693	3725.85
757.031	3733.76
757.368	3724.94
757.706	3732.4
758.044	3757.71
758.381	3822.57
758.719	3836.81
759.056	3864.6
759.394	3848.78
759.731	3846.3
760.068	3852.62
760.405	3904.15
760.743	3859.18
761.08	3886.97
761.417	3889.69
761.754	3899.4
762.091	3923.13
762.428	3941.89
762.765	3938.27
763.102	3982.79
763.438	3924.71
763.775	3990.02
764.112	3966.07
764.449	3985.5
764.785	3998.16
765.122	3982.79
765.458	3985.73
765.795	3997.93
766.131	4015.56
766.467	4022.11
766.804	4032.28
767.14	4026.86
767.476	4025.28
767.812	4046.07
768.148	4069.12
768.485	4026.86
768.821	4031.38
769.157	4052.62
769.492	4061.66
769.828	4058.27
770.164	4003.81
770.5	4046.29
770.836	4005.16
771.171	4014.88
771.507	4026.86
771.842	3987.31
772.178	4020.08
