Data from blue_shiny_book_FLMS001491_00092.txt Node
Date: Wed Feb 08 15:27:47 GMT 2017
User: dcchb
Spectrometer: FLMS00149
Trigger mode: 0
Integration Time (sec): 2.000000E-2
Scans to average: 10
Electric dark correction enabled: true
Nonlinearity correction enabled: false
Boxcar width: 0
XAxis mode: Wavelengths
Number of Pixels in Spectrum: 2048
>>>>>Begin Spectral Data<<<<<
341.393	13.88
341.776	13.88
342.16	13.88
342.543	-49.62
342.927	-70.18
343.31	-76.51
343.693	-79
344.077	-54.81
344.46	-53.69
344.843	-53.46
345.226	-43.06
345.61	-37.64
345.993	-26.57
346.376	0.55
346.759	3.71
347.142	11.85
347.525	42.13
347.908	84.39
348.291	70.38
348.674	93.43
349.057	118.29
349.44	132.98
349.823	156.48
350.206	151.51
350.588	194.9
350.971	234.89
351.354	236.02
351.737	242.35
352.119	241.9
352.502	278.96
352.884	266.53
353.267	276.48
353.65	295.23
354.032	293.65
354.414	316.25
354.797	313.08
355.179	311.73
355.562	320.09
355.944	332.29
356.326	331.62
356.709	332.07
357.091	360.99
357.473	350.37
357.855	352.86
358.238	339.75
358.62	347.43
359.002	355.34
359.384	328
359.766	343.14
360.148	370.71
360.53	360.09
360.912	314.67
361.294	334.78
361.676	346.08
362.057	346.76
362.439	338.62
362.821	338.17
363.203	323.93
363.584	324.16
363.966	333.42
364.348	326.19
364.729	324.61
365.111	319.86
365.493	320.77
365.874	325.29
366.256	318.28
366.637	330.49
367.019	324.84
367.4	308.11
367.781	309.7
368.163	334.33
368.544	317.38
368.925	328.23
369.306	334.1
369.688	316.7
370.069	318.28
370.45	344.5
370.831	320.32
371.212	319.86
371.593	337.04
371.974	313.31
372.355	342.91
372.736	337.27
373.117	332.75
373.498	339.52
373.879	324.16
374.26	330.26
374.641	320.32
375.021	353.76
375.402	335.01
375.783	336.59
376.163	329.13
376.544	374.78
376.925	348.34
377.305	345.4
377.686	317.6
378.066	344.72
378.447	352.63
378.827	358.06
379.208	364.38
379.588	354.21
379.968	353.76
380.349	350.15
380.729	358.06
381.109	358.28
381.489	374.33
381.87	367.32
382.25	360.77
382.63	372.29
383.01	372.74
383.39	350.6
383.77	367.77
384.15	381.11
384.53	374.1
384.91	377.94
385.29	391.05
385.67	368.45
386.049	405.74
386.429	384.72
386.809	377.94
387.189	385.4
387.568	389.92
387.948	398.05
388.328	397.15
388.707	415.23
389.087	395.34
389.466	397.83
389.846	409.81
390.225	416.59
390.605	413.87
390.984	417.04
391.363	417.72
391.743	439.64
392.122	451.61
392.501	465.85
392.881	442.57
393.26	432.86
393.639	443.48
394.018	428.79
394.397	453.19
394.776	460.65
395.155	484.15
395.534	478.28
395.913	443.7
396.292	456.81
396.671	475.57
397.05	475.57
397.429	482.35
397.808	495.23
398.186	482.8
398.565	478.73
398.944	471.27
399.323	502.68
399.701	504.27
400.08	530.25
400.458	510.14
400.837	511.05
401.215	513.31
401.594	518.28
401.972	504.72
402.351	550.37
402.729	550.59
403.107	558.73
403.486	569.35
403.864	554.43
404.242	540.88
404.62	558.05
404.999	555.11
405.377	576.58
405.755	572.06
406.133	579.29
406.511	593.98
406.889	588.56
407.267	607.09
407.645	625.62
408.023	585.62
408.401	634.43
408.779	630.36
409.156	646.86
409.534	646.18
409.912	650.93
410.29	652.29
410.667	675.79
411.045	667.43
411.422	666.07
411.8	716.92
412.178	717.59
412.555	710.36
412.933	732.28
413.31	743.81
413.687	729.57
414.065	750.36
414.442	741.1
414.819	761.89
415.197	744.26
415.574	790.81
415.951	784.71
416.328	785.84
416.705	800.76
417.082	819.74
417.46	816.57
417.837	862.9
418.214	854.99
418.591	826.29
418.967	846.86
419.344	845.5
419.721	851.38
420.098	846.63
420.475	892.73
420.852	898.15
421.228	880.53
421.605	919.85
421.982	908.32
422.358	921.2
422.735	957.36
423.111	959.85
423.488	949
423.864	981.77
424.241	1010.47
424.617	1000.3
424.994	1025.61
425.37	1014.08
425.746	1020.64
426.123	1045.72
426.499	1057.7
426.875	1055.21
427.251	1085.04
427.627	1097.47
428.003	1113.06
428.379	1099.5
428.756	1103.57
429.132	1113.52
429.507	1141.76
429.883	1178.82
430.259	1169.56
430.635	1200.07
431.011	1194.19
431.387	1234.42
431.763	1276.22
432.138	1276.45
432.514	1302.21
432.89	1316.45
433.265	1314.87
433.641	1315.77
434.016	1370.91
434.392	1353.51
434.767	1400.97
435.143	1388.76
435.518	1440.96
435.894	1436.45
436.269	1468.08
436.644	1473.05
437.02	1487.74
437.395	1537.23
437.77	1524.35
438.145	1577.23
438.52	1590.57
438.895	1573.84
439.271	1567.52
439.646	1631.47
440.021	1650.45
440.395	1624.46
440.77	1676.44
441.145	1650.68
441.52	1687.29
441.895	1706.72
442.27	1668.08
442.645	1706.49
443.019	1788.3
443.394	1747.62
443.769	1732.71
444.143	1778.36
444.518	1813.61
444.892	1807.96
445.267	1790.11
445.641	1851.35
446.016	1871.91
446.39	1874.85
446.764	1906.94
447.139	1896.77
447.513	1917.11
447.887	1952.36
448.262	1927.96
448.636	1932.25
449.01	1992.59
449.384	1963.66
449.758	1985.58
450.132	2038.46
450.506	2007.96
450.88	2064.9
451.254	2071.68
451.628	2099.03
452.002	2127.5
452.376	2136.99
452.75	2149.65
453.123	2188.74
453.497	2207.05
453.871	2194.62
454.244	2275.52
454.618	2272.81
454.992	2306.03
455.365	2307.38
455.739	2385.35
456.112	2400.71
456.486	2412.69
456.859	2462.18
457.232	2516.19
457.606	2482.75
457.979	2561.84
458.352	2609.52
458.725	2625.11
459.099	2666.02
459.472	2679.12
459.845	2706.24
460.218	2788.05
460.591	2744.21
460.964	2804.54
461.337	2857.65
461.71	2949.17
462.083	2905.56
462.456	2970.42
462.829	3012.22
463.201	3026.69
463.574	3071.43
463.947	3101.49
464.32	3139.68
464.692	3228.04
465.065	3204.53
465.438	3255.38
465.81	3250.63
466.183	3341.71
466.555	3403.63
466.928	3454.02
467.3	3440.23
467.672	3530.4
468.045	3589.83
468.417	3611.76
468.789	3602.72
469.161	3697.4
469.534	3745.99
469.906	3820.34
470.278	3843.84
470.65	3896.27
471.022	3987.11
471.394	4021.69
471.766	4052.2
472.138	4162.02
472.51	4239.08
472.882	4243.38
473.253	4310.95
473.625	4357.5
473.997	4492.18
474.369	4516.36
474.74	4582.13
475.112	4657.6
475.484	4701.9
475.855	4805.17
476.227	4819.18
476.598	4971.95
476.97	4955.9
477.341	5103.69
477.713	5193.18
478.084	5212.84
478.455	5420.97
478.827	5422.56
479.198	5562.44
479.569	5599.73
479.94	5780.29
480.311	5799.27
480.682	5947.97
481.053	6093.95
481.424	6136.21
481.795	6137.34
482.166	6299.37
482.537	6371.68
482.908	6532.36
483.279	6628.17
483.65	6716.98
484.021	6881.05
484.391	6970.99
484.762	7074.49
485.133	7150.42
485.503	7212.79
485.874	7384.54
486.244	7476.74
486.615	7530.3
486.985	7701.37
487.356	7767.8
487.726	7830.63
488.097	8036.27
488.467	8017.06
488.837	8214.35
489.207	8342.03
489.578	8493.66
489.948	8626.76
490.318	8717.84
490.688	8812.97
491.058	8917.38
491.428	9045.96
491.798	9237.37
492.168	9339.29
492.538	9408.44
492.908	9438.49
493.278	9491.37
493.648	9581.32
494.017	9702.89
494.387	9744.02
494.757	9904.7
495.126	10002.55
495.496	10073.05
495.866	10211.13
496.235	10304.01
496.605	10367.96
496.974	10520.5
497.344	10584
497.713	10660.84
498.082	10816.31
498.452	10876.88
498.821	10991.22
499.19	10962.07
499.559	11073.71
499.928	11138.79
500.298	11213.59
500.667	11290.2
501.036	11302.4
501.405	11430.98
501.774	11507.37
502.143	11712.33
502.512	11720.92
502.88	11879.79
503.249	11899.9
503.618	12060.8
503.987	12035.94
504.356	12212.21
504.724	12223.73
505.093	12306.44
505.462	12348.93
505.83	12427.79
506.199	12437.51
506.567	12612.2
506.936	12628.02
507.304	12713.66
507.672	12840.21
508.041	12855.13
508.409	13009.25
508.777	13117.49
509.145	13230.03
509.514	13300.09
509.882	13432.29
510.25	13603.36
510.618	13686.29
510.986	13808.1
511.354	13851.94
511.722	14004.7
512.09	14114.3
512.458	14092.38
512.826	14212.83
513.193	14254.41
513.561	14269.33
513.929	14280.18
514.297	14425.93
514.664	14541.41
515.032	14514.97
515.4	14731.46
515.767	14795.42
516.135	14999.7
516.502	14985.92
516.869	15255.97
517.237	15338.23
517.604	15323.31
517.972	15589.97
518.339	15652.57
518.706	15792.45
519.073	15722.85
519.44	15877.65
519.808	15911.32
520.175	15926.23
520.542	16106.34
520.909	16218.66
521.276	16204.87
521.643	16445.99
522.009	16460.23
522.376	16665.2
522.743	16711.98
523.11	17002.82
523.477	17161.23
523.843	17187.9
524.21	17588.11
524.577	17739.29
524.943	17875.79
525.31	17875.34
525.676	18050.47
526.043	18136.57
526.409	18183.35
526.776	18341.31
527.142	18298.37
527.508	18437.58
527.874	18454.3
528.241	18635.99
528.607	18640.06
528.973	18827.63
529.339	18896.1
529.705	19083.21
530.071	19254.51
530.437	19322.3
530.803	19615.63
531.169	19669.86
531.535	19861.5
531.901	19974.26
532.267	20084.54
532.632	20248.15
532.998	20292.9
533.364	20420.58
533.73	20388.49
534.095	20636.39
534.461	20616.28
534.826	20697.63
535.192	20706.45
535.557	20763.17
535.923	20678.43
536.288	20895.82
536.653	20972.2
537.019	20904.41
537.384	21067.34
537.749	21217.39
538.114	21364.73
538.479	21493.77
538.845	21567.89
539.21	21652.86
539.575	21843.59
539.94	21845.17
540.305	22027.77
540.67	21989.8
541.034	21935.34
541.399	22027.32
541.764	22140.31
542.129	22279.74
542.494	22135.11
542.858	22300.53
543.223	22188.44
543.587	22300.98
543.952	22292.62
544.316	22426.18
544.681	22399.28
545.045	22597.92
545.41	22658.71
545.774	22626.17
546.138	22764.92
546.503	22803.79
546.867	22832.27
547.231	23172.6
547.595	23246.95
547.959	23291.01
548.324	23375.98
548.688	23408.97
549.052	23517.9
549.416	23503.66
549.779	23363.1
550.143	23457.56
550.507	23525.13
550.871	23642.19
551.235	23463.44
551.599	23562.42
551.962	23577.11
552.326	23604.9
552.689	23779.13
553.053	23776.87
553.417	23869.98
553.78	24159.92
554.143	24080.6
554.507	24279.69
554.87	24406.69
555.234	24672.9
555.597	24605.33
555.96	24641.71
556.323	24768.71
556.686	24928.93
557.05	24991.53
557.413	25056.84
557.776	24999.44
558.139	25100.23
558.502	25111.08
558.865	25210.96
559.228	25225.65
559.59	25083.51
559.953	25122.15
560.316	25358.98
560.679	25462.25
561.041	25573.66
561.404	25771.85
561.767	25855.01
562.129	25862.47
562.492	26239.63
562.854	26215.45
563.217	26296.13
563.579	26543.36
563.941	26707.19
564.304	26896.11
564.666	26994.19
565.028	26996.45
565.39	27129.56
565.753	27177.24
566.115	27233.06
566.477	27349.44
566.839	27397.34
567.201	27410.68
567.563	27479.15
567.925	27548.53
568.287	27449.32
568.648	27451.13
569.01	27524.8
569.372	27679.6
569.734	27645.93
570.095	27941.06
570.457	27963.66
570.819	28187.15
571.18	28114.84
571.542	28436.41
571.903	28468.95
572.265	28744.88
572.626	28776.97
572.987	28893.8
573.349	29131.31
573.71	29210.63
574.071	29304.41
574.432	29224.42
574.794	29360.23
575.155	29260.8
575.516	29092.67
575.877	29197.3
576.238	29202.27
576.599	29361.59
576.96	29300.8
577.32	29261.48
577.681	29385.54
578.042	29448.36
578.403	29384.41
578.763	29550.73
579.124	29701.69
579.485	29769.26
579.845	29915.47
580.206	29815.36
580.566	30045.18
580.927	30089.25
581.287	30235.24
581.648	30218.74
582.008	30306.87
582.368	30438.17
582.728	30488.79
583.089	30402.69
583.449	30345.29
583.809	30390.03
584.169	30522.01
584.529	30494.21
584.889	30685.85
585.249	30325.18
585.609	30217.61
585.969	30312.75
586.329	30270.49
586.688	30344.39
587.048	30244.95
587.408	30248.57
587.768	30224.84
588.127	30357.04
588.487	30344.84
588.846	30770.59
589.206	30341.9
589.565	30598.62
589.925	30529.69
590.284	30502.35
590.643	30614.66
591.003	30938.95
591.362	31078.38
591.721	31083.35
592.08	31059.17
592.44	31014.2
592.799	31094.65
593.158	31093.74
593.517	31041.99
593.876	31115.44
594.235	31034.31
594.593	31008.78
594.952	30991.37
595.311	30934.65
595.67	30956.8
596.029	31107.53
596.387	31019.4
596.746	30978.95
597.104	30764.71
597.463	30866.41
597.822	31068.66
598.18	30968.78
598.538	30899.4
598.897	31110.02
599.255	30851.04
599.613	31451.93
599.972	31248.99
600.33	31410.8
600.688	31317.24
601.046	31510.46
601.404	31659.61
601.762	31522.89
602.12	31730.56
602.478	31607.63
602.836	31752.26
603.194	31592.26
603.552	31735.76
603.91	31519.27
604.268	31629.78
604.625	31416.22
604.983	31606.27
605.341	31263.68
605.698	31534.86
606.056	31498.25
606.413	31573.96
606.771	31599.49
607.128	31598.14
607.485	31567.86
607.843	31595.43
608.2	31825.02
608.557	32007.39
608.914	31863.44
609.272	31988.64
609.629	31967.62
609.986	32241.06
610.343	32058.01
610.7	32239.93
611.057	32233.83
611.414	32446.03
611.771	32470.88
612.127	32646.92
612.484	32583.65
612.841	32766.47
613.198	32530.32
613.554	32605.12
613.911	32784.32
614.267	32682.86
614.624	32623.42
614.98	32603.99
615.337	32865.9
615.693	32664.55
616.05	32570.54
616.406	32763.76
616.762	32512.69
617.118	32624.33
617.475	32524.44
617.831	32621.39
618.187	32675.62
618.543	32705.91
618.899	32823.64
619.255	32924.2
619.611	32867.94
619.967	33094.37
620.323	33152.45
620.678	32989.51
621.034	33109.28
621.39	33159.23
621.746	33097.31
622.101	33454.81
622.457	33302.95
622.812	33284.2
623.168	33547.69
623.523	33481.7
623.879	33552.21
624.234	33409.39
624.589	33308.6
624.945	33609.16
625.3	33570.97
625.655	33497.75
626.01	33475.15
626.365	33322.39
626.72	33255.5
627.075	33266.57
627.43	33274.48
627.785	33081.26
628.14	33097.53
628.495	33116.97
628.85	33104.77
629.205	32937.99
629.559	32976.63
629.914	32979.8
630.269	33037.87
630.623	33121.26
630.978	32952.23
631.332	33162.84
631.687	33243.97
632.041	33175.27
632.396	33236.74
632.75	33120.58
633.104	33123.97
633.459	32944.54
633.813	33098.66
634.167	33003.52
634.521	32923.98
634.875	33119.91
635.229	32897.76
635.583	32956.75
635.937	32920.82
636.291	32887.14
636.645	32931.21
636.999	32750.42
637.352	32806.24
637.706	32551.79
638.06	32637.88
638.413	32630.2
638.767	32413.26
639.121	32444.67
639.474	32209.2
639.828	32167.61
640.181	32220.49
640.534	32201.74
640.888	32006.26
641.241	31952.93
641.594	31953.38
641.947	32235.86
642.301	32116.09
642.654	32313.83
643.007	32191.79
643.36	32259.82
643.713	32200.61
644.066	32324.45
644.419	32303.66
644.771	32188.18
645.124	32098.69
645.477	32167.61
645.83	31895.76
646.182	31823.67
646.535	31398.82
646.888	31241.99
647.24	31065.27
647.593	31158.83
647.945	30894.2
648.298	30882.68
648.65	30689.01
649.002	30675.9
649.355	30911.15
649.707	30945.73
650.059	31091.71
650.411	31439.5
650.763	31396.11
651.115	31557.24
651.467	31480.18
651.819	31379.39
652.171	31384.13
652.523	31345.49
652.875	31339.16
653.227	31306.39
653.578	31462.32
653.93	31520.4
654.282	31318.15
654.633	31144.36
654.985	31308.2
655.337	31426.62
655.688	31401.08
656.039	31570.34
656.391	31325.15
656.742	31446.5
657.094	31581.64
657.445	31833.39
657.796	31658.93
658.147	31542.32
658.498	31477.46
658.849	31685.14
659.2	31584.81
659.551	31527.41
659.902	31531.02
660.253	31458.25
660.604	31406.73
660.955	31424.36
661.306	31448.99
661.656	31291.93
662.007	31253.06
662.358	31107.3
662.708	31039.06
663.059	30940.75
663.409	30881.09
663.76	30976.91
664.11	30869.12
664.461	30941.88
664.811	30790.7
665.161	30925.16
665.511	30735.11
665.862	30851.27
666.212	31015.1
666.562	31032.5
666.912	31064.59
667.262	30987.98
667.612	31077.25
667.962	31227.3
668.312	31262.55
668.662	31467.75
669.011	31394.75
669.361	31363.34
669.711	31332.61
670.06	31275.66
670.41	31260.07
670.76	31260.29
671.109	31266.85
671.459	31134.42
671.808	31022.79
672.157	31158.38
672.507	30961.09
672.856	30960.19
673.205	30912.51
673.554	30896.46
673.904	30762.68
674.253	30828.67
674.602	30664.15
674.951	30091.06
675.3	29971.29
675.649	30482.46
675.998	30309.13
676.346	30237.95
676.695	30265.29
677.044	30019.2
677.393	30208.57
677.741	30230.49
678.09	30098.52
678.438	30030.04
678.787	30181.23
679.135	30269.13
679.484	29969.71
679.832	30276.36
680.181	30054.68
680.529	30239.08
680.877	30220.32
681.225	30176.03
681.573	30588.67
681.922	30194.33
682.27	30292.64
682.618	30256.03
682.966	30177.38
683.314	30298.96
683.661	30105.3
684.009	29879.99
684.357	29817.85
684.705	29770.39
685.053	29905.3
685.4	29692.88
685.748	29627.57
686.095	29504.86
686.443	29317.29
686.79	29243.85
687.138	29341.93
687.485	29130.86
687.832	29046.34
688.18	28949.39
688.527	28812
688.874	28678.44
689.221	28533.81
689.568	28375.62
689.915	28378.56
690.262	28435.96
690.609	28311.44
690.956	28228.96
691.303	28183.54
691.65	27974.5
691.997	28109.42
692.344	27791.46
692.69	27815.86
693.037	27821.97
693.383	27757.11
693.73	27751.69
694.077	27788.29
694.423	27797.33
694.769	27664.68
695.116	27672.82
695.462	27577.68
695.808	27510.11
696.155	27642.99
696.501	27377.46
696.847	27507.85
697.193	27195.99
697.539	27232.15
697.885	27108.31
698.231	26981.99
698.577	26981.54
698.923	26834.87
699.269	26810.47
699.614	26622
699.96	26542.9
700.306	26462.68
700.651	26268.79
700.997	25985.86
701.342	25956.93
701.688	25855.92
702.033	25850.72
702.379	25627.22
702.724	25528.24
703.069	25684.85
703.415	25355.36
703.76	25283.05
704.105	25339.09
704.45	25284.41
704.795	25109.04
705.14	25199.21
705.485	25041.25
705.83	24982.27
706.175	25008.03
706.52	25021.36
706.865	24969.61
707.209	25039.67
707.554	24978.43
707.899	25020.68
708.243	24881.48
708.588	24920.35
708.932	24793.57
709.277	24879.67
709.621	24910.18
709.966	24730.97
710.31	24712.67
710.654	24597.42
710.998	24545.67
711.342	24619.79
711.687	24454.15
712.031	24324.88
712.375	24274.71
712.719	24229.29
713.063	24149.97
713.407	24100.03
713.75	24090.31
714.094	23911.33
714.438	23823.2
714.782	23746.37
715.125	23660.95
715.469	23498.24
715.812	23408.3
716.156	23275.65
716.499	23239.49
716.843	23270
717.186	23130.56
717.53	23281.07
717.873	23211.92
718.216	23141.64
718.559	23107.74
718.902	22973.73
719.246	23015.09
719.589	23001.3
719.932	23005.82
720.275	22972.83
720.617	22962.66
720.96	22973.28
721.303	23008.99
721.646	23020.06
721.989	23004.47
722.331	23124.91
722.674	23144.8
723.016	23147.51
723.359	23114.52
723.701	23145.48
724.044	23037.91
724.386	23009.21
724.729	23025.48
725.071	22973.51
725.413	22960.63
725.755	22953.85
726.097	22868.42
726.439	22811.7
726.782	22646.74
727.124	22768.54
727.465	22584.36
727.807	22579.17
728.149	22568.32
728.491	22415.78
728.833	22681.99
729.175	22457.81
729.516	22400.87
729.858	22445.84
730.199	22490.81
730.541	22395.67
730.882	22336.69
731.224	22394.31
731.565	22156.13
731.906	22140.99
732.248	22256.46
732.589	22169.69
732.93	22105.96
733.271	22210.81
733.612	22287.65
733.953	22267.76
734.294	22056.69
734.635	22206.97
734.976	22225.05
735.317	22107.31
735.658	22185.73
735.999	22249.91
736.339	22224.37
736.68	22243.81
737.021	22347.53
737.361	22276.8
737.702	22427.53
738.042	22307.08
738.383	22294.88
738.723	22289.46
739.063	22371.94
739.404	22527.87
739.744	22459.17
740.084	22413.52
740.424	22533.07
740.764	22577.58
741.104	22583.01
741.444	22394.99
741.784	22312.28
742.124	22383.92
742.464	22420.07
742.804	22335.33
743.143	22344.82
743.483	22258.5
743.823	22315.9
744.162	22271.83
744.502	22314.09
744.841	22190.7
745.181	22284.48
745.52	22174.66
745.86	22213.3
746.199	22209.46
746.538	22154.32
746.877	22234.32
747.216	22261.43
747.556	22231.83
747.895	22316.12
748.234	22324.48
748.573	22413.52
748.911	22316.57
749.25	22363.35
749.589	22421.88
749.928	22387.08
750.267	22552.27
750.605	22482.45
750.944	22543.46
751.283	22418.94
751.621	22670.01
751.96	22531.94
752.298	22611.93
752.636	22645.83
752.975	22646.51
753.313	22767.86
753.651	22848.31
753.989	22782.78
754.327	22787.97
