Data from blue_surface_keyboard_FLMS001491_005.txt Node
Date: Tue Feb 07 11:12:33 GMT 2017
User: dcchb
Spectrometer: FLMS00149
Trigger mode: 0
Integration Time (sec): 2.000000E-2
Scans to average: 10
Electric dark correction enabled: true
Nonlinearity correction enabled: false
Boxcar width: 0
XAxis mode: Wavelengths
Number of Pixels in Spectrum: 2048
>>>>>Begin Spectral Data<<<<<
341.393	-24.9
341.776	-24.9
342.16	-24.9
342.543	-62.64
342.927	-67.84
343.31	-62.87
343.693	-80.04
344.077	-57.67
344.46	-71
344.843	-73.94
345.226	-40.72
345.61	-29.87
345.993	-12.92
346.376	-12.47
346.759	7.64
347.142	44.02
347.525	29.11
347.908	50.35
348.291	83.57
348.674	108.2
349.057	118.6
349.44	137.13
349.823	161.76
350.206	141.65
350.588	180.52
350.971	185.49
351.354	204.7
351.737	210.57
352.119	208.09
352.502	232.95
352.884	257.58
353.267	256.45
353.65	280.85
354.032	276.56
354.414	278.37
354.797	279.95
355.179	304.58
355.562	323.56
355.944	291.02
356.326	322.89
356.709	310.68
357.091	314.53
357.473	313.17
357.855	315.66
358.238	325.15
358.62	312.27
359.002	305.94
359.384	310.68
359.766	303
360.148	307.07
360.53	305.49
360.912	312.94
361.294	307.75
361.676	306.39
362.057	310.01
362.439	306.39
362.821	297.12
363.203	287.41
363.584	314.07
363.966	291.02
364.348	285.83
364.729	301.64
365.111	293.51
365.493	318.59
365.874	286.73
366.256	299.16
366.637	294.87
367.019	299.61
367.4	293.51
367.781	291.02
368.163	286.28
368.544	284.92
368.925	282.66
369.306	300.97
369.688	267.75
370.069	276.11
370.45	265.94
370.831	289.67
371.212	288.54
371.593	276.11
371.974	275.2
372.355	293.51
372.736	277.24
373.117	283.57
373.498	288.54
373.879	275.88
374.26	291.02
374.641	291.25
375.021	282.66
375.402	287.18
375.783	286.28
376.163	284.47
376.544	287.18
376.925	287.41
377.305	309.33
377.686	302.55
378.066	320.4
378.447	310.68
378.827	286.73
379.208	292.15
379.588	304.81
379.968	296.67
380.349	297.35
380.729	274.75
381.109	316.56
381.489	278.14
381.87	307.29
382.25	315.88
382.63	295.77
383.01	287.86
383.39	316.33
383.77	310.23
384.15	311.36
384.53	288.31
384.91	316.33
385.29	298.93
385.67	319.95
386.049	324.47
386.429	318.14
386.809	309.55
387.189	314.53
387.568	334.19
387.948	297.8
388.328	314.07
388.707	304.81
389.087	317.92
389.466	296.45
389.846	299.38
390.225	313.17
390.605	323.34
390.984	310.01
391.363	306.84
391.743	319.5
392.122	322.21
392.501	305.49
392.881	319.5
393.26	315.2
393.639	333.73
394.018	311.81
394.397	339.38
394.776	298.48
395.155	323.11
395.534	319.05
395.913	322.89
396.292	319.95
396.671	314.07
397.05	321.31
397.429	317.92
397.808	329.89
398.186	354.75
398.565	308.42
398.944	313.85
399.323	345.03
399.701	338.03
400.08	329.21
400.458	351.13
400.837	349.33
401.215	353.85
401.594	331.47
401.972	332.38
402.351	346.62
402.729	331.47
403.107	357.46
403.486	338.93
403.864	353.39
404.242	354.75
404.62	343
404.999	361.53
405.377	345.49
405.755	345.94
406.133	364.24
406.511	366.05
406.889	351.59
407.267	348.65
407.645	343.68
408.023	363.11
408.401	371.02
408.779	358.59
409.156	379.61
409.534	363.56
409.912	365.37
410.29	378.48
410.667	380.06
411.045	366.5
411.422	353.17
411.8	376.44
412.178	365.37
412.555	382.77
412.933	381.87
413.31	378.25
413.687	370.8
414.065	394.3
414.442	386.39
414.819	360.85
415.197	366.73
415.574	382.55
415.951	375.77
416.328	381.64
416.705	360.4
417.082	387.74
417.46	398.37
417.837	391.13
418.214	408.99
418.591	379.38
418.967	396.11
419.344	411.92
419.721	392.26
420.098	400.4
420.475	395.2
420.852	403.34
421.228	403.11
421.605	385.26
421.982	410.12
422.358	410.57
422.735	415.31
423.111	431.58
423.488	411.7
423.864	406.05
424.241	404.47
424.617	408.08
424.994	400.4
425.37	422.77
425.746	415.31
426.123	410.34
426.499	422.55
426.875	406.73
427.251	432.94
427.627	416.44
428.003	418.7
428.379	432.71
428.756	435.2
429.132	436.78
429.507	430.23
429.883	423.45
430.259	455.99
430.635	435.88
431.011	445.37
431.387	447.63
431.763	469.78
432.138	455.31
432.514	464.58
432.89	483.11
433.265	471.13
433.641	472.04
434.016	458.25
434.392	485.82
434.767	497.35
435.143	459.15
435.518	456.44
435.894	449.89
436.269	475.65
436.644	469.32
437.02	484.69
437.395	481.75
437.77	482.43
438.145	507.51
438.52	488.76
438.895	506.38
439.271	493.73
439.646	507.29
440.021	522.88
440.395	512.03
440.77	512.26
441.145	515.42
441.52	514.29
441.895	508.64
442.27	501.64
442.645	516.33
443.019	511.13
443.394	524.24
443.769	517.01
444.143	521.98
444.518	524.92
444.892	525.37
445.267	527.4
445.641	543.45
446.016	545.93
446.39	523.56
446.764	531.7
447.139	552.71
447.513	566.5
447.887	562.65
448.262	551.58
448.636	548.42
449.01	541.86
449.384	557.91
449.758	548.19
450.132	564.91
450.506	589.55
450.88	563.33
451.254	557.91
451.628	565.37
452.002	541.19
452.376	563.11
452.75	571.02
453.123	565.59
453.497	595.2
453.871	591.58
454.244	575.08
454.618	598.59
454.992	593.39
455.365	582.09
455.739	587.51
456.112	618.47
456.486	598.59
456.859	615.08
457.232	627.29
457.606	619.6
457.979	615.31
458.352	630.9
458.725	612.37
459.099	642.88
459.472	634.74
459.845	624.8
460.218	624.57
460.591	645.14
460.964	630.22
461.337	667.06
461.71	663.89
462.083	652.82
462.456	671.58
462.829	667.28
463.201	674.74
463.574	656.89
463.947	676.78
464.32	680.39
464.692	679.04
465.065	681.07
465.438	684.46
465.81	702.09
466.183	707.06
466.555	732.59
466.928	727.17
467.3	728.98
467.672	719.71
468.045	705.7
468.417	736.44
468.789	737.11
469.161	750.22
469.534	746.15
469.906	767.17
470.278	758.36
470.65	749.77
471.022	801.97
471.394	795.64
471.766	768.52
472.138	799.03
472.51	785.7
472.882	822.53
473.253	804.23
473.625	803.1
473.997	826.15
474.369	811.46
474.74	827.28
475.112	823.66
475.484	834.06
475.855	849.88
476.227	859.37
476.598	878.35
476.97	877.9
477.341	910.44
477.713	900.95
478.084	914.06
478.455	908.41
478.827	913.38
479.198	944.11
479.569	942.08
479.94	954.73
480.311	961.97
480.682	981.17
481.053	993.6
481.424	993.15
481.795	994.06
482.166	1004.23
482.537	983.43
482.908	1044.22
483.279	1025.24
483.65	1043.55
484.021	1048.97
484.391	1068.4
484.762	1072.92
485.133	1082.42
485.503	1086.48
485.874	1103.21
486.244	1094.62
486.615	1115.18
486.985	1127.39
487.356	1139.14
487.726	1145.46
488.097	1152.7
488.467	1132.36
488.837	1149.08
489.207	1170.55
489.578	1187.27
489.948	1178.46
490.318	1201.51
490.688	1207.84
491.058	1190.43
491.428	1225.01
491.798	1216.65
492.168	1206.48
492.538	1233.6
492.908	1214.39
493.278	1219.81
493.648	1244.22
494.017	1247.38
494.387	1240.15
494.757	1262.98
495.126	1258
495.496	1273.37
495.866	1300.26
496.235	1284.9
496.605	1295.29
496.974	1315.63
497.344	1294.16
497.713	1304.1
498.082	1328.74
498.452	1354.27
498.821	1324.44
499.19	1303.2
499.559	1337.32
499.928	1325.8
500.298	1343.43
500.667	1338.23
501.036	1353.59
501.405	1366.02
501.774	1342.52
502.143	1320.15
502.512	1345.91
502.88	1349.75
503.249	1336.65
503.618	1350.2
503.987	1331.22
504.356	1361.5
504.724	1365.12
505.093	1365.8
505.462	1376.87
505.83	1369.19
506.199	1391.56
506.567	1394.72
506.936	1382.52
507.304	1390.88
507.672	1387.72
508.041	1395.18
508.409	1391.11
508.777	1403.31
509.145	1409.41
509.514	1385.68
509.882	1415.74
510.25	1421.39
510.618	1418.45
510.986	1386.59
511.354	1438.79
511.722	1423.87
512.09	1438.56
512.458	1432.24
512.826	1443.54
513.193	1440.6
513.561	1453.03
513.929	1413.71
514.297	1444.44
514.664	1454.61
515.032	1450.09
515.4	1446.93
515.767	1464.55
516.135	1486.02
516.502	1483.53
516.869	1444.21
517.237	1465.46
517.604	1468.39
517.972	1493.03
518.339	1451.44
518.706	1476.3
519.073	1468.17
519.44	1456.87
519.808	1484.21
520.175	1475.63
520.542	1488.51
520.909	1524.21
521.276	1489.86
521.643	1493.7
522.009	1527.15
522.376	1492.57
522.743	1533.7
523.11	1503.87
523.477	1512.01
523.843	1554.27
524.21	1529.63
524.577	1533.02
524.943	1503.19
525.31	1536.41
525.676	1542.74
526.043	1565.57
526.409	1542.97
526.776	1577.09
527.142	1555.17
527.508	1538.45
527.874	1536.87
528.241	1579.8
528.607	1590.88
528.973	1547.71
529.339	1563.08
529.705	1569.41
530.071	1554.49
530.437	1574.15
530.803	1579.35
531.169	1567.6
531.535	1577.77
531.901	1610.08
532.267	1604.89
532.632	1592.01
532.998	1586.36
533.364	1553.36
533.73	1569.41
534.095	1606.24
534.461	1634.49
534.826	1596.75
535.192	1587.26
535.557	1623.87
535.923	1627.94
536.288	1586.58
536.653	1648.73
537.019	1605.34
537.384	1633.36
537.749	1627.26
538.114	1624.77
538.479	1596.98
538.845	1609.86
539.21	1603.53
539.575	1608.05
539.94	1610.31
540.305	1616.86
540.67	1594.27
541.034	1629.97
541.399	1616.64
541.764	1636.52
542.129	1594.04
542.494	1586.13
542.858	1662.96
543.223	1631.1
543.587	1632.23
543.952	1625.23
544.316	1613.7
544.681	1587.26
545.045	1606.7
545.41	1617.32
545.774	1602.85
546.138	1617.09
546.503	1637.2
546.867	1629.97
547.231	1626.13
547.595	1623.19
547.959	1633.36
548.324	1644.89
548.688	1595.62
549.052	1608.28
549.416	1633.14
549.779	1639.01
550.143	1616.41
550.507	1620.93
550.871	1645.34
551.235	1660.93
551.599	1641.5
551.962	1611.44
552.326	1611.89
552.689	1644.43
553.053	1644.21
553.417	1660.93
553.78	1659.35
554.143	1650.54
554.507	1612.12
554.87	1621.61
555.234	1648.73
555.597	1628.39
555.96	1644.43
556.323	1645.79
556.686	1645.11
557.05	1639.46
557.413	1649.63
557.776	1663.64
558.139	1660.93
558.502	1663.19
558.865	1675.85
559.228	1662.06
559.59	1657.09
559.953	1658.67
560.316	1681.04
560.679	1668.39
561.041	1679.69
561.404	1688.73
561.767	1671.33
562.129	1678.11
562.492	1689.4
562.854	1704.55
563.217	1674.94
563.579	1677.65
563.941	1681.95
564.304	1705
564.666	1732.79
565.028	1727.82
565.39	1691.89
565.753	1714.26
566.115	1700.48
566.477	1698.9
566.839	1706.58
567.201	1715.84
567.563	1721.72
567.925	1751.32
568.287	1750.42
568.648	1695.28
569.01	1724.43
569.372	1740.93
569.734	1742.96
570.095	1708.61
570.457	1761.95
570.819	1744.32
571.18	1741.83
571.542	1742.74
571.903	1738.67
572.265	1752.45
572.626	1767.59
572.987	1741.61
573.349	1766.69
573.71	1769.85
574.071	1754.26
574.432	1776.41
574.794	1801.49
575.155	1759.91
575.516	1762.85
575.877	1754.94
576.238	1775.5
576.599	1766.46
576.96	1777.31
577.32	1777.99
577.681	1773.24
578.042	1783.87
578.403	1780.93
578.763	1807.37
579.124	1785.45
579.485	1777.31
579.845	1815.73
580.206	1804.88
580.566	1779.35
580.927	1760.14
581.287	1782.28
581.648	1778.44
582.008	1806.92
582.368	1804.88
582.728	1797.88
583.089	1795.39
583.449	1789.29
583.809	1807.37
584.169	1794.49
584.529	1814.15
584.889	1801.27
585.249	1791.32
585.609	1824.09
585.969	1808.5
586.329	1815.28
586.688	1811.66
587.048	1807.59
587.408	1790.65
587.768	1831.55
588.127	1792.9
588.487	1815.73
588.846	1810.98
589.206	1810.98
589.565	1816.86
589.925	1808.5
590.284	1793.36
590.643	1786.58
591.003	1789.97
591.362	1795.84
591.721	1815.05
592.08	1801.49
592.44	1831.32
592.799	1838.33
593.158	1812.79
593.517	1847.14
593.876	1814.6
594.235	1797.42
594.593	1827.48
594.952	1846.69
595.311	1843.3
595.67	1813.24
596.029	1849.17
596.387	1839.68
596.746	1876.29
597.104	1839.46
597.463	1855.5
597.822	1832.9
598.18	1833.58
598.538	1857.99
598.897	1857.54
599.255	1877.2
599.613	1861.15
599.972	1832
600.33	1862.73
600.688	1866.8
601.046	1883.3
601.404	1868.84
601.762	1847.82
602.12	1869.29
602.478	1883.07
602.836	1854.37
603.194	1899.34
603.552	1882.17
603.91	1866.8
604.268	1860.25
604.625	1872.22
604.983	1898.44
605.341	1860.25
605.698	1863.41
606.056	1875.61
606.413	1910.64
606.771	1862.73
607.128	1871.77
607.485	1902.73
607.843	1902.51
608.2	1879.23
608.557	1889.4
608.914	1910.19
609.272	1892.11
609.629	1914.94
609.986	1938.89
610.343	1908.38
610.7	1926.01
611.057	1917.42
611.414	1915.39
611.771	1908.38
612.127	1913.35
612.484	1934.82
612.841	1942.05
613.198	1907.7
613.554	1940.92
613.911	1929.17
614.267	1965.33
614.624	1949.96
614.98	1931.43
615.337	1947.7
615.693	1949.28
616.05	1956.74
616.406	1939.12
616.762	1960.13
617.118	1956.29
617.475	1955.39
617.831	1971.66
618.187	1985.44
618.543	1964.43
618.899	1983.41
619.255	1987.93
619.611	1984.99
619.967	1980.47
620.323	2028.38
620.678	1996.52
621.034	2000.13
621.39	1991.54
621.746	1980.24
622.101	2048.94
622.457	2015.27
622.812	2001.71
623.168	2025.22
623.523	2024.99
623.879	2036.51
624.234	2009.85
624.589	2018.89
624.945	2029.28
625.3	2044.2
625.655	2035.38
626.01	2049.4
626.365	2017.98
626.72	2047.81
627.075	2057.98
627.43	2054.37
627.785	2039.9
628.14	2049.85
628.495	2067.93
628.85	2060.24
629.205	2072.45
629.559	2090.3
629.914	2071.32
630.269	2078.32
630.623	2086.91
630.978	2083.74
631.332	2086.91
631.687	2096.63
632.041	2062.28
632.396	2078.32
632.75	2099.79
633.104	2107.02
633.459	2109.96
633.813	2101.37
634.167	2128.72
634.521	2131.2
634.875	2102.05
635.229	2133.91
635.583	2135.72
635.937	2107.92
636.291	2134.14
636.645	2147.25
636.999	2173.46
637.352	2164.19
637.706	2117.64
638.06	2149.51
638.413	2136.62
638.767	2159.22
639.121	2190.18
639.474	2166.45
639.828	2179.56
640.181	2212.33
640.534	2166.68
640.888	2219.56
641.241	2174.36
641.594	2202.16
641.947	2227.7
642.301	2220.46
642.654	2238.32
643.007	2226.57
643.36	2237.19
643.713	2245.32
644.066	2243.29
644.419	2225.21
644.771	2242.16
645.124	2204.87
645.477	2255.49
645.83	2232.22
646.182	2229.5
646.535	2253.46
646.888	2226.34
647.24	2234.48
647.593	2275.15
647.945	2264.3
648.298	2247.81
648.65	2238.77
649.002	2251.65
649.355	2299.78
649.707	2291.87
650.059	2310.86
650.411	2351.53
650.763	2328.26
651.115	2417.52
651.467	2400.57
651.819	2376.39
652.171	2442.15
652.523	2417.07
652.875	2404.41
653.227	2381.82
653.578	2431.98
653.93	2458.42
654.282	2463.4
654.633	2455.49
654.985	2475.37
655.337	2468.14
655.688	2488.48
656.039	2504.52
656.391	2501.36
656.742	2508.82
657.094	2484.41
657.445	2517.63
657.796	2572.55
658.147	2555.6
658.498	2579.1
658.849	2570.74
659.2	2594.01
659.551	2597.63
659.902	2594.01
660.253	2637.4
660.604	2640.79
660.955	2646.89
661.306	2668.36
661.656	2686.67
662.007	2688.93
662.358	2707.68
662.708	2683.95
663.059	2725.54
663.409	2737.06
663.76	2768.92
664.11	2792.43
664.461	2777.74
664.811	2791.07
665.161	2806.66
665.511	2820.22
665.862	2827.68
666.212	2843.27
666.562	2846.89
666.912	2883.5
667.262	2901.12
667.612	2870.16
667.962	2878.98
668.312	2910.39
668.662	2938.19
669.011	2941.58
669.361	2961.91
669.711	2982.03
670.06	2981.57
670.41	2987.45
670.76	2970.73
671.109	3033.1
671.459	3043.95
671.808	3008.69
672.157	3062.48
672.507	3051.18
672.856	3081.23
673.205	3067.9
673.554	3117.16
673.904	3137.95
674.253	3124.85
674.602	3167.11
674.951	3158.29
675.3	3130.04
675.649	3150.16
675.998	3191.96
676.346	3209.14
676.695	3247.56
677.044	3217.05
677.393	3231.51
677.741	3252.08
678.09	3246.2
678.438	3248.69
678.787	3282.58
679.135	3289.36
679.484	3331.4
679.832	3284.84
680.181	3288.01
680.529	3320.32
680.877	3307.89
681.225	3326.88
681.573	3347.89
681.922	3362.13
682.27	3343.37
682.618	3385.63
682.966	3378.63
683.314	3374.56
683.661	3392.18
684.009	3388.34
684.357	3426.99
684.705	3382.69
685.053	3439.19
685.4	3388.34
685.748	3382.24
686.095	3446.65
686.443	3402.13
686.79	3428.34
687.138	3470.6
687.485	3512.63
687.832	3488.23
688.18	3488
688.527	3504.5
688.874	3504.05
689.221	3489.13
689.568	3528.45
689.915	3505.18
690.262	3485.74
690.609	3518.28
690.956	3486.42
691.303	3515.12
691.65	3529.58
691.997	3508.57
692.344	3547.43
692.69	3527.77
693.037	3586.53
693.383	3526.19
693.73	3543.59
694.077	3525.06
694.423	3511.28
694.769	3537.49
695.116	3561.22
695.462	3550.82
695.808	3562.12
696.155	3568.68
696.501	3501.33
696.847	3559.41
697.193	3513.99
697.539	3564.84
697.885	3520.54
698.231	3528.23
698.577	3543.14
698.923	3537.94
699.269	3474.22
699.614	3509.02
699.96	3499.3
700.306	3507.66
700.651	3475.8
700.997	3507.66
701.342	3491.39
701.688	3485.97
702.033	3460.21
702.379	3503.37
702.724	3508.11
703.069	3497.04
703.415	3464.95
703.76	3457.72
704.105	3469.47
704.45	3471.96
704.795	3457.95
705.14	3463.14
705.485	3439.42
705.83	3427.89
706.175	3448
706.52	3442.35
706.865	3464.95
707.209	3464.05
707.554	3428.79
707.899	3400.55
708.243	3408.46
708.588	3431.96
708.932	3414.56
709.277	3427.89
709.621	3411.85
709.966	3402.13
710.31	3429.47
710.654	3385.86
710.998	3392.86
711.342	3405.74
711.687	3383.82
712.031	3364.16
712.375	3377.72
712.719	3391.05
713.063	3412.75
713.407	3425.63
713.75	3382.24
714.094	3406.65
714.438	3388.34
714.782	3416.59
715.125	3395.12
715.469	3395.35
715.812	3370.26
716.156	3337.72
716.499	3382.92
716.843	3356.25
717.186	3381.34
717.53	3378.63
717.873	3421.11
718.216	3358.29
718.559	3356.03
718.902	3378.63
719.246	3392.64
719.589	3358.29
719.932	3328.68
720.275	3364.84
720.617	3332.98
720.96	3393.31
721.303	3369.13
721.646	3358.74
721.989	3393.99
722.331	3404.16
722.674	3353.32
723.016	3372.75
723.359	3398.96
723.701	3379.3
724.044	3394.44
724.386	3321
724.729	3370.04
725.071	3361.45
725.413	3359.64
725.755	3394.67
726.097	3393.31
726.439	3311.96
726.782	3371.62
727.124	3401.9
727.465	3390.83
727.807	3365.07
728.149	3339.08
728.491	3387.89
728.833	3398.51
729.175	3329.59
729.516	3350.15
729.858	3393.09
730.199	3366.65
730.541	3388.8
730.882	3391.28
731.224	3435.57
731.565	3383.82
731.906	3398.96
732.248	3357.38
732.589	3406.42
732.93	3379.08
733.271	3398.51
733.612	3389.02
733.953	3411.62
734.294	3385.63
734.635	3356.25
734.976	3403.03
735.317	3402.13
735.658	3394.67
735.999	3391.73
736.339	3413.65
736.68	3452.97
737.021	3419.3
737.361	3397.38
737.702	3440.32
738.042	3432.41
738.383	3418.17
738.723	3459.98
739.063	3468.34
739.404	3445.74
739.744	3453.88
740.084	3440.77
740.424	3478.28
740.764	3457.95
741.104	3509.7
741.444	3499.98
741.784	3456.36
742.124	3499.75
742.464	3500.43
742.804	3489.36
743.143	3534.33
743.483	3561.9
743.823	3583.82
744.162	3552.86
744.502	3574.1
744.841	3561.45
745.181	3575.91
745.52	3577.26
745.86	3608.45
746.199	3597.83
746.538	3641.67
746.877	3664.95
747.216	3670.14
747.556	3645.51
747.895	3691.16
748.234	3680.31
748.573	3735.23
748.911	3716.02
749.25	3755.11
749.589	3725.96
749.928	3777.49
750.267	3827.2
750.605	3848.67
750.944	3815
751.283	3825.39
751.621	3858.84
751.96	3867.43
752.298	3900.65
752.636	3894.54
752.975	3923.47
753.313	3931.61
753.651	3940.87
753.989	3955.33
754.327	3970.47
754.666	3986.29
755.004	3990.14
755.342	4070.36
755.679	4092.28
756.017	4079.62
756.355	4109.23
756.693	4109.91
757.031	4137.93
757.368	4146.29
757.706	4151.03
758.044	4161.88
758.381	4200.98
758.719	4193.75
759.056	4228.32
759.394	4252.95
759.731	4276.68
760.068	4222.67
760.405	4230.35
760.743	4290.69
761.08	4277.59
761.417	4263.12
761.754	4286.85
762.091	4334.53
762.428	4319.84
762.765	4313.97
763.102	4387.41
763.438	4348.77
763.775	4376.34
764.112	4344.7
764.449	4428.77
764.785	4400.29
765.122	4352.39
765.458	4331.14
765.795	4385.83
766.131	4381.99
766.467	4399.39
766.804	4384.93
767.14	4395.1
767.476	4370.69
767.812	4379.5
768.148	4381.31
768.485	4422.21
768.821	4466.05
769.157	4426.73
769.492	4385.83
769.828	4406.85
770.164	4366.4
770.5	4386.73
770.836	4412.05
771.171	4394.87
771.507	4378.83
771.842	4375.89
