Data from blue_surface_keyboard_FLMS001491_098.txt Node
Date: Tue Feb 07 11:13:55 GMT 2017
User: dcchb
Spectrometer: FLMS00149
Trigger mode: 0
Integration Time (sec): 2.000000E-2
Scans to average: 10
Electric dark correction enabled: true
Nonlinearity correction enabled: false
Boxcar width: 0
XAxis mode: Wavelengths
Number of Pixels in Spectrum: 2048
>>>>>Begin Spectral Data<<<<<
341.393	-13.46
341.776	-13.46
342.16	-13.46
342.543	-63.18
342.927	-70.86
343.31	-74.48
343.693	-65.89
344.077	-57.3
344.46	-70.41
344.843	-57.07
345.226	-48.49
345.61	-23.86
345.993	-16.62
346.376	0.1
346.759	1.45
347.142	24.96
347.525	36.03
347.908	76.48
348.291	72.41
348.674	80.32
349.057	122.36
349.44	116.03
349.823	133.43
350.206	144.95
350.588	191.73
350.971	211.17
351.354	193.54
351.737	204.61
352.119	233.31
352.502	231.51
352.884	237.83
353.267	269.24
353.65	264.27
354.032	263.59
354.414	283.26
354.797	296.36
355.179	306.53
355.562	306.08
355.944	315.34
356.326	307.89
356.709	318.73
357.091	316.93
357.473	329.81
357.855	322.12
358.238	324.38
358.62	334.55
359.002	303.14
359.384	313.31
359.766	303.59
360.148	309.92
360.53	311.05
360.912	313.76
361.294	315.34
361.676	322.58
362.057	293.2
362.439	304.72
362.821	301.56
363.203	290.71
363.584	311.96
363.966	313.08
364.348	295.68
364.729	291.16
365.111	297.04
365.493	310.83
365.874	299.98
366.256	289.13
366.637	284.61
367.019	300.88
367.4	288.45
367.781	273.31
368.163	265.18
368.544	267.66
368.925	284.84
369.306	281.9
369.688	301.11
370.069	272.41
370.45	277.38
370.831	280.54
371.212	285.97
371.593	294.55
371.974	283.48
372.355	291.39
372.736	295.68
373.117	271.28
373.498	280.54
373.879	302.24
374.26	288.23
374.641	290.49
375.021	283.93
375.402	295.68
375.783	296.81
376.163	311.96
376.544	306.53
376.925	281.67
377.305	270.6
377.686	288.45
378.066	283.48
378.447	320.32
378.827	281.22
379.208	288.68
379.588	292.07
379.968	292.97
380.349	294.55
380.729	304.27
381.109	281
381.489	295.23
381.87	302.01
382.25	293.2
382.63	290.03
383.01	296.14
383.39	300.88
383.77	312.18
384.15	311.96
384.53	316.93
384.91	294.33
385.29	306.76
385.67	303.14
386.049	310.6
386.429	307.89
386.809	308.34
387.189	306.08
387.568	327.1
387.948	310.83
388.328	317.38
388.707	312.41
389.087	316.02
389.466	310.37
389.846	316.25
390.225	330.49
390.605	313.76
390.984	320.77
391.363	322.35
391.743	334.1
392.122	335.46
392.501	331.84
392.881	313.54
393.26	321.67
393.639	332.07
394.018	327.1
394.397	320.99
394.776	318.96
395.155	337.94
395.534	312.41
395.913	319.41
396.292	322.12
396.671	325.51
397.05	335.68
397.429	353.31
397.808	316.25
398.186	317.6
398.565	320.99
398.944	333.42
399.323	315.57
399.701	344.04
400.08	342.69
400.458	332.07
400.837	338.17
401.215	347.43
401.594	333.42
401.972	324.84
402.351	339.98
402.729	337.04
403.107	335.01
403.486	342.24
403.864	341.33
404.242	337.72
404.62	342.69
404.999	338.62
405.377	352.18
405.755	344.95
406.133	337.49
406.511	362.12
406.889	378.17
407.267	350.82
407.645	360.99
408.023	364.84
408.401	346.08
408.779	359.19
409.156	356.7
409.534	365.06
409.912	368.9
410.29	372.74
410.667	347.89
411.045	360.77
411.422	375.46
411.8	367.55
412.178	369.13
412.555	376.59
412.933	378.39
413.31	363.48
413.687	373.87
414.065	382.46
414.442	384.04
414.819	379.3
415.197	400.31
415.574	366.42
415.951	399.41
416.328	384.95
416.705	358.73
417.082	378.85
417.46	386.53
417.837	384.72
418.214	390.82
418.591	386.76
418.967	406.87
419.344	390.6
419.721	389.69
420.098	413.42
420.475	414.78
420.852	402.57
421.228	389.69
421.605	402.57
421.982	405.51
422.358	405.06
422.735	420.65
423.111	405.06
423.488	410.71
423.864	429.92
424.241	403.48
424.617	424.04
424.994	413.65
425.37	422.46
425.746	412.52
426.123	415.68
426.499	414.78
426.875	423.82
427.251	439.86
427.627	422.91
428.003	433.76
428.379	426.98
428.756	451.84
429.132	424.72
429.507	438.28
429.883	424.04
430.259	426.98
430.635	447.09
431.011	447.09
431.387	438.51
431.763	453.65
432.138	469.47
432.514	453.19
432.89	442.8
433.265	465.62
433.641	464.27
434.016	476.24
434.392	473.98
434.767	463.36
435.143	472.85
435.518	478.05
435.894	476.92
436.269	483.7
436.644	482.12
437.02	474.66
437.395	468.79
437.77	497.71
438.145	481.67
438.52	504.04
438.895	500.2
439.271	490.93
439.646	502.46
440.021	532.74
440.395	511.05
440.77	520.54
441.145	490.48
441.52	514.66
441.895	507.43
442.27	499.97
442.645	500.65
443.019	523.47
443.394	539.97
443.769	499.52
444.143	527.09
444.518	517.15
444.892	509.01
445.267	524.83
445.641	546.98
446.016	535
446.39	536.36
446.764	549.69
447.139	515.57
447.513	552.17
447.887	553.53
448.262	540.65
448.636	532.29
449.01	542.91
449.384	539.52
449.758	543.36
450.132	551.95
450.506	589.46
450.88	561.44
451.254	552.17
451.628	586.52
452.002	572.97
452.376	565.51
452.75	582
453.123	582.68
453.497	592.17
453.871	599.41
454.244	590.59
454.618	587.43
454.992	579.52
455.365	605.73
455.739	593.53
456.112	588.78
456.486	606.86
456.859	612.51
457.232	622.23
457.606	600.08
457.979	607.31
458.352	607.54
458.725	629.01
459.099	636.01
459.472	638.05
459.845	643.92
460.218	662.45
460.591	630.36
460.964	637.37
461.337	655.22
461.71	648.22
462.083	640.76
462.456	658.84
462.829	663.36
463.201	670.82
463.574	653.87
463.947	675.11
464.32	689.57
464.692	692.74
465.065	691.61
465.438	692.51
465.81	706.52
466.183	704.04
466.555	706.29
466.928	716.46
467.3	740.19
467.672	718.05
468.045	739.51
468.417	738.38
468.789	721.89
469.161	766.86
469.534	751.27
469.906	774.99
470.278	796.69
470.65	768.89
471.022	754.2
471.394	777.71
471.766	781.55
472.138	779.29
472.51	812.05
472.882	811.83
473.253	821.55
473.625	816.57
473.997	814.77
474.369	836.91
474.74	841.88
475.112	853.41
475.484	829.91
475.855	879.17
476.227	849.34
476.598	894.99
476.97	890.24
477.341	897.93
477.713	897.48
478.084	914.2
478.455	914.43
478.827	945.61
479.198	946.06
479.569	950.13
479.94	931.15
480.311	962.56
480.682	980.41
481.053	978.6
481.424	1010.47
481.795	995.33
482.166	1015.89
482.537	1003.46
482.908	1034.2
483.279	1047.08
483.65	1047.08
484.021	1032.16
484.391	1047.75
484.762	1058.15
485.133	1070.13
485.503	1047.53
485.874	1109
486.244	1097.92
486.615	1118.94
486.985	1105.38
487.356	1119.84
487.726	1153.97
488.097	1144.02
488.467	1158.26
488.837	1157.13
489.207	1171.14
489.578	1176.11
489.948	1177.47
490.318	1192.16
490.688	1179.95
491.058	1233.96
491.428	1223.12
491.798	1208.43
492.168	1225.15
492.538	1253.63
492.908	1245.49
493.278	1254.76
493.648	1257.69
494.017	1266.73
494.387	1273.51
494.757	1266.05
495.126	1311.25
495.496	1287.97
495.866	1267.18
496.235	1278.48
496.605	1307.64
496.974	1280.52
497.344	1297.24
497.713	1283.91
498.082	1290.91
498.452	1308.31
498.821	1294.3
499.19	1308.09
499.559	1318.71
499.928	1300.4
500.298	1333.62
500.667	1328.65
501.036	1329.78
501.405	1333.62
501.774	1335.66
502.143	1337.92
502.512	1347.18
502.88	1350.8
503.249	1332.72
503.618	1359.61
503.987	1337.69
504.356	1366.62
504.724	1359.84
505.093	1357.58
505.462	1366.16
505.83	1385.6
506.199	1352.38
506.567	1386.05
506.936	1361.42
507.304	1392.15
507.672	1387.18
508.041	1387.86
508.409	1384.24
508.777	1396.22
509.145	1408.88
509.514	1403.45
509.882	1408.2
510.25	1438.71
510.618	1409.33
510.986	1401.42
511.354	1401.42
511.722	1421.76
512.09	1435.54
512.458	1415.65
512.826	1441.19
513.193	1452.72
513.561	1434.19
513.929	1442.32
514.297	1436.67
514.664	1453.17
515.032	1447.07
515.4	1425.6
515.767	1485.94
516.135	1477.35
516.502	1438.93
516.869	1465.82
517.237	1485.03
517.604	1474.64
517.972	1470.12
518.339	1481.19
518.706	1458.59
519.073	1486.16
519.44	1448.87
519.808	1475.99
520.175	1462.43
520.542	1457.01
520.909	1495.2
521.276	1491.59
521.643	1464.47
522.009	1500.85
522.376	1533.39
522.743	1508.31
523.11	1502.21
523.477	1506.27
523.843	1505.37
524.21	1537.23
524.577	1541.08
524.943	1533.84
525.31	1557.57
525.676	1534.52
526.043	1557.8
526.409	1546.05
526.776	1530.23
527.142	1550.11
527.508	1560.06
527.874	1578.14
528.241	1554.63
528.607	1565.26
528.973	1574.07
529.339	1555.09
529.705	1548.76
530.071	1568.19
530.437	1582.2
530.803	1588.31
531.169	1589.66
531.535	1570.23
531.901	1585.82
532.267	1589.44
532.632	1590.11
532.998	1595.54
533.364	1562.09
533.73	1574.97
534.095	1596.44
534.461	1608.87
534.826	1608.42
535.192	1637.57
535.557	1602.77
535.923	1601.86
536.288	1604.58
536.653	1606.61
537.019	1587.4
537.384	1624.46
537.749	1592.15
538.114	1595.09
538.479	1601.41
538.845	1640.96
539.21	1606.61
539.575	1627.85
539.94	1626.04
540.305	1612.49
540.67	1610.45
541.034	1616.55
541.399	1631.47
541.764	1641.86
542.129	1604.58
542.494	1628.3
542.858	1640.73
543.223	1624.46
543.587	1647.74
543.952	1618.36
544.316	1614.07
544.681	1622.88
545.045	1646.16
545.41	1660.17
545.774	1618.14
546.138	1643.45
546.503	1642.09
546.867	1605.93
547.231	1646.84
547.595	1623.33
547.959	1627.63
548.324	1621.3
548.688	1630.11
549.052	1665.59
549.416	1644.35
549.779	1626.95
550.143	1665.82
550.507	1637.57
550.871	1618.81
551.235	1637.12
551.599	1640.28
551.962	1662.2
552.326	1650.22
552.689	1654.74
553.053	1631.47
553.417	1665.59
553.78	1674.86
554.143	1650.22
554.507	1632.15
554.87	1640.28
555.234	1654.07
555.597	1706.95
555.96	1652.48
556.323	1635.99
556.686	1632.6
557.05	1645.25
557.413	1688.19
557.776	1688.64
558.139	1648.64
558.502	1625.82
558.865	1619.04
559.228	1667.63
559.59	1668.3
559.953	1666.04
560.316	1690.9
560.679	1704.91
561.041	1680.05
561.404	1671.92
561.767	1705.59
562.129	1701.52
562.492	1705.82
562.854	1698.36
563.217	1701.07
563.579	1695.2
563.941	1685.93
564.304	1709.43
564.666	1706.04
565.028	1732.03
565.39	1738.13
565.753	1702.2
566.115	1706.95
566.477	1739.26
566.839	1714.4
567.201	1727.51
567.563	1743.78
567.925	1721.64
568.287	1720.96
568.648	1776.32
569.01	1746.04
569.372	1744.23
569.734	1760.28
570.095	1735.87
570.457	1758.24
570.819	1722.99
571.18	1752.82
571.542	1766.15
571.903	1744.46
572.265	1742.2
572.626	1789.88
572.987	1742.88
573.349	1749.43
573.71	1762.09
574.071	1791.92
574.432	1744.46
574.794	1788.98
575.155	1793.27
575.516	1782.65
575.877	1779.49
576.238	1799.6
576.599	1777.68
576.96	1784.91
577.32	1828.07
577.681	1780.17
578.042	1777
578.403	1806.15
578.763	1767.06
579.124	1799.6
579.485	1793.27
579.845	1821.29
580.206	1791.01
580.566	1810.45
580.927	1814.06
581.287	1812.93
581.648	1819.49
582.008	1808.64
582.368	1819.71
582.728	1826.27
583.089	1774.06
583.449	1804.12
583.809	1798.47
584.169	1824.23
584.529	1837.34
584.889	1817.45
585.249	1810.67
585.609	1841.63
585.969	1825.36
586.329	1856.1
586.688	1839.15
587.048	1844.57
587.408	1840.73
587.768	1848.19
588.127	1847.73
588.487	1835.08
588.846	1817.45
589.206	1838.92
589.565	1812.48
589.925	1849.99
590.284	1837.34
590.643	1840.05
591.003	1846.15
591.362	1855.64
591.721	1833.95
592.08	1832.82
592.44	1850.67
592.799	1831.92
593.158	1854.97
593.517	1851.58
593.876	1861.97
594.235	1878.69
594.593	1883.21
594.952	1872.37
595.311	1859.49
595.67	1838.69
596.029	1897
596.387	1854.74
596.746	1900.16
597.104	1893.61
597.463	1854.06
597.822	1868.98
598.18	1865.59
598.538	1882.99
598.897	1869.2
599.255	1861.52
599.613	1890.9
599.972	1870.56
600.33	1877.56
600.688	1844.8
601.046	1913.27
601.404	1887.96
601.762	1886.83
602.12	1914.4
602.478	1893.38
602.836	1898.35
603.194	1876.89
603.552	1893.61
603.91	1893.16
604.268	1907.17
604.625	1883.89
604.983	1878.24
605.341	1932.03
605.698	1895.64
606.056	1901.07
606.413	1896.55
606.771	1902.2
607.128	1895.19
607.485	1933.83
607.843	1928.18
608.2	1932.03
608.557	1915.53
608.914	1909.43
609.272	1931.8
609.629	1940.84
609.986	1934.29
610.343	1948.07
610.7	1921.18
611.057	1956.21
611.414	1947.39
611.771	1933.38
612.127	1935.42
612.484	1943.78
612.841	1967.96
613.198	1943.55
613.554	1967.96
613.911	1960.95
614.267	1935.64
614.624	1961.4
614.98	1960.27
615.337	1949.2
615.693	1979.93
616.05	1941.52
616.406	1993.49
616.762	1983.55
617.118	1953.72
617.475	1988.75
617.831	1980.16
618.187	1999.14
618.543	1977.22
618.899	2002.08
619.255	1986.26
619.611	2005.92
619.967	1981.97
620.323	2009.09
620.678	2006.15
621.034	2056.99
621.39	2003.44
621.746	1999.82
622.101	2024.23
622.457	2025.58
622.812	2006.6
623.168	2029.88
623.523	2008.18
623.879	2045.02
624.234	2051.12
624.589	2018.12
624.945	2028.97
625.3	2069.87
625.655	2046.82
626.01	2054.51
626.365	2075.75
626.72	2073.94
627.075	2072.59
627.43	2060.84
627.785	2101.51
628.14	2108.29
628.495	2082.98
628.85	2090.89
629.205	2103.32
629.559	2100.38
629.914	2111.46
630.269	2087.28
630.623	2093.6
630.978	2068.97
631.332	2107.84
631.687	2097.67
632.041	2092.7
632.396	2106.26
632.75	2124.11
633.104	2101.96
633.459	2100.61
633.813	2123.66
634.167	2099.03
634.521	2121.63
634.875	2155.52
635.229	2144.22
635.583	2127.05
635.937	2127.05
636.291	2136.54
636.645	2124.11
636.999	2175.86
637.352	2136.77
637.706	2154.84
638.06	2127.27
638.413	2148.74
638.767	2190.78
639.121	2179.7
639.474	2146.48
639.828	2166.6
640.181	2187.84
640.534	2193.26
640.888	2172.92
641.241	2191.45
641.594	2234.16
641.947	2197.78
642.301	2200.49
642.654	2209.98
643.007	2216.99
643.36	2228.74
643.713	2205.24
644.066	2241.4
644.419	2244.33
644.771	2218.8
645.124	2205.92
645.477	2219.25
645.83	2197.78
646.182	2239.36
646.535	2233.94
646.888	2212.47
647.24	2272.13
647.593	2277.33
647.945	2261.28
648.298	2289.08
648.65	2296.54
649.002	2271.68
649.355	2310.32
649.707	2325.91
650.059	2331.34
650.411	2336.53
650.763	2335.63
651.115	2354.61
651.467	2412.46
651.819	2381.05
652.171	2429.64
652.523	2391.9
652.875	2423.31
653.227	2443.2
653.578	2449.53
653.93	2438
654.282	2435.52
654.633	2503.76
654.985	2478.45
655.337	2505.8
655.688	2492.69
656.039	2526.36
656.391	2492.01
656.742	2514.84
657.094	2531.56
657.445	2542.86
657.796	2537.89
658.147	2572.23
658.498	2600.48
658.849	2607.26
659.2	2589.41
659.551	2582.86
659.902	2598.45
660.253	2614.04
660.604	2666.02
660.955	2657.66
661.306	2682.74
661.656	2661.95
662.007	2671.67
662.358	2677.99
662.708	2730.65
663.059	2721.16
663.409	2752.34
663.76	2756.18
664.11	2793.92
664.461	2767.03
664.811	2801.16
665.161	2794.38
665.511	2790.53
665.862	2838.89
666.212	2840.02
666.562	2862.62
666.912	2858.33
667.262	2872.34
667.612	2873.92
667.962	2888.84
668.312	2932
668.662	2960.92
669.011	2942.39
669.361	2979.91
669.711	2959.57
670.06	2967.48
670.41	3016.97
670.76	2994.6
671.109	3008.61
671.459	3033.01
671.808	3086.57
672.157	3073.24
672.507	3072.33
672.856	3044.99
673.205	3103.75
673.554	3084.99
673.904	3094.25
674.253	3150.98
674.602	3162.5
674.951	3099.45
675.3	3077.53
675.649	3150.07
675.998	3167.02
676.346	3185.78
676.695	3211.09
677.044	3206.34
677.393	3223.52
677.741	3254.48
678.09	3234.36
678.438	3230.97
678.787	3259.67
679.135	3273.01
679.484	3282.95
679.832	3287.7
680.181	3304.87
680.529	3329.73
680.877	3328.6
681.225	3353.23
681.573	3336.96
681.922	3348.94
682.27	3362.5
682.618	3383.74
682.966	3355.26
683.314	3390.97
683.661	3381.03
684.009	3364.76
684.357	3395.26
684.705	3402.95
685.053	3403.63
685.4	3420.57
685.748	3468.93
686.095	3430.29
686.443	3453.79
686.79	3423.06
687.138	3447.69
687.485	3510.97
687.832	3455.15
688.18	3498.09
688.527	3484.08
688.874	3465.77
689.221	3451.31
689.568	3510.06
689.915	3510.74
690.262	3506.67
690.609	3490.18
690.956	3529.5
691.303	3506
691.65	3469.39
691.997	3546.45
692.344	3503.06
692.69	3542.15
693.037	3515.49
693.383	3516.39
693.73	3536.73
694.077	3523.85
694.423	3504.87
694.769	3494.02
695.116	3491.31
695.462	3540.34
695.808	3538.76
696.155	3531.98
696.501	3494.92
696.847	3520.23
697.193	3502.15
697.539	3515.71
697.885	3467.35
698.231	3526.33
698.577	3500.8
698.923	3507.58
699.269	3491.98
699.614	3500.35
699.96	3501.7
700.306	3466.22
700.651	3502.15
700.997	3480.91
701.342	3512.77
701.688	3493.57
702.033	3474.13
702.379	3498.99
702.724	3469.84
703.069	3485.88
703.415	3466.22
703.76	3515.03
704.105	3489.95
704.45	3493.79
704.795	3428.26
705.14	3445.88
705.485	3450.86
705.83	3461.93
706.175	3456.28
706.52	3466.67
706.865	3454.02
707.209	3419.22
707.554	3405.21
707.899	3407.47
708.243	3423.29
708.588	3415.15
708.932	3386.68
709.277	3442.27
709.621	3419.67
709.966	3414.92
710.31	3434.36
710.654	3433.23
710.998	3451.99
711.342	3429.16
711.687	3449.5
712.031	3428.71
712.375	3370.41
712.719	3397.3
713.063	3407.01
713.407	3397.75
713.75	3388.94
714.094	3420.57
714.438	3385.55
714.782	3364.98
715.125	3360.46
715.469	3403.85
715.812	3383.96
716.156	3369.05
716.499	3367.24
716.843	3393.46
717.186	3348.71
717.53	3400.01
717.873	3412.21
718.216	3395.72
718.559	3412.89
718.902	3398.2
719.246	3399.33
719.589	3356.17
719.932	3375.83
720.275	3367.02
720.617	3406.56
720.96	3376.96
721.303	3400.01
721.646	3406.11
721.989	3397.98
722.331	3356.85
722.674	3386.68
723.016	3409.5
723.359	3346
723.701	3413.34
724.044	3383.96
724.386	3346.9
724.729	3384.87
725.071	3410.86
725.413	3414.47
725.755	3426
726.097	3380.57
726.439	3387.58
726.782	3357.75
727.124	3387.81
727.465	3379.67
727.807	3389.61
728.149	3391.87
728.491	3367.47
728.833	3401.59
729.175	3391.2
729.516	3393.23
729.858	3394.13
730.199	3394.81
730.541	3383.29
730.882	3379.9
731.224	3421.48
731.565	3367.02
731.906	3424.64
732.248	3409.27
732.589	3403.17
732.93	3421.7
733.271	3432.78
733.612	3412.89
733.953	3430.74
734.294	3391.65
734.635	3430.52
734.976	3433.45
735.317	3433
735.658	3424.64
735.999	3407.92
736.339	3441.59
736.68	3443.4
737.021	3468.48
737.361	3456.05
737.702	3514.13
738.042	3464.87
738.383	3480.01
738.723	3476.17
739.063	3501.48
739.404	3511.42
739.744	3503.28
740.084	3453.57
740.424	3503.96
740.764	3503.28
741.104	3530.63
741.444	3524.53
741.784	3520.91
742.124	3571.53
742.464	3538.08
742.804	3515.71
743.143	3557.97
743.483	3578.54
743.823	3578.76
744.162	3605.2
744.502	3622.6
744.841	3623.51
745.181	3649.95
745.52	3656.5
745.86	3664.64
746.199	3667.35
746.538	3692.21
746.877	3718.65
747.216	3721.13
747.556	3709.83
747.895	3742.15
748.234	3734.69
748.573	3754.35
748.911	3756.16
749.25	3806.55
749.589	3753.45
749.928	3800.68
750.267	3834.8
750.605	3901.47
750.944	3874.12
751.283	3855.59
751.621	3927
751.96	3931.07
752.298	3933.55
752.636	3937.17
752.975	4004.51
753.313	3975.59
753.651	4004.74
753.989	4020.78
754.327	4044.06
754.666	4037.96
755.004	4038.86
755.342	4105.75
755.679	4149.14
756.017	4124.96
756.355	4178.97
756.693	4166.77
757.031	4197.05
757.368	4206.77
757.706	4246.09
758.044	4212.64
758.381	4251.06
758.719	4249.48
759.056	4255.13
759.394	4259.42
759.731	4340.1
760.068	4328.35
760.405	4328.8
760.743	4317.73
761.08	4365.86
761.417	4366.54
761.754	4343.71
762.091	4392.98
762.428	4417.61
762.765	4418.29
763.102	4433.88
763.438	4411.96
763.775	4408.12
764.112	4429.36
764.449	4460.77
764.785	4453.99
765.122	4461.68
765.458	4474.33
765.795	4491.73
766.131	4458.06
766.467	4463.26
766.804	4474.78
767.14	4493.31
767.476	4489.02
767.812	4463.03
768.148	4458.06
768.485	4487.21
768.821	4490.6
769.157	4484.27
769.492	4463.26
769.828	4474.11
770.164	4468.68
770.5	4466.2
770.836	4436.82
771.171	4438.63
771.507	4459.64
771.842	4465.07
