Data from blue_shiny_book_FLMS001491_00033.txt Node
Date: Wed Feb 08 15:26:52 GMT 2017
User: dcchb
Spectrometer: FLMS00149
Trigger mode: 0
Integration Time (sec): 2.000000E-2
Scans to average: 10
Electric dark correction enabled: true
Nonlinearity correction enabled: false
Boxcar width: 0
XAxis mode: Wavelengths
Number of Pixels in Spectrum: 2048
>>>>>Begin Spectral Data<<<<<
341.393	-9.58
341.776	-9.58
342.16	-9.58
342.543	-47.32
342.927	-44.83
343.31	-48.45
343.693	-71.95
344.077	-51.61
344.46	-68.33
344.843	-47.32
345.226	-36.02
345.61	-44.15
345.993	-17.94
346.376	-4.83
346.759	3.98
347.142	21.61
347.525	41.5
347.908	40.14
348.291	67.94
348.674	86.01
349.057	129.4
349.44	115.17
349.823	145.45
350.206	160.14
350.588	222.28
350.971	214.15
351.354	216.41
351.737	242.17
352.119	252.11
352.502	265.44
352.884	282.17
353.267	278.33
353.65	311.77
354.032	297.76
354.414	323.75
354.797	322.39
355.179	315.84
355.562	336.18
355.944	330.3
356.326	325.1
356.709	359.68
357.091	357.42
357.473	346.12
357.855	343.86
358.238	361.94
358.62	357.19
359.002	378.89
359.384	351.32
359.766	338.44
360.148	339.12
360.53	336.86
360.912	345.22
361.294	337.08
361.676	345.89
362.057	372.33
362.439	343.41
362.821	333.47
363.203	332.56
363.584	329.17
363.966	333.01
364.348	327.14
364.729	344.76
365.111	330.53
365.493	340.47
365.874	342.96
366.256	326.01
366.637	328.72
367.019	325.78
367.4	335.73
367.781	323.07
368.163	341.6
368.544	317.42
368.925	335.95
369.306	348.61
369.688	336.18
370.069	345.89
370.45	327.36
370.831	353.13
371.212	326.69
371.593	326.46
371.974	332.11
372.355	322.84
372.736	353.13
373.117	333.01
373.498	352
373.879	348.83
374.26	354.03
374.641	339.57
375.021	331.43
375.402	332.79
375.783	354.26
376.163	369.62
376.544	368.04
376.925	364.65
377.305	340.25
377.686	358.78
378.066	359.68
378.447	359.45
378.827	344.54
379.208	328.95
379.588	372.33
379.968	347.25
380.349	370.98
380.729	380.47
381.109	384.76
381.489	372.11
381.87	383.63
382.25	378.66
382.63	384.99
383.01	398.1
383.39	406.23
383.77	360.36
384.15	389.51
384.53	374.59
384.91	395.61
385.29	391.09
385.67	403.29
386.049	399
386.429	408.72
386.809	420.24
387.189	420.7
387.568	396.06
387.948	410.75
388.328	437.19
388.707	430.86
389.087	439
389.466	425.44
389.846	447.81
390.225	453.01
390.605	452.33
390.984	452.78
391.363	449.85
391.743	473.8
392.122	459.56
392.501	456.17
392.881	475.61
393.26	468.83
393.639	470.41
394.018	474.93
394.397	497.98
394.776	502.73
395.155	517.42
395.534	497.76
395.913	515.38
396.292	514.93
396.671	506.57
397.05	504.08
397.429	522.39
397.808	518.55
398.186	488.49
398.565	518.09
398.944	532.33
399.323	547.92
399.701	531.65
400.08	535.04
400.458	555.61
400.837	575.04
401.215	578.21
401.594	581.59
401.972	560.35
402.351	567.58
402.729	594.7
403.107	572.1
403.486	592.67
403.864	577.98
404.242	617.07
404.62	611.42
404.999	617.3
405.377	630.18
405.755	631.76
406.133	652.1
406.511	655.72
406.889	675.15
407.267	674.7
407.645	696.39
408.023	681.71
408.401	703.4
408.779	693.91
409.156	711.08
409.534	705.43
409.912	728.94
410.29	738.88
410.667	736.62
411.045	758.99
411.422	761.7
411.8	786.34
412.178	788.37
412.555	786.34
412.933	810.29
413.31	814.58
413.687	830.4
414.065	849.84
414.442	831.76
414.819	858.2
415.197	870.63
415.574	881.93
415.951	890.97
416.328	898.42
416.705	923.73
417.082	907.01
417.46	919.89
417.837	967.12
418.214	958.99
418.591	946.78
418.967	980.45
419.344	976.61
419.721	1002.37
420.098	976.84
420.475	1015.71
420.852	1019.1
421.228	1036.5
421.605	1054.58
421.982	1043.96
422.358	1077.4
422.735	1099.77
423.111	1100.9
423.488	1102.94
423.864	1116.5
424.241	1117.63
424.617	1133.44
424.994	1164.63
425.37	1178.64
425.746	1194.46
426.123	1207.79
426.499	1244.85
426.875	1222.93
427.251	1251.86
427.627	1282.82
428.003	1287.34
428.379	1309.03
428.756	1315.59
429.132	1366.88
429.507	1364.17
429.883	1352.87
430.259	1380.44
430.635	1378.41
431.011	1424.74
431.387	1449.59
431.763	1460.67
432.138	1462.25
432.514	1497.5
432.89	1513.1
433.265	1566.43
433.641	1573.89
434.016	1569.82
434.392	1606.2
434.767	1650.95
435.143	1632.19
435.518	1675.35
435.894	1681
436.269	1713.32
436.644	1761.68
437.02	1789.25
437.395	1760.09
437.77	1805.74
438.145	1831.28
438.52	1857.27
438.895	1874.22
439.271	1878.96
439.646	1934.55
440.021	1981.56
440.395	1976.59
440.77	1935.46
441.145	1999.64
441.52	2052.29
441.895	2006.87
442.27	2061.78
442.645	2052.06
443.019	2093.87
443.394	2067.88
443.769	2123.93
444.143	2112.85
444.518	2151.72
444.892	2098.17
445.267	2160.31
445.641	2149.92
446.016	2205.96
446.39	2200.76
446.764	2249.57
447.139	2252.51
447.513	2291.83
447.887	2329.12
448.262	2296.35
448.636	2319.63
449.01	2329.57
449.384	2362.11
449.758	2396.69
450.132	2464.71
450.506	2454.99
450.88	2446.86
451.254	2502.9
451.628	2516.91
452.002	2526.18
452.376	2530.7
452.75	2583.35
453.123	2589.9
453.497	2646.85
453.871	2683.46
454.244	2752.84
454.618	2757.81
454.992	2790.35
455.365	2790.58
455.739	2862.66
456.112	2916.22
456.486	2924.36
456.859	2981.98
457.232	3017.91
457.606	3001.42
457.979	3044.35
458.352	3133.62
458.725	3177.23
459.099	3191.92
459.472	3272.6
459.845	3277.8
460.218	3316.44
460.591	3335.42
460.964	3372.26
461.337	3449.09
461.71	3518.24
462.083	3606.15
462.456	3579.48
462.829	3617.45
463.201	3646.83
463.574	3688.41
463.947	3691.34
464.32	3844.33
464.692	3867.16
465.065	3897.44
465.438	3961.17
465.81	4002.52
466.183	4043.88
466.555	4156.87
466.928	4271.22
467.3	4237.54
467.672	4228.5
468.045	4416.52
468.417	4400.25
468.789	4414.04
469.161	4497.65
469.534	4578.33
469.906	4656.52
470.278	4698.1
470.65	4736.97
471.022	4844.53
471.394	4937.86
471.766	4960.46
472.138	5034.81
472.51	5124.07
472.882	5218.31
473.253	5322.94
473.625	5338.53
473.997	5428.02
474.369	5529.04
474.74	5548.47
475.112	5681.12
475.484	5769.71
475.855	5855.13
476.227	5936.93
476.598	6086.76
476.97	6116.82
477.341	6295.34
477.713	6385.96
478.084	6471.61
478.455	6665.5
478.827	6644.49
479.198	6923.35
479.569	6873.41
479.94	7030.69
480.311	7118.15
480.682	7227.52
481.053	7460.51
481.424	7535.54
481.795	7661.63
482.166	7845.81
482.537	7915.87
482.908	8114.96
483.279	8191.56
483.65	8352.24
484.021	8497.32
484.391	8588.39
484.762	8587.71
485.133	8762.4
485.503	8877.65
485.874	9060.24
486.244	9188.15
486.615	9329.61
486.985	9423.17
487.356	9571.64
487.726	9699.32
488.097	9898.86
488.467	10006.21
488.837	10193.55
489.207	10374.11
489.578	10543.37
489.948	10625.62
490.318	10740.88
490.688	10871.49
491.058	11005.05
491.428	11148.32
491.798	11198.72
492.168	11410.01
492.538	11477.81
492.908	11615.66
493.278	11713.51
493.648	11818.59
494.017	12029.88
494.387	12171.12
494.757	12348.74
495.126	12446.37
495.496	12522.07
495.866	12677.77
496.235	12820.37
496.605	12969.97
496.974	13009.74
497.344	13107.37
497.713	13221.26
498.082	13313.24
498.452	13356.85
498.821	13431.2
499.19	13542.16
499.559	13610.86
499.928	13695.15
500.298	13851.08
500.667	14063.95
501.036	14094.91
501.405	14282.03
501.774	14327.45
502.143	14510.27
502.512	14588.91
502.88	14722.92
503.249	14692.41
503.618	14821.67
503.987	14844.95
504.356	14984.83
504.724	15090.82
505.093	15117.26
505.462	15243.13
505.83	15306.41
506.199	15420.07
506.567	15592.5
506.936	15688.54
507.304	15763.12
507.672	15899.84
508.041	16034.07
508.409	16227.29
508.777	16388.64
509.145	16471.35
509.514	16547.73
509.882	16681.28
510.25	16700.72
510.618	16864.33
510.986	16914.95
511.354	17027.49
511.722	17163.08
512.09	17327.6
512.458	17213.7
512.826	17434.49
513.193	17525.78
513.561	17549.28
513.929	17737.98
514.297	17973.91
514.664	18095.48
515.032	18303.61
515.4	18405.98
515.767	18644.62
516.135	18689.14
516.502	18609.37
516.869	18926.42
517.237	18979.3
517.604	18937.04
517.972	19134.78
518.339	19250.03
518.706	19275.34
519.073	19288.67
519.44	19501.1
519.808	19689.12
520.175	19664.71
520.542	20004.59
520.909	20238.48
521.276	20201.87
521.643	20508.3
522.009	20598.7
522.376	20911.46
522.743	21047.5
523.11	21175.4
523.477	21368.17
523.843	21516.41
524.21	21831.88
524.577	21916.85
524.943	21808.61
525.31	21914.14
525.676	22229.16
526.043	22142.38
526.409	22378.76
526.776	22525.42
527.142	22764.97
527.508	22877.05
527.874	23045.64
528.241	23199.53
528.607	23264.16
528.973	23494.44
529.339	23686.52
529.705	23919.74
530.071	24146.85
530.437	24240.86
530.803	24564.92
531.169	24596.56
531.535	24558.82
531.901	24654.18
532.267	24646.95
532.632	24793.16
532.998	24942.54
533.364	25055.75
533.73	25133.94
534.095	25167.16
534.461	25313.37
534.826	25486.7
535.192	25653.48
535.557	25855.05
535.923	25820.03
536.288	26056.18
536.653	26206.68
537.019	26252.56
537.384	26481.93
537.749	26617.97
538.114	26706.56
538.479	26649.61
538.845	26884.63
539.21	26729.83
539.575	26886.89
539.94	26959.21
540.305	26972.31
540.67	26931.64
541.034	26958.08
541.399	27117.39
541.764	27109.94
542.129	27271.74
542.494	27332.3
542.858	27563.94
543.223	27711.95
543.587	27838.28
543.952	27828.34
544.316	27967.77
544.681	27990.37
545.045	28116.92
545.41	28369.56
545.774	28445.95
546.138	28482.78
546.503	28526.85
546.867	28498.83
547.231	28649.11
547.595	28748.76
547.959	28665.15
548.324	28649.11
548.688	28767.75
549.052	28831.25
549.416	28864.92
549.779	28863.79
550.143	28826.5
550.507	29019.27
550.871	29181.07
551.235	29224.23
551.599	29483.43
551.962	29544.68
552.326	29584.9
552.689	29744.22
553.053	29800.26
553.417	29882.75
553.78	30317.54
554.143	30196.64
554.507	30292.68
554.87	30294.49
555.234	30779.9
555.597	30346.46
555.96	30544.87
556.323	30588.26
556.686	30515.05
557.05	30690.18
557.413	30848.37
557.776	30819.9
558.139	31101.47
558.502	30990.29
558.865	30941.25
559.228	31220.11
559.59	31353.89
559.953	31549.37
560.316	31803.6
560.679	31867.78
561.041	32162.23
561.404	32250.59
561.767	32479.97
562.129	32442.23
562.492	32797.47
562.854	32651.49
563.217	32681.99
563.579	32855.32
563.941	32966.51
564.304	32985.04
564.666	33037.01
565.028	33147.97
565.39	33212.6
565.753	33280.85
566.115	33342.54
566.477	33601.52
566.839	33555.64
567.201	33850.32
567.563	33803.77
567.925	34086.7
568.287	34204.89
568.648	34317.43
569.01	34462.96
569.372	34600.36
569.734	34508.84
570.095	34840.58
570.457	35002.16
570.819	34924.65
571.18	35084.19
571.542	35346.56
571.903	35281.02
572.265	35420
572.626	35413.9
572.987	35511.75
573.349	35623.84
573.71	35819.54
574.071	35718.75
574.432	35781.57
574.794	36017.73
575.155	35946.54
575.516	35802.36
575.877	36043.94
576.238	36261.11
576.599	36213.2
576.96	36378.62
577.32	36409.58
577.681	36606.41
578.042	36766.86
578.403	36707.42
578.763	36849.34
579.124	36979.96
579.485	37124.59
579.845	37268.99
580.206	37248.88
580.566	37253.4
580.927	37186.73
581.287	37380.85
581.648	37146.96
582.008	37365.03
582.368	37205.94
582.728	37350.8
583.089	37261.53
583.449	37146.28
583.809	37240.74
584.169	37338.37
584.529	37385.82
584.889	37693.84
585.249	37225.6
585.609	37365.49
585.969	37544.46
586.329	37514.64
586.688	37582.66
587.048	37546.95
587.408	37584.69
587.768	37642.32
588.127	37587.4
588.487	37875.76
588.846	38107.16
589.206	37687.74
589.565	37665.82
589.925	37804.12
590.284	37617.23
590.643	37791.69
591.003	37867.17
591.362	37964.34
591.721	37838.92
592.08	37681.41
592.44	37848.19
592.799	37866.94
593.158	37747.17
593.517	37766.83
593.876	37778.36
594.235	37865.13
594.593	37826.72
594.952	37936.54
595.311	37823.78
595.67	37896.55
596.029	38085.69
596.387	38162.3
596.746	38246.59
597.104	38190.78
597.463	38142.64
597.822	38429.19
598.18	38289.76
598.538	38309.42
598.897	38569.75
599.255	38173.15
599.613	38733.81
599.972	38449.3
600.33	38453.82
600.688	38415.85
601.046	38554.38
601.404	38619.24
601.762	38559.13
602.12	38687.94
602.478	38619.01
602.836	38782.4
603.194	38437.77
603.552	38553.48
603.91	38353.48
604.268	38610.2
604.625	38475.74
604.983	38567.04
605.341	38299.93
605.698	38586.7
606.056	38800.02
606.413	38825.34
606.771	39095.16
607.128	39059.45
607.485	38918.44
607.843	38895.62
608.2	39138.1
608.557	39298.32
608.914	39136.06
609.272	39409.73
609.629	39445.88
609.986	39522.49
610.343	39264.87
610.7	39590.51
611.057	39481.81
611.414	39349.62
611.771	39472.1
612.127	39627.8
612.484	39542.15
612.841	39712.32
613.198	39506.22
613.554	39569.5
613.911	39767.46
614.267	39627.35
614.624	39576.95
614.98	39637.52
615.337	39875.7
615.693	39814.01
616.05	39786.21
616.406	40097.39
616.762	39835.03
617.118	40044.74
617.475	40080.22
617.831	40192.53
618.187	40234.34
618.543	40220.55
618.899	40431.62
619.255	40403.37
619.611	40329.48
619.967	40466.87
620.323	40508
620.678	40482.92
621.034	40260.33
621.39	40270.49
621.746	40279.76
622.101	40669.81
622.457	40368.57
622.812	40305.3
623.168	40480.66
623.523	40421
623.879	40527.44
624.234	40258.29
624.589	40395.69
624.945	40423.03
625.3	40467.78
625.655	40364.73
626.01	40526.31
626.365	40450.38
626.72	40363.37
627.075	40424.39
627.43	40351.17
627.785	40309.59
628.14	40359.08
628.495	40472.52
628.85	40407.21
629.205	40468.46
629.559	40695.79
629.914	40328.57
630.269	40405.41
630.623	40414.22
630.978	40346.88
631.332	40570.83
631.687	40524.05
632.041	40344.84
632.396	40514.33
632.75	40211.06
633.104	40270.95
633.459	40008.81
633.813	39887.23
634.167	39930.62
634.521	39742.37
634.875	39892.65
635.229	39711.87
635.583	39674.58
635.937	39739.44
636.291	39586.67
636.645	39729.72
636.999	39569.27
637.352	39716.16
637.706	39479.78
638.06	39587.57
638.413	39489.27
638.767	39339.9
639.121	39377.64
639.474	39107.36
639.828	39263.06
640.181	39402.04
640.534	39438.43
640.888	39186.68
641.241	39056.52
641.594	39216.96
641.947	39378.54
642.301	39267.58
642.654	39280.46
643.007	39281.37
643.36	39138.1
643.713	39130.86
644.066	39298.09
644.419	39030.08
644.771	38872.11
645.124	38780.36
645.477	38774.71
645.83	38386.25
646.182	38126.6
646.535	37800.5
646.888	37510.79
647.24	37263.34
647.593	37378.14
647.945	37146.28
648.298	36946.74
648.65	36948.77
649.002	37019.51
649.355	37161.2
649.707	37308.76
650.059	37613.62
650.411	38356.42
650.763	38230.1
651.115	38454.95
651.467	38212.02
651.819	38212.47
652.171	38160.04
652.523	38129.53
652.875	38335.63
653.227	38181.74
653.578	38480.49
653.93	38225.35
654.282	38011.12
654.633	37826.94
654.985	37875.3
655.337	37860.61
655.688	37906.26
656.039	37996.2
656.391	37771.8
656.742	37781.07
657.094	37807.28
657.445	37894.96
657.796	37794.63
658.147	37753.95
658.498	37646.38
658.849	37734.52
659.2	37776.1
659.551	37523.22
659.902	37771.13
660.253	37621.98
660.604	37849.77
660.955	37709.88
661.306	37563.22
661.656	37662.43
662.007	37633.28
662.358	37557.57
662.708	37800.05
663.059	37573.84
663.409	37444.35
663.76	37875.08
664.11	37731.35
664.461	37664.24
664.811	37690
665.161	37607.51
665.511	37697.23
665.862	37682.77
666.212	37887.51
666.562	37777.23
666.912	37641.64
667.262	37649.55
667.612	37655.65
667.962	37658.36
668.312	37476.44
668.662	37753.05
669.011	37598.25
669.361	37609.77
669.711	37497.23
670.06	37214.76
670.41	37033.07
670.76	37131.59
671.109	37224.7
671.459	37040.98
671.808	36920.07
672.157	37304.7
672.507	37048.43
672.856	37113.29
673.205	37120.52
673.554	37163.91
673.904	37094.99
674.253	37280.52
674.602	37043.24
674.951	36443.25
675.3	36345.85
675.649	36945.16
675.998	36904.93
676.346	36661.1
676.695	37096.11
677.044	36793.75
677.393	36745.84
677.741	36986.06
678.09	36735.9
678.438	36661.78
678.787	36743.58
679.135	36661.55
679.484	36466.08
679.832	36591.72
680.181	36333.42
680.529	36392.63
680.877	36308.57
681.225	36238.06
681.573	36433.76
681.922	36053.43
682.27	35997.84
682.618	36040.32
682.966	35786.32
683.314	35761.01
683.661	35817.28
684.009	35528.02
684.357	35407.57
684.705	35358.31
685.053	35304.3
685.4	35304.75
685.748	35223.17
686.095	35239.44
686.443	35141.59
686.79	35085.09
687.138	35140.46
687.485	35188.82
687.832	35034.7
688.18	35171.42
688.527	34726.23
688.874	34763.07
689.221	34727.82
689.568	34659.79
689.915	34667.48
690.262	34653.92
690.609	34632.45
690.956	34462.96
691.303	34373.7
691.65	34235.85
691.997	34292.57
692.344	33993.6
692.69	33795.86
693.037	33807.84
693.383	33543.67
693.73	33561.07
694.077	33470.9
694.423	33427.28
694.769	33299.15
695.116	33085.15
695.462	33108.65
695.808	32952.27
696.155	32983.45
696.501	32762.22
696.847	32659.4
697.193	32559.29
697.539	32488.1
697.885	32289.24
698.231	32255.79
698.577	32387.31
698.923	32140.31
699.269	32171.27
699.614	31918.4
699.96	31819.87
700.306	31919.98
700.651	31668.69
700.997	31552.08
701.342	31549.37
701.688	31555.7
702.033	31500.1
702.379	31356.38
702.724	31340.56
703.069	31460.1
703.415	31047.23
703.76	31033.9
704.105	30910.74
704.45	30863.51
704.795	30755.72
705.14	30528.83
705.485	30541.71
705.83	30447.48
706.175	30513.24
706.52	30370.64
706.865	30193.7
707.209	30223.3
707.554	30168.39
707.899	30008.39
708.243	29859.92
708.588	29868.96
708.932	29597.1
709.277	29659.93
709.621	29681.17
709.966	29408.18
710.31	29584.45
710.654	29261.97
710.998	29322.76
711.342	29256.55
711.687	29214.51
712.031	29074.86
712.375	29026.04
712.719	29048.87
713.063	29107.62
713.407	29107.17
713.75	28950.11
714.094	28969.55
714.438	28751.7
714.782	28735.88
715.125	28715.09
715.469	28762.32
715.812	28551.71
716.156	28506.28
716.499	28495.66
716.843	28462.44
717.186	28307.42
717.53	28401.2
717.873	28387.64
718.216	28358.04
718.559	28231.72
718.902	27982.91
719.246	28155.79
719.589	28056.13
719.932	27885.51
720.275	28081.89
720.617	27881.67
720.96	27876.24
721.303	27868.11
721.646	27808
721.989	27632.64
722.331	27699.3
722.674	27717.83
723.016	27685.97
723.359	27587.89
723.701	27521.68
724.044	27408.69
724.386	27231.74
724.729	27479.64
725.071	27392.87
725.413	27312.64
725.755	27342.25
726.097	27312.42
726.439	27208.69
726.782	27188.8
727.124	27240.33
727.465	27096.6
727.807	26986.78
728.149	27044.4
728.491	27091.18
728.833	27115.81
729.175	26923.28
729.516	27084.17
729.858	27070.84
730.199	27095.7
730.541	27135.7
730.882	27056.83
731.224	27095.47
731.565	26955.59
731.906	27138.86
732.248	26915.59
732.589	26946.33
732.93	26891.64
733.271	26898.42
733.612	26862.71
733.953	26936.83
734.294	26796.05
734.635	26759.44
734.976	26904.29
735.317	26571.19
735.658	26670.85
735.999	26741.58
736.339	26677.18
736.68	26700.91
737.021	26702.49
737.361	26575.49
737.702	26653.68
738.042	26556.28
738.383	26534.58
738.723	26667.69
739.063	26613.45
739.404	26594.92
739.744	26599.67
740.084	26446.68
740.424	26631.76
740.764	26491.2
741.104	26642.6
741.444	26475.83
741.784	26465.66
742.124	26557.41
742.464	26678.31
742.804	26494.59
743.143	26540.91
743.483	26640.34
743.823	26571.87
744.162	26631.53
744.502	26715.15
744.841	26606.45
745.181	26857.51
745.52	26641.47
745.86	26739.55
746.199	26734.35
746.538	26772.54
746.877	26842.6
747.216	26885.54
747.556	26832.88
747.895	26888.25
748.234	26775.93
748.573	26851.19
748.911	26837.4
749.25	26878.3
749.589	26836.72
749.928	26818.87
750.267	26941.81
750.605	26732.32
750.944	26936.38
751.283	26896.61
751.621	27005.31
751.96	26823.62
752.298	26919.43
752.636	27061.12
752.975	26900.22
753.313	26820
753.651	26972.77
753.989	26776.39
