Data from blue_shiny_book_FLMS001491_00040.txt Node
Date: Wed Feb 08 15:26:54 GMT 2017
User: dcchb
Spectrometer: FLMS00149
Trigger mode: 0
Integration Time (sec): 2.000000E-2
Scans to average: 10
Electric dark correction enabled: true
Nonlinearity correction enabled: false
Boxcar width: 0
XAxis mode: Wavelengths
Number of Pixels in Spectrum: 2048
>>>>>Begin Spectral Data<<<<<
341.393	8.98
341.776	8.98
342.16	8.98
342.543	-74.18
342.927	-77.79
343.31	-72.14
343.693	-67.4
344.077	-53.39
344.46	-64.24
344.843	-53.16
345.226	-49.32
345.61	-24.24
345.993	-2.54
346.376	-12.71
346.759	18.47
347.142	30.9
347.525	37.46
347.908	59.15
348.291	74.97
348.674	87.17
349.057	91.01
349.44	100.96
349.823	125.14
350.206	177.79
350.588	192.71
350.971	206.04
351.354	219.6
351.737	213.95
352.119	249.88
352.502	262.54
352.884	265.02
353.267	267.73
353.65	303.21
354.032	303.44
354.414	313.61
354.797	318.13
355.179	322.42
355.562	306.38
355.944	325.81
356.326	338.47
356.709	315.19
357.091	352.93
357.473	333.27
357.855	345.02
358.238	328.07
358.62	352.93
359.002	352.93
359.384	341.63
359.766	371.69
360.148	329.88
360.53	347.5
360.912	330.33
361.294	333.04
361.676	321.52
362.057	346.15
362.439	338.01
362.821	335.98
363.203	325.81
363.584	339.37
363.966	341.63
364.348	316.77
364.729	331.01
365.111	316.55
365.493	319.48
365.874	327.84
366.256	319.48
366.637	313.16
367.019	317
367.4	344.12
367.781	325.36
368.163	321.07
368.544	319.48
368.925	352.48
369.306	335.53
369.688	325.36
370.069	323.32
370.45	345.7
370.831	335.3
371.212	334.85
371.593	333.04
371.974	333.49
372.355	326.94
372.736	325.81
373.117	352.25
373.498	333.27
373.879	331.23
374.26	338.92
374.641	336.43
375.021	326.26
375.402	353.38
375.783	339.6
376.163	347.96
376.544	366.94
376.925	344.57
377.305	357
377.686	368.3
378.066	376.43
378.447	341.4
378.827	369.43
379.208	359.26
379.588	364.91
379.968	354.74
380.349	363.78
380.729	367.17
381.109	357.45
381.489	373.49
381.87	360.16
382.25	363.78
382.63	387.96
383.01	386.83
383.39	377.33
383.77	403.55
384.15	379.14
384.53	406.26
384.91	405.81
385.29	382.31
385.67	401.74
386.049	410.33
386.429	380.72
386.809	416.43
387.189	427.73
387.568	425.24
387.948	413.94
388.328	439.03
388.707	414.4
389.087	413.49
389.466	441.97
389.846	431.8
390.225	453.49
390.605	442.87
390.984	432.02
391.363	446.94
391.743	434.28
392.122	465.69
392.501	462.76
392.881	468.18
393.26	469.99
393.639	471.8
394.018	468.63
394.397	452.36
394.776	472.47
395.155	488.29
395.534	484.68
395.913	522.19
396.292	520.38
396.671	510.21
397.05	508.4
397.429	524.22
397.808	528.97
398.186	531.23
398.565	518.57
398.944	518.35
399.323	536.2
399.701	536.65
400.08	535.07
400.458	528.52
400.837	541.85
401.215	544.11
401.594	556.54
401.972	562.19
402.351	575.3
402.729	586.59
403.107	602.19
403.486	579.14
403.864	577.78
404.242	627.27
404.62	588.4
404.999	630.66
405.377	638.8
405.755	646.48
406.133	612.13
406.511	661.85
406.889	656.42
407.267	670.89
407.645	671.56
408.023	678.8
408.401	710.43
408.779	700.04
409.156	722.41
409.534	722.18
409.912	732.13
410.29	736.2
410.667	730.32
411.045	763.09
411.422	782.07
411.8	774.84
412.178	788.4
412.555	783.43
412.933	819.13
413.31	819.36
413.687	860.71
414.065	839.47
414.442	839.7
414.819	846.02
415.197	887.15
415.574	879.92
415.951	881.5
416.328	906.36
416.705	909.07
417.082	907.04
417.46	930.77
417.837	959.01
418.214	938.68
418.591	963.31
418.967	967.6
419.344	1000.37
419.721	982.29
420.098	975.96
420.475	994.27
420.852	1007.83
421.228	1022.29
421.605	1034.72
421.982	1063.42
422.358	1057.09
422.735	1092.8
423.111	1087.6
423.488	1094.38
423.864	1107.26
424.241	1116.98
424.617	1130.99
424.994	1140.93
425.37	1173.02
425.746	1186.8
426.123	1193.36
426.499	1193.58
426.875	1218.89
427.251	1242.4
427.627	1255.28
428.003	1266.8
428.379	1304.99
428.756	1308.61
429.132	1320.81
429.507	1322.62
429.883	1360.59
430.259	1390.19
430.635	1376.18
431.011	1412.11
431.387	1447.36
431.763	1485.78
432.138	1457.53
432.514	1532.11
432.89	1515.38
433.265	1545.89
433.641	1556.96
434.016	1572.11
434.392	1614.82
434.767	1643.06
435.143	1630.64
435.518	1644.87
435.894	1696.4
436.269	1733.23
436.644	1725.32
437.02	1757.19
437.395	1769.16
437.77	1800.12
438.145	1821.36
438.52	1845.54
438.895	1825.21
439.271	1857.07
439.646	1941.36
440.021	1938.65
440.395	1930.51
440.77	1942.72
441.145	1980.23
441.52	2010.96
441.895	2017.97
442.27	2049.83
442.645	2054.8
443.019	2093.67
443.394	2081.92
443.769	2111.3
444.143	2125.54
444.518	2169.83
444.892	2157.63
445.267	2161.92
445.641	2212.54
446.016	2217.06
446.39	2242.14
446.764	2239.88
447.139	2242.82
447.513	2255.25
447.887	2301.8
448.262	2312.65
448.636	2318.75
449.01	2369.15
449.384	2347.45
449.758	2349.71
450.132	2411.41
450.506	2450.5
450.88	2467.68
451.254	2474.23
451.628	2486.66
452.002	2501.12
452.376	2528.92
452.75	2559.65
453.123	2613.89
453.497	2619.76
453.871	2673.55
454.244	2734.56
454.618	2753.09
454.992	2784.73
455.365	2810.27
455.739	2852.3
456.112	2886.65
456.486	2918.51
456.859	2947.44
457.232	3004.16
457.606	3023.59
457.979	3042.8
458.352	3099.3
458.725	3131.16
459.099	3153.76
459.472	3234.66
459.845	3320.53
460.218	3288.44
460.591	3365.28
460.964	3370.02
461.337	3443.24
461.71	3465.62
462.083	3532.05
462.456	3572.73
462.829	3609.34
463.201	3648.66
463.574	3668.77
463.947	3698.6
464.32	3830.13
464.692	3850.46
465.065	3877.58
465.438	3969.56
465.81	3996.9
466.183	4031.93
466.555	4137.01
466.928	4179.27
467.3	4174.52
467.672	4276.22
468.045	4360.51
468.417	4328.87
468.789	4394.4
469.161	4451.13
469.534	4534.29
469.906	4633.49
470.278	4640.05
470.65	4739.48
471.022	4833.26
471.394	4919.14
471.766	4959.59
472.138	4994.84
472.51	5158
472.882	5179.47
473.253	5296.08
473.625	5344.66
473.997	5388.73
474.369	5449.97
474.74	5550.76
475.112	5624.88
475.484	5692.22
475.855	5837.98
476.227	5909.84
476.598	6092.66
476.97	6097.64
477.341	6220.57
477.713	6403.62
478.084	6427.35
478.455	6612.2
478.827	6644.29
479.198	6841.35
479.569	6929.25
479.94	7008.12
480.311	7065.29
480.682	7248.34
481.053	7417.83
481.424	7585.05
481.795	7634.09
482.166	7716.8
482.537	7839.06
482.908	8101.43
483.279	8061.88
483.65	8313.4
484.021	8479.04
484.391	8610.11
484.762	8670.45
485.133	8696.89
485.503	8777.34
485.874	9025.24
486.244	9109.08
486.615	9211.68
486.985	9439.02
487.356	9563.99
487.726	9714.72
488.097	9886.24
488.467	9971.88
488.837	10169.62
489.207	10301.82
489.578	10488.71
489.948	10579.33
490.318	10780.45
490.688	10768.02
491.058	10967.79
491.428	11069.71
491.798	11281.68
492.168	11424.5
492.538	11451.39
492.908	11595.57
493.278	11732.97
493.648	11760.09
494.017	11952.17
494.387	12182.67
494.757	12269.9
495.126	12391.26
495.496	12507.41
495.866	12625.15
496.235	12716.22
496.605	12874.86
496.974	12862.66
497.344	13042.54
497.713	13195.75
498.082	13221.97
498.452	13426.48
498.821	13442.3
499.19	13392.36
499.559	13596.87
499.928	13637.78
500.298	13856.53
500.667	14014.72
501.036	13960.93
501.405	14294.03
501.774	14362.05
502.143	14467.36
502.512	14519.79
502.88	14642.27
503.249	14685.43
503.618	14790.29
503.987	14806.33
504.356	14904.41
504.724	15020.57
505.093	15049.27
505.462	15033.22
505.83	15256.94
506.199	15323.38
506.567	15562.25
506.936	15560.89
507.304	15790.26
507.672	15919.52
508.041	16041.78
508.409	16145.06
508.777	16311.61
509.145	16443.35
509.514	16521.09
509.882	16575.55
510.25	16617.13
510.618	16795.66
510.986	16797.24
511.354	16919.5
511.722	17115.2
512.09	17246.04
512.458	17217.8
512.826	17326.72
513.193	17445.13
513.561	17531.69
513.929	17745.47
514.297	17989.75
514.664	18028.17
515.032	18150.65
515.4	18469.97
515.767	18498.21
516.135	18628.61
516.502	18635.84
516.869	18939.33
517.237	18951.08
517.604	18881.71
517.972	19050.74
518.339	19210.06
518.706	19180.23
519.073	19325.76
519.44	19404.63
519.808	19656.38
520.175	19601.69
520.542	19993.99
520.909	20137.72
521.276	20156.93
521.643	20444.83
522.009	20539.29
522.376	20762.34
522.743	20940.64
523.11	21145.83
523.477	21258.82
523.843	21449.77
524.21	21647.06
524.577	21835.75
524.943	21839.82
525.31	21855.41
525.676	22044.11
526.043	22195.74
526.409	22398
526.776	22440.26
527.142	22516.19
527.508	22782.85
527.874	22934.26
528.241	23141.26
528.607	23339.44
528.973	23508.48
529.339	23576.05
529.705	23772.65
530.071	24017.17
530.437	24165.41
530.803	24360.43
531.169	24484.72
531.535	24438.4
531.901	24552.29
532.267	24535.8
532.632	24706.41
532.998	24841.32
533.364	24989.57
533.73	24946.63
534.095	25064.37
534.461	25160.64
534.826	25460.74
535.192	25525.15
535.557	25699.38
535.923	25665.71
536.288	25865.03
536.653	26087.62
537.019	26211.01
537.384	26311.12
537.749	26447.38
538.114	26477.21
538.479	26532.13
538.845	26644.44
539.21	26663.42
539.575	26807.37
539.94	26854.6
540.305	26902.74
540.67	26882.4
541.034	26783.65
541.399	27032
541.764	27102.73
542.129	27205.78
542.494	27209.4
542.858	27350.86
543.223	27486.9
543.587	27574.81
543.952	27728.71
544.316	27781.81
544.681	27947.68
545.045	28022.48
545.41	28222.48
545.774	28227.45
546.138	28276.26
546.503	28385.19
546.867	28418.63
547.231	28634.22
547.595	28486.43
547.959	28558.74
548.324	28563.94
548.688	28622.92
549.052	28681.68
549.416	28699.3
549.779	28805.29
550.143	28848.45
550.507	28986.98
550.871	29081.66
551.235	29036.92
551.599	29268.1
551.962	29455.44
552.326	29479.62
552.689	29644.81
553.053	29699.95
553.417	29879.38
553.78	30193.5
554.143	30067.63
554.507	30144.24
554.87	30255.87
555.234	30388.3
555.597	30187.62
555.96	30241.86
556.323	30386.72
556.686	30445.7
557.05	30588.52
557.413	30539.03
557.776	30596.88
558.139	30886.36
558.502	30824.67
558.865	31000.03
559.228	31127.71
559.59	31188.28
559.953	31374.03
560.316	31705.1
560.679	31776.96
561.041	31838.2
561.404	32094.69
561.767	32352.09
562.129	32167.91
562.492	32562.25
562.854	32597.05
563.217	32548.92
563.579	32677.05
563.941	32694.23
564.304	32760.89
564.666	32849.7
565.028	32838.85
565.39	33036.81
565.753	33101.22
566.115	33307.09
566.477	33364.94
566.839	33475.67
567.201	33750.47
567.563	33690.58
567.925	33924.25
568.287	34018.26
568.648	34015.55
569.01	34287.86
569.372	34385.03
569.734	34359.49
570.095	34669.09
570.457	34930.78
570.819	34924.22
571.18	35061.17
571.542	35175.06
571.903	35185.91
572.265	35286.25
572.626	35345.91
572.987	35364.89
573.349	35435.62
573.71	35557.2
574.071	35584.54
574.432	35705.22
574.794	35874.48
575.155	35725.11
575.516	35635.84
575.877	35901.6
576.238	35938.66
576.599	36223.17
576.96	36090.97
577.32	36277.18
577.681	36411.64
578.042	36701.58
578.403	36514.01
578.763	36675.82
579.124	36800.11
579.485	37029.25
579.845	37169.59
580.206	37031.74
580.566	37006.88
580.927	36970.27
581.287	37222.69
581.648	37011.63
582.008	37288.91
582.368	37263.82
582.728	37113.09
583.089	37065.18
583.449	36987.22
583.809	37138.85
584.169	37210.04
584.529	37041
584.889	37433.99
585.249	37179.53
585.609	37133.88
585.969	37355.8
586.329	37159.64
586.688	37415.68
587.048	37400.09
587.408	37411.84
587.768	37639.86
588.127	37497.04
588.487	37448.68
588.846	37836.24
589.206	37634.43
589.565	37542.69
589.925	37617.94
590.284	37506.3
590.643	37702.68
591.003	37633.76
591.362	37840.3
591.721	37531.16
592.08	37501.1
592.44	37645.06
592.799	37662.23
593.158	37669.69
593.517	37633.98
593.876	37579.97
594.235	37493.65
594.593	37814.32
594.952	37825.39
595.311	37702
595.67	37884.15
596.029	38023.12
596.387	37982.9
596.746	38118.49
597.104	37913.97
597.463	38008.44
597.822	38316.68
598.18	38173.18
598.538	38144.48
598.897	38319.84
599.255	37756.24
599.613	38537.46
599.972	38339.05
600.33	38358.26
600.688	38329.78
601.046	38357.8
601.404	38486.39
601.762	38211.37
602.12	38567.74
602.478	38356.45
602.836	38438.25
603.194	38349.67
603.552	38404.13
603.91	38277.58
604.268	38424.92
604.625	38340.86
604.983	38471.02
605.341	38177.24
605.698	38532.04
606.056	38650.45
606.413	38525.94
606.771	38894.29
607.128	38920.28
607.485	38605.71
607.843	38907.62
608.2	38945.36
608.557	39099.25
608.914	38858.81
609.272	39196.43
609.629	39199.82
609.986	39419.25
610.343	39233.04
610.7	39313.71
611.057	39277.78
611.414	39173.83
611.771	39303.54
612.127	39393.94
612.484	39327.72
612.841	39410.88
613.198	39366.14
613.554	39280.72
613.911	39555.97
614.267	39538.56
614.624	39501.05
614.98	39590.77
615.337	39761.84
615.693	39690.43
616.05	39707.6
616.406	39976.29
616.762	39883.19
617.118	39902.85
617.475	39895.62
617.831	39932.9
618.187	40135.84
618.543	40074.82
618.899	40202.28
619.255	40194.14
619.611	40167.25
619.967	40307.13
620.323	40351.2
620.678	40167.7
621.034	40284.76
621.39	40304.87
621.746	40177.87
622.101	40505.32
622.457	40165.44
622.812	40294.48
623.168	40278.66
623.523	40167.47
623.879	40361.59
624.234	40045.67
624.589	40332.22
624.945	40294.48
625.3	40256.29
625.655	40148.04
626.01	40377.86
626.365	40303.74
626.72	40189.17
627.075	40264.2
627.43	40384.19
627.785	40345.55
628.14	40186.68
628.495	40276.4
628.85	40186.68
629.205	40172.67
629.559	40467.81
629.914	40326.11
630.269	40407.69
630.623	40212.22
630.978	40207.47
631.332	40303.74
631.687	40492.21
632.041	40293.35
632.396	40218.32
632.75	40167.25
633.104	40119.57
633.459	39792.12
633.813	39955.28
634.167	39757.54
634.521	39648.17
634.875	39737.43
635.229	39731.33
635.583	39486.36
635.937	39491.56
636.291	39398
636.645	39380.83
636.999	39345.35
637.352	39494.27
637.706	39226.26
638.06	39408.17
638.413	39367.27
638.767	39365.91
639.121	39215.18
639.474	38964.12
639.828	39179.48
640.181	39133.38
640.534	39094.96
640.888	39027.39
641.241	39000.05
641.594	39225.58
641.947	39205.69
642.301	39200.49
642.654	39144.22
643.007	39074.62
643.36	38986.94
643.713	38837.34
644.066	39046.37
644.419	38792.37
644.771	38745.82
645.124	38587.4
645.477	38597.35
645.83	38205.94
646.182	37815.45
646.535	37555.57
646.888	37380.2
647.24	36982.02
647.593	37202.36
647.945	36996.03
648.298	36864.28
648.65	36740.9
649.002	36889.82
649.355	36995.13
649.707	37174.79
650.059	37464.95
650.411	38069.45
650.763	38074.42
651.115	38307.86
651.467	38100.18
651.819	38012.73
652.171	38066.51
652.523	37998.27
652.875	38010.47
653.227	37908.33
653.578	38184.48
653.93	38127.75
654.282	37944.26
654.633	37666.3
654.985	37769.35
655.337	37835.56
655.688	37824.03
656.039	37732.06
656.391	37814.09
656.742	37665.39
657.094	37633.98
657.445	37838.95
657.796	37660.65
658.147	37739.06
658.498	37529.13
658.849	37529.8
659.2	37392.41
659.551	37345.18
659.902	37700.2
660.253	37490.71
660.604	37499.07
660.955	37383.82
661.306	37698.39
661.656	37464.04
662.007	37470.37
662.358	37448.68
662.708	37410.94
663.059	37356.93
663.409	37298.85
663.76	37576.58
664.11	37656.58
664.461	37423.14
664.811	37564.15
665.161	37448
665.511	37397.15
665.862	37578.84
666.212	37587.88
666.562	37586.07
666.912	37517.6
667.262	37349.47
667.612	37429.02
667.962	37549.92
668.312	37365.51
668.662	37528
669.011	37444.16
669.361	37383.14
669.711	37250.72
670.06	37158.06
670.41	36976.82
670.76	36803.5
671.109	37092.53
671.459	36897.28
671.808	36842.82
672.157	36987.45
672.507	36712.42
672.856	36928.01
673.205	36941.12
673.554	37086.2
673.904	36804.17
674.253	37130.72
674.602	36871.52
674.951	36301.14
675.3	36231.08
675.649	36766.21
675.998	36792.42
676.346	36675.14
676.695	36803.04
677.044	36633.1
677.393	36754.46
677.741	36892.08
678.09	36644.86
678.438	36472.43
678.787	36561.24
679.135	36438.76
679.484	36223.62
679.832	36577.29
680.181	36412.55
680.529	36343.62
680.877	36094.14
681.225	36120.58
681.573	36180.69
681.922	35970.75
682.27	35782.51
682.618	35788.38
682.966	35863.63
683.314	35636.97
683.661	35707.93
684.009	35408.5
684.357	35306.36
684.705	35226.81
685.053	35314.95
685.4	35356.75
685.748	35013.26
686.095	34976.65
686.443	34951.79
686.79	34943.21
687.138	35117.89
687.485	35087.16
687.832	34762.87
688.18	34902.3
688.527	34774.62
688.874	34705.92
689.221	34651.46
689.568	34422.54
689.915	34456.44
690.262	34494.4
690.609	34279.27
690.956	34306.39
691.303	34251.7
691.65	33985.04
691.997	34208.99
692.344	33692.84
692.69	33740.07
693.037	33676.57
693.383	33403.58
693.73	33492.62
694.077	33214.44
694.423	33155.23
694.769	32978.29
695.116	32995.46
695.462	32863.71
695.808	32877.27
696.155	32850.83
696.501	32569.48
696.847	32522.93
697.193	32428.02
697.539	32369.26
697.885	32209.94
698.231	32126.1
698.577	32085.43
698.923	32012.66
699.269	32024.86
699.614	31700.58
699.96	31650.86
700.306	31661.94
700.651	31556.63
700.997	31497.42
701.342	31413.58
701.688	31321.38
702.033	31247.71
702.379	31162.06
702.724	31125.68
703.069	31280.93
703.415	30898.34
703.76	30970.88
704.105	30833.03
704.45	30632.36
704.795	30525.47
705.14	30431.69
705.485	30346.49
705.83	30300.62
706.175	30336.32
706.52	30073.05
706.865	30010.45
707.209	30087.06
707.554	29860.63
707.899	29765.49
708.243	29803.68
708.588	29556.45
708.932	29444.37
709.277	29483.69
709.621	29469.23
709.966	29273.52
710.31	29410.24
710.654	29118.05
710.998	29123.02
711.342	29160.53
711.687	29118.27
712.031	28871.27
712.375	28894.78
712.719	28866.98
713.063	28872.18
713.407	28902.46
713.75	28763.48
714.094	28713.76
714.438	28680.77
714.782	28730.26
715.125	28608.46
715.469	28524.39
715.812	28531.17
716.156	28335.02
716.499	28345.64
716.843	28429.93
717.186	28222.93
717.53	28283.49
717.873	28239.88
718.216	28148.36
718.559	28136.6
718.902	27830.4
719.246	28003.05
719.589	27897.06
719.932	27822.94
720.275	27890.74
720.617	27735.26
720.96	27704.07
721.303	27537.75
721.646	27708.37
721.989	27449.39
722.331	27644.19
722.674	27668.82
723.016	27615.49
723.359	27468.83
723.701	27443.74
724.044	27341.82
724.386	27261.6
724.729	27284.65
725.071	27363.07
725.413	27288.04
725.755	27284.65
726.097	27215.05
726.439	27080.36
726.782	27040.81
727.124	27122.39
727.465	26911.1
727.807	27065.22
728.149	26797.88
728.491	26892.8
728.833	27021.15
729.175	26933.25
729.516	26948.16
729.858	26897.99
730.199	26970.76
730.541	26990.65
730.882	26922.17
731.224	27003.08
731.565	26813.93
731.906	26723.99
732.248	26934.83
732.589	26742.74
732.93	26758.79
733.271	26739.58
733.612	26752.01
733.953	26775.96
734.294	26631.33
734.635	26648.73
734.976	26766.02
735.317	26466.14
735.658	26542.07
735.999	26635.4
736.339	26637.66
736.68	26582.07
737.021	26483.54
737.361	26421.17
737.702	26568.74
738.042	26405.58
738.383	26451.45
738.723	26540.94
739.063	26412.81
739.404	26682.41
739.744	26535.29
740.084	26538.23
740.424	26567.83
740.764	26451.23
741.104	26460.94
741.444	26420.49
741.784	26398.57
742.124	26540.94
742.464	26497.78
742.804	26499.81
743.143	26498.23
743.483	26492.35
743.823	26523.77
744.162	26508.4
744.502	26617.1
744.841	26544.33
745.181	26639.47
745.52	26615.06
745.86	26683.54
746.199	26646.25
746.538	26594.95
746.877	26749.52
747.216	26757.88
747.556	26659.81
747.895	26799.01
748.234	26568.74
748.573	26737.32
748.911	26718.34
749.25	26755.62
749.589	26747.26
749.928	26726.02
750.267	26815.51
750.605	26717.66
750.944	26849.41
751.283	26718.34
751.621	26830.65
751.96	26751.33
752.298	26835.62
752.636	26770.31
752.975	26880.37
753.313	26748.17
753.651	26815.06
753.989	26738.45
