Data from blue_chair_FLMS001491_00072.txt Node
Date: Wed Feb 08 10:31:44 GMT 2017
User: dcchb
Spectrometer: FLMS00149
Trigger mode: 0
Integration Time (sec): 2.000000E-2
Scans to average: 10
Electric dark correction enabled: true
Nonlinearity correction enabled: false
Boxcar width: 0
XAxis mode: Wavelengths
Number of Pixels in Spectrum: 2048
>>>>>Begin Spectral Data<<<<<
341.393	-5.75
341.776	-5.75
342.16	-5.75
342.543	-55.46
342.927	-46.88
343.31	-76.26
343.693	-52.3
344.077	-72.87
344.46	-50.49
344.843	-71.28
345.226	-41.45
345.61	-33.32
345.993	-6.2
346.376	-5.75
346.759	19.34
347.142	30.18
347.525	55.72
347.908	46.23
348.291	61.82
348.674	91.42
349.057	105.21
349.44	114.93
349.823	140.46
350.206	142.27
350.588	175.94
350.971	195.38
351.354	219.33
351.737	209.84
352.119	214.81
352.502	230.86
352.884	236.51
353.267	249.16
353.65	283.74
354.032	264.53
354.414	281.25
354.797	278.99
355.179	287.8
355.562	295.94
355.944	297.52
356.326	318.08
356.709	283.96
357.091	319.21
357.473	317.63
357.855	305.43
358.238	283.28
358.62	298.88
359.002	302.04
359.384	306.33
359.766	323.51
360.148	310.63
360.53	321.93
360.912	308.59
361.294	318.76
361.676	309.27
362.057	285.32
362.439	283.51
362.821	297.97
363.203	309.5
363.584	292.32
363.966	300.46
364.348	289.84
364.729	301.59
365.111	296.39
365.493	279.44
365.874	293
366.256	284.64
366.637	270.18
367.019	274.24
367.4	285.54
367.781	296.16
368.163	279.67
368.544	294.81
368.925	263.85
369.306	270.4
369.688	283.96
370.069	297.52
370.45	304.07
370.831	274.92
371.212	307.92
371.593	276.05
371.974	274.7
372.355	275.6
372.736	291.42
373.117	281.93
373.498	283.06
373.879	278.99
374.26	282.15
374.641	271.76
375.021	275.15
375.402	270.63
375.783	288.48
376.163	282.38
376.544	291.19
376.925	286
377.305	300.01
377.686	283.28
378.066	290.74
378.447	283.74
378.827	300.01
379.208	317.41
379.588	268.59
379.968	305.66
380.349	288.26
380.729	285.54
381.109	283.96
381.489	291.64
381.87	287.35
382.25	296.39
382.63	301.81
383.01	301.59
383.39	299.1
383.77	273.34
384.15	257.3
384.53	285.77
384.91	299.1
385.29	291.42
385.67	310.18
386.049	299.55
386.429	314.92
386.809	313.34
387.189	292.1
387.568	298.88
387.948	303.17
388.328	318.99
388.707	315.37
389.087	310.4
389.466	291.19
389.846	306.33
390.225	276.73
390.605	305.88
390.984	325.32
391.363	323.96
391.743	309.27
392.122	308.37
392.501	314.24
392.881	319.89
393.26	306.11
393.639	309.95
394.018	316.5
394.397	325.54
394.776	316.05
395.155	321.02
395.534	314.47
395.913	315.37
396.292	309.5
396.671	315.37
397.05	335.26
397.429	314.24
397.808	323.06
398.186	317.41
398.565	322.15
398.944	331.64
399.323	329.61
399.701	313.57
400.08	302.27
400.458	323.51
400.837	323.51
401.215	313.11
401.594	302.04
401.972	327.12
402.351	321.25
402.729	329.16
403.107	334.36
403.486	332.77
403.864	341.14
404.242	345.2
404.62	343.85
404.999	345.88
405.377	345.88
405.755	350.63
406.133	340.01
406.511	340.23
406.889	342.04
407.267	339.55
407.645	351.3
408.023	369.38
408.401	366.67
408.779	349.72
409.156	334.58
409.534	358.54
409.912	361.02
410.29	353.11
410.667	369.83
411.045	370.29
411.422	370.29
411.8	371.87
412.178	369.16
412.555	352.66
412.933	389.95
413.31	380.46
413.687	378.65
414.065	394.69
414.442	376.61
414.819	381.36
415.197	367.58
415.574	376.16
415.951	389.5
416.328	398.08
416.705	384.3
417.082	394.02
417.46	375.26
417.837	383.85
418.214	379.33
418.591	409.16
418.967	380.68
419.344	393.56
419.721	402.83
420.098	392.66
420.475	393.56
420.852	393.79
421.228	386.11
421.605	410.06
421.982	413.45
422.358	394.92
422.735	399.89
423.111	402.38
423.488	411.42
423.864	437.63
424.241	423.17
424.617	425.65
424.994	431.75
425.37	456.61
425.746	430.62
426.123	443.05
426.499	433.79
426.875	454.35
427.251	430.4
427.627	454.13
428.003	457.06
428.379	457.74
428.756	465.2
429.132	419.55
429.507	452.77
429.883	479.44
430.259	444.18
430.635	461.81
431.011	445.54
431.387	463.17
431.763	469.95
432.138	471.75
432.514	471.98
432.89	486.22
433.265	493.67
433.641	495.03
434.016	499.55
434.392	477.4
434.767	505.2
435.143	486.22
435.518	524.41
435.894	517.18
436.269	526.21
436.644	532.77
437.02	515.14
437.395	533.45
437.77	532.99
438.145	525.54
438.52	549.94
438.895	547.01
439.271	550.17
439.646	575.48
440.021	589.04
440.395	562.82
440.77	584.29
441.145	569.15
441.52	586.1
441.895	586.33
442.27	572.09
442.645	581.81
443.019	601.47
443.394	618.19
443.769	599.43
444.143	623.16
444.518	622.26
444.892	603.28
445.267	608.7
445.641	622.48
446.016	610.51
446.39	616.61
446.764	636.72
447.139	616.61
447.513	633.56
447.887	629.04
448.262	644.18
448.636	650.96
449.01	641.24
449.384	658.19
449.758	651.64
450.132	664.29
450.506	665.65
450.88	653.9
451.254	648.92
451.628	662.26
452.002	701.58
452.376	662.71
452.75	675.36
453.123	704.52
453.497	687.11
453.871	690.5
454.244	678.53
454.618	677.4
454.992	695.48
455.365	686.89
455.739	722.59
456.112	718.75
456.486	723.72
456.859	733.89
457.232	733.22
457.606	723.27
457.979	739.32
458.352	754.46
458.725	731.63
459.099	779.77
459.472	749.03
459.845	771.86
460.218	768.24
460.591	779.09
460.964	776.6
461.337	783.61
461.71	776.15
462.083	800.33
462.456	783.16
462.829	815.25
463.201	819.09
463.574	801.69
463.947	805.98
464.32	811.18
464.692	820.67
465.065	845.75
465.438	811.41
465.81	838.98
466.183	841.69
466.555	846.21
466.928	877.62
467.3	869.03
467.672	872.42
468.045	861.57
468.417	872.19
468.789	893.44
469.161	878.52
469.534	887.34
469.906	911.97
470.278	904.28
470.65	891.86
471.022	916.04
471.394	942.7
471.766	925.75
472.138	947.22
472.51	972.53
472.882	949.71
473.253	974.11
473.625	983.83
473.997	1005.07
474.369	961.46
474.74	979.99
475.112	1007.33
475.484	1030.38
475.855	1042.36
476.227	1000.1
476.598	1045.98
476.97	1052.08
477.341	1051.17
477.713	1081
478.084	1067.22
478.455	1081.68
478.827	1101.57
479.198	1109.25
479.569	1097.5
479.94	1131.4
480.311	1144.05
480.682	1135.46
481.053	1148.57
481.424	1144.28
481.795	1172.53
482.166	1170.49
482.537	1189.7
482.908	1182.69
483.279	1188.8
483.65	1203.94
484.021	1201
484.391	1214.56
484.762	1226.99
485.133	1229.25
485.503	1233.09
485.874	1238.74
486.244	1248.68
486.615	1275.35
486.985	1243.26
487.356	1285.97
487.726	1275.57
488.097	1291.39
488.467	1309.02
488.837	1325.74
489.207	1304.95
489.578	1322.8
489.948	1299.53
490.318	1309.25
490.688	1325.97
491.058	1339.98
491.428	1322.35
491.798	1341.33
492.168	1346.31
492.538	1364.16
492.908	1372.75
493.278	1335.91
493.648	1339.3
494.017	1375.46
494.387	1387.66
494.757	1377.94
495.126	1357.38
495.496	1373.88
495.866	1371.16
496.235	1371.16
496.605	1389.02
496.974	1389.92
497.344	1361.45
497.713	1375.68
498.082	1381.33
498.452	1368.9
498.821	1363.26
499.19	1368
499.559	1414.33
499.928	1382.24
500.298	1372.75
500.667	1382.46
501.036	1398.28
501.405	1365.51
501.774	1365.97
502.143	1353.31
502.512	1360.32
502.88	1365.29
503.249	1338.85
503.618	1347.66
503.987	1367.32
504.356	1368.45
504.724	1373.42
505.093	1368
505.462	1361.22
505.83	1359.87
506.199	1345.18
506.567	1356.25
506.936	1373.42
507.304	1379.3
507.672	1379.3
508.041	1331.17
508.409	1339.07
508.777	1339.53
509.145	1341.79
509.514	1343.82
509.882	1360.32
510.25	1344.05
510.618	1349.47
510.986	1330.04
511.354	1350.6
511.722	1344.72
512.09	1354.44
512.458	1326.87
512.826	1345.18
513.193	1341.33
513.561	1324.39
513.929	1323.93
514.297	1343.14
514.664	1311.28
515.032	1336.59
515.4	1329.58
515.767	1315.8
516.135	1326.87
516.502	1301.79
516.869	1301.79
517.237	1316.93
517.604	1294.33
517.972	1304.05
518.339	1323.03
518.706	1294.78
519.073	1298.62
519.44	1278.51
519.808	1272.64
520.175	1292.75
520.542	1283.48
520.909	1272.86
521.276	1241.22
521.643	1266.31
522.009	1268.79
522.376	1262.92
522.743	1282.81
523.11	1268.34
523.477	1277.83
523.843	1267.89
524.21	1264.5
524.577	1273.99
524.943	1271.51
525.31	1254.78
525.676	1281.22
526.043	1250.26
526.409	1279.42
526.776	1286.87
527.142	1244.84
527.508	1258.17
527.874	1247.1
528.241	1257.95
528.607	1236.25
528.973	1252.3
529.339	1268.79
529.705	1252.07
530.071	1245.29
530.437	1249.81
530.803	1265.86
531.169	1280.55
531.535	1238.06
531.901	1235.35
532.267	1255.91
532.632	1263.14
532.998	1259.76
533.364	1258.63
533.73	1234.44
534.095	1236.7
534.461	1256.82
534.826	1245.97
535.192	1254.33
535.557	1287.32
535.923	1232.64
536.288	1261.11
536.653	1265.86
537.019	1268.12
537.384	1246.65
537.749	1224.5
538.114	1222.92
538.479	1251.62
538.845	1260.88
539.21	1237.16
539.575	1238.96
539.94	1236.48
540.305	1225.18
540.67	1251.39
541.034	1262.01
541.399	1216.37
541.764	1206.2
542.129	1224.5
542.494	1228.12
542.858	1260.43
543.223	1230.83
543.587	1244.16
543.952	1226.54
544.316	1222.69
544.681	1200.77
545.045	1208
545.41	1199.19
545.774	1209.36
546.138	1223.15
546.503	1196.03
546.867	1206.65
547.231	1209.36
547.595	1196.03
547.959	1206.42
548.324	1202.13
548.688	1203.49
549.052	1183.6
549.416	1198.97
549.779	1207.78
550.143	1189.7
550.507	1183.82
550.871	1171.62
551.235	1172.98
551.599	1189.47
551.962	1187.44
552.326	1180.66
552.689	1180.21
553.053	1178.4
553.417	1206.42
553.78	1193.77
554.143	1181.34
554.507	1198.74
554.87	1177.05
555.234	1176.82
555.597	1184.28
555.96	1145.63
556.323	1184.28
556.686	1174.56
557.05	1181.34
557.413	1191.06
557.776	1166.42
558.139	1172.3
558.502	1162.81
558.865	1152.19
559.228	1168.01
559.59	1160.55
559.953	1156.25
560.316	1190.6
560.679	1146.54
561.041	1151.74
561.404	1175.24
561.767	1187.44
562.129	1168.23
562.492	1171.62
562.854	1186.99
563.217	1189.7
563.579	1173.43
563.941	1184.05
564.304	1175.46
564.666	1177.27
565.028	1191.51
565.39	1168.01
565.753	1154.45
566.115	1177.95
566.477	1193.09
566.839	1242.81
567.201	1197.61
567.563	1203.71
567.925	1215.91
568.287	1196.03
568.648	1200.55
569.01	1203.26
569.372	1207.78
569.734	1198.97
570.095	1190.38
570.457	1235.35
570.819	1212.3
571.18	1231.96
571.542	1220.89
571.903	1205.29
572.265	1216.59
572.626	1236.03
572.987	1235.57
573.349	1228.34
573.71	1236.93
574.071	1229.02
574.432	1253.2
574.794	1252.75
575.155	1247.33
575.516	1267.66
575.877	1261.34
576.238	1250.49
576.599	1260.66
576.96	1267.44
577.32	1266.99
577.681	1260.43
578.042	1254.11
578.403	1252.52
578.763	1284.39
579.124	1282.35
579.485	1256.14
579.845	1287.55
580.206	1322.13
580.566	1296.59
580.927	1285.52
581.287	1305.86
581.648	1315.8
582.008	1284.84
582.368	1308.12
582.728	1310.38
583.089	1297.04
583.449	1293.65
583.809	1318.06
584.169	1283.71
584.529	1297.95
584.889	1297.95
585.249	1303.37
585.609	1310.15
585.969	1311.05
586.329	1295.91
586.688	1328
587.048	1300.66
587.408	1334.33
587.768	1312.18
588.127	1302.24
588.487	1295.69
588.846	1308.79
589.206	1317.15
589.565	1307.44
589.925	1318.28
590.284	1348.79
590.643	1308.57
591.003	1309.92
591.362	1302.69
591.721	1327.1
592.08	1300.66
592.44	1326.42
592.799	1334.1
593.158	1302.92
593.517	1322.58
593.876	1348.34
594.235	1334.1
594.593	1336.82
594.952	1318.51
595.311	1312.63
595.67	1333.43
596.029	1335.46
596.387	1297.49
596.746	1332.3
597.104	1308.12
597.463	1316.7
597.822	1341.11
598.18	1312.63
598.538	1308.79
598.897	1329.13
599.255	1328.91
599.613	1284.16
599.972	1321.45
600.33	1344.05
600.688	1314.67
601.046	1294.1
601.404	1288.91
601.762	1329.13
602.12	1334.78
602.478	1325.06
602.836	1308.57
603.194	1299.75
603.552	1300.66
603.91	1304.27
604.268	1323.26
604.625	1316.02
604.983	1307.44
605.341	1279.42
605.698	1295.69
606.056	1316.25
606.413	1337.72
606.771	1315.57
607.128	1333.43
607.485	1304.27
607.843	1331.62
608.2	1325.97
608.557	1300.66
608.914	1305.63
609.272	1338.85
609.629	1356.02
609.986	1323.48
610.343	1319.41
610.7	1299.75
611.057	1316.93
611.414	1349.24
611.771	1324.61
612.127	1341.56
612.484	1339.3
612.841	1326.65
613.198	1337.95
613.554	1318.06
613.911	1332.3
614.267	1312.18
614.624	1327.55
614.98	1330.26
615.337	1350.15
615.693	1343.14
616.05	1357.61
616.406	1351.96
616.762	1331.39
617.118	1347.21
617.475	1339.07
617.831	1333.2
618.187	1346.08
618.543	1341.79
618.899	1347.66
619.255	1349.24
619.611	1356.02
619.967	1327.32
620.323	1322.13
620.678	1332.3
621.034	1344.27
621.39	1357.38
621.746	1368
622.101	1347.44
622.457	1332.07
622.812	1326.87
623.168	1347.89
623.523	1331.84
623.879	1363.48
624.234	1340.66
624.589	1329.36
624.945	1355.12
625.3	1367.55
625.655	1337.95
626.01	1367.55
626.365	1347.89
626.72	1369.58
627.075	1358.28
627.43	1349.92
627.785	1362.35
628.14	1339.3
628.495	1373.88
628.85	1364.39
629.205	1332.07
629.559	1383.14
629.914	1383.14
630.269	1339.3
630.623	1356.02
630.978	1376.36
631.332	1336.36
631.687	1357.83
632.041	1350.6
632.396	1372.52
632.75	1358.96
633.104	1343.59
633.459	1351.05
633.813	1368.45
634.167	1354.44
634.521	1349.7
634.875	1383.82
635.229	1359.41
635.583	1356.02
635.937	1346.08
636.291	1340.66
636.645	1361.67
636.999	1340.2
637.352	1359.41
637.706	1376.59
638.06	1367.32
638.413	1362.35
638.767	1366.42
639.121	1338.62
639.474	1367.77
639.828	1355.57
640.181	1347.89
640.534	1367.55
640.888	1335.01
641.241	1358.06
641.594	1379.07
641.947	1367.32
642.301	1348.79
642.654	1370.49
643.007	1364.16
643.36	1351.05
643.713	1349.02
644.066	1350.83
644.419	1356.25
644.771	1368.23
645.124	1332.75
645.477	1347.44
645.83	1342.92
646.182	1348.57
646.535	1336.36
646.888	1338.62
647.24	1318.06
647.593	1348.34
647.945	1362.13
648.298	1351.73
648.65	1354.44
649.002	1355.8
649.355	1349.02
649.707	1342.69
650.059	1358.96
650.411	1364.16
650.763	1368.68
651.115	1356.48
651.467	1356.7
651.819	1372.97
652.171	1400.09
652.523	1386.53
652.875	1383.14
653.227	1375.68
653.578	1390.37
653.93	1380.43
654.282	1382.46
654.633	1407.77
654.985	1370.71
655.337	1373.42
655.688	1398.96
656.039	1402.8
656.391	1377.49
656.742	1421.56
657.094	1420.2
657.445	1380.88
657.796	1418.39
658.147	1424.04
658.498	1408.23
658.849	1423.14
659.2	1382.46
659.551	1415.46
659.902	1414.55
660.253	1393.08
660.604	1423.59
660.955	1396.25
661.306	1422.24
661.656	1394.89
662.007	1439.64
662.358	1384.72
662.708	1433.08
663.059	1408
663.409	1405.51
663.76	1415.23
664.11	1455.91
664.461	1408.45
664.811	1418.17
665.161	1431.73
665.511	1423.82
665.862	1381.11
666.212	1378.85
666.562	1434.44
666.912	1379.07
667.262	1412.07
667.612	1395.8
667.962	1386.08
668.312	1415.68
668.662	1415.01
669.011	1419.98
669.361	1423.59
669.711	1406.19
670.06	1425.63
670.41	1405.97
670.76	1385.85
671.109	1405.29
671.459	1394.67
671.808	1412.97
672.157	1437.6
672.507	1389.24
672.856	1396.02
673.205	1369.13
673.554	1394.89
673.904	1386.31
674.253	1406.87
674.602	1394.21
674.951	1391.95
675.3	1367.1
675.649	1379.3
675.998	1391.73
676.346	1400.09
676.695	1393.08
677.044	1395.57
677.393	1387.44
677.741	1373.42
678.09	1401.22
678.438	1397.15
678.787	1356.48
679.135	1348.34
679.484	1365.97
679.832	1366.19
680.181	1365.97
680.529	1377.04
680.877	1375.68
681.225	1357.15
681.573	1377.04
681.922	1360.32
682.27	1326.87
682.618	1334.1
682.966	1330.26
683.314	1358.74
683.661	1339.53
684.009	1353.31
684.357	1312.86
684.705	1335.91
685.053	1336.59
685.4	1302.47
685.748	1308.34
686.095	1315.12
686.443	1308.79
686.79	1310.83
687.138	1308.57
687.485	1319.19
687.832	1304.95
688.18	1302.01
688.527	1328
688.874	1318.74
689.221	1294.56
689.568	1287.78
689.915	1281
690.262	1299.98
690.609	1292.97
690.956	1292.97
691.303	1290.04
691.65	1287.78
691.997	1282.13
692.344	1267.44
692.69	1280.09
693.037	1266.99
693.383	1286.42
693.73	1267.66
694.077	1276.03
694.423	1251.39
694.769	1241
695.116	1256.14
695.462	1265.18
695.808	1224.28
696.155	1222.02
696.501	1240.09
696.847	1226.54
697.193	1254.33
697.539	1230.6
697.885	1236.25
698.231	1234.22
698.577	1247.78
698.923	1214.11
699.269	1212.98
699.614	1224.95
699.96	1227.67
700.306	1201.9
700.651	1200.77
700.997	1215.91
701.342	1212.52
701.688	1207.33
702.033	1193.99
702.379	1191.06
702.724	1190.6
703.069	1191.28
703.415	1198.29
703.76	1189.47
704.105	1203.49
704.45	1185.18
704.795	1184.5
705.14	1184.73
705.485	1177.27
705.83	1214.33
706.175	1170.27
706.52	1179.31
706.865	1185.63
707.209	1179.53
707.554	1182.47
707.899	1188.57
708.243	1199.87
708.588	1190.15
708.932	1179.08
709.277	1210.26
709.621	1195.35
709.966	1212.07
710.31	1162.13
710.654	1171.62
710.998	1194.22
711.342	1194.9
711.687	1192.41
712.031	1197.84
712.375	1182.47
712.719	1206.2
713.063	1173.2
713.407	1182.02
713.75	1191.51
714.094	1193.54
714.438	1186.76
714.782	1222.92
715.125	1186.99
715.469	1203.49
715.812	1188.34
716.156	1224.5
716.499	1187.44
716.843	1230.83
717.186	1232.41
717.53	1233.09
717.873	1243.71
718.216	1208.46
718.559	1221.56
718.902	1213.88
719.246	1213.2
719.589	1219.98
719.932	1203.49
720.275	1231.06
720.617	1238.74
720.96	1199.19
721.303	1229.7
721.646	1221.34
721.989	1251.39
722.331	1238.74
722.674	1263.14
723.016	1226.76
723.359	1272.18
723.701	1244.84
724.044	1265.4
724.386	1240.77
724.729	1267.66
725.071	1274.22
725.413	1269.47
725.755	1278.29
726.097	1291.62
726.439	1271.51
726.782	1283.94
727.124	1308.79
727.465	1305.86
727.807	1287.1
728.149	1322.35
728.491	1317.83
728.833	1351.96
729.175	1315.12
729.516	1321.45
729.858	1310.38
730.199	1355.35
730.541	1334.1
730.882	1334.33
731.224	1353.99
731.565	1330.49
731.906	1369.81
732.248	1376.59
732.589	1392.41
732.93	1368
733.271	1402.35
733.612	1396.93
733.953	1406.87
734.294	1434.44
734.635	1423.82
734.976	1431.5
735.317	1406.19
735.658	1445.96
735.999	1424.95
736.339	1463.82
736.68	1476.25
737.021	1456.36
737.361	1483.93
737.702	1494.33
738.042	1492.97
738.383	1482.57
738.723	1501.1
739.063	1516.92
739.404	1560.54
739.744	1532.74
740.084	1549.46
740.424	1577.03
740.764	1589.69
741.104	1604.15
741.444	1610.48
741.784	1622.23
742.124	1616.58
742.464	1642.8
742.804	1669.91
743.143	1639.41
743.483	1695.68
743.823	1684.38
744.162	1720.31
744.502	1753.98
744.841	1769.35
745.181	1781.32
745.52	1793.98
745.86	1803.02
746.199	1860.87
746.538	1858.61
746.877	1895.9
747.216	1900.19
747.556	1955.33
747.895	1910.81
748.234	1995.1
748.573	2012.28
748.911	2051.15
749.25	2057.47
749.589	2094.31
749.928	2145.83
750.267	2138.15
750.605	2192.84
750.944	2212.05
751.283	2219.28
751.621	2277.13
751.96	2308.32
752.298	2338.14
752.636	2374.75
752.975	2410.69
753.313	2434.64
753.651	2484.13
753.989	2524.35
754.327	2566.16
754.666	2581.75
755.004	2643.22
755.342	2677.57
755.679	2698.36
756.017	2775.2
756.355	2835.53
756.693	2858.36
757.031	2893.84
757.368	2936.77
757.706	2956.66
758.044	3017
758.381	3046.6
758.719	3102.64
759.056	3145.58
759.394	3206.82
759.731	3233.49
760.068	3282.3
760.405	3291.57
760.743	3377.89
761.08	3404.78
761.417	3458.34
761.754	3445.01
762.091	3537.66
762.428	3613.59
762.765	3582.18
763.102	3675.96
763.438	3699.01
763.775	3723.19
764.112	3772.68
764.449	3816.3
764.785	3856.75
765.122	3908.95
765.458	3922.96
765.795	3968.38
766.131	4037.08
766.467	4051.32
766.804	4087.93
767.14	4066.69
767.476	4152.56
767.812	4127.25
768.148	4185.55
768.485	4233.69
768.821	4242.73
769.157	4290.41
769.492	4295.61
769.828	4371.76
770.164	4336.06
770.5	4421.25
770.836	4386.9
771.171	4396.85
771.507	4468.26
771.842	4443.63
772.178	4499.22
