Data from blue_chair_FLMS001491_00073.txt Node
Date: Wed Feb 08 10:31:44 GMT 2017
User: dcchb
Spectrometer: FLMS00149
Trigger mode: 0
Integration Time (sec): 2.000000E-2
Scans to average: 10
Electric dark correction enabled: true
Nonlinearity correction enabled: false
Boxcar width: 0
XAxis mode: Wavelengths
Number of Pixels in Spectrum: 2048
>>>>>Begin Spectral Data<<<<<
341.393	-0.97
341.776	-0.97
342.16	-0.97
342.543	-64.93
342.927	-54.08
343.31	-62.89
343.693	-67.41
344.077	-66.96
344.46	-61.76
344.843	-51.82
345.226	-37.81
345.61	-39.39
345.993	-12.73
346.376	2.42
346.759	8.97
347.142	24.56
347.525	44.9
347.908	50.1
348.291	86.93
348.674	76.09
349.057	106.82
349.44	130.55
349.823	126.48
350.206	146.59
350.588	181.39
350.971	176.2
351.354	213.03
351.737	204.9
352.119	216.87
352.502	245.35
352.884	257.1
353.267	238.57
353.65	264.78
354.032	246.25
354.414	294.61
354.797	289.41
355.179	292.58
355.562	309.53
355.944	310.66
356.326	305.68
356.709	307.04
357.091	302.07
357.473	298.23
357.855	321.28
358.238	287.38
358.62	308.4
359.002	299.58
359.384	315.18
359.766	311.56
360.148	300.71
360.53	300.26
360.912	302.75
361.294	308.62
361.676	307.94
362.057	309.75
362.439	307.94
362.821	305.68
363.203	282.41
363.584	292.35
363.966	279.92
364.348	301.62
364.729	269.07
365.111	281.96
365.493	288.51
365.874	290.54
366.256	300.03
366.637	288.28
367.019	262.07
367.4	267.27
367.781	282.86
368.163	274.95
368.544	276.98
368.925	287.61
369.306	272.01
369.688	279.24
370.069	256.42
370.45	273.37
370.831	282.41
371.212	271.33
371.593	295.06
371.974	266.59
372.355	262.75
372.736	284.67
373.117	258.91
373.498	256.19
373.879	288.06
374.26	295.97
374.641	260.49
375.021	285.57
375.402	288.06
375.783	271.56
376.163	282.63
376.544	295.51
376.925	309.07
377.305	293.71
377.686	276.08
378.066	293.93
378.447	305.68
378.827	274.5
379.208	283.99
379.588	291.67
379.968	294.84
380.349	294.38
380.729	292.13
381.109	299.36
381.489	301.16
381.87	300.94
382.25	299.58
382.63	301.16
383.01	296.42
383.39	285.12
383.77	281.5
384.15	313.14
384.53	290.09
384.91	298.23
385.29	320.15
385.67	311.79
386.049	281.73
386.429	276.08
386.809	289.19
387.189	294.16
387.568	297.55
387.948	301.16
388.328	288.96
388.707	290.77
389.087	292.13
389.466	301.62
389.846	275.4
390.225	299.58
390.605	306.36
390.984	302.52
391.363	310.66
391.743	318.34
392.122	311.79
392.501	310.66
392.881	329.19
393.26	314.72
393.639	319.47
394.018	326.02
394.397	324.89
394.776	303.65
395.155	316.98
395.534	323.08
395.913	298.68
396.292	328.06
396.671	330.32
397.05	321.5
397.429	297.1
397.808	318.79
398.186	322.41
398.565	317.66
398.944	317.21
399.323	332.35
399.701	326.7
400.08	313.14
400.458	319.02
400.837	328.28
401.215	335.06
401.594	333.03
401.972	331.67
402.351	317.89
402.729	322.63
403.107	352.24
403.486	342.75
403.864	344.55
404.242	325.12
404.62	375.06
404.999	340.49
405.377	348.85
405.755	359.69
406.133	347.94
406.511	343.2
406.889	341.62
407.267	351.11
407.645	330.09
408.023	338.68
408.401	351.33
408.779	361.05
409.156	358.34
409.534	354.27
409.912	365.34
410.29	365.12
410.667	341.84
411.045	362.18
411.422	350.65
411.8	363.08
412.178	357.43
412.555	356.3
412.933	376.42
413.31	361.28
413.687	367.83
414.065	364.89
414.442	376.42
414.819	385.91
415.197	381.16
415.574	371.22
415.951	394.72
416.328	375.51
416.705	367.38
417.082	395.85
417.46	371.9
417.837	394.95
418.214	385
418.591	385.23
418.967	388.17
419.344	385.23
419.721	388.85
420.098	387.04
420.475	384.1
420.852	402.18
421.228	401.73
421.605	414.83
421.982	415.74
422.358	399.47
422.735	401.27
423.111	418.68
423.488	415.51
423.864	418
424.241	417.55
424.617	432.46
424.994	417.55
425.37	439.24
425.746	442.63
426.123	440.82
426.499	435.85
426.875	431.1
427.251	446.25
427.627	451.44
428.003	449.86
428.379	439.24
428.756	442.86
429.132	443.31
429.507	451.89
429.883	450.31
430.259	467.04
430.635	468.39
431.011	448.96
431.387	478.56
431.763	478.56
432.138	472.01
432.514	458.22
432.89	467.26
433.265	491.89
433.641	481.95
434.016	485.79
434.392	493.48
434.767	529.63
435.143	540.93
435.518	501.39
435.894	520.59
436.269	518.79
436.644	505.68
437.02	522.18
437.395	542.74
437.77	537.99
438.145	530.08
438.52	559.01
438.895	568.5
439.271	540.25
439.646	559.01
440.021	562.63
440.395	576.41
440.77	570.99
441.145	580.48
441.52	576.41
441.895	582.51
442.27	581.38
442.645	580.71
443.019	597.88
443.394	573.25
443.769	589.74
444.143	573.7
444.518	603.98
444.892	591.55
445.267	596.52
445.641	607.6
446.016	606.47
446.39	627.26
446.764	631.55
447.139	628.16
447.513	633.13
447.887	630.65
448.262	629.74
448.636	640.59
449.01	646.24
449.384	653.02
449.758	650.53
450.132	657.09
450.506	639.69
450.88	672.91
451.254	666.8
451.628	660.48
452.002	669.97
452.376	682.4
452.75	659.57
453.123	686.69
453.497	695.5
453.871	697.54
454.244	706.13
454.618	697.99
454.992	699.35
455.365	712
455.739	712.45
456.112	726.92
456.486	710.42
456.859	733.02
457.232	746.58
457.606	749.29
457.979	744.99
458.352	744.54
458.725	747.03
459.099	761.49
459.472	753.36
459.845	739.57
460.218	756.52
460.591	764.2
460.964	749.06
461.337	783.41
461.71	787.03
462.083	799.68
462.456	799.68
462.829	809.4
463.201	824.99
463.574	814.6
463.947	815.5
464.32	824.99
464.692	826.12
465.065	810.76
465.438	832
465.81	812.79
466.183	857.76
466.555	874.93
466.928	867.48
467.3	840.13
467.672	865.9
468.045	864.54
468.417	872
468.789	895.5
469.161	909.51
469.534	911.54
469.906	883.52
470.278	916.74
470.65	917.19
471.022	944.09
471.394	930.75
471.766	928.04
472.138	947.25
472.51	949.73
472.882	957.19
473.253	960.36
473.625	953.12
473.997	982.95
474.369	963.75
474.74	974.59
475.112	976.85
475.484	992.22
475.855	1008.04
476.227	1041.71
476.598	1050.3
476.97	1043.97
477.341	1049.39
477.713	1051.2
478.084	1069.28
478.455	1090.3
478.827	1085.1
479.198	1090.3
479.569	1103.86
479.94	1121.93
480.311	1107.47
480.682	1131.43
481.053	1152.44
481.424	1152.22
481.795	1152.44
482.166	1162.61
482.537	1166.45
482.908	1194.02
483.279	1187.24
483.65	1190.63
484.021	1219.11
484.391	1248.26
484.762	1220.24
485.133	1233.8
485.503	1224.98
485.874	1254.36
486.244	1243.06
486.615	1253.23
486.985	1294.13
487.356	1248.26
487.726	1262.95
488.097	1295.71
488.467	1281.03
488.837	1282.38
489.207	1300.23
489.578	1325.77
489.948	1318.31
490.318	1321.93
490.688	1338.2
491.058	1344.3
491.428	1341.36
491.798	1335.49
492.168	1358.09
492.538	1345.66
492.908	1321.48
493.278	1356.73
493.648	1366.67
494.017	1373.45
494.387	1359.44
494.757	1357.18
495.126	1388.59
495.496	1374.36
495.866	1372.55
496.235	1371.64
496.605	1329.61
496.974	1373.23
497.344	1381.81
497.713	1355.6
498.082	1373.9
498.452	1358.31
498.821	1368.48
499.19	1348.59
499.559	1358.76
499.928	1379.1
500.298	1378.42
500.667	1391.98
501.036	1367.8
501.405	1346.56
501.774	1372.1
502.143	1372.77
502.512	1358.31
502.88	1360.12
503.249	1352.21
503.618	1380.91
503.987	1362.38
504.356	1344.53
504.724	1387.24
505.093	1366.67
505.462	1367.58
505.83	1354.02
506.199	1359.89
506.567	1355.15
506.936	1379.33
507.304	1345.2
507.672	1376.84
508.041	1356.73
508.409	1342.49
508.777	1331.87
509.145	1359.22
509.514	1368.03
509.882	1318.09
510.25	1317.63
510.618	1339.33
510.986	1350.85
511.354	1333.68
511.722	1338.43
512.09	1356.96
512.458	1350.18
512.826	1332.55
513.193	1333.23
513.561	1324.41
513.929	1342.27
514.297	1337.07
514.664	1321.93
515.032	1297.3
515.4	1308.82
515.767	1330.74
516.135	1314.92
516.502	1288.26
516.869	1330.97
517.237	1306.56
517.604	1305.66
517.972	1307.01
518.339	1300.46
518.706	1262.27
519.073	1286.22
519.44	1300.69
519.808	1277.86
520.175	1287.58
520.542	1297.97
520.909	1256.17
521.276	1262.27
521.643	1277.41
522.009	1269.95
522.376	1276.73
522.743	1260.46
523.11	1239.22
523.477	1267.69
523.843	1275.83
524.21	1269.73
524.577	1281.25
524.943	1277.18
525.31	1259.56
525.676	1291.65
526.043	1278.77
526.409	1268.6
526.776	1232.21
527.142	1281.03
527.508	1246.45
527.874	1260.01
528.241	1265.66
528.607	1260.69
528.973	1271.53
529.339	1266.11
529.705	1276.28
530.071	1261.37
530.437	1283.29
530.803	1264.08
531.169	1241.7
531.535	1253.91
531.901	1261.14
532.267	1244.19
532.632	1275.6
532.998	1267.92
533.364	1232.89
533.73	1255.72
534.095	1253.23
534.461	1274.25
534.826	1246.45
535.192	1241.7
535.557	1275.15
535.923	1236.51
536.288	1243.06
536.653	1245.55
537.019	1245.55
537.384	1272.89
537.749	1251.87
538.114	1232.89
538.479	1246.68
538.845	1215.49
539.21	1217.07
539.575	1251.65
539.94	1233.8
540.305	1230.63
540.67	1228.15
541.034	1240.35
541.399	1243.96
541.764	1216.85
542.129	1236.96
542.494	1229.28
542.858	1228.37
543.223	1228.82
543.587	1208.71
543.952	1251.2
544.316	1217.3
544.681	1236.96
545.045	1203.29
545.41	1202.38
545.774	1201.93
546.138	1204.64
546.503	1234.02
546.867	1223.4
547.231	1188.82
547.595	1225.89
547.959	1216.17
548.324	1195.15
548.688	1203.74
549.052	1180.92
549.416	1186.34
549.779	1193.34
550.143	1184.98
550.507	1182.27
550.871	1189.05
551.235	1182.5
551.599	1175.04
551.962	1192.21
552.326	1161.93
552.689	1186.79
553.053	1179.79
553.417	1196.06
553.78	1210.29
554.143	1187.47
554.507	1179.79
554.87	1152.44
555.234	1185.66
555.597	1168.94
555.96	1166.68
556.323	1185.66
556.686	1179.33
557.05	1164.42
557.413	1168.26
557.776	1177.53
558.139	1178.43
558.502	1164.87
558.865	1155.15
559.228	1198.54
559.59	1185.21
559.953	1168.94
560.316	1181.37
560.679	1176.17
561.041	1175.04
561.404	1165.1
561.767	1197.41
562.129	1165.77
562.492	1187.47
562.854	1159.9
563.217	1189.73
563.579	1171.65
563.941	1187.69
564.304	1169.39
564.666	1177.07
565.028	1198.77
565.39	1173.68
565.753	1177.07
566.115	1176.62
566.477	1196.28
566.839	1196.73
567.201	1192.67
567.563	1178.43
567.925	1205.77
568.287	1182.5
568.648	1202.84
569.01	1199.45
569.372	1213.23
569.734	1235.38
570.095	1222.5
570.457	1200.8
570.819	1197.86
571.18	1218.65
571.542	1196.96
571.903	1232.89
572.265	1222.27
572.626	1237.64
572.987	1208.03
573.349	1235.6
573.71	1236.73
574.071	1242.16
574.432	1250.74
574.794	1258.2
575.155	1254.59
575.516	1231.08
575.877	1281.93
576.238	1246
576.599	1256.17
576.96	1257.52
577.32	1235.38
577.681	1262.04
578.042	1297.75
578.403	1283.51
578.763	1275.15
579.124	1280.8
579.485	1266.79
579.845	1291.19
580.206	1314.47
580.566	1316.73
580.927	1296.84
581.287	1304.3
581.648	1307.69
582.008	1289.39
582.368	1290.74
582.728	1294.36
583.089	1311.08
583.449	1291.19
583.809	1320.57
584.169	1317.18
584.529	1336.39
584.889	1314.02
585.249	1312.44
585.609	1302.72
585.969	1328.48
586.329	1307.92
586.688	1313.57
587.048	1325.09
587.408	1328.93
587.768	1299.33
588.127	1292.55
588.487	1323.74
588.846	1329.16
589.206	1312.44
589.565	1332.55
589.925	1322.83
590.284	1330.74
590.643	1323.74
591.003	1325.77
591.362	1309.05
591.721	1314.02
592.08	1321.93
592.44	1320.35
592.799	1321.02
593.158	1310.18
593.517	1318.76
593.876	1326.22
594.235	1313.12
594.593	1312.21
594.952	1311.08
595.311	1303.4
595.67	1316.05
596.029	1303.17
596.387	1310.18
596.746	1303.62
597.104	1323.96
597.463	1306.11
597.822	1302.27
598.18	1313.79
598.538	1324.19
598.897	1301.14
599.255	1316.28
599.613	1312.44
599.972	1318.76
600.33	1324.87
600.688	1302.04
601.046	1305.43
601.404	1321.02
601.762	1309.27
602.12	1319.67
602.478	1326.45
602.836	1333.23
603.194	1330.06
603.552	1318.76
603.91	1324.19
604.268	1349.27
604.625	1333.68
604.983	1305.88
605.341	1318.54
605.698	1286
606.056	1338.65
606.413	1334.36
606.771	1335.04
607.128	1320.57
607.485	1313.57
607.843	1300.01
608.2	1314.02
608.557	1332.55
608.914	1315.6
609.272	1308.37
609.629	1334.81
609.986	1336.39
610.343	1318.54
610.7	1324.41
611.057	1296.84
611.414	1337.97
611.771	1325.77
612.127	1333.68
612.484	1357.41
612.841	1330.97
613.198	1342.49
613.554	1331.42
613.911	1324.64
614.267	1322.15
614.624	1326.45
614.98	1316.73
615.337	1328.48
615.693	1361.25
616.05	1307.92
616.406	1342.04
616.762	1309.73
617.118	1312.89
617.475	1352.89
617.831	1331.19
618.187	1344.98
618.543	1338.88
618.899	1324.64
619.255	1338.88
619.611	1347.46
619.967	1354.47
620.323	1348.82
620.678	1346.33
621.034	1332.78
621.39	1312.44
621.746	1358.31
622.101	1353.79
622.457	1354.7
622.812	1345.88
623.168	1362.38
623.523	1347.01
623.879	1341.36
624.234	1331.65
624.589	1375.03
624.945	1359.67
625.3	1345.66
625.655	1364.87
626.01	1362.38
626.365	1353.34
626.72	1358.54
627.075	1339.56
627.43	1374.13
627.785	1331.19
628.14	1334.36
628.495	1358.54
628.85	1354.24
629.205	1362.15
629.559	1352.66
629.914	1357.63
630.269	1359.89
630.623	1319.67
630.978	1350.63
631.332	1358.76
631.687	1342.94
632.041	1330.74
632.396	1367.35
632.75	1374.36
633.104	1366
633.459	1376.62
633.813	1333.91
634.167	1383.62
634.521	1373.23
634.875	1337.3
635.229	1368.25
635.583	1365.77
635.937	1363.51
636.291	1358.54
636.645	1371.42
636.999	1369.38
637.352	1350.63
637.706	1371.19
638.06	1366
638.413	1358.76
638.767	1364.87
639.121	1349.5
639.474	1368.48
639.828	1379.55
640.181	1360.57
640.534	1334.58
640.888	1354.24
641.241	1348.59
641.594	1354.02
641.947	1354.7
642.301	1339.56
642.654	1341.82
643.007	1385.43
643.36	1383.4
643.713	1340.69
644.066	1352.66
644.419	1333.68
644.771	1353.79
645.124	1350.4
645.477	1351.76
645.83	1330.06
646.182	1335.71
646.535	1356.05
646.888	1347.69
647.24	1335.04
647.593	1355.83
647.945	1360.35
648.298	1341.59
648.65	1317.63
649.002	1333.23
649.355	1356.5
649.707	1342.94
650.059	1349.27
650.411	1365.54
650.763	1365.54
651.115	1382.27
651.467	1396.5
651.819	1389.72
652.171	1374.58
652.523	1421.13
652.875	1393.11
653.227	1378.65
653.578	1383.4
653.93	1384.3
654.282	1391.53
654.633	1369.61
654.985	1389.72
655.337	1375.71
655.688	1387.69
656.039	1416.39
656.391	1379.78
656.742	1387.69
657.094	1397.18
657.445	1385.88
657.796	1412.77
658.147	1407.58
658.498	1376.39
658.849	1391.76
659.2	1429.04
659.551	1417.75
659.902	1416.62
660.253	1418.2
660.604	1417.75
660.955	1401.25
661.306	1426.78
661.656	1381.59
662.007	1415.49
662.358	1404.64
662.708	1416.16
663.059	1435.15
663.409	1406.22
663.76	1413.45
664.11	1423.85
664.461	1392.66
664.811	1400.12
665.161	1420.46
665.511	1418.65
665.862	1409.84
666.212	1406.22
666.562	1434.02
666.912	1405.54
667.262	1434.92
667.612	1414.36
667.962	1405.77
668.312	1416.62
668.662	1409.84
669.011	1378.2
669.361	1394.92
669.711	1389.27
670.06	1396.73
670.41	1408.25
670.76	1392.89
671.109	1388.37
671.459	1409.38
671.808	1395.37
672.157	1411.64
672.507	1407.8
672.856	1377.07
673.205	1394.69
673.554	1407.8
673.904	1396.5
674.253	1395.37
674.602	1394.69
674.951	1355.83
675.3	1350.4
675.649	1371.19
675.998	1364.41
676.346	1382.27
676.695	1386.79
677.044	1386.33
677.393	1361.25
677.741	1389.95
678.09	1381.59
678.438	1361.93
678.787	1360.35
679.135	1351.76
679.484	1376.16
679.832	1370.74
680.181	1344.53
680.529	1356.73
680.877	1346.33
681.225	1358.76
681.573	1357.41
681.922	1364.87
682.27	1364.64
682.618	1359.22
682.966	1351.76
683.314	1353.79
683.661	1331.19
684.009	1311.08
684.357	1325.09
684.705	1343.62
685.053	1342.27
685.4	1321.7
685.748	1335.04
686.095	1311.08
686.443	1303.85
686.79	1302.72
687.138	1290.29
687.485	1255.72
687.832	1298.2
688.18	1313.57
688.527	1292.78
688.874	1297.97
689.221	1293.45
689.568	1299.1
689.915	1289.16
690.262	1291.42
690.609	1275.15
690.956	1289.61
691.303	1256.17
691.65	1273.79
691.997	1283.06
692.344	1242.38
692.69	1293.23
693.037	1300.69
693.383	1239.9
693.73	1274.25
694.077	1260.46
694.423	1272.66
694.769	1236.28
695.116	1242.38
695.462	1260.69
695.808	1239.67
696.155	1255.26
696.501	1250.07
696.847	1210.75
697.193	1215.94
697.539	1231.08
697.885	1225.66
698.231	1232.67
698.577	1216.39
698.923	1242.16
699.269	1215.49
699.614	1207.58
699.96	1216.17
700.306	1189.73
700.651	1211.42
700.997	1203.97
701.342	1197.86
701.688	1199.67
702.033	1226.11
702.379	1175.27
702.724	1191.08
703.069	1199.45
703.415	1194.93
703.76	1196.73
704.105	1168.71
704.45	1182.05
704.795	1201.03
705.14	1172.1
705.485	1175.27
705.83	1185.66
706.175	1181.37
706.52	1208.03
706.865	1201.03
707.209	1194.47
707.554	1185.43
707.899	1191.08
708.243	1175.49
708.588	1196.51
708.932	1160.35
709.277	1170.75
709.621	1182.5
709.966	1193.8
710.31	1200.12
710.654	1182.05
710.998	1168.26
711.342	1191.31
711.687	1179.33
712.031	1173.68
712.375	1181.82
712.719	1212.1
713.063	1194.7
713.407	1204.19
713.75	1173.68
714.094	1176.4
714.438	1198.32
714.782	1215.94
715.125	1203.29
715.469	1192.44
715.812	1187.92
716.156	1172.33
716.499	1206.9
716.843	1198.09
717.186	1212.33
717.53	1209.62
717.873	1239.9
718.216	1213.23
718.559	1230.63
718.902	1212.1
719.246	1219.56
719.589	1200.12
719.932	1232.67
720.275	1217.07
720.617	1212.55
720.96	1225.21
721.303	1255.26
721.646	1213.91
721.989	1207.81
722.331	1262.72
722.674	1209.39
723.016	1243.06
723.359	1233.57
723.701	1261.82
724.044	1258.88
724.386	1254.13
724.729	1291.19
725.071	1258.88
725.413	1262.72
725.755	1273.79
726.097	1270.86
726.439	1291.65
726.782	1292.32
727.124	1298.88
727.465	1296.62
727.807	1303.85
728.149	1318.76
728.491	1353.57
728.833	1320.12
729.175	1342.49
729.516	1315.6
729.858	1319.67
730.199	1331.65
730.541	1336.17
730.882	1335.94
731.224	1353.79
731.565	1361.02
731.906	1341.36
732.248	1363.74
732.589	1375.03
732.93	1352.44
733.271	1389.27
733.612	1400.12
733.953	1401.25
734.294	1413.45
734.635	1408.93
734.976	1418.42
735.317	1418.65
735.658	1416.62
735.999	1425.65
736.339	1434.24
736.68	1460.23
737.021	1450.51
737.361	1450.96
737.702	1507.46
738.042	1514.92
738.383	1502.94
738.723	1517.4
739.063	1518.31
739.404	1525.09
739.744	1568.48
740.084	1566.67
740.424	1567.35
740.764	1603.96
741.104	1591.75
741.444	1611.86
741.784	1613.45
742.124	1642.82
742.464	1661.58
742.804	1668.59
743.143	1666.1
743.483	1701.81
743.823	1725.99
744.162	1713.33
744.502	1753.33
744.841	1775.93
745.181	1805.08
745.52	1799.2
745.86	1808.47
746.199	1840.56
746.538	1871.07
746.877	1864.51
747.216	1908.81
747.556	1921.46
747.895	1954.68
748.234	1941.12
748.573	2015.7
748.911	2010.72
749.25	2048.92
749.589	2107.22
749.928	2088.24
750.267	2172.75
750.605	2174.34
750.944	2193.09
751.283	2229.25
751.621	2310.83
751.96	2326.87
752.298	2324.84
752.636	2341.34
752.975	2412.07
753.313	2419.98
753.651	2481.67
753.989	2543.37
754.327	2551.95
754.666	2591.73
755.004	2619.07
755.342	2709.01
755.679	2733.42
756.017	2736.58
756.355	2810.02
756.693	2843.24
757.031	2911.94
757.368	2909.23
757.706	2976.35
758.044	2985.61
758.381	3063.58
758.719	3120.98
759.056	3096.12
759.394	3200.07
759.731	3223.35
760.068	3248.66
760.405	3317.36
760.743	3362.55
761.08	3409.56
761.417	3421.31
761.754	3498.37
762.091	3555.09
762.428	3555.99
762.765	3631.47
763.102	3691.13
763.438	3694.97
763.775	3733.16
764.112	3783.11
764.449	3817.46
764.785	3889.54
765.122	3879.6
765.458	3945.36
765.795	3930.22
766.131	4017.22
766.467	4016.09
766.804	4037.11
767.14	4101.97
767.476	4106.49
767.812	4133.15
768.148	4217.45
768.485	4275.3
768.821	4251.79
769.157	4260.61
769.492	4313.71
769.828	4366.14
770.164	4355.97
770.5	4374.73
770.836	4410.21
771.171	4400.49
771.507	4433.71
771.842	4483.2
