Data from blue_clamp_base_FLMS001491_00094.txt Node
Date: Wed Feb 08 15:16:48 GMT 2017
User: dcchb
Spectrometer: FLMS00149
Trigger mode: 0
Integration Time (sec): 2.000000E-2
Scans to average: 10
Electric dark correction enabled: true
Nonlinearity correction enabled: false
Boxcar width: 0
XAxis mode: Wavelengths
Number of Pixels in Spectrum: 2048
>>>>>Begin Spectral Data<<<<<
341.393	-16.16
341.776	-16.16
342.16	-16.16
342.543	-52.77
342.927	-73.11
343.31	-80.79
343.693	-70.39
344.077	-58.19
344.46	-66.78
344.843	-71.3
345.226	-50.96
345.61	-28.13
345.993	-18.19
346.376	-1.02
346.759	30.39
347.142	19.1
347.525	53.22
347.908	55.93
348.291	76.27
348.674	104.97
349.057	105.87
349.44	117.62
349.823	129.6
350.206	170.28
350.588	197.62
350.971	228.81
351.354	224.74
351.737	243.95
352.119	264.96
352.502	284.4
352.884	287.11
353.267	276.72
353.65	301.57
354.032	302.7
354.414	331.63
354.797	323.49
355.179	318.52
355.562	328.47
355.944	336.38
356.326	344.28
356.709	354.23
357.091	335.7
357.473	352.42
357.855	342.93
358.238	346.54
358.62	350.16
359.002	353.1
359.384	343.38
359.766	337.96
360.148	353.78
360.53	346.77
360.912	349.93
361.294	344.28
361.676	323.72
362.057	342.25
362.439	348.35
362.821	319.88
363.203	356.04
363.584	325.08
363.966	318.75
364.348	331.18
364.729	344.51
365.111	332.76
365.493	329.37
365.874	325.98
366.256	335.02
366.637	316.49
367.019	311.52
367.4	342.93
367.781	330.95
368.163	335.47
368.544	328.47
368.925	332.53
369.306	333.44
369.688	315.13
370.069	328.24
370.45	338.64
370.831	344.96
371.212	333.89
371.593	325.75
371.974	339.77
372.355	328.01
372.736	343.15
373.117	327.34
373.498	348.58
373.879	332.76
374.26	335.47
374.641	336.38
375.021	331.18
375.402	333.21
375.783	342.02
376.163	330.95
376.544	340.89
376.925	322.36
377.305	351.97
377.686	343.38
378.066	357.84
378.447	364.62
378.827	361.01
379.208	329.6
379.588	353.32
379.968	359.2
380.349	364.62
380.729	368.01
381.109	375.02
381.489	388.13
381.87	356.94
382.25	362.59
382.63	357.17
383.01	373.89
383.39	379.99
383.77	366.21
384.15	365.98
384.53	356.94
384.91	369.37
385.29	380.89
385.67	395.36
386.049	403.94
386.429	392.19
386.809	401.91
387.189	413.21
387.568	395.36
387.948	366.21
388.328	410.05
388.707	413.89
389.087	389.93
389.466	406.88
389.846	420.89
390.225	434.23
390.605	417.96
390.984	441.91
391.363	430.16
391.743	442.36
392.122	415.02
392.501	441.01
392.881	433.1
393.26	436.71
393.639	470.61
394.018	451.63
394.397	447.33
394.776	463.83
395.155	444.17
395.534	483.49
395.913	458.41
396.292	508.57
396.671	476.94
397.05	488.69
397.429	507.9
397.808	508.57
398.186	497.95
398.565	483.72
398.944	492.08
399.323	525.52
399.701	504.51
400.08	528.91
400.458	526.43
400.837	522.59
401.215	562.13
401.594	534.34
401.972	573.43
402.351	561.45
402.729	547.22
403.107	547.9
403.486	564.84
403.864	589.48
404.242	568.23
404.62	589.25
404.999	616.37
405.377	593.09
405.755	596.03
406.133	640.55
406.511	609.59
406.889	626.31
407.267	645.29
407.645	659.53
408.023	657.72
408.401	659.76
408.779	659.98
409.156	659.53
409.534	660.21
409.912	669.25
410.29	697.27
410.667	718.06
411.045	705.86
411.422	744.27
411.8	737.04
412.178	759.19
412.555	743.6
412.933	750.83
413.31	795.35
413.687	768.91
414.065	777.04
414.442	798.51
414.819	792.18
415.197	818.62
415.574	823.82
415.951	836.93
416.328	828.34
416.705	821.79
417.082	838.06
417.46	849.81
417.837	865.63
418.214	885.29
418.591	902.46
418.967	878.28
419.344	877.83
419.721	875.12
420.098	912.18
420.475	911.28
420.852	919.64
421.228	933.65
421.605	946.08
421.982	953.76
422.358	959.64
422.735	979.52
423.111	950.82
423.488	1003.48
423.864	994.44
424.241	1011.61
424.617	1025.4
424.994	1012.74
425.37	1003.25
425.746	1049.35
426.123	1050.48
426.499	1035.79
426.875	1079.63
427.251	1073.98
427.627	1112.17
428.003	1117.6
428.379	1154.43
428.756	1180.65
429.132	1179.97
429.507	1173.64
429.883	1184.71
430.259	1213.41
430.635	1215.22
431.011	1236.69
431.387	1272.62
431.763	1276.01
432.138	1273.75
432.514	1289.34
432.89	1297.03
433.265	1352.17
433.641	1361.66
434.016	1366.4
434.392	1386.97
434.767	1408.44
435.143	1426.06
435.518	1435.56
435.894	1435.56
436.269	1476.23
436.644	1498.83
437.02	1505.38
437.395	1515.1
437.77	1546.51
438.145	1564.82
438.52	1564.37
438.895	1590.58
439.271	1575.21
439.646	1616.79
440.021	1644.14
440.395	1640.75
440.77	1616.79
441.145	1673.06
441.52	1664.02
441.895	1671.03
442.27	1703.8
442.645	1718.03
443.019	1722.33
443.394	1709.45
443.769	1744.47
444.143	1752.84
444.518	1778.6
444.892	1808.88
445.267	1806.85
445.641	1821.53
446.016	1799.61
446.39	1835.77
446.764	1854.98
447.139	1872.38
447.513	1871.25
447.887	1879.84
448.262	1908.54
448.636	1898.37
449.01	1928.65
449.384	1952.6
449.758	1984.92
450.132	2005.03
450.506	2034.86
450.88	2026.5
451.254	2022.43
451.628	2058.14
452.002	2078.02
452.376	2094.75
452.75	2147.4
453.123	2086.61
453.497	2163.45
453.871	2178.13
454.244	2200.06
454.618	2235.53
454.992	2261.75
455.365	2263.56
455.739	2289.09
456.112	2325.48
456.486	2352.14
456.859	2394.17
457.232	2432.14
457.606	2379.94
457.979	2460.84
458.352	2489.99
458.725	2513.95
459.099	2551.46
459.472	2557.56
459.845	2593.27
460.218	2618.8
460.591	2667.16
460.964	2633.04
461.337	2734.5
461.71	2734.05
462.083	2786.03
462.456	2767.95
462.829	2776.31
463.201	2813.6
463.574	2883.43
463.947	2893.37
464.32	2940.6
464.692	2959.13
465.065	2975.63
465.438	2962.75
465.81	3067.38
466.183	3033.03
466.555	3134.04
466.928	3173.59
467.3	3132.91
467.672	3197.54
468.045	3286.13
468.417	3221.27
468.789	3293.36
469.161	3339.23
469.534	3377.2
469.906	3405.22
470.278	3475.5
470.65	3472.11
471.022	3558.66
471.394	3604.54
471.766	3645.89
472.138	3670.07
472.51	3728.83
472.882	3767.92
473.253	3811.09
473.625	3843.18
473.997	3920.24
474.369	3946.22
474.74	4011.31
475.112	4016.28
475.484	4083.62
475.855	4157.97
476.227	4168.59
476.598	4307.57
476.97	4276.16
477.341	4402.94
477.713	4444.29
478.084	4353.22
478.455	4536.26
478.827	4594.79
479.198	4638.41
479.569	4685.41
479.94	4783.94
480.311	4796.6
480.682	4902.13
481.053	4973.54
481.424	5068.91
481.795	5065.29
482.166	5162.01
482.537	5209.02
482.908	5278.62
483.279	5351.16
483.65	5390.71
484.021	5489.46
484.391	5546.63
484.762	5540.08
485.133	5544.15
485.503	5642.68
485.874	5757.93
486.244	5779.17
486.615	5838.6
486.985	5935.78
487.356	5982.78
487.726	6028.43
488.097	6045.83
488.467	6101.2
488.837	6228.42
489.207	6205.83
489.578	6303
489.948	6374.63
490.318	6395.43
490.688	6380.96
491.058	6478.13
491.428	6531.24
491.798	6540.05
492.168	6694.4
492.538	6712.93
492.908	6745.47
493.278	6798.58
493.648	6799.26
494.017	6881.29
494.387	6915.64
494.757	6911.8
495.126	6987.73
495.496	6976.43
495.866	7008.29
496.235	7051.9
496.605	7118.12
496.974	7107.5
497.344	7172.35
497.713	7157.21
498.082	7175.74
498.452	7229.08
498.821	7279.24
499.19	7255.97
499.559	7308.17
499.928	7287.6
500.298	7337.55
500.667	7368.05
501.036	7368.28
501.405	7460.03
501.774	7415.06
502.143	7437.43
502.512	7468.84
502.88	7570.54
503.249	7435.17
503.618	7565.34
503.987	7579.8
504.356	7606.24
504.724	7599.24
505.093	7638.56
505.462	7679.23
505.83	7662.51
506.199	7697.99
506.567	7737.54
506.936	7781.15
507.304	7815.27
507.672	7820.02
508.041	7879.45
508.409	7911.54
508.777	7902.96
509.145	7919.68
509.514	7977.3
509.882	7991.32
510.25	7963.29
510.618	8029.51
510.986	8046.91
511.354	8088.49
511.722	8134.81
512.09	8161.48
512.458	8166.45
512.826	8240.35
513.193	8192.89
513.561	8228.37
513.929	8270.18
514.297	8389.27
514.664	8355.15
515.032	8360.8
515.4	8457.97
515.767	8413.23
516.135	8421.36
516.502	8406.22
516.869	8495.93
517.237	8594.69
517.604	8526.67
517.972	8602.15
518.339	8578.64
518.706	8616.61
519.073	8652.54
519.44	8714.01
519.808	8755.59
520.175	8706.1
520.542	8815.93
520.909	8833.55
521.276	8794.23
521.643	8865.87
522.009	8902.48
522.376	8919.43
522.743	9000.33
523.11	8985.87
523.477	9098.18
523.843	9134.11
524.21	9153.32
524.577	9205.52
524.943	9252.75
525.31	9321.68
525.676	9295.01
526.043	9337.27
526.409	9496.59
526.776	9402.8
527.142	9486.19
527.508	9532.29
527.874	9560.31
528.241	9596.02
528.607	9655.23
528.973	9680.54
529.339	9724.15
529.705	9764.15
530.071	9883.47
530.437	9901.77
530.803	9892.06
531.169	9894.32
531.535	9941.77
531.901	9890.02
532.267	10017.25
532.632	10101.32
532.998	10108.1
533.364	10105.84
533.73	10129.11
534.095	10256.11
534.461	10261.99
534.826	10297.92
535.192	10207.98
535.557	10388.54
535.923	10315.55
536.288	10355.55
536.653	10379.95
537.019	10357.81
537.384	10382.89
537.749	10448.65
538.114	10514.64
538.479	10509.22
538.845	10566.61
539.21	10572.49
539.575	10601.64
539.94	10693.39
540.305	10670.57
540.67	10625.37
541.034	10593.96
541.399	10739.27
541.764	10777.46
542.129	10739.04
542.494	10818.13
542.858	10840.28
543.223	10920.28
543.587	10958.02
543.952	10902.88
544.316	10924.35
544.681	10981.07
545.045	11022.87
545.41	11057.68
545.774	11037.11
546.138	11113.04
546.503	11163.89
546.867	11206.15
547.231	11160.5
547.595	11268.29
547.959	11280.04
548.324	11245.02
548.688	11308.97
549.052	11272.13
549.416	11269.42
549.779	11336.09
550.143	11358.91
550.507	11398.91
550.871	11445.69
551.235	11515.74
551.599	11411.11
551.962	11521.84
552.326	11532.47
552.689	11541.5
553.053	11506.93
553.417	11542.86
553.78	11619.24
554.143	11601.39
554.507	11757.09
554.87	11719.58
555.234	11898.11
555.597	11765.23
555.96	11827.82
556.323	11806.36
556.686	11830.76
557.05	11908.27
557.413	11991.21
557.776	11906.24
558.139	12073.47
558.502	12027.59
558.865	12068.72
559.228	12160.25
559.59	12123.18
559.953	12113.92
560.316	12285.89
560.679	12252.22
561.041	12331.99
561.404	12353.23
561.767	12420.13
562.129	12409.28
562.492	12457.64
562.854	12445.44
563.217	12443.85
563.579	12506
563.941	12578.54
564.304	12639.78
564.666	12720.68
565.028	12737.86
565.39	12780.79
565.753	12886.55
566.115	12875.03
566.477	12987.57
566.839	12930.62
567.201	13037.96
567.563	13009.26
567.925	13113.89
568.287	13117.06
568.648	13182.37
569.01	13255.13
569.372	13298.29
569.734	13327.9
570.095	13378.74
570.457	13438.86
570.819	13437.5
571.18	13474.33
571.542	13592.52
571.903	13595.91
572.265	13701.67
572.626	13598.4
572.987	13657.83
573.349	13748
573.71	13839.3
574.071	13788.9
574.432	13839.52
574.794	13966.07
575.155	14010.82
575.516	13954.55
575.877	13956.58
576.238	13922.46
576.599	14079.29
576.96	14061.44
577.32	14164.71
577.681	14130.36
578.042	14203.36
578.403	14158.84
578.763	14225.5
579.124	14220.08
579.485	14311.15
579.845	14394.54
580.206	14331.04
580.566	14278.61
580.927	14493.74
581.287	14465.04
581.648	14321.54
582.008	14422.78
582.368	14378.27
582.728	14539.17
583.089	14513.63
583.449	14563.12
583.809	14480.18
584.169	14507.98
584.529	14550.24
584.889	14597.24
585.249	14590.92
585.609	14528.09
585.969	14667.75
586.329	14611.25
586.688	14681.53
587.048	14598.6
587.408	14602.21
587.768	14671.82
588.127	14585.27
588.487	14651.48
588.846	14735.32
589.206	14627.75
589.565	14649.22
589.925	14755.43
590.284	14690.8
590.643	14725.38
591.003	14716.11
591.362	14872.49
591.721	14733.06
592.08	14757.01
592.44	14838.82
592.799	14827.75
593.158	14770.57
593.517	14870.23
593.876	14909.1
594.235	14830.46
594.593	14827.52
594.952	14790.68
595.311	14829.1
595.67	14880.4
596.029	14938.25
596.387	14948.42
596.746	14987.52
597.104	14910.91
597.463	14891.47
597.822	15006.05
598.18	14954.07
598.538	14944.13
598.897	15038.36
599.255	15018.48
599.613	15168.53
599.972	14982.54
600.33	15001.07
600.688	14964.47
601.046	15088.53
601.404	15121.75
601.762	15051.47
602.12	15148.87
602.478	15129.88
602.836	15147.74
603.194	15028.87
603.552	15155.87
603.91	15073.39
604.268	15151.35
604.625	15180.28
604.983	15138.02
605.341	15030.68
605.698	15156.78
606.056	15236.55
606.413	15220.73
606.771	15292.14
607.128	15230.22
607.485	15236.55
607.843	15161.07
608.2	15221.63
608.557	15306.6
608.914	15269.09
609.272	15355.64
609.629	15435.41
609.986	15472.93
610.343	15346.15
610.7	15427.96
611.057	15406.94
611.414	15470.67
611.771	15483.32
612.127	15491.68
612.484	15521.51
612.841	15531.91
613.198	15474.96
613.554	15499.37
613.911	15599.7
614.267	15637.89
614.624	15601.74
614.98	15617.78
615.337	15709.53
615.693	15628.63
616.05	15559.03
616.406	15696.42
616.762	15714.05
617.118	15741.39
617.475	15626.37
617.831	15747.95
618.187	15803.99
618.543	15758.12
618.899	15884.89
619.255	15776.65
619.611	15829.08
619.967	15937.1
620.323	15849.41
620.678	15915.85
621.034	15792.69
621.39	15803.09
621.746	15891.67
622.101	16077.66
622.457	15915.85
622.812	16072.01
623.168	16014.38
623.523	16046.92
623.879	16053.93
624.234	16008.28
624.589	16058.9
624.945	16030.65
625.3	16163.76
625.655	16089.18
626.01	16020.26
626.365	16108.39
626.72	16134.38
627.075	16091.22
627.43	16127.6
627.785	16074.49
628.14	16198.11
628.495	16062.97
628.85	16114.27
629.205	16166.69
629.559	16246.69
629.914	16145.9
630.269	16236.3
630.623	16165.56
630.978	16223.87
631.332	16182.29
631.687	16215.73
632.041	16230.42
632.396	16308.61
632.75	16241.27
633.104	16230.19
633.459	16244.66
633.813	16298.89
634.167	16267.93
634.521	16231.1
634.875	16249.63
635.229	16234.94
635.583	16172.12
635.937	16289.63
636.291	16323.3
636.645	16254.6
636.999	16280.14
637.352	16327.59
637.706	16294.83
638.06	16356.29
638.413	16356.97
638.767	16325.79
639.121	16352.45
639.474	16283.53
639.828	16331.21
640.181	16331.66
640.534	16344.77
640.888	16326.24
641.241	16279.68
641.594	16282.85
641.947	16412.11
642.301	16281.27
642.654	16303.87
643.007	16321.94
643.36	16351.55
643.713	16331.21
644.066	16460.47
644.419	16407.59
644.771	16404.2
645.124	16182.51
645.477	16158.33
645.83	16058.22
646.182	15964.44
646.535	16033.82
646.888	16144.1
647.24	16082.18
647.593	16237.88
647.945	16199.01
648.298	16064.1
648.65	16084.66
649.002	15994.72
649.355	16079.24
649.707	16143.87
650.059	16202.4
650.411	16390.87
650.763	16374.15
651.115	16541.82
651.467	16561.26
651.819	16645.33
652.171	16617.53
652.523	16584.31
652.875	16554.25
653.227	16575.72
653.578	16713.57
653.93	16611.88
654.282	16670.18
654.633	16613.91
654.985	16667.47
655.337	16767.36
655.688	16761.03
656.039	16823.17
656.391	16615.27
656.742	16707.47
657.094	16673.8
657.445	16829.5
657.796	16700.46
658.147	16745.21
658.498	16725.77
658.849	16746.79
659.2	16733.68
659.551	16750.41
659.902	16741.59
660.253	16780.69
660.604	16794.93
660.955	16787.69
661.306	16846.22
661.656	16769.62
662.007	16903.17
662.358	16907.01
662.708	16851.65
663.059	16777.52
663.409	16678.77
663.76	16836.05
664.11	16954.47
664.461	16951.76
664.811	16892.55
665.161	16882.83
665.511	16811.2
665.862	16935.26
666.212	16867.24
666.562	16883.06
666.912	16861.82
667.262	16839.67
667.612	16827.02
667.962	16833.12
668.312	16839.22
668.662	16771.2
669.011	16899.1
669.361	16810.07
669.711	16774.59
670.06	16717.64
670.41	16738.43
670.76	16646
671.109	16740.46
671.459	16535.5
671.808	16616.4
672.157	16663.63
672.507	16529.85
672.856	16480.36
673.205	16549.73
673.554	16487.14
673.904	16492.11
674.253	16556.06
674.602	16388.61
674.951	16231.55
675.3	16108.16
675.649	16367.37
675.998	16297.09
676.346	16255.28
676.695	16482.39
677.044	16269.74
677.393	16272.91
677.741	16257.54
678.09	16287.82
678.438	16145
678.787	16192.46
679.135	16112.68
679.484	15983.65
679.832	16068.84
680.181	15960.15
680.529	16071.1
680.877	15969.86
681.225	16006.7
681.573	15940.94
681.922	15945
682.27	15808.96
682.618	15908.17
682.966	15795.86
683.314	15887.6
683.661	15865.46
684.009	15707.5
684.357	15673.15
684.705	15655.07
685.053	15695.07
685.4	15642.87
685.748	15502.98
686.095	15602.87
686.443	15408.97
686.79	15507.73
687.138	15457.33
687.485	15466.15
687.832	15429.09
688.18	15420.5
688.527	15291.91
688.874	15346.6
689.221	15339.82
689.568	15362.87
689.915	15331.91
690.262	15261.86
690.609	15238.13
690.956	15173.5
691.303	15199.04
691.65	15118.59
691.997	15190.9
692.344	15150.22
692.69	15086.5
693.037	15082.2
693.383	14874.52
693.73	15028.42
694.077	14940.51
694.423	14978.93
694.769	14896.9
695.116	14871.81
695.462	14881.08
695.808	14773.74
696.155	14872.72
696.501	14792.27
696.847	14783.68
697.193	14640.18
697.539	14753.85
697.885	14685.6
698.231	14622.55
698.577	14625.94
698.923	14677.24
699.269	14611.03
699.614	14598.83
699.96	14450.35
700.306	14500.97
700.651	14465.04
700.997	14481.54
701.342	14446.06
701.688	14491.71
702.033	14415.55
702.379	14415.1
702.724	14388.44
703.069	14481.31
703.415	14241.77
703.76	14308.44
704.105	14309.57
704.45	14336.91
704.795	14194.32
705.14	14254.65
705.485	14224.82
705.83	14162.9
706.175	14239.74
706.52	14242.22
706.865	14093.98
707.209	14118.16
707.554	14020.99
707.899	14150.02
708.243	14070.25
708.588	14064.38
708.932	13992.29
709.277	13963.14
709.621	14041.78
709.966	13924.49
710.31	13966.53
710.654	13803.37
710.998	13896.92
711.342	13958.62
711.687	13977.6
712.031	13980.99
712.375	13830.94
712.719	13927.66
713.063	13893.08
713.407	13914.1
713.75	13850.14
714.094	13786.19
714.438	13770.82
714.782	13936.92
715.125	13823.7
715.469	13851.5
715.812	13737.15
716.156	13776.47
716.499	13785.51
716.843	13747.55
717.186	13651.28
717.53	13745.74
717.873	13764.5
718.216	13773.99
718.559	13724.05
718.902	13623.94
719.246	13690.37
719.589	13569.93
719.932	13638.4
720.275	13537.16
720.617	13547.1
720.96	13586.65
721.303	13567.44
721.646	13616.7
721.989	13550.49
722.331	13602.92
722.674	13570.83
723.016	13619.87
723.359	13486.31
723.701	13593.2
724.044	13484.5
724.386	13518.4
724.729	13603.82
725.071	13447.44
725.413	13525.86
725.755	13446.77
726.097	13422.58
726.439	13411.29
726.782	13421.68
727.124	13508.46
727.465	13429.82
727.807	13434.34
728.149	13373.55
728.491	13423.71
728.833	13462.36
729.175	13409.48
729.516	13383.72
729.858	13437.27
730.199	13476.59
730.541	13451.28
730.882	13451.51
731.224	13435.47
731.565	13391.17
731.906	13439.31
732.248	13425.97
732.589	13356.15
732.93	13409.25
733.271	13477.05
733.612	13424.39
733.953	13483.37
734.294	13390.72
734.635	13476.37
734.976	13489.93
735.317	13422.13
735.658	13430.95
735.999	13529.93
736.339	13540.55
736.68	13535.8
737.021	13465.75
737.361	13529.93
737.702	13583.26
738.042	13512.75
738.383	13623.03
738.723	13668.45
739.063	13679.3
739.404	13677.95
739.744	13742.58
740.084	13623.94
740.424	13610.38
740.764	13706.87
741.104	13747.1
741.444	13905.28
741.784	13663.48
742.124	13790.48
742.464	13866.19
742.804	13811.95
743.143	13864.83
743.483	13907.32
743.823	13906.64
744.162	13874.55
744.502	13904.83
744.841	13955.23
745.181	14030.48
745.52	14056.69
745.86	14030.48
746.199	14054.21
746.538	14141.89
746.877	14152.74
747.216	14173.3
747.556	14218.72
747.895	14300.98
748.234	14196.8
748.573	14165.39
748.911	14293.3
749.25	14197.71
749.589	14265.95
749.928	14429.34
750.267	14404.48
750.605	14428.89
750.944	14430.02
751.283	14370.13
751.621	14500.75
751.96	14478.15
752.298	14488.55
752.636	14531.71
752.975	14482.44
753.313	14446.96
753.651	14605.15
753.989	14583.46
754.327	14594.76
754.666	14652.61
755.004	14744.58
755.342	14730.57
755.679	14796.56
756.017	14659.16
