Data from blue_chair_FLMS001491_00040.txt Node
Date: Wed Feb 08 10:30:37 GMT 2017
User: dcchb
Spectrometer: FLMS00149
Trigger mode: 0
Integration Time (sec): 2.000000E-2
Scans to average: 10
Electric dark correction enabled: true
Nonlinearity correction enabled: false
Boxcar width: 0
XAxis mode: Wavelengths
Number of Pixels in Spectrum: 2048
>>>>>Begin Spectral Data<<<<<
341.393	-20.45
341.776	-20.45
342.16	-20.45
342.543	-60.68
342.927	-72.43
343.31	-39.21
343.693	-76.04
344.077	-74.46
344.46	-80.34
344.843	-52.32
345.226	-40.56
345.61	-38.53
345.993	-3.95
346.376	10.73
346.759	11.19
347.142	19.32
347.525	48.25
347.908	68.59
348.291	64.52
348.674	90.05
349.057	92.77
349.44	131.18
349.823	152.2
350.206	144.29
350.588	174.8
350.971	186.77
351.354	194.68
351.737	208.24
352.119	231.97
352.502	244.4
352.884	227.45
353.267	246.21
353.65	263.61
354.032	279.65
354.414	287.11
354.797	279.65
355.179	286.66
355.562	295.92
355.944	288.02
356.326	310.61
356.709	302.03
357.091	280.56
357.473	327.11
357.855	309.48
358.238	318.07
358.62	302.93
359.002	306.32
359.384	319.43
359.766	293.21
360.148	305.64
360.53	326.88
360.912	313.78
361.294	313.1
361.676	290.5
362.057	295.92
362.439	290.95
362.821	293.66
363.203	292.31
363.584	295.02
363.966	312.65
364.348	299.54
364.729	294.34
365.111	277.85
365.493	285.98
365.874	279.2
366.256	288.69
366.637	290.73
367.019	274.23
367.4	285.3
367.781	278.52
368.163	302.7
368.544	292.76
368.925	267
369.306	284.17
369.688	284.63
370.069	280.11
370.45	268.35
370.831	303.83
371.212	289.82
371.593	272.2
371.974	265.87
372.355	278.52
372.736	293.89
373.117	286.89
373.498	285.76
373.879	278.07
374.26	271.97
374.641	294.79
375.021	282.37
375.402	304.74
375.783	271.97
376.163	286.66
376.544	279.43
376.925	282.82
377.305	274.68
377.686	297.51
378.066	271.74
378.447	269.48
378.827	282.59
379.208	284.63
379.588	288.69
379.968	285.98
380.349	276.72
380.729	290.27
381.109	296.15
381.489	308.58
381.87	299.31
382.25	296.15
382.63	294.79
383.01	311.07
383.39	302.7
383.77	298.64
384.15	291.86
384.53	299.54
384.91	292.53
385.29	304.29
385.67	295.47
386.049	308.81
386.429	312.65
386.809	296.38
387.189	288.92
387.568	288.69
387.948	295.92
388.328	286.43
388.707	290.05
389.087	305.42
389.466	322.59
389.846	319.43
390.225	313.33
390.605	307.9
390.984	314.91
391.363	323.72
391.743	294.12
392.122	314
392.501	319.88
392.881	318.75
393.26	314
393.639	303.16
394.018	339.09
394.397	312.87
394.776	301.8
395.155	294.79
395.534	306.55
395.913	293.44
396.292	330.05
396.671	319.88
397.05	322.82
397.429	330.05
397.808	302.93
398.186	333.66
398.565	293.21
398.944	336.6
399.323	307.9
399.701	317.39
400.08	324.4
400.458	323.72
400.837	332.08
401.215	322.14
401.594	322.82
401.972	340.44
402.351	335.47
402.729	329.37
403.107	340.89
403.486	339.09
403.864	341.8
404.242	342.48
404.62	343.15
404.999	350.61
405.377	335.47
405.755	328.69
406.133	347
406.511	342.25
406.889	339.77
407.267	343.83
407.645	332.76
408.023	347
408.401	329.6
408.779	342.25
409.156	336.15
409.534	351.29
409.912	352.19
410.29	359.65
410.667	363.72
411.045	356.49
411.422	379.76
411.8	369.82
412.178	374.11
412.555	358.3
412.933	353.1
413.31	380.89
413.687	376.37
414.065	370.27
414.442	396.49
414.819	376.6
415.197	407.56
415.574	379.31
415.951	402.36
416.328	390.16
416.705	384.96
417.082	397.39
417.46	382.93
417.837	382.93
418.214	394.23
418.591	412.31
418.967	403.04
419.344	404.85
419.721	402.59
420.098	391.29
420.475	422.25
420.852	394
421.228	411.85
421.605	396.49
421.982	430.38
422.358	421.34
422.735	427.45
423.111	415.7
423.488	418.86
423.864	419.09
424.241	455.24
424.617	442.81
424.994	429.25
425.37	431.29
425.746	430.84
426.123	449.59
426.499	449.37
426.875	442.14
427.251	445.07
427.627	441.46
428.003	447.33
428.379	455.69
428.756	464.51
429.132	436.26
429.507	454.56
429.883	444.85
430.259	450.95
430.635	452.98
431.011	481.68
431.387	469.48
431.763	483.49
432.138	458.63
432.514	503.83
432.89	483.26
433.265	477.16
433.641	485.52
434.016	484.39
434.392	504.51
434.767	515.35
435.143	522.13
435.518	504.96
435.894	534.56
436.269	525.07
436.644	520.1
437.02	542.02
437.395	529.59
437.77	528.69
438.145	537.27
438.52	538.63
438.895	563.94
439.271	560.78
439.646	554.67
440.021	542.7
440.395	578.63
440.77	570.49
441.145	566.2
441.52	587.67
441.895	578.85
442.27	598.29
442.645	596.93
443.019	605.29
443.394	594.22
443.769	608.91
444.143	589.25
444.518	607.78
444.892	609.14
445.267	597.39
445.641	625.18
446.016	616.59
446.39	624.05
446.764	630.15
447.139	598.97
447.513	640.1
447.887	639.42
448.262	645.97
448.636	662.47
449.01	638.74
449.384	622.92
449.758	648.68
450.132	668.34
450.506	660.89
450.88	660.66
451.254	666.54
451.628	655.91
452.002	680.1
452.376	671.51
452.75	697.04
453.123	686.87
453.497	699.76
453.871	707.67
454.244	700.89
454.618	705.18
454.992	696.59
455.365	741.79
455.739	730.26
456.112	711.73
456.486	733.65
456.859	740.21
457.232	746.08
457.606	763.48
457.979	769.13
458.352	769.13
458.725	762.13
459.099	746.08
459.472	770.71
459.845	775.23
460.218	791.05
460.591	783.37
460.964	796.93
461.337	792.41
461.71	806.19
462.083	783.14
462.456	837.61
462.829	820.43
463.201	844.16
463.574	842.35
463.947	848.23
464.32	844.61
464.692	852.07
465.065	854.33
465.438	871.95
465.81	852.07
466.183	889.13
466.555	900.88
466.928	886.87
467.3	894.1
467.672	897.94
468.045	927.55
468.417	933.2
468.789	943.82
469.161	945.62
469.534	945.62
469.906	923.25
470.278	966.19
470.65	985.4
471.022	983.82
471.394	983.59
471.766	983.82
472.138	989.69
472.51	1020.2
472.882	1029.01
473.253	1008.67
473.625	1038.5
473.997	1053.64
474.369	1040.54
474.74	1046.87
475.112	1081.67
475.484	1064.04
475.855	1100.42
476.227	1070.37
476.598	1129.8
476.97	1137.03
477.341	1129.57
477.713	1146.98
478.084	1152.85
478.455	1166.86
478.827	1201.44
479.198	1178.39
479.569	1210.25
479.94	1213.41
480.311	1237.59
480.682	1250.7
481.053	1272.4
481.424	1296.35
481.795	1276.69
482.166	1327.31
482.537	1321.89
482.908	1312.85
483.279	1335.22
483.65	1346.52
484.021	1374.77
484.391	1382.68
484.762	1366.63
485.133	1388.55
485.503	1412.96
485.874	1415.22
486.244	1415.67
486.615	1424.93
486.985	1436.23
487.356	1476.46
487.726	1469.9
488.097	1509
488.467	1469.9
488.837	1526.63
489.207	1512.16
489.578	1508.32
489.948	1504.03
490.318	1549.22
490.688	1535.67
491.058	1555.33
491.428	1581.77
491.798	1593.07
492.168	1606.4
492.538	1630.8
492.908	1605.72
493.278	1634.65
493.648	1611.82
494.017	1616.12
494.387	1639.84
494.757	1636.45
495.126	1631.93
495.496	1647.75
495.866	1644.14
496.235	1644.82
496.605	1656.79
496.974	1673.97
497.344	1656.57
497.713	1670.13
498.082	1680.97
498.452	1699.96
498.821	1724.59
499.19	1673.52
499.559	1688.2
499.928	1685.94
500.298	1689.56
500.667	1720.97
501.036	1702.67
501.405	1715.55
501.774	1707.19
502.143	1722.55
502.512	1716.45
502.88	1730.46
503.249	1723.01
503.618	1699.73
503.987	1717.58
504.356	1711.93
504.724	1726.62
505.093	1712.61
505.462	1723.46
505.83	1715.55
506.199	1714.19
506.567	1734.76
506.936	1746.73
507.304	1726.4
507.672	1735.21
508.041	1727.3
508.409	1744.02
508.777	1751.71
509.145	1741.99
509.514	1739.5
509.882	1747.64
510.25	1739.28
510.618	1737.47
510.986	1743.57
511.354	1722.55
511.722	1756.9
512.09	1729.11
512.458	1733.17
512.826	1753.06
513.193	1751.03
513.561	1734.98
513.929	1739.5
514.297	1739.5
514.664	1770.01
515.032	1733.85
515.4	1764.59
515.767	1780.41
516.135	1746.96
516.502	1746.51
516.869	1748.54
517.237	1725.49
517.604	1722.55
517.972	1729.79
518.339	1708.99
518.706	1761.65
519.073	1738.82
519.44	1746.51
519.808	1745.6
520.175	1706.28
520.542	1756.23
520.909	1761.2
521.276	1735.43
521.643	1703.12
522.009	1739.73
522.376	1734.53
522.743	1752.61
523.11	1752.61
523.477	1753.51
523.843	1769.56
524.21	1754.64
524.577	1752.84
524.943	1762.55
525.31	1753.51
525.676	1759.61
526.043	1738.6
526.409	1791.03
526.776	1794.64
527.142	1766.39
527.508	1741.54
527.874	1771.14
528.241	1761.87
528.607	1747.19
528.973	1737.24
529.339	1768.43
529.705	1803.23
530.071	1770.69
530.437	1746.96
530.803	1765.72
531.169	1786.05
531.535	1754.19
531.901	1764.36
532.267	1754.42
532.632	1762.55
532.998	1759.84
533.364	1756.68
533.73	1788.09
534.095	1736.11
534.461	1760.97
534.826	1787.86
535.192	1772.5
535.557	1733.17
535.923	1776.79
536.288	1784.47
536.653	1759.84
537.019	1734.76
537.384	1735.43
537.749	1715.77
538.114	1717.58
538.479	1756.23
538.845	1735.66
539.21	1732.04
539.575	1717.13
539.94	1741.54
540.305	1728.88
540.67	1731.82
541.034	1729.79
541.399	1726.62
541.764	1701.54
542.129	1743.12
542.494	1733.17
542.858	1711.48
543.223	1721.88
543.587	1715.1
543.952	1703.8
544.316	1687.07
544.681	1689.11
545.045	1706.73
545.41	1689.33
545.774	1717.36
546.138	1700.86
546.503	1667.41
546.867	1708.99
547.231	1670.13
547.595	1652.27
547.959	1687.3
548.324	1665.61
548.688	1677.13
549.052	1683.23
549.416	1658.37
549.779	1664.25
550.143	1661.31
550.507	1653.18
550.871	1647.98
551.235	1670.58
551.599	1683.68
551.962	1625.38
552.326	1654.76
552.689	1621.54
553.053	1667.19
553.417	1611.82
553.78	1639.17
554.143	1632.16
554.507	1645.95
554.87	1630.13
555.234	1645.72
555.597	1630.13
555.96	1649.79
556.323	1623.12
556.686	1601.88
557.05	1643.46
557.413	1608.21
557.776	1614.31
558.139	1631.48
558.502	1646.4
558.865	1630.35
559.228	1615.21
559.59	1637.81
559.953	1638.04
560.316	1635.78
560.679	1644.59
561.041	1636.91
561.404	1641.65
561.767	1635.78
562.129	1648.21
562.492	1614.31
562.854	1622.22
563.217	1617.7
563.579	1637.58
563.941	1631.03
564.304	1650.24
564.666	1664.93
565.028	1654.31
565.39	1622.22
565.753	1645.49
566.115	1650.01
566.477	1663.12
566.839	1666.74
567.201	1648.88
567.563	1659.28
567.925	1643.01
568.287	1677.13
568.648	1678.71
569.01	1682.55
569.372	1695.89
569.734	1660.86
570.095	1675.55
570.457	1713.29
570.819	1696.34
571.18	1683.01
571.542	1697.02
571.903	1719.16
572.265	1699.5
572.626	1726.85
572.987	1724.14
573.349	1709.9
573.71	1711.25
574.071	1695.21
574.432	1742.67
574.794	1738.82
575.155	1739.95
575.516	1716.9
575.877	1747.19
576.238	1754.87
576.599	1732.5
576.96	1750.35
577.32	1727.3
577.681	1750.35
578.042	1776.11
578.403	1750.8
578.763	1753.51
579.124	1757.58
579.485	1744.25
579.845	1760.29
580.206	1765.26
580.566	1780.86
580.927	1794.42
581.287	1799.39
581.648	1774.76
582.008	1751.93
582.368	1757.13
582.728	1788.54
583.089	1801.65
583.449	1788.09
583.809	1791.03
584.169	1790.35
584.529	1773.85
584.889	1792.61
585.249	1781.31
585.609	1781.54
585.969	1812.95
586.329	1811.14
586.688	1784.92
587.048	1804.36
587.408	1759.39
587.768	1767.3
588.127	1791.25
588.487	1773.63
588.846	1795.55
589.206	1784.25
589.565	1791.03
589.925	1801.2
590.284	1792.38
590.643	1775.21
591.003	1769.11
591.362	1806.39
591.721	1785.15
592.08	1775.43
592.44	1756.23
592.799	1796.9
593.158	1759.16
593.517	1795.77
593.876	1812.95
594.235	1791.25
594.593	1800.97
594.952	1811.59
595.311	1779.28
595.67	1797.13
596.029	1809.78
596.387	1806.85
596.746	1802.33
597.104	1840.74
597.463	1816.79
597.822	1799.61
598.18	1810.23
598.538	1786.73
598.897	1810.23
599.255	1783.57
599.613	1796.68
599.972	1799.39
600.33	1785.38
600.688	1814.3
601.046	1779.5
601.404	1787.41
601.762	1779.73
602.12	1792.61
602.478	1804.13
602.836	1789.44
603.194	1804.59
603.552	1796.9
603.91	1786.28
604.268	1807.52
604.625	1796.45
604.983	1815.88
605.341	1801.65
605.698	1784.92
606.056	1799.16
606.413	1819.95
606.771	1815.88
607.128	1807.52
607.485	1789.44
607.843	1794.42
608.2	1797.13
608.557	1799.39
608.914	1838.26
609.272	1762.55
609.629	1792.38
609.986	1786.73
610.343	1820.18
610.7	1784.7
611.057	1809.1
611.414	1845.94
611.771	1808.43
612.127	1822.66
612.484	1806.17
612.841	1842.1
613.198	1825.15
613.554	1828.09
613.911	1827.86
614.267	1822.66
614.624	1843.45
614.98	1842.1
615.337	1852.49
615.693	1831.25
616.05	1845.04
616.406	1850.91
616.762	1829.67
617.118	1861.53
617.475	1828.99
617.831	1845.49
618.187	1845.71
618.543	1860.4
618.899	1833.51
619.255	1855.43
619.611	1855.21
619.967	1863.11
620.323	1849.1
620.678	1873.74
621.034	1867.86
621.39	1833.06
621.746	1839.84
622.101	1883.68
622.457	1873.06
622.812	1824.92
623.168	1859.05
623.523	1879.84
623.879	1850.23
624.234	1845.26
624.589	1869.22
624.945	1863.34
625.3	1845.71
625.655	1833.74
626.01	1869.44
626.365	1878.26
626.72	1838.03
627.075	1852.49
627.43	1855.66
627.785	1877.8
628.14	1868.54
628.495	1822.44
628.85	1847.07
629.205	1868.31
629.559	1878.03
629.914	1845.49
630.269	1869.67
630.623	1842.32
630.978	1858.82
631.332	1884.36
631.687	1860.86
632.041	1819.95
632.396	1866.5
632.75	1856.34
633.104	1864.02
633.459	1821.76
633.813	1878.26
634.167	1821.99
634.521	1863.79
634.875	1853.85
635.229	1863.11
635.583	1813.4
635.937	1814.53
636.291	1857.47
636.645	1858.14
636.999	1880.06
637.352	1865.83
637.706	1848.88
638.06	1869.89
638.413	1855.43
638.767	1852.95
639.121	1866.05
639.474	1834.64
639.828	1854.98
640.181	1879.16
640.534	1872.15
640.888	1822.21
641.241	1843.23
641.594	1837.58
641.947	1853.17
642.301	1817.92
642.654	1805.26
643.007	1823.34
643.36	1850.23
643.713	1801.2
644.066	1812.72
644.419	1824.7
644.771	1825.15
645.124	1804.13
645.477	1802.33
645.83	1802.78
646.182	1804.36
646.535	1797.58
646.888	1800.52
647.24	1800.29
647.593	1810.01
647.945	1791.25
648.298	1799.84
648.65	1769.33
649.002	1799.16
649.355	1791.48
649.707	1786.51
650.059	1825.15
650.411	1846.62
650.763	1830.12
651.115	1820.86
651.467	1876.67
651.819	1852.49
652.171	1825.83
652.523	1836.9
652.875	1831.48
653.227	1853.4
653.578	1832.61
653.93	1824.92
654.282	1822.66
654.633	1826.05
654.985	1829.22
655.337	1836.67
655.688	1857.01
656.039	1825.6
656.391	1824.25
656.742	1863.34
657.094	1847.52
657.445	1843.23
657.796	1869.22
658.147	1840.06
658.498	1868.76
658.849	1858.37
659.2	1826.73
659.551	1886.84
659.902	1845.94
660.253	1837.8
660.604	1873.28
660.955	1874.87
661.306	1886.84
661.656	1864.7
662.007	1860.86
662.358	1838.93
662.708	1844.81
663.059	1833.29
663.409	1834.87
663.76	1864.02
664.11	1834.42
664.461	1847.75
664.811	1890.91
665.161	1870.35
665.511	1842.32
665.862	1876
666.212	1862.89
666.562	1869.89
666.912	1856.11
667.262	1863.11
667.612	1835.77
667.962	1873.28
668.312	1874.41
668.662	1852.27
669.011	1856.56
669.361	1854.98
669.711	1852.72
670.06	1848.2
670.41	1849.56
670.76	1816.11
671.109	1839.16
671.459	1849.78
671.808	1821.31
672.157	1827.18
672.507	1809.1
672.856	1838.48
673.205	1866.73
673.554	1861.31
673.904	1841.19
674.253	1826.05
674.602	1848.65
674.951	1844.81
675.3	1831.7
675.649	1810.23
675.998	1817.01
676.346	1852.49
676.695	1826.96
677.044	1812.49
677.393	1801.65
677.741	1792.83
678.09	1827.86
678.438	1820.18
678.787	1793.96
679.135	1789.22
679.484	1809.56
679.832	1791.48
680.181	1788.09
680.529	1760.97
680.877	1772.04
681.225	1786.05
681.573	1768.65
681.922	1790.8
682.27	1770.01
682.618	1780.41
682.966	1779.73
683.314	1784.02
683.661	1782.44
684.009	1765.04
684.357	1721.2
684.705	1692.72
685.053	1727.3
685.4	1736.79
685.748	1750.12
686.095	1741.99
686.443	1757.58
686.79	1708.77
687.138	1770.69
687.485	1721.88
687.832	1707.41
688.18	1721.42
688.527	1712.16
688.874	1685.72
689.221	1686.85
689.568	1722.33
689.915	1659.96
690.262	1699.5
690.609	1672.61
690.956	1681.42
691.303	1664.93
691.65	1675.32
691.997	1678.71
692.344	1692.95
692.69	1670.35
693.037	1685.27
693.383	1657.47
693.73	1639.17
694.077	1624.03
694.423	1624.7
694.769	1655.89
695.116	1641.2
695.462	1670.58
695.808	1636.68
696.155	1618.83
696.501	1636.68
696.847	1603.46
697.193	1610.69
697.539	1605.49
697.885	1594.2
698.231	1579.73
698.577	1590.81
698.923	1595.78
699.269	1586.96
699.614	1606.4
699.96	1596
700.306	1583.8
700.651	1567.76
700.997	1574.08
701.342	1570.69
701.688	1561.43
702.033	1567.3
702.379	1541.77
702.724	1590.58
703.069	1536.12
703.415	1547.42
703.76	1558.72
704.105	1546.29
704.45	1543.35
704.795	1549
705.14	1535.44
705.485	1549.68
705.83	1554.2
706.175	1537.47
706.52	1546.51
706.865	1554.42
707.209	1579.51
707.554	1548.32
707.899	1528.66
708.243	1543.35
708.588	1521.65
708.932	1509.68
709.277	1534.99
709.621	1535.44
709.966	1528.66
710.31	1548.32
710.654	1524.59
710.998	1537.02
711.342	1521.2
711.687	1533.86
712.031	1540.41
712.375	1525.72
712.719	1553.97
713.063	1522.33
713.407	1516.68
713.75	1519.85
714.094	1539.06
714.438	1541.99
714.782	1560.3
715.125	1535.44
715.469	1562.56
715.812	1555.78
716.156	1562.56
716.499	1555.33
716.843	1529.34
717.186	1537.47
717.53	1548.09
717.873	1569.56
718.216	1539.96
718.559	1533.41
718.902	1560.75
719.246	1551.48
719.589	1578.15
719.932	1581.09
720.275	1537.47
720.617	1549.45
720.96	1594.2
721.303	1595.33
721.646	1572.95
721.989	1575.66
722.331	1572.28
722.674	1585.16
723.016	1594.42
723.359	1580.18
723.701	1579.28
724.044	1574.31
724.386	1602.1
724.729	1594.42
725.071	1600.07
725.413	1617.7
725.755	1604.82
726.097	1616.57
726.439	1618.83
726.782	1623.8
727.124	1626.28
727.465	1580.64
727.807	1653.85
728.149	1627.41
728.491	1630.8
728.833	1645.72
729.175	1643.01
729.516	1647.08
729.858	1647.53
730.199	1666.96
730.541	1682.55
730.882	1647.75
731.224	1677.36
731.565	1697.47
731.906	1687.53
732.248	1687.98
732.589	1675.55
732.93	1711.03
733.271	1700.41
733.612	1702.89
733.953	1709.22
734.294	1729.33
734.635	1738.15
734.976	1781.99
735.317	1750.8
735.658	1739.05
735.999	1779.05
736.339	1779.05
736.68	1783.79
737.021	1805.26
737.361	1788.99
737.702	1801.65
738.042	1806.85
738.383	1815.88
738.723	1826.05
739.063	1818.37
739.404	1860.4
739.744	1866.96
740.084	1861.53
740.424	1872.61
740.764	1893.17
741.104	1897.24
741.444	1906.96
741.784	1922.77
742.124	1924.13
742.464	1944.92
742.804	1951.47
743.143	1940.4
743.483	1993.51
743.823	2008.42
744.162	2017.69
744.502	2025.82
744.841	2038.93
745.181	2094.75
745.52	2077.12
745.86	2124.12
746.199	2091.81
746.538	2119.61
746.877	2181.98
747.216	2196.44
747.556	2191.47
747.895	2241.41
748.234	2240.05
748.573	2301.52
748.911	2283.89
749.25	2315.31
749.589	2356.44
749.928	2394.63
750.267	2410.67
750.605	2447.96
750.944	2459.03
751.283	2541.97
751.621	2542.87
751.96	2567.96
752.298	2589.65
752.636	2601.85
752.975	2643.43
753.313	2672.81
753.651	2774.05
753.989	2748.97
754.327	2750.32
754.666	2799.36
755.004	2882.75
755.342	2948.51
755.679	2961.62
756.017	2976.08
756.355	3012.46
756.693	3062.86
757.031	3102.18
757.368	3127.71
757.706	3194.15
758.044	3244.55
758.381	3304.66
758.719	3279.8
759.056	3361.38
759.394	3402.96
759.731	3414.94
760.068	3485.9
760.405	3467.14
760.743	3553.01
761.08	3615.39
761.417	3606.12
761.754	3640.92
762.091	3721.15
762.428	3760.92
762.765	3739.45
763.102	3788.94
763.438	3821.26
763.775	3853.8
764.112	3918.65
764.449	3917.75
764.785	3955.26
765.122	3974.92
765.458	4003.17
765.795	4089.72
766.131	4114.13
766.467	4130.85
766.804	4157.07
767.14	4176.73
767.476	4172.43
767.812	4204.3
768.148	4220.34
768.485	4287.68
768.821	4318.42
769.157	4318.42
769.492	4299.21
769.828	4365.87
770.164	4343.5
770.5	4390.51
770.836	4439.54
771.171	4427.57
771.507	4422.6
771.842	4433.67
