Data from blue_clamp_base_FLMS001491_00086.txt Node
Date: Wed Feb 08 15:16:38 GMT 2017
User: dcchb
Spectrometer: FLMS00149
Trigger mode: 0
Integration Time (sec): 2.000000E-2
Scans to average: 10
Electric dark correction enabled: true
Nonlinearity correction enabled: false
Boxcar width: 0
XAxis mode: Wavelengths
Number of Pixels in Spectrum: 2048
>>>>>Begin Spectral Data<<<<<
341.393	-13.63
341.776	-13.63
342.16	-13.63
342.543	-53.63
342.927	-75.1
343.31	-59.05
343.693	-60.63
344.077	-63.57
344.46	-70.8
344.843	-66.28
345.226	-41.2
345.61	-39.84
345.993	-33.29
346.376	-16.57
346.759	17.56
347.142	34.28
347.525	58.46
347.908	56.2
348.291	84.45
348.674	107.27
349.057	93.03
349.44	129.87
349.823	139.81
350.206	169.64
350.588	208.74
350.971	222.07
351.354	233.82
351.737	250.54
352.119	280.37
352.502	278.11
352.884	296.87
353.267	293.93
353.65	287.61
354.032	305.23
354.414	336.64
354.797	330.09
355.179	336.64
355.562	359.02
355.944	338.9
356.326	330.54
356.709	347.94
357.091	352.01
357.473	349.98
357.855	351.78
358.238	375.96
358.62	368.51
359.002	362.18
359.384	333.93
359.766	364.21
360.148	343.65
360.53	364.21
360.912	360.15
361.294	341.39
361.676	328.51
362.057	352.01
362.439	370.77
362.821	349.98
363.203	333.03
363.584	346.81
363.966	374.83
364.348	337.77
364.729	354.5
365.111	344.1
365.493	333.48
365.874	320.82
366.256	358.11
366.637	363.31
367.019	335.74
367.4	340.71
367.781	339.81
368.163	329.19
368.544	343.88
368.925	328.51
369.306	354.27
369.688	345.68
370.069	338
370.45	332.12
370.831	347.94
371.212	342.29
371.593	373.25
371.974	343.88
372.355	333.93
372.736	352.69
373.117	345.23
373.498	331.67
373.879	343.65
374.26	362.18
374.641	354.27
375.021	340.26
375.402	352.46
375.783	357.21
376.163	383.65
376.544	370.32
376.925	344.78
377.305	370.54
377.686	362.63
378.066	397.66
378.447	368.73
378.827	368.73
379.208	379.13
379.588	373.48
379.968	372.35
380.349	378.22
380.729	382.52
381.109	386.13
381.489	408.51
381.87	399.92
382.25	391.78
382.63	406.02
383.01	409.41
383.39	395.17
383.77	389.3
384.15	398.34
384.53	415.74
384.91	424.55
385.29	427.71
385.67	414.83
386.049	389.98
386.429	409.41
386.809	428.39
387.189	437.21
387.568	457.77
387.948	449.86
388.328	439.24
388.707	455.96
389.087	464.55
389.466	452.12
389.846	454.61
390.225	456.64
390.605	470.65
390.984	467.49
391.363	467.71
391.743	487.37
392.122	498.45
392.501	470.65
392.881	508.62
393.26	473.59
393.639	476.3
394.018	502.06
394.397	513.14
394.776	523.53
395.155	539.12
395.534	529.86
395.913	525.57
396.292	523.98
396.671	547.03
397.05	535.06
397.429	532.57
397.808	548.84
398.186	563.53
398.565	559.24
398.944	539.58
399.323	558.78
399.701	578.22
400.08	591.55
400.458	599.91
400.837	607.15
401.215	624.55
401.594	602.85
401.972	591.78
402.351	629.29
402.729	621.61
403.107	620.7
403.486	629.52
403.864	668.39
404.242	655.05
404.62	653.7
404.999	671.55
405.377	697.31
405.755	684.21
406.133	707.26
406.511	689.63
406.889	720.36
407.267	744.09
407.645	724.2
408.023	734.83
408.401	757.42
408.779	722.17
409.156	761.04
409.534	759.23
409.912	787.93
410.29	832
410.667	805.56
411.045	830.42
411.422	836.07
411.8	848.95
412.178	851.66
412.555	854.6
412.933	864.77
413.31	880.81
413.687	886.01
414.065	915.84
414.442	900.7
414.819	926.46
415.197	927.36
415.574	944.31
415.951	962.39
416.328	948.61
416.705	961.49
417.082	978.66
417.46	983.86
417.837	1006.46
418.214	992.67
418.591	1024.54
418.967	1036.96
419.344	1026.34
419.721	1043.52
420.098	1058.43
420.475	1043.52
420.852	1090.07
421.228	1079.68
421.605	1064.99
421.982	1097.08
422.358	1111.31
422.735	1125.78
423.111	1122.39
423.488	1147.24
423.864	1196.96
424.241	1176.62
424.617	1209.84
424.994	1217.98
425.37	1223.85
425.746	1242.83
426.123	1243.51
426.499	1236.51
426.875	1261.37
427.251	1271.99
427.627	1308.6
428.003	1326.9
428.379	1321.7
428.756	1360.35
429.132	1396.5
429.507	1387.46
429.883	1411.64
430.259	1453.68
430.635	1466.11
431.011	1490.74
431.387	1502.71
431.763	1549.49
432.138	1540.91
432.514	1537.06
432.89	1565.76
433.265	1613.22
433.641	1627.23
434.016	1634.24
434.392	1630.39
434.767	1708.36
435.143	1671.75
435.518	1691.64
435.894	1718.53
436.269	1737.28
436.644	1756.72
437.02	1799.43
437.395	1778.87
437.77	1818.41
438.145	1879.43
438.52	1855.47
438.895	1888.69
439.271	1894.12
439.646	1956.71
440.021	1989.26
440.395	1963.27
440.77	1943.38
441.145	2017.5
441.52	2020.22
441.895	2032.19
442.27	2084.62
442.645	2067.22
443.019	2061.12
443.394	2090.72
443.769	2123.49
444.143	2117.16
444.518	2169.82
444.892	2183.37
445.267	2169.82
445.641	2225.41
446.016	2200.32
446.39	2233.99
446.764	2232.87
447.139	2269.02
447.513	2299.3
447.887	2273.77
448.262	2297.95
448.636	2343.37
449.01	2358.96
449.384	2354.44
449.758	2374.1
450.132	2401.45
450.506	2429.47
450.88	2408.45
451.254	2448.68
451.628	2448.45
452.002	2556.47
452.376	2536.81
452.75	2572.07
453.123	2586.75
453.497	2631.5
453.871	2658.84
454.244	2717.37
454.618	2722.12
454.992	2755.79
455.365	2724.38
455.739	2843.92
456.112	2836.24
456.486	2852.28
456.859	2913.07
457.232	2923.92
457.606	2963.02
457.979	2981.55
458.352	3026.29
458.725	3080.07
459.099	3072.84
459.472	3187.87
459.845	3184.93
460.218	3186.06
460.591	3206.17
460.964	3211.37
461.337	3305.15
461.71	3374.53
462.083	3416.79
462.456	3442.1
462.829	3411.59
463.201	3471.7
463.574	3512.38
463.947	3563
464.32	3645.03
464.692	3642.32
465.065	3631.92
465.438	3697.01
465.81	3778.81
466.183	3784.91
466.555	3887.96
466.928	3910.79
467.3	3901.3
467.672	3981.97
468.045	4000.28
468.417	4053.83
468.789	4079.14
469.161	4130.67
469.534	4217.9
469.906	4267.61
470.278	4309.19
470.65	4353.71
471.022	4406.59
471.394	4451.56
471.766	4511.22
472.138	4638
472.51	4680.26
472.882	4741.73
473.253	4695.63
473.625	4824.21
473.997	4941.72
474.369	4949.18
474.74	5008.39
475.112	5103.07
475.484	5171.54
475.855	5268.49
476.227	5262.62
476.598	5415.15
476.97	5473.23
477.341	5568.37
477.713	5656.28
478.084	5661.7
478.455	5793.22
478.827	5858.08
479.198	6002.26
479.569	5971.3
479.94	6168.58
480.311	6142.59
480.682	6278.63
481.053	6402.92
481.424	6459.19
481.795	6531.06
482.166	6630.49
482.537	6719.75
482.908	6826.19
483.279	6824.16
483.65	7003.14
484.021	7058.95
484.391	7211.94
484.762	7219.63
485.133	7196.12
485.503	7350.92
485.874	7485.16
486.244	7524.25
486.615	7682.67
486.985	7717.47
487.356	7869.33
487.726	7909.33
488.097	8033.62
488.467	8044.24
488.837	8126.72
489.207	8197.45
489.578	8333.95
489.948	8357.45
490.318	8537.33
490.688	8531.46
491.058	8597.67
491.428	8668.85
491.798	8782.52
492.168	8905.91
492.538	8951.11
492.908	9031.1
493.278	9069.3
493.648	9108.16
494.017	9236.52
494.387	9270.19
494.757	9333.02
495.126	9402.62
495.496	9339.57
495.866	9505.44
496.235	9558.77
496.605	9658.43
496.974	9651.65
497.344	9704.31
497.713	9753.8
498.082	9832.67
498.452	9883.51
498.821	9859.56
499.19	9860.24
499.559	9974.36
499.928	10014.36
500.298	10040.34
500.667	10210.96
501.036	10108.59
501.405	10251.19
501.774	10193.33
502.143	10322.6
502.512	10216.38
502.88	10328.92
503.249	10398.98
503.618	10398.53
503.987	10485.76
504.356	10558.97
504.724	10519.2
505.093	10566.66
505.462	10617.96
505.83	10630.61
506.199	10684.62
506.567	10826.99
506.936	10900.43
507.304	10909.02
507.672	10922.13
508.041	10939.08
508.409	11048.9
508.777	11039.87
509.145	11191.27
509.514	11188.11
509.882	11233.98
510.25	11191.27
510.618	11347.88
510.986	11321.21
511.354	11421.55
511.722	11513.3
512.09	11597.36
512.458	11521.89
512.826	11652.5
513.193	11616.35
513.561	11731.82
513.929	11767.98
514.297	11869.45
514.664	11946.06
515.032	11912.38
515.4	12042.78
515.767	12066.28
516.135	12154.41
516.502	12005.72
516.869	12216.78
517.237	12243.22
517.604	12174.98
517.972	12365.93
518.339	12425.37
518.706	12530
519.073	12527.06
519.44	12547.17
519.808	12638.24
520.175	12673.49
520.542	12733.15
520.909	12800.04
521.276	12782.87
521.643	12901.96
522.009	12954.39
522.376	13012.02
522.743	13138.12
523.11	13179.47
523.477	13307.38
523.843	13388.05
524.21	13536.97
524.577	13561.61
524.943	13561.61
525.31	13625.11
525.676	13803.18
526.043	13819.23
526.409	13840.47
526.776	13966.34
527.142	13997.08
527.508	14066.23
527.874	14217.63
528.241	14270.74
528.607	14187.8
528.973	14383.28
529.339	14390.96
529.705	14501.02
530.071	14587.34
530.437	14675.25
530.803	14750.05
531.169	14749.37
531.535	14769.94
531.901	14769.71
532.267	14797.73
532.632	15004.96
532.998	15022.81
533.364	15143.49
533.73	15162.69
534.095	15262.35
534.461	15234.11
534.826	15411.95
535.192	15302.8
535.557	15423.03
535.923	15442.24
536.288	15589.35
536.653	15646.98
537.019	15528.79
537.384	15693.08
537.749	15760.42
538.114	15799.97
538.479	15792.51
538.845	15917.25
539.21	15842.9
539.575	15906.63
539.94	16033.18
540.305	16049.22
540.67	16003.58
541.034	16059.62
541.399	16254.87
541.764	16157.7
542.129	16254.42
542.494	16326.51
542.858	16317.92
543.223	16385.71
543.587	16484.92
543.952	16463.23
544.316	16501.64
544.681	16446.73
545.045	16571.47
545.41	16669.55
545.774	16672.03
546.138	16714.52
546.503	16710.45
546.867	16829.77
547.231	16894.4
547.595	16844.46
547.959	16821.86
548.324	16924.91
548.688	17015.75
549.052	17102.08
549.416	17062.08
549.779	17154.28
550.143	17190.89
550.507	17365.57
550.871	17338
551.235	17342.52
551.599	17399.02
551.962	17400.83
552.326	17530.09
552.689	17500.71
553.053	17577.55
553.417	17521.95
553.78	17819.35
554.143	17761.04
554.507	17833.36
554.87	17855.73
555.234	18000.81
555.597	17896.18
555.96	17968.95
556.323	17983.41
556.686	18021.6
557.05	18190.64
557.413	18179.56
557.776	18171.43
558.139	18283.06
558.502	18382.95
558.865	18395.6
559.228	18556.96
559.59	18486.67
559.953	18506.56
560.316	18740.23
560.679	18720.79
561.041	18863.16
561.404	18902.48
561.767	19042.14
562.129	18957.62
562.492	19151.97
562.854	19120.1
563.217	19110.61
563.579	19219.76
563.941	19248.01
564.304	19434.67
564.666	19516.93
565.028	19462.69
565.39	19571.84
565.753	19742.46
566.115	19737.94
566.477	19840.76
566.839	19798.28
567.201	19961.44
567.563	20025.84
567.925	20095.9
568.287	20268.1
568.648	20186.07
569.01	20361.43
569.372	20463.57
569.734	20355.1
570.095	20469.9
570.457	20521.42
570.819	20569.11
571.18	20666.28
571.542	20704.02
571.903	20714.41
572.265	20801.64
572.626	20824.01
572.987	20840.06
573.349	21027.4
573.71	21057.45
574.071	21087.74
574.432	21183.55
574.794	21320.27
575.155	21284.12
575.516	21322.98
575.877	21362.31
576.238	21424.22
576.599	21554.84
576.96	21609.08
577.32	21531.34
577.681	21715.97
578.042	21714.16
578.403	21736.31
578.763	21800.71
579.124	21821.5
579.485	21903.53
579.845	21956.64
580.206	21884.33
580.566	21890.2
580.927	21897.66
581.287	22031.21
581.648	21936.3
582.008	22131.78
582.368	22009.97
582.728	22136.97
583.089	22155.51
583.449	22126.58
583.809	22212.68
584.169	22122.74
584.529	22026.92
584.889	22289.96
585.249	22223.07
585.609	22148.73
585.969	22161.38
586.329	22186.24
586.688	22221.04
587.048	22164.54
587.408	22246.58
587.768	22205.9
588.127	22209.97
588.487	22195.28
588.846	22384.2
589.206	22228.5
589.565	22208.61
589.925	22356.4
590.284	22285.45
590.643	22351.43
591.003	22325.44
591.362	22432.33
591.721	22468.72
592.08	22477.3
592.44	22502.16
592.799	22538.09
593.158	22434.14
593.517	22499.9
593.876	22495.84
594.235	22492.67
594.593	22519.56
594.952	22523.18
595.311	22437.98
595.67	22574.03
596.029	22718.2
596.387	22699.22
596.746	22686.11
597.104	22557.08
597.463	22524.76
597.822	22792.78
598.18	22653.35
598.538	22580.13
598.897	22732.21
599.255	22550.75
599.613	22871.42
599.972	22727.47
600.33	22795.49
600.688	22700.58
601.046	22775.6
601.404	22881.59
601.762	22811.76
602.12	22848.37
602.478	22813.57
602.836	22890.85
603.194	22698.09
603.552	22820.35
603.91	22743.96
604.268	22833.68
604.625	22862.15
604.983	22866.9
605.341	22887.46
605.698	22998.65
606.056	23107.57
606.413	23049.04
606.771	23070.06
607.128	23139.66
607.485	22894.47
607.843	22939.21
608.2	23108.7
608.557	23126.1
608.914	23115.93
609.272	23260.56
609.629	23196.61
609.986	23338.07
610.343	23208.13
610.7	23446.54
611.057	23273.67
611.414	23206.55
611.771	23361.58
612.127	23456.04
612.484	23369.94
612.841	23515.7
613.198	23362.93
613.554	23266.21
613.911	23524.96
614.267	23423.72
614.624	23414.91
614.98	23449.26
615.337	23613.32
615.693	23507.33
616.05	23555.69
616.406	23721.57
616.762	23527.45
617.118	23546.43
617.475	23658.97
617.831	23639.76
618.187	23654.45
618.543	23739.87
618.899	23725.18
619.255	23813.31
619.611	23746.2
619.967	23842.69
620.323	23949.36
620.678	23879.98
621.034	23900.32
621.39	23856.25
621.746	23837.72
622.101	24110.26
622.457	23894.89
622.812	23966.08
623.168	24038.39
623.523	24005.85
623.879	24068.68
624.234	23887.89
624.589	23860.77
624.945	24066.42
625.3	24142.35
625.655	24131.05
626.01	24061.22
626.365	24042.24
626.72	24024.61
627.075	24103.93
627.43	24089.24
627.785	24016.93
628.14	24028.68
628.495	24082.91
628.85	24118.84
629.205	24068.9
629.559	24286.97
629.914	24024.83
630.269	24066.87
630.623	24048.11
630.978	24104.15
631.332	24162.68
631.687	24254.66
632.041	24154.77
632.396	24326.52
632.75	24106.41
633.104	24209.46
633.459	23998.85
633.813	24053.31
634.167	24040.65
634.521	24040.65
634.875	24051.95
635.229	23988
635.583	23928.79
635.937	24020.31
636.291	24020.54
636.645	23955.68
636.999	23955.91
637.352	23924.5
637.706	23748.91
638.06	23938.96
638.413	23928.57
638.767	23898.74
639.121	23967.66
639.474	23856.03
639.828	23844.73
640.181	24004.5
640.534	23997.04
640.888	23920.66
641.241	23819.87
641.594	23853.99
641.947	24082.23
642.301	23959.3
642.654	23963.14
643.007	23892.86
643.36	23905.06
643.713	23889.92
644.066	23983.03
644.419	23909.58
644.771	23715.24
645.124	23468.01
645.477	23549.37
645.83	23361.8
646.182	23275.7
646.535	23250.17
646.888	23378.52
647.24	23257.85
647.593	23413.33
647.945	23242.03
648.298	23209.71
648.65	23240.9
649.002	23175.59
649.355	23355.47
649.707	23345.08
650.059	23470.27
650.411	23692.64
650.763	23798.17
651.115	24084.72
651.467	23951.39
651.819	23894.67
652.171	23969.92
652.523	23829.59
652.875	23887.89
653.227	23783.71
653.578	23962.69
653.93	23851.73
654.282	23886.76
654.633	23793.65
654.985	23887.44
655.337	23914.78
655.688	23904.84
656.039	23992.29
656.391	23763.15
656.742	23936.93
657.094	23912.29
657.445	23990.49
657.796	23887.21
658.147	23929.24
658.498	24006.76
658.849	24036.13
659.2	23997.26
659.551	23881.11
659.902	24051.27
660.253	23957.49
660.604	23967.21
660.955	23908.91
661.306	23984.16
661.656	23925.63
662.007	23907.55
662.358	23927.89
662.708	23933.31
663.059	23779.64
663.409	23751.17
663.76	23973.54
664.11	23931.73
664.461	23880.88
664.811	23944.16
665.161	23870.94
665.511	23873.2
665.862	23841.34
666.212	23899.87
666.562	23879.75
666.912	23814.22
667.262	23850.6
667.612	23702.13
667.962	23795.46
668.312	23869.36
668.662	23850.15
669.011	23711.4
669.361	23707.33
669.711	23622.81
670.06	23593.66
670.41	23571.74
670.76	23514.79
671.109	23686.09
671.459	23663.49
671.808	23544.4
672.157	23621
672.507	23409.94
672.856	23425.53
673.205	23444.74
673.554	23437.28
673.904	23512.53
674.253	23471.63
674.602	23406.77
674.951	23104.41
675.3	22881.59
675.649	23240.22
675.998	23231.63
676.346	23213.56
676.695	23346.66
677.044	22943.73
677.393	23065.99
677.741	23085.65
678.09	23011.3
678.438	22965.65
678.787	23088.36
679.135	22945.31
679.484	22804.53
679.832	22922.72
680.181	22710.74
680.529	22748.26
680.877	22743.29
681.225	22694.7
681.573	22819.44
681.922	22658.99
682.27	22579.9
682.618	22551.2
682.966	22494.93
683.314	22542.84
683.661	22427.59
684.009	22311.89
684.357	22239.12
684.705	22263.75
685.053	22242.28
685.4	22287.48
685.748	22213.81
686.095	22164.32
686.443	22046.81
686.79	22009.75
687.138	22084.09
687.485	22075.06
687.832	21982.18
688.18	22039.35
688.527	21798.23
688.874	21900.14
689.221	21735.63
689.568	21758.68
689.915	21649.53
690.262	21752.35
690.609	21636.42
690.956	21551.91
691.303	21534.5
691.65	21483.66
691.997	21443.89
692.344	21341.52
692.69	21449.76
693.037	21317.33
693.383	21155.31
693.73	21299.93
694.077	21224.91
694.423	21139.94
694.769	21098.36
695.116	21124.57
695.462	21057.45
695.808	20919.15
696.155	21200.95
696.501	20868.76
696.847	20927.29
697.193	20792.38
697.539	20929.32
697.885	20709.89
698.231	20739.5
698.577	20758.71
698.923	20671.93
699.269	20654.75
699.614	20449.56
699.96	20393.52
700.306	20467.19
700.651	20380.86
700.997	20346.51
701.342	20337.25
701.688	20256.35
702.033	20243.46
702.379	20275.55
702.724	20127.76
703.069	20192.62
703.415	20071.94
703.76	20109.68
704.105	20000.99
704.45	20045.96
704.795	19857.49
705.14	19838.5
705.485	19889.58
705.83	19704.27
706.175	19884.38
706.52	19799.63
706.865	19695
707.209	19639.19
707.554	19619.3
707.899	19563.71
708.243	19609.36
708.588	19564.16
708.932	19487.55
709.277	19520.09
709.621	19495.01
709.966	19368.69
710.31	19477.16
710.654	19191.06
710.998	19275.13
711.342	19401.91
711.687	19218.86
712.031	19214.11
712.375	19143.38
712.719	19205.07
713.063	19194.9
713.407	19241.91
713.75	19145.87
714.094	19162.36
714.438	19099.77
714.782	19163.04
715.125	19012.31
715.469	19022.03
715.812	19008.7
716.156	18860.45
716.499	18894.57
716.843	18880.11
717.186	18889.83
717.53	18983.84
717.873	19038.07
718.216	18814.12
718.559	18763.73
718.902	18664.52
719.246	18869.72
719.589	18773.67
719.932	18621.81
720.275	18667.24
720.617	18631.08
720.96	18610.97
721.303	18628.59
721.646	18671.53
721.989	18409.16
722.331	18590.18
722.674	18510.18
723.016	18605.09
723.359	18613.9
723.701	18474.02
724.044	18493
724.386	18377.98
724.729	18432.89
725.071	18496.39
725.413	18464.75
725.755	18476.96
726.097	18362.38
726.439	18235.61
726.782	18287.36
727.124	18432.89
727.465	18385.21
727.807	18320.8
728.149	18239.22
728.491	18170.75
728.833	18258.66
729.175	18279.9
729.516	18295.72
729.858	18139.11
730.199	18276.96
730.541	18199.45
730.882	18175.5
731.224	18288.71
731.565	18237.64
731.906	18224.53
732.248	18220.92
732.589	18079.68
732.93	18246.68
733.271	18210.75
733.612	18228.38
733.953	18177.08
734.294	18181.37
734.635	18139.11
734.976	18165.78
735.317	18161.26
735.658	18056.18
735.999	18103.63
736.339	18083.75
736.68	18183.41
737.021	18148.83
737.361	18108.15
737.702	18164.65
738.042	18129.17
738.383	18134.37
738.723	18173.91
739.063	18250.07
739.404	18186.8
739.744	18231.31
740.084	18165.1
740.424	18159.9
740.764	18148.83
741.104	18270.64
741.444	18119.23
741.784	18247.13
742.124	18256.85
742.464	18297.75
742.804	18277.64
743.143	18310.18
743.483	18245.1
743.823	18327.81
744.162	18380.24
744.502	18405.32
744.841	18376.4
745.181	18411.87
745.52	18438.99
745.86	18426.11
746.199	18435.83
746.538	18463.85
746.877	18598.76
747.216	18540.46
747.556	18505.21
747.895	18557.86
748.234	18523.96
748.573	18580.01
748.911	18527.8
749.25	18588.59
749.589	18511.31
749.928	18596.5
750.267	18692.09
750.605	18657.52
750.944	18693
751.283	18642.15
751.621	18676.05
751.96	18689.38
752.298	18670.85
752.636	18718.99
752.975	18679.89
753.313	18653.45
753.651	18865.42
753.989	18664.75
754.327	18765.99
