Data from blue_chair_FLMS001491_00085.txt Node
Date: Wed Feb 08 10:31:55 GMT 2017
User: dcchb
Spectrometer: FLMS00149
Trigger mode: 0
Integration Time (sec): 2.000000E-2
Scans to average: 10
Electric dark correction enabled: true
Nonlinearity correction enabled: false
Boxcar width: 0
XAxis mode: Wavelengths
Number of Pixels in Spectrum: 2048
>>>>>Begin Spectral Data<<<<<
341.393	-0.79
341.776	-0.79
342.16	-0.79
342.543	-55.03
342.927	-67.46
343.31	-56.38
343.693	-53.9
344.077	-56.61
344.46	-75.14
344.843	-40.11
345.226	-42.6
345.61	-25.88
345.993	-17.06
346.376	7.8
346.759	9.83
347.142	9.15
347.525	40.34
347.908	57.29
348.291	67.23
348.674	73.11
349.057	102.94
349.44	118.53
349.823	138.41
350.206	161.01
350.588	177.96
350.971	197.17
351.354	209.37
351.737	220.67
352.119	233.55
352.502	242.82
352.884	269.71
353.267	263.83
353.65	268.58
354.032	278.52
354.414	292.53
354.797	299.09
355.179	305.64
355.562	307.45
355.944	311.07
356.326	317.39
356.709	330.27
357.091	323.04
357.473	316.94
357.855	334.34
358.238	326.66
358.62	309.94
359.002	320.78
359.384	317.84
359.766	315.13
360.148	323.49
360.53	324.85
360.912	286.66
361.294	324.4
361.676	322.36
362.057	309.26
362.439	288.69
362.821	324.4
363.203	305.87
363.584	310.61
363.966	277.17
364.348	291.86
364.729	294.34
365.111	286.43
365.493	299.09
365.874	301.57
366.256	304.74
366.637	278.52
367.019	303.61
367.4	306.55
367.781	306.77
368.163	293.66
368.544	271.74
368.925	292.31
369.306	299.77
369.688	281.69
370.069	276.04
370.45	286.66
370.831	280.33
371.212	288.24
371.593	285.08
371.974	275.13
372.355	275.59
372.736	282.14
373.117	291.63
373.498	290.5
373.879	285.3
374.26	290.27
374.641	290.95
375.021	304.06
375.402	303.61
375.783	292.53
376.163	284.63
376.544	294.79
376.925	277.62
377.305	297.05
377.686	319.43
378.066	298.41
378.447	280.33
378.827	298.41
379.208	287.56
379.588	305.64
379.968	299.99
380.349	298.64
380.729	304.74
381.109	302.7
381.489	323.04
381.87	287.56
382.25	286.21
382.63	327.34
383.01	303.38
383.39	301.35
383.77	317.62
384.15	319.88
384.53	315.13
384.91	298.18
385.29	310.61
385.67	315.81
386.049	309.48
386.429	332.76
386.809	316.49
387.189	314.91
387.568	310.61
387.948	303.83
388.328	286.43
388.707	324.4
389.087	322.36
389.466	325.08
389.846	312.87
390.225	320.1
390.605	330.73
390.984	311.29
391.363	330.5
391.743	311.29
392.122	305.87
392.501	326.66
392.881	326.21
393.26	331.86
393.639	314
394.018	329.82
394.397	328.69
394.776	337.73
395.155	334.34
395.534	354.45
395.913	323.27
396.292	339.09
396.671	349.48
397.05	340.22
397.429	335.02
397.808	358.3
398.186	340.67
398.565	334.57
398.944	321.23
399.323	345.64
399.701	333.66
400.08	366.21
400.458	356.71
400.837	379.54
401.215	338.18
401.594	336.15
401.972	348.13
402.351	374.34
402.729	364.4
403.107	355.13
403.486	370.27
403.864	369.37
404.242	360.33
404.62	371.85
404.999	386.09
405.377	394
405.755	354
406.133	384.06
406.511	389.26
406.889	381.12
407.267	410.5
407.645	387
408.023	371.63
408.401	385.87
408.779	370.05
409.156	401.23
409.534	385.64
409.912	408.92
410.29	403.49
410.667	407.79
411.045	402.59
411.422	409.37
411.8	412.76
412.178	420.89
412.555	408.01
412.933	428.8
413.31	428.12
413.687	432.87
414.065	421.12
414.442	421.12
414.819	431.06
415.197	440.33
415.574	422.02
415.951	439.88
416.328	442.14
416.705	431.06
417.082	445.53
417.46	436.94
417.837	441.01
418.214	434.9
418.591	455.69
418.967	443.94
419.344	460.67
419.721	450.72
420.098	440.78
420.475	436.03
420.852	468.35
421.228	474
421.605	483.26
421.982	491.85
422.358	491.4
422.735	486.65
423.111	476.94
423.488	492.53
423.864	479.2
424.241	482.59
424.617	483.26
424.994	502.25
425.37	471.74
425.746	503.83
426.123	526.65
426.499	495.24
426.875	521
427.251	504.73
427.627	533.88
428.003	514.45
428.379	528.01
428.756	565.3
429.132	564.62
429.507	545.41
429.883	548.12
430.259	570.49
430.635	564.84
431.011	576.14
431.387	566.43
431.763	576.6
432.138	586.99
432.514	577.05
432.89	573.43
433.265	587.67
433.641	607.1
434.016	613.66
434.392	597.16
434.767	623.83
435.143	632.41
435.518	630.38
435.894	639.42
436.269	636.25
436.644	643.03
437.02	640.32
437.395	640.55
437.77	676.93
438.145	669.93
438.52	682.13
438.895	696.59
439.271	708.34
439.646	722.35
440.021	721
440.395	709.7
440.77	670.15
441.145	727.33
441.52	734.78
441.895	733.43
442.27	735.01
442.645	734.56
443.019	770.26
443.394	778.17
443.769	746.08
444.143	756.03
444.518	775.91
444.892	767.55
445.267	779.75
445.641	812.52
446.016	811.39
446.39	806.19
446.764	808.23
447.139	796.25
447.513	780.66
447.887	827.66
448.262	817.27
448.636	828.11
449.01	840.99
449.384	825.85
449.758	854.1
450.132	844.38
450.506	882.35
450.88	848.68
451.254	837.83
451.628	885.29
452.002	881.67
452.376	903.82
452.75	909.47
453.123	905.17
453.497	899.75
453.871	898.17
454.244	935.23
454.618	925.06
454.992	938.17
455.365	935
455.739	964.83
456.112	932.97
456.486	938.62
456.859	967.32
457.232	1013.19
457.606	980.88
457.979	990.14
458.352	1004.61
458.725	1035.57
459.099	1004.38
459.472	1026.3
459.845	1048
460.218	1074.44
460.591	1036.92
460.964	1056.13
461.337	1070.82
461.71	1071.72
462.083	1106.52
462.456	1045.74
462.829	1061.33
463.201	1099.07
463.574	1118.95
463.947	1110.14
464.32	1124.83
464.692	1142.68
465.065	1153.75
465.438	1145.17
465.81	1168.67
466.183	1189.01
466.555	1180.65
466.928	1194.21
467.3	1206.18
467.672	1211.38
468.045	1220.19
468.417	1222.68
468.789	1230.14
469.161	1241.66
469.534	1226.3
469.906	1259.74
470.278	1259.06
470.65	1265.39
471.022	1314.43
471.394	1334.54
471.766	1295.9
472.138	1321.21
472.51	1334.32
472.882	1347.2
473.253	1358.04
473.625	1359.17
473.997	1396.01
474.369	1418.83
474.74	1421.77
475.112	1404.14
475.484	1464.93
475.855	1456.35
476.227	1439.4
476.598	1473.29
476.97	1486.4
477.341	1519.85
477.713	1511.03
478.084	1535.67
478.455	1550.58
478.827	1549.68
479.198	1579.28
479.569	1597.81
479.94	1615.21
480.311	1616.79
480.682	1631.03
481.053	1664.48
481.424	1693.85
481.795	1680.52
482.166	1685.04
482.537	1705.6
482.908	1717.36
483.279	1734.76
483.65	1748.32
484.021	1790.57
484.391	1781.31
484.762	1769.33
485.133	1792.38
485.503	1787.64
485.874	1833.96
486.244	1827.86
486.615	1855.88
486.985	1843.91
487.356	1882.32
487.726	1863.79
488.097	1914.64
488.467	1907.86
488.837	1918.48
489.207	1928.2
489.578	1922.55
489.948	1960.51
490.318	1963.23
490.688	1947.63
491.058	1962.77
491.428	1986.95
491.798	1970.91
492.168	2008.2
492.538	2005.03
492.908	1996.22
493.278	2028.53
493.648	1988.76
494.017	2005.48
494.387	1985.82
494.757	1992.83
495.126	2034.41
495.496	2050.45
495.866	2029.21
496.235	2078.02
496.605	2023.79
496.974	2034.41
497.344	2012.26
497.713	2045.93
498.082	2038.93
498.452	2048.65
498.821	2040.96
499.19	2024.01
499.559	2046.39
499.928	2001.64
500.298	2041.42
500.667	2023.56
501.036	2009.55
501.405	2057.01
501.774	2013.62
502.143	2023.79
502.512	2016.11
502.88	2028.08
503.249	1974.75
503.618	2026.27
503.987	2013.39
504.356	2003.45
504.724	2030.34
505.093	2043.22
505.462	2001.19
505.83	2012.72
506.199	1988.76
506.567	2024.24
506.936	2000.96
507.304	2021.3
507.672	2005.94
508.041	2013.17
508.409	1993.51
508.777	2027.86
509.145	2030.57
509.514	2004.81
509.882	1996.9
510.25	1985.82
510.618	1996.67
510.986	2006.39
511.354	1995.31
511.722	1990.8
512.09	2001.19
512.458	1975.43
512.826	2017.24
513.193	1974.75
513.561	1967.97
513.929	1992.83
514.297	1952.83
514.664	1985.15
515.032	1970.68
515.4	1967.07
515.767	1929.33
516.135	1961.19
516.502	1943.34
516.869	1950.57
517.237	1943.79
517.604	1939.5
517.972	1930.23
518.339	1918.25
518.706	1896.56
519.073	1914.64
519.44	1904.7
519.808	1924.58
520.175	1903.11
520.542	1932.27
520.909	1897.69
521.276	1887.3
521.643	1904.92
522.009	1951.7
522.376	1899.5
522.743	1891.59
523.11	1944.92
523.477	1913.06
523.843	1901.76
524.21	1911.02
524.577	1895.43
524.943	1923.23
525.31	1896.33
525.676	1897.69
526.043	1910.12
526.409	1890.46
526.776	1868.99
527.142	1860.63
527.508	1902.44
527.874	1913.28
528.241	1893.17
528.607	1866.73
528.973	1911.7
529.339	1887.97
529.705	1894.98
530.071	1887.75
530.437	1906.05
530.803	1913.96
531.169	1887.07
531.535	1886.62
531.901	1870.57
532.267	1892.04
532.632	1914.19
532.998	1875.09
533.364	1917.12
533.73	1903.79
534.095	1900.18
534.461	1886.62
534.826	1901.76
535.192	1884.13
535.557	1867.41
535.923	1897.92
536.288	1884.81
536.653	1899.72
537.019	1891.81
537.384	1911.7
537.749	1899.05
538.114	1870.8
538.479	1894.75
538.845	1900.63
539.21	1904.02
539.575	1864.92
539.94	1897.01
540.305	1880.29
540.67	1887.97
541.034	1887.52
541.399	1868.76
541.764	1886.62
542.129	1872.83
542.494	1876.45
542.858	1889.55
543.223	1871.93
543.587	1884.58
543.952	1880.52
544.316	1866.05
544.681	1859.27
545.045	1885.04
545.41	1879.61
545.774	1872.83
546.138	1840.29
546.503	1874.19
546.867	1877.35
547.231	1866.5
547.595	1867.18
547.959	1862.21
548.324	1849.78
548.688	1853.62
549.052	1856.79
549.416	1850.69
549.779	1861.76
550.143	1825.83
550.507	1835.09
550.871	1849.78
551.235	1833.74
551.599	1812.95
551.962	1842.32
552.326	1811.59
552.689	1817.92
553.053	1818.82
553.417	1820.18
553.78	1816.11
554.143	1849.1
554.507	1842.32
554.87	1817.01
555.234	1852.27
555.597	1804.59
555.96	1822.21
556.323	1836.45
556.686	1801.2
557.05	1841.42
557.413	1815.66
557.776	1842.32
558.139	1844.81
558.502	1796.45
558.865	1819.05
559.228	1859.73
559.59	1831.48
559.953	1821.31
560.316	1846.39
560.679	1833.29
561.041	1818.37
561.404	1821.53
561.767	1821.53
562.129	1807.98
562.492	1845.04
562.854	1839.61
563.217	1843.23
563.579	1808.65
563.941	1841.19
564.304	1834.64
564.666	1881.87
565.028	1842.55
565.39	1867.18
565.753	1862.21
566.115	1832.16
566.477	1861.08
566.839	1867.41
567.201	1871.25
567.563	1894.53
567.925	1877.58
568.287	1895.88
568.648	1871.25
569.01	1893.62
569.372	1925.49
569.734	1871.7
570.095	1880.74
570.457	1895.66
570.819	1914.64
571.18	1906.96
571.542	1929.33
571.903	1914.86
572.265	1927.29
572.626	1911.93
572.987	1920.06
573.349	1935.43
573.71	1932.49
574.071	1961.19
574.432	1969.55
574.794	1990.34
575.155	1983.56
575.516	1973.39
575.877	1993.05
576.238	1965.03
576.599	2005.26
576.96	1993.96
577.32	1980.85
577.681	2031.7
578.042	2016.11
578.403	2018.59
578.763	2059.27
579.124	2039.38
579.485	2017.46
579.845	2047.74
580.206	2010
580.566	2043.22
580.927	2058.14
581.287	2039.38
581.648	2041.87
582.008	2074.18
582.368	2048.65
582.728	2080.96
583.089	2062.21
583.449	2067.63
583.809	2092.26
584.169	2101.3
584.529	2078.48
584.889	2093.62
585.249	2092.71
585.609	2091.58
585.969	2104.46
586.329	2100.17
586.688	2122.54
587.048	2067.18
587.408	2108.31
587.768	2127.74
588.127	2081.87
588.487	2109.89
588.846	2133.84
589.206	2132.49
589.565	2094.52
589.925	2119.61
590.284	2101.07
590.643	2103.33
591.003	2138.14
591.362	2097.68
591.721	2129.77
592.08	2129.1
592.44	2118.48
592.799	2145.59
593.158	2148.31
593.517	2100.85
593.876	2113.05
594.235	2124.12
594.593	2138.14
594.952	2122.77
595.311	2111.7
595.67	2133.16
596.029	2135.88
596.387	2128.19
596.746	2143.11
597.104	2104.01
597.463	2106.27
597.822	2166.16
598.18	2120.96
598.538	2093.84
598.897	2106.27
599.255	2109.21
599.613	2118.25
599.972	2091.36
600.33	2117.12
600.688	2113.05
601.046	2118.7
601.404	2105.37
601.762	2128.42
602.12	2142.2
602.478	2103.79
602.836	2095.2
603.194	2121.87
603.552	2121.19
603.91	2127.97
604.268	2121.87
604.625	2110.79
604.983	2110.57
605.341	2112.37
605.698	2146.95
606.056	2112.83
606.413	2128.64
606.771	2117.8
607.128	2099.49
607.485	2162.77
607.843	2120.74
608.2	2120.96
608.557	2141.75
608.914	2129.55
609.272	2116.22
609.629	2162.77
609.986	2123.9
610.343	2098.81
610.7	2130.9
611.057	2152.82
611.414	2142.66
611.771	2118.7
612.127	2151.92
612.484	2124.35
612.841	2127.74
613.198	2171.81
613.554	2151.02
613.911	2156.44
614.267	2106.27
614.624	2138.14
614.98	2148.08
615.337	2116.89
615.693	2182.43
616.05	2167.51
616.406	2164.35
616.762	2148.98
617.118	2167.06
617.475	2120.96
617.831	2150.79
618.187	2154.86
618.543	2156.21
618.899	2164.12
619.255	2184.01
619.611	2172.71
619.967	2177.68
620.323	2185.14
620.678	2144.24
621.034	2162.32
621.39	2173.62
621.746	2192.82
622.101	2202.54
622.457	2139.04
622.812	2141.75
623.168	2159.83
623.523	2195.31
623.879	2160.51
624.234	2150.11
624.589	2156.89
624.945	2162.77
625.3	2176.33
625.655	2165.03
626.01	2170.45
626.365	2162.77
626.72	2172.94
627.075	2171.13
627.43	2181.98
627.785	2172.26
628.14	2180.17
628.495	2172.71
628.85	2179.49
629.205	2167.51
629.559	2186.5
629.914	2169.1
630.269	2180.17
630.623	2149.21
630.978	2173.84
631.332	2197.34
631.687	2198.7
632.041	2165.71
632.396	2184.91
632.75	2163.67
633.104	2182.2
633.459	2136.55
633.813	2175.87
634.167	2156.89
634.521	2170.68
634.875	2177.46
635.229	2162.99
635.583	2189.66
635.937	2155.54
636.291	2170.68
636.645	2205.7
636.999	2183.11
637.352	2180.17
637.706	2174.07
638.06	2178.13
638.413	2160.73
638.767	2145.82
639.121	2176.78
639.474	2131.81
639.828	2146.05
640.181	2181.52
640.534	2138.59
640.888	2163.9
641.241	2148.31
641.594	2168.64
641.947	2182.65
642.301	2153.05
642.654	2146.72
643.007	2186.5
643.36	2176.78
643.713	2177
644.066	2184.91
644.419	2154.41
644.771	2134.75
645.124	2090.91
645.477	2139.27
645.83	2100.4
646.182	2113.05
646.535	2152.6
646.888	2155.99
647.24	2108.53
647.593	2136.33
647.945	2153.05
648.298	2133.39
648.65	2114.18
649.002	2133.62
649.355	2158.47
649.707	2149.89
650.059	2148.53
650.411	2173.39
650.763	2179.26
651.115	2195.99
651.467	2181.75
651.819	2187.4
652.171	2221.3
652.523	2229.88
652.875	2230.56
653.227	2237.57
653.578	2221.52
653.93	2235.08
654.282	2185.14
654.633	2221.98
654.985	2221.98
655.337	2238.7
655.688	2257.91
656.039	2198.47
656.391	2223.78
656.742	2225.14
657.094	2215.42
657.445	2255.42
657.796	2229.66
658.147	2212.94
658.498	2250.9
658.849	2270.79
659.2	2227.63
659.551	2225.14
659.902	2213.84
660.253	2255.65
660.604	2224.01
660.955	2239.15
661.306	2253.84
661.656	2203.9
662.007	2238.7
662.358	2259.94
662.708	2260.84
663.059	2273.73
663.409	2248.87
663.76	2261.75
664.11	2259.04
664.461	2282.31
664.811	2279.6
665.161	2272.14
665.511	2266.72
665.862	2292.71
666.212	2278.92
666.562	2281.18
666.912	2240.28
667.262	2247.74
667.612	2249.09
667.962	2284.35
668.312	2248.87
668.662	2248.19
669.011	2264.01
669.361	2245.25
669.711	2234.63
670.06	2271.01
670.41	2254.52
670.76	2266.95
671.109	2276.44
671.459	2245.48
671.808	2239.38
672.157	2215.65
672.507	2208.64
672.856	2205.25
673.205	2207.29
673.554	2217
673.904	2199.83
674.253	2192.15
674.602	2222.88
674.951	2177.23
675.3	2176.33
675.649	2200.96
675.998	2195.08
676.346	2193.05
676.695	2214.74
677.044	2174.07
677.393	2204.35
677.741	2179.26
678.09	2168.42
678.438	2165.71
678.787	2167.74
679.135	2193.5
679.484	2155.99
679.832	2186.5
680.181	2162.09
680.529	2171.58
680.877	2134.52
681.225	2142.2
681.573	2152.82
681.922	2130.9
682.27	2186.72
682.618	2165.93
682.966	2110.34
683.314	2126.84
683.661	2117.35
684.009	2113.96
684.357	2136.78
684.705	2078.48
685.053	2110.79
685.4	2102.88
685.748	2065.82
686.095	2093.39
686.443	2084.35
686.79	2079.83
687.138	2068.53
687.485	2078.48
687.832	2051.81
688.18	2038.7
688.527	2061.53
688.874	2052.49
689.221	2061.75
689.568	2009.1
689.915	2014.3
690.262	2055.2
690.609	2012.04
690.956	2029.21
691.303	1971.81
691.65	2024.92
691.997	2013.17
692.344	1969.78
692.69	1971.13
693.037	1991.93
693.383	1992.38
693.73	1980.85
694.077	1972.49
694.423	1964.81
694.769	1966.61
695.116	1924.13
695.462	1966.61
695.808	1908.31
696.155	1908.99
696.501	1902.21
696.847	1900.18
697.193	1929.1
697.539	1902.66
697.885	1924.36
698.231	1879.16
698.577	1887.52
698.923	1882.78
699.269	1913.51
699.614	1879.16
699.96	1901.31
700.306	1884.36
700.651	1912.83
700.997	1874.41
701.342	1888.2
701.688	1870.8
702.033	1852.27
702.379	1882.78
702.724	1861.31
703.069	1863.57
703.415	1840.97
703.76	1852.04
704.105	1833.51
704.45	1814.75
704.795	1861.98
705.14	1828.77
705.485	1819.05
705.83	1819.05
706.175	1829.44
706.52	1825.6
706.865	1826.51
707.209	1827.18
707.554	1850.01
707.899	1842.1
708.243	1813.62
708.588	1814.98
708.932	1814.53
709.277	1835.54
709.621	1817.01
709.966	1812.49
710.31	1819.27
710.654	1800.74
710.998	1793.29
711.342	1840.29
711.687	1820.4
712.031	1790.35
712.375	1829.67
712.719	1808.65
713.063	1798.26
713.407	1849.1
713.75	1838.48
714.094	1816.79
714.438	1805.04
714.782	1867.63
715.125	1820.18
715.469	1829.44
715.812	1816.11
716.156	1836.22
716.499	1822.44
716.843	1847.07
717.186	1840.74
717.53	1825.83
717.873	1850.01
718.216	1854.98
718.559	1844.81
718.902	1864.24
719.246	1857.92
719.589	1820.4
719.932	1837.13
720.275	1864.92
720.617	1886.39
720.96	1901.08
721.303	1880.74
721.646	1892.49
721.989	1876.45
722.331	1916.22
722.674	1913.06
723.016	1893.4
723.359	1897.46
723.701	1920.29
724.044	1924.81
724.386	1907.18
724.729	1925.03
725.071	1924.81
725.413	1925.26
725.755	1966.84
726.097	1962.55
726.439	1936.11
726.782	1967.29
727.124	1960.29
727.465	1982.43
727.807	2008.42
728.149	1974.3
728.491	2013.39
728.833	2029.89
729.175	1989.44
729.516	2012.94
729.858	2017.46
730.199	2020.62
730.541	2041.87
730.882	2057.23
731.224	2079.15
731.565	2073.96
731.906	2048.65
732.248	2044.13
732.589	2058.82
732.93	2089.55
733.271	2116.89
733.612	2125.93
733.953	2146.05
734.294	2129.32
734.635	2146.95
734.976	2167.97
735.317	2168.19
735.658	2198.93
735.999	2195.54
736.339	2183.78
736.68	2233.95
737.021	2216.55
737.361	2238.02
737.702	2250.9
738.042	2267.62
738.383	2278.47
738.723	2278.25
739.063	2319.6
739.404	2322.76
739.744	2348.3
740.084	2340.62
740.424	2358.7
740.764	2377
741.104	2411.58
741.444	2419.03
741.784	2428.75
742.124	2478.47
742.464	2500.16
742.804	2511.69
743.143	2537.9
743.483	2563.66
743.823	2580.16
744.162	2611.8
744.502	2635.3
744.841	2685.69
745.181	2731.11
745.52	2740.38
745.86	2769.98
746.199	2802.98
746.538	2809.53
746.877	2854.73
747.216	2922.52
747.556	2909.19
747.895	2980.15
748.234	3011.33
748.573	3027.38
748.911	3088.62
749.25	3158.22
749.589	3176.98
749.928	3218.33
750.267	3287.03
750.605	3351.66
750.944	3356.63
751.283	3381.94
751.621	3497.2
751.96	3517.53
752.298	3539.23
752.636	3637.53
752.975	3641.37
753.313	3713.24
753.651	3740.58
753.989	3781.71
754.327	3828.49
754.666	3915.26
755.004	3952.33
755.342	4033.23
755.679	4056.28
756.017	4130.85
756.355	4178.99
756.693	4262.15
757.031	4336.27
757.368	4392.31
757.706	4405.42
758.044	4499.2
758.381	4588.47
758.719	4614.68
759.056	4672.98
759.394	4738.07
759.731	4776.94
760.068	4869.82
760.405	4938.74
760.743	4934.67
761.08	5041.79
761.417	5089.47
761.754	5128.57
762.091	5159.98
762.428	5227.32
762.765	5219.41
763.102	5318.84
763.438	5394.32
763.775	5433.87
764.112	5470.48
764.449	5532.4
764.785	5595.9
765.122	5611.72
765.458	5682.45
765.795	5674.54
766.131	5748.21
766.467	5808.1
766.804	5843.12
767.14	5878.83
767.476	5910.24
767.812	5900.07
768.148	5996.79
768.485	6052.61
768.821	6024.14
769.157	6055.1
769.492	6114.53
769.828	6112.95
770.164	6145.94
770.5	6236.11
770.836	6259.16
771.171	6287.63
