Data from blue_clamp_base_FLMS001491_00013.txt Node
Date: Wed Feb 08 15:15:37 GMT 2017
User: dcchb
Spectrometer: FLMS00149
Trigger mode: 0
Integration Time (sec): 2.000000E-2
Scans to average: 10
Electric dark correction enabled: true
Nonlinearity correction enabled: false
Boxcar width: 0
XAxis mode: Wavelengths
Number of Pixels in Spectrum: 2048
>>>>>Begin Spectral Data<<<<<
341.393	-4.86
341.776	-4.86
342.16	-4.86
342.543	-53.9
342.927	-75.82
343.31	-62.71
343.693	-61.35
344.077	-52.77
344.46	-73.78
344.843	-51.41
345.226	-58.42
345.61	-23.84
345.993	-27.68
346.376	9.6
346.759	22.26
347.142	22.71
347.525	51.19
347.908	64.74
348.291	54.35
348.674	75.37
349.057	111.75
349.44	126.66
349.823	136.61
350.206	176.83
350.588	187.9
350.971	216.38
351.354	212.54
351.737	235.81
352.119	259.32
352.502	276.72
352.884	268.35
353.267	291.18
353.65	269.71
354.032	297.28
354.414	297.73
354.797	318.97
355.179	305.19
355.562	306.77
355.944	342.7
356.326	316.94
356.709	345.41
357.091	316.71
357.473	340.89
357.855	332.76
358.238	350.16
358.62	347.22
359.002	346.09
359.384	330.73
359.766	353.55
360.148	335.02
360.53	331.86
360.912	344.51
361.294	330.95
361.676	303.61
362.057	337.51
362.439	337.28
362.821	330.27
363.203	322.82
363.584	317.62
363.966	314.23
364.348	339.31
364.729	315.13
365.111	325.3
365.493	343.38
365.874	314.23
366.256	314.23
366.637	319.65
367.019	305.19
367.4	299.54
367.781	315.58
368.163	308.81
368.544	309.94
368.925	320.33
369.306	332.76
369.688	325.08
370.069	308.13
370.45	323.04
370.831	329.14
371.212	316.04
371.593	324.85
371.974	320.78
372.355	321.23
372.736	321.69
373.117	316.26
373.498	313.1
373.879	326.43
374.26	325.98
374.641	314
375.021	321.23
375.402	326.43
375.783	337.51
376.163	330.5
376.544	357.62
376.925	336.38
377.305	346.54
377.686	335.92
378.066	328.01
378.447	344.51
378.827	350.61
379.208	348.58
379.588	351.52
379.968	354
380.349	347
380.729	355.13
381.109	343.61
381.489	344.51
381.87	356.26
382.25	369.59
382.63	362.36
383.01	372.08
383.39	350.61
383.77	359.43
384.15	360.78
384.53	369.59
384.91	369.82
385.29	371.4
385.67	342.93
386.049	357.62
386.429	384.96
386.809	369.59
387.189	360.1
387.568	374.57
387.948	393.55
388.328	379.99
388.707	375.47
389.087	395.13
389.466	387.45
389.846	384.96
390.225	398.52
390.605	396.71
390.984	404.85
391.363	434.45
391.743	428.58
392.122	430.61
392.501	424.06
392.881	426.77
393.26	413.21
393.639	436.03
394.018	433.55
394.397	409.59
394.776	439.88
395.155	444.85
395.534	459.08
395.913	445.75
396.292	459.76
396.671	460.21
397.05	483.72
397.429	471.29
397.808	482.59
398.186	498.63
398.565	477.61
398.944	475.81
399.323	483.72
399.701	508.35
400.08	497.5
400.458	502.25
400.837	499.99
401.215	485.52
401.594	525.07
401.972	531.85
402.351	543.83
402.729	528.46
403.107	541.34
403.486	530.72
403.864	553.09
404.242	562.36
404.62	565.97
404.999	558.06
405.377	551.51
405.755	577.95
406.133	594.67
406.511	591.74
406.889	609.81
407.267	609.81
407.645	626.99
408.023	610.27
408.401	651.4
408.779	633.32
409.156	657.95
409.534	638.51
409.912	644.84
410.29	681.45
410.667	671.28
411.045	705.41
411.422	674.9
411.8	716.93
412.178	713.09
412.555	706.76
412.933	715.57
413.31	735.46
413.687	740.88
414.065	718.51
414.442	775.69
414.819	746.76
415.197	765.52
415.574	791.28
415.951	788.34
416.328	789.7
416.705	792.41
417.082	776.59
417.46	810.26
417.837	831.05
418.214	835.57
418.591	854.78
418.967	831.5
419.344	834.44
419.721	851.84
420.098	859.75
420.475	871.05
420.852	866.76
421.228	899.52
421.605	916.47
421.982	940.88
422.358	920.99
422.735	931.16
423.111	948.34
423.488	931.16
423.864	957.15
424.241	944.72
424.617	988.79
424.994	968.45
425.37	991.27
425.746	995.12
426.123	1016.36
426.499	1008.67
426.875	1030.37
427.251	1041.44
427.627	1077.37
428.003	1094.55
428.379	1092.29
428.756	1101.1
429.132	1139.97
429.507	1106.52
429.883	1147.88
430.259	1188.78
430.635	1182.23
431.011	1204.83
431.387	1197.14
431.763	1239.18
432.138	1236.92
432.514	1286.41
432.89	1245.5
433.265	1293.64
433.641	1294.99
434.016	1319.85
434.392	1328.44
434.767	1361.66
435.143	1374.99
435.518	1383.35
435.894	1411.15
436.269	1415.67
436.644	1429
437.02	1446.63
437.395	1456.12
437.77	1499.96
438.145	1509.9
438.52	1492.5
438.895	1526.17
439.271	1541.32
439.646	1589.9
440.021	1575.21
440.395	1600.07
440.77	1565.5
441.145	1601.88
441.52	1655.44
441.895	1617.7
442.27	1639.62
442.645	1672.39
443.019	1689.33
443.394	1704.93
443.769	1718.26
444.143	1718.26
444.518	1716.68
444.892	1731.59
445.267	1709.67
445.641	1786.51
446.016	1765.49
446.39	1785.38
446.764	1844.36
447.139	1815.21
447.513	1838.48
447.887	1860.18
448.262	1878.26
448.636	1886.17
449.01	1885.26
449.384	1909.22
449.758	1926.16
450.132	1952.83
450.506	1942.89
450.88	1977.69
451.254	1984.92
451.628	2003
452.002	2029.66
452.376	2043.45
452.75	2063.79
453.123	2045.93
453.497	2108.53
453.871	2139.94
454.244	2161.41
454.618	2191.92
454.992	2207.96
455.365	2192.15
455.739	2253.39
456.112	2282.99
456.486	2296.78
456.859	2331.58
457.232	2343.33
457.606	2351.92
457.979	2437.79
458.352	2454.51
458.725	2457.22
459.099	2472.36
459.472	2549.65
459.845	2555.98
460.218	2546.49
460.591	2595.98
460.964	2612.25
461.337	2664
461.71	2707.39
462.083	2768.18
462.456	2718.01
462.829	2793.94
463.201	2789.42
463.574	2832.58
463.947	2833.94
464.32	2911.67
464.692	2915.97
465.065	2924.78
465.438	3009.53
465.81	3022.41
466.183	3005.23
466.555	3095.17
466.928	3085.68
467.3	3066.02
467.672	3175.85
468.045	3260.82
468.417	3231.67
468.789	3300.14
469.161	3319.57
469.534	3341.49
469.906	3425.79
470.278	3420.59
470.65	3466.46
471.022	3539.23
471.394	3576.06
471.766	3601.6
472.138	3619.68
472.51	3686.57
472.882	3750.3
473.253	3798.88
473.625	3805.89
473.997	3906.22
474.369	3924.08
474.74	3950.97
475.112	4009.95
475.484	4075.26
475.855	4156.61
476.227	4205.43
476.598	4258.76
476.97	4309.15
477.341	4336.27
477.713	4471.86
478.084	4432.09
478.455	4521.8
478.827	4601.35
479.198	4711.85
479.569	4709.59
479.94	4799.08
480.311	4828.01
480.682	4933.54
481.053	5023.26
481.424	5098.51
481.795	5129.92
482.166	5213.99
482.537	5288.11
482.908	5353.19
483.279	5362.01
483.65	5436.13
484.021	5541.66
484.391	5592.96
484.762	5640.64
485.133	5642.22
485.503	5734.88
485.874	5822.56
486.244	5836.8
486.615	5932.39
486.985	6033.63
487.356	6069.56
487.726	6065.26
488.097	6208.09
488.467	6219.16
488.837	6336.9
489.207	6335.77
489.578	6428.64
489.948	6457.57
490.318	6584.35
490.688	6547.51
491.058	6668.41
491.428	6727.39
491.798	6754.96
492.168	6839.26
492.538	6870.89
492.908	6905.47
493.278	6956.54
493.648	6980.27
494.017	7025.24
494.387	7142.3
494.757	7155.63
495.126	7222.07
495.496	7103.2
495.866	7198.12
496.235	7302.97
496.605	7288.96
496.974	7330.09
497.344	7416.19
497.713	7412.57
498.082	7425.45
498.452	7472.91
498.821	7491.44
499.19	7527.37
499.559	7609.63
499.928	7624.32
500.298	7622.96
500.667	7664.77
501.036	7700.25
501.405	7718.55
501.774	7691.21
502.143	7802.39
502.512	7730.98
502.88	7856.18
503.249	7856.86
503.618	7851.43
503.987	7878.32
504.356	8000.81
504.724	7953.35
505.093	8043.74
505.462	8026.79
505.83	8026.34
506.199	8065.44
506.567	8171.88
506.936	8189.5
507.304	8155.15
507.672	8243.29
508.041	8265.66
508.409	8248.26
508.777	8367.8
509.145	8352.89
509.514	8360.35
509.882	8436.28
510.25	8431.98
510.618	8443.96
510.986	8434.69
511.354	8556.05
511.722	8618.42
512.09	8641.69
512.458	8554.24
512.826	8629.26
513.193	8703.16
513.561	8673.11
513.929	8749.49
514.297	8818.41
514.664	8810.28
515.032	8863.16
515.4	8839.43
515.767	8896.6
516.135	8893.21
516.502	8872.2
516.869	9055.92
517.237	9014.11
517.604	9089.59
517.972	9078.52
518.339	9160.55
518.706	9146.54
519.073	9146.31
519.44	9154
519.808	9254.11
520.175	9261.34
520.542	9350.38
520.909	9316.48
521.276	9273.54
521.643	9434.44
522.009	9478.73
522.376	9545.62
522.743	9581.1
523.11	9661.1
523.477	9700.87
523.843	9726.86
524.21	9807.09
524.577	9831.94
524.943	9878.5
525.31	9845.5
525.676	9965.95
526.043	10038.72
526.409	10025.16
526.776	10092.95
527.142	10145.83
527.508	10150.13
527.874	10248.88
528.241	10232.84
528.607	10293.4
528.973	10402.1
529.339	10322.1
529.705	10448.65
530.071	10459.05
530.437	10530.91
530.803	10522.55
531.169	10641.42
531.535	10631.02
531.901	10676.22
532.267	10663.79
532.632	10784.01
532.998	10840.73
533.364	10855.87
533.73	10847.51
534.095	10904.91
534.461	10957.34
534.826	11083.66
535.192	11005.93
535.557	11011.12
535.923	11012.25
536.288	11073.95
536.653	11188.97
537.019	11144.23
537.384	11123.66
537.749	11248.4
538.114	11262.64
538.479	11301.51
538.845	11327.5
539.21	11296.77
539.575	11417.44
539.94	11386.03
540.305	11430.55
540.67	11429.64
541.034	11463.77
541.399	11488.17
541.764	11548.96
542.129	11618.34
542.494	11560.26
542.858	11649.3
543.223	11638
543.587	11732.23
543.952	11649.98
544.316	11732.46
544.681	11693.14
545.045	11834.38
545.41	11832.57
545.774	11866.69
546.138	11818.56
546.503	11813.36
546.867	11896.3
547.231	11917.77
547.595	12011.32
547.959	12025.79
548.324	12025.11
548.688	11992.11
549.052	12094.26
549.416	12066.01
549.779	12034.6
550.143	12105.56
550.507	12169.96
550.871	12237.08
551.235	12176.29
551.599	12264.42
551.962	12255.84
552.326	12383.06
552.689	12336.74
553.053	12295.83
553.417	12355.72
553.78	12478.43
554.143	12407.47
554.507	12511.65
554.87	12547.81
555.234	12629.61
555.597	12503.74
555.96	12621.93
556.323	12658.54
556.686	12676.16
557.05	12738.99
557.413	12736.28
557.776	12714.35
558.139	12839.1
558.502	12784.86
558.865	12861.7
559.228	12958.64
559.59	12940.79
559.953	13008.81
560.316	13121.8
560.679	13124.29
561.041	13228.92
561.404	13265.07
561.767	13278.63
562.129	13209.26
562.492	13359.31
562.854	13405.64
563.217	13346.88
563.579	13403.83
563.941	13472.3
564.304	13521.11
564.666	13574.22
565.028	13642.69
565.39	13651.73
565.753	13675.01
566.115	13659.64
566.477	13750.94
566.839	13813.54
567.201	13992.29
567.563	13901.67
567.925	14029.8
568.287	13968.56
568.648	14043.59
569.01	14053.98
569.372	14204.94
569.734	14145.5
570.095	14272.96
570.457	14312.73
570.819	14461.2
571.18	14414.88
571.542	14518.38
571.903	14523.8
572.265	14547.75
572.626	14578.26
572.987	14586.85
573.349	14641.08
573.71	14694.87
574.071	14803.11
574.432	14762.89
574.794	14898.03
575.155	14906.39
575.516	14877.24
575.877	14940.51
576.238	15003.33
576.599	14980.51
576.96	15041.3
577.32	15011.24
577.681	15185.02
578.042	15123.11
578.403	15156.1
578.763	15288.07
579.124	15277.45
579.485	15281.97
579.845	15388.41
580.206	15287.39
580.566	15311.57
580.927	15322.42
581.287	15448.97
581.648	15357.9
582.008	15383.89
582.368	15363.1
582.728	15450.33
583.089	15449.42
583.449	15452.81
583.809	15537.33
584.169	15558.8
584.529	15453.94
584.889	15578.46
585.249	15479.71
585.609	15473.83
585.969	15633.6
586.329	15524
586.688	15602.87
587.048	15632.92
587.408	15597.67
587.768	15680.6
588.127	15610.1
588.487	15627.05
588.846	15711.79
589.206	15687.61
589.565	15678.57
589.925	15787.72
590.284	15665.24
590.643	15720.15
591.003	15862.29
591.362	15820.04
591.721	15769.42
592.08	15837.44
592.44	15876.08
592.799	15828.4
593.158	15890.32
593.517	15842.41
593.876	15904.33
594.235	15842.86
594.593	15893.71
594.952	15847.15
595.311	15800.83
595.67	15813.93
596.029	16000.37
596.387	15967.15
596.746	15929.64
597.104	15928.06
597.463	15896.19
597.822	16048.5
598.18	15904.1
598.538	15922.86
598.897	16042.18
599.255	15931.67
599.613	16072.91
599.972	16043.98
600.33	16086.92
600.688	16002.18
601.046	16093.7
601.404	16178.44
601.762	16113.14
602.12	16210.31
602.478	16196.52
602.836	16219.57
603.194	16132.57
603.552	16141.38
603.91	16108.16
604.268	16208.95
604.625	16126.69
604.983	16114.94
605.341	16064.32
605.698	16192.23
606.056	16323.75
606.413	16245.56
606.771	16396.52
607.128	16338.67
607.485	16171.89
607.843	16258.67
608.2	16383.64
608.557	16416.18
608.914	16334.15
609.272	16558.1
609.629	16526.01
609.986	16523.97
610.343	16448.49
610.7	16521.03
611.057	16645.1
611.414	16564.2
611.771	16589.28
612.127	16578.21
612.484	16653.91
612.841	16640.58
613.198	16521.71
613.554	16642.39
613.911	16773.91
614.267	16728.71
614.624	16703.85
614.98	16780.69
615.337	16880.57
615.693	16806.9
616.05	16780.01
616.406	16807.58
616.762	16804.64
617.118	16869.73
617.475	16886.9
617.831	16923.96
618.187	16996.95
618.543	16895.04
618.899	17078.99
619.255	17009.84
619.611	17012.55
619.967	17076.73
620.323	17060.68
620.678	17046.22
621.034	17064.52
621.39	17064.75
621.746	17041.47
622.101	17306.78
622.457	17068.14
622.812	17127.8
623.168	17093
623.523	17130.51
623.879	17281.69
624.234	17163.73
624.589	17294.57
624.945	17270.39
625.3	17265.87
625.655	17233.56
626.01	17253.67
626.365	17311.75
626.72	17329.83
627.075	17339.54
627.43	17343.39
627.785	17445.53
628.14	17345.42
628.495	17397.85
628.85	17392.65
629.205	17315.82
629.559	17420.9
629.914	17404.4
630.269	17429.49
630.623	17354.23
630.978	17433.33
631.332	17565.75
631.687	17584.51
632.041	17462.48
632.396	17581.12
632.75	17492.53
633.104	17492.99
633.459	17471.74
633.813	17474
634.167	17450.28
634.521	17512.87
634.875	17505.19
635.229	17507
635.583	17525.98
635.937	17450.5
636.291	17455.7
636.645	17513.78
636.999	17540.22
637.352	17603.72
637.706	17473.55
638.06	17538.41
638.413	17649.14
638.767	17547.67
639.121	17601.23
639.474	17529.37
639.828	17624.73
640.181	17566.66
640.534	17573.21
640.888	17612.53
641.241	17533.21
641.594	17531.4
641.947	17650.04
642.301	17580.22
642.654	17666.09
643.007	17627.45
643.36	17590.61
643.713	17676.94
644.066	17683.49
644.419	17663.83
644.771	17525.75
645.124	17453.44
645.477	17362.37
645.83	17359.66
646.182	17298.87
646.535	17244.41
646.888	17272.43
647.24	17241.24
647.593	17241.47
647.945	17204.86
648.298	17253.9
648.65	17157.63
649.002	17205.08
649.355	17259.09
649.707	17337.51
650.059	17365.98
650.411	17562.59
650.763	17676.03
651.115	17789.48
651.467	17798.97
651.819	17770.95
652.171	17856.82
652.523	17822.24
652.875	17782.7
653.227	17761.91
653.578	17908.12
653.93	17858.63
654.282	17819.31
654.633	17904.27
654.985	17873.32
655.337	17890.49
655.688	18016.14
656.039	18001.9
656.391	17816.82
656.742	17828.57
657.094	17838.06
657.445	17937.27
657.796	17880.77
658.147	17817.72
658.498	17960.77
658.849	17971.62
659.2	17817.95
659.551	17836.48
659.902	18043.93
660.253	17888.23
660.604	17954.44
660.955	17843.26
661.306	18006.42
661.656	17892.98
662.007	18031.73
662.358	17948.34
662.708	17963.26
663.059	17983.59
663.409	17801.9
663.76	17973.2
664.11	18014.1
664.461	18003.26
664.811	17983.59
665.161	17953.31
665.511	18043.25
665.862	18077.38
666.212	17986.08
666.562	18077.38
666.912	18006.19
667.262	18026.31
667.612	18025.85
667.962	17993.09
668.312	17938.62
668.662	18038.06
669.011	17932.07
669.361	17892.07
669.711	17940.88
670.06	17892.3
670.41	17842.58
670.76	17725.52
671.109	17768.69
671.459	17834.22
671.808	17659.99
672.157	17754
672.507	17670.61
672.856	17694.79
673.205	17687.56
673.554	17745.86
673.904	17609.82
674.253	17747.22
674.602	17674.9
674.951	17422.93
675.3	17268.36
675.649	17594.23
675.998	17598.75
676.346	17508.35
676.695	17518.75
677.044	17475.81
677.393	17520.1
677.741	17451.86
678.09	17380.67
678.438	17358.07
678.787	17335.48
679.135	17260
679.484	17290.51
679.832	17292.54
680.181	17119.21
680.529	17190.62
680.877	17120.57
681.225	17031.76
681.573	17191.53
681.922	17042.83
682.27	17081.7
682.618	17019.55
682.966	16999.67
683.314	16959.44
683.661	16833.12
684.009	16810.52
684.357	16819.11
684.705	16706.57
685.053	16805.55
685.4	16744.08
685.748	16732.55
686.095	16653.46
686.443	16637.19
686.79	16591.32
687.138	16588.83
687.485	16576.4
687.832	16511.54
688.18	16506.8
688.527	16444.2
688.874	16423.86
689.221	16465.22
689.568	16393.35
689.915	16406.69
690.262	16347.93
690.609	16258.44
690.956	16319.01
691.303	16381.38
691.65	16149.52
691.997	16140.48
692.344	16040.82
692.69	16108.16
693.037	16074.27
693.383	15996.75
693.73	16064.55
694.077	15963.31
694.423	16008.05
694.769	15949.07
695.116	15835.4
695.462	15843.54
695.808	15875.18
696.155	15957.89
696.501	15728.51
696.847	15854.61
697.193	15707.04
697.539	15772.81
697.885	15661.85
698.231	15666.82
698.577	15683.77
698.923	15712.24
699.269	15609.19
699.614	15567.16
699.96	15604.9
700.306	15518.12
700.651	15526.26
700.997	15486.49
701.342	15387.51
701.688	15519.48
702.033	15438.35
702.379	15450.78
702.724	15350.67
703.069	15502.08
703.415	15226.61
703.76	15281.52
704.105	15272.25
704.45	15230.67
704.795	15203.78
705.14	15289.65
705.485	15195.42
705.83	15166.72
706.175	15125.14
706.52	15187.74
706.865	14996.55
707.209	15081.75
707.554	15030
707.899	15068.87
708.243	15051.24
708.588	15031.58
708.932	15049.21
709.277	14963.34
709.621	14938.25
709.966	14726.05
710.31	14882.66
710.654	14783.45
710.998	14807.86
711.342	14900.51
711.687	14840.63
712.031	14814.19
712.375	14793.85
712.719	14823
713.063	14800.18
713.407	14807.86
713.75	14706.62
714.094	14766.28
714.438	14742.55
714.782	14726.51
715.125	14656
715.469	14646.06
715.812	14687.86
716.156	14616.9
716.499	14579.84
716.843	14564.48
717.186	14561.31
717.53	14665.04
717.873	14588.88
718.216	14609.67
718.559	14508.21
718.902	14404.03
719.246	14531.48
719.589	14494.2
719.932	14451.26
720.275	14458.94
720.617	14470.69
720.96	14467.98
721.303	14432.05
721.646	14449.9
721.989	14346.18
722.331	14476.57
722.674	14383.01
723.016	14445.16
723.359	14390.02
723.701	14419.85
724.044	14384.14
724.386	14301.66
724.729	14367.64
725.071	14306.86
725.413	14323.35
725.755	14284.03
726.097	14236.57
726.439	14171.94
726.782	14182.34
727.124	14352.28
727.465	14314.09
727.807	14267.99
728.149	14221.21
728.491	14209.46
728.833	14262.56
729.175	14280.42
729.516	14277.48
729.858	14256.69
730.199	14266.4
730.541	14251.04
730.882	14282
731.224	14259.4
731.565	14234.31
731.906	14231.83
732.248	14225.95
732.589	14158.38
732.93	14180.08
733.271	14277.25
733.612	14255.78
733.953	14233.41
734.294	14255.56
734.635	14164.71
734.976	14366.06
735.317	14258.5
735.658	14303.01
735.999	14291.94
736.339	14315.22
736.68	14218.04
737.021	14300.53
737.361	14271.83
737.702	14383.46
738.042	14420.75
738.383	14303.47
738.723	14449.22
739.063	14448.55
739.404	14439.96
739.744	14446.74
740.084	14469.79
740.424	14481.31
740.764	14448.32
741.104	14498.04
741.444	14615.32
741.784	14475.66
742.124	14510.69
742.464	14534.65
742.804	14558.15
743.143	14529
743.483	14577.36
743.823	14555.44
744.162	14617.58
744.502	14604.93
744.841	14648.32
745.181	14676.79
745.52	14702.1
745.86	14729.67
746.199	14668.43
746.538	14792.72
746.877	14867.07
747.216	14760.18
747.556	14863
747.895	14874.52
748.234	14863.23
748.573	14959.49
748.911	14909.33
749.25	14988.87
749.589	14842.66
749.928	14955.43
750.267	15061.19
750.605	15096.44
750.944	15054.41
751.283	15023.9
751.621	15122.88
751.96	15022.54
752.298	15058.02
752.636	15140.96
752.975	15187.96
753.313	15125.14
753.651	15342.76
753.989	15218.92
754.327	15166.72
754.666	15233.16
755.004	15370.33
755.342	15321.52
755.679	15370.56
756.017	15325.59
756.355	15299.15
756.693	15339.82
