Data from blue_chair_FLMS001491_00093.txt Node
Date: Wed Feb 08 10:32:18 GMT 2017
User: dcchb
Spectrometer: FLMS00149
Trigger mode: 0
Integration Time (sec): 2.000000E-2
Scans to average: 10
Electric dark correction enabled: true
Nonlinearity correction enabled: false
Boxcar width: 0
XAxis mode: Wavelengths
Number of Pixels in Spectrum: 2048
>>>>>Begin Spectral Data<<<<<
341.393	-23.22
341.776	-23.22
342.16	-23.22
342.543	-53.73
342.927	-72.26
343.31	-76.78
343.693	-69.09
344.077	-41.07
344.46	-67.51
344.843	-38.59
345.226	-35.65
345.61	-30.68
345.993	-23.45
346.376	-21.41
346.759	8.87
347.142	17.01
347.525	24.46
347.908	67.63
348.291	92.26
348.674	85.93
349.057	108.08
349.44	139.04
349.823	139.49
350.206	163.22
350.588	159.6
350.971	185.81
351.354	214.97
351.737	213.38
352.119	228.07
352.502	229.43
352.884	239.6
353.267	259.48
353.65	266.49
354.032	275.76
354.414	280.28
354.797	300.16
355.179	292.93
355.562	280.28
355.944	300.61
356.326	301.74
356.709	336.32
357.091	306.72
357.473	311.01
357.855	312.36
358.238	317.34
358.62	306.26
359.002	327.73
359.384	318.69
359.766	311.91
360.148	299.03
360.53	315.98
360.912	316.21
361.294	319.82
361.676	300.61
362.057	300.39
362.439	306.72
362.821	303.1
363.203	324.57
363.584	290.44
363.966	300.39
364.348	304.46
364.729	287.05
365.111	304.91
365.493	296.55
365.874	305.13
366.256	285.47
366.637	288.86
367.019	278.47
367.4	257.9
367.781	292.25
368.163	300.61
368.544	292.48
368.925	298.58
369.306	302.87
369.688	277.79
370.069	300.39
370.45	276.89
370.831	286.38
371.212	286.15
371.593	265.36
371.974	282.31
372.355	278.69
372.736	292.03
373.117	302.87
373.498	288.64
373.879	287.96
374.26	267.85
374.641	294.96
375.021	285.92
375.402	299.94
375.783	305.36
376.163	280.73
376.544	288.18
376.925	287.05
377.305	292.7
377.686	291.35
378.066	291.57
378.447	303.1
378.827	283.44
379.208	276.89
379.588	304.23
379.968	285.7
380.349	313.49
380.729	294.74
381.109	300.84
381.489	305.13
381.87	312.14
382.25	294.06
382.63	278.47
383.01	286.38
383.39	287.05
383.77	301.29
384.15	295.42
384.53	289.31
384.91	265.13
385.29	325.02
385.67	306.94
386.049	313.49
386.429	300.39
386.809	313.95
387.189	295.19
387.568	313.72
387.948	291.57
388.328	301.29
388.707	307.17
389.087	317.11
389.466	296.09
389.846	303.33
390.225	321.4
390.605	324.34
390.984	312.59
391.363	302.65
391.743	313.72
392.122	313.27
392.501	316.66
392.881	313.95
393.26	324.79
393.639	315.08
394.018	305.36
394.397	331.12
394.776	333.61
395.155	320.5
395.534	330.44
395.913	331.8
396.292	324.57
396.671	332.25
397.05	329.54
397.429	333.61
397.808	319.6
398.186	330.9
398.565	333.16
398.944	327.28
399.323	319.14
399.701	350.78
400.08	344
400.458	326.38
400.837	339.71
401.215	330.44
401.594	328.64
401.972	360.27
402.351	350.56
402.729	351.91
403.107	346.94
403.486	356.66
403.864	343.55
404.242	352.82
404.62	365.02
404.999	343.78
405.377	367.73
405.755	350.1
406.133	366.83
406.511	339.26
406.889	359.6
407.267	341.97
407.645	357.34
408.023	387.62
408.401	363.66
408.779	367.73
409.156	381.52
409.534	373.61
409.912	384.91
410.29	376.09
410.667	377
411.045	376.09
411.422	399.59
411.8	373.83
412.178	381.97
412.555	385.36
412.933	382.42
413.31	385.58
413.687	396.66
414.065	412.02
414.442	393.94
414.819	413.38
415.197	415.19
415.574	395.75
415.951	389.42
416.328	392.14
416.705	425.13
417.082	412.93
417.46	415.86
417.837	388.97
418.214	420.16
418.591	401.18
418.967	390.55
419.344	429.42
419.721	417.45
420.098	407.5
420.475	418.35
420.852	431.23
421.228	420.16
421.605	417.45
421.982	414.28
422.358	436.66
422.735	426.71
423.111	418.8
423.488	457.67
423.864	432.36
424.241	459.93
424.617	439.14
424.994	452.7
425.37	439.59
425.746	433.04
426.123	453.15
426.499	467.61
426.875	437.56
427.251	468.29
427.627	473.26
428.003	466.71
428.379	452.02
428.756	475.07
429.132	498.12
429.507	500.61
429.883	468.97
430.259	484.11
430.635	474.17
431.011	508.52
431.387	505.13
431.763	495.41
432.138	504.9
432.514	496.09
432.89	522.75
433.265	522.75
433.641	516.43
434.016	520.72
434.392	528.63
434.767	546.26
435.143	545.8
435.518	554.62
435.894	555.07
436.269	553.26
436.644	581.51
437.02	593.26
437.395	580.38
437.77	584.45
438.145	579.48
438.52	592.36
438.895	604.33
439.271	601.17
439.646	604.79
440.021	596.42
440.395	603.2
440.77	622.64
441.145	607.05
441.52	653.15
441.895	671.45
442.27	637.78
442.645	649.3
443.019	657.89
443.394	645.46
443.769	677.55
444.143	658.57
444.518	665.35
444.892	661.28
445.267	708.74
445.641	697.21
446.016	684.78
446.39	676.65
446.764	705.57
447.139	699.47
447.513	703.99
447.887	702.86
448.262	693.37
448.636	729.08
449.01	705.57
449.384	708.29
449.758	711
450.132	737.44
450.506	752.81
450.88	726.37
451.254	742.86
451.628	733.82
452.002	739.92
452.376	754.39
452.75	742.41
453.123	781.73
453.497	791.22
453.871	788.28
454.244	819.24
454.618	773.6
454.992	797.78
455.365	764.33
455.739	804.56
456.112	802.97
456.486	830.32
456.859	816.76
457.232	844.55
457.606	838.23
457.979	852.69
458.352	864.67
458.725	874.16
459.099	882.52
459.472	899.24
459.845	883.88
460.218	883.42
460.591	874.61
460.964	890.2
461.337	908.51
461.71	932.46
462.083	911.22
462.456	920.03
462.829	928.17
463.201	935.4
463.574	940.6
463.947	936.53
464.32	952.8
464.692	959.35
465.065	976.53
465.438	993.7
465.81	974.49
466.183	1012.01
466.555	1001.61
466.928	1006.58
467.3	1005.91
467.672	1027.37
468.045	1057.2
468.417	1038.45
468.789	1034.15
469.161	1015.85
469.534	1052.23
469.906	1081.38
470.278	1084.77
470.65	1074.38
471.022	1120.48
471.394	1101.95
471.766	1129.97
472.138	1125
472.51	1129.97
472.882	1153.02
473.253	1153.02
473.625	1147.6
473.997	1182.4
474.369	1204.09
474.74	1215.39
475.112	1234.15
475.484	1223.98
475.855	1252.23
476.227	1245.9
476.598	1287.03
476.97	1256.75
477.341	1286.35
477.713	1315.73
478.084	1300.81
478.455	1317.08
478.827	1362.96
479.198	1350.53
479.569	1354.82
479.94	1386.01
480.311	1366.12
480.682	1403.64
481.053	1403.64
481.424	1448.83
481.795	1433.47
482.166	1451.09
482.537	1453.8
482.908	1494.93
483.279	1485.67
483.65	1494.93
484.021	1549.85
484.391	1543.74
484.762	1547.59
485.133	1554.14
485.503	1560.24
485.874	1575.61
486.244	1605.44
486.615	1640.47
486.985	1625.78
487.356	1626.91
487.726	1637.53
488.097	1658.54
488.467	1668.26
488.837	1683.85
489.207	1687.47
489.578	1720.46
489.948	1687.47
490.318	1719.11
490.688	1738.99
491.058	1719.56
491.428	1751.42
491.798	1753.91
492.168	1778.99
492.538	1807.92
492.908	1802.49
493.278	1787.13
493.648	1817.41
494.017	1785.55
494.387	1832.78
494.757	1841.82
495.126	1811.31
495.496	1807.92
495.866	1803.85
496.235	1819.22
496.605	1818.31
496.974	1844.53
497.344	1847.92
497.713	1863.06
498.082	1827.13
498.452	1846.56
498.821	1827.13
499.19	1839.78
499.559	1853.12
499.928	1866.45
500.298	1887.01
500.667	1886.33
501.036	1895.6
501.405	1858.76
501.774	1841.59
502.143	1877.52
502.512	1864.19
502.88	1875.49
503.249	1868.71
503.618	1869.16
503.987	1887.69
504.356	1869.84
504.724	1885.43
505.093	1865.54
505.462	1870.74
505.83	1861.02
506.199	1879.78
506.567	1915.26
506.936	1874.81
507.304	1910.29
507.672	1882.94
508.041	1876.84
508.409	1896.96
508.777	1878.43
509.145	1864.87
509.514	1856.28
509.882	1869.61
510.25	1858.76
510.618	1871.42
510.986	1856.05
511.354	1872.1
511.722	1858.76
512.09	1874.58
512.458	1878.88
512.826	1881.36
513.193	1894.02
513.561	1870.06
513.929	1870.06
514.297	1866.22
514.664	1898.31
515.032	1858.09
515.4	1843.17
515.767	1858.09
516.135	1891.08
516.502	1850.4
516.869	1842.04
517.237	1864.41
517.604	1851.53
517.972	1860.35
518.339	1859.44
518.706	1830.97
519.073	1846.56
519.44	1844.08
519.808	1832.55
520.175	1814.02
520.542	1803.62
520.909	1842.04
521.276	1825.77
521.643	1809.27
522.009	1807.24
522.376	1860.8
522.743	1816.96
523.11	1792.55
523.477	1801.37
523.843	1812.66
524.21	1802.27
524.577	1831.19
524.943	1813.79
525.31	1821.7
525.676	1788.94
526.043	1815.15
526.409	1795.04
526.776	1824.19
527.142	1769.95
527.508	1816.73
527.874	1790.74
528.241	1795.49
528.607	1786.68
528.973	1792.33
529.339	1792.33
529.705	1812.44
530.071	1794.13
530.437	1805.66
530.803	1788.26
531.169	1764.53
531.535	1773.12
531.901	1765.89
532.267	1766.79
532.632	1773.8
532.998	1754.59
533.364	1768.37
533.73	1766.79
534.095	1770.18
534.461	1740.8
534.826	1724.98
535.192	1748.94
535.557	1748.49
535.923	1740.35
536.288	1753.23
536.653	1720.24
537.019	1741.48
537.384	1726.79
537.749	1725.89
538.114	1726.79
538.479	1706.68
538.845	1694.93
539.21	1693.57
539.575	1723.18
539.94	1691.31
540.305	1708.71
540.67	1702.61
541.034	1658.54
541.399	1666.45
541.764	1681.37
542.129	1656.06
542.494	1668.49
542.858	1650.63
543.223	1642.73
543.587	1640.92
543.952	1634.59
544.316	1635.72
544.681	1624.42
545.045	1610.41
545.41	1633.91
545.774	1621.26
546.138	1600.92
546.503	1584.65
546.867	1614.48
547.231	1611.31
547.595	1601.37
547.959	1568.15
548.324	1596.4
548.688	1557.53
549.052	1601.37
549.416	1581.48
549.779	1546.46
550.143	1513.24
550.507	1543.07
550.871	1553.69
551.235	1535.38
551.599	1535.61
551.962	1534.03
552.326	1553.46
552.689	1534.03
553.053	1527.7
553.417	1522.05
553.78	1513.91
554.143	1517.08
554.507	1503.52
554.87	1501.26
555.234	1492.67
555.597	1470.98
555.96	1502.39
556.323	1490.86
556.686	1488.6
557.05	1517.3
557.413	1475.5
557.776	1448.61
558.139	1476.4
558.502	1484.99
558.865	1465.55
559.228	1488.6
559.59	1483.41
559.953	1468.49
560.316	1464.65
560.679	1449.06
561.041	1467.36
561.404	1457.65
561.767	1465.78
562.129	1473.01
562.492	1474.59
562.854	1438.44
563.217	1470.98
563.579	1470.07
563.941	1487.48
564.304	1459.68
564.666	1445.22
565.028	1470.07
565.39	1454.71
565.753	1456.74
566.115	1496.51
566.477	1479.11
566.839	1475.72
567.201	1478.66
567.563	1486.57
567.925	1496.06
568.287	1460.58
568.648	1499.9
569.01	1489.73
569.372	1502.39
569.734	1484.54
570.095	1495.61
570.457	1505.55
570.819	1499.68
571.18	1482.96
571.542	1486.35
571.903	1467.14
572.265	1496.29
572.626	1520.69
572.987	1509.62
573.349	1529.73
573.71	1530.86
574.071	1521.37
574.432	1546
574.794	1530.64
575.155	1550.3
575.516	1541.71
575.877	1538.32
576.238	1550.07
576.599	1523.63
576.96	1535.16
577.32	1520.92
577.681	1559.56
578.042	1549.17
578.403	1555.04
578.763	1561.15
579.124	1561.82
579.485	1597.75
579.845	1561.37
580.206	1565.21
580.566	1580.81
580.927	1570.41
581.287	1595.72
581.648	1573.8
582.008	1552.78
582.368	1581.71
582.728	1586.46
583.089	1592.11
583.449	1603.18
583.809	1610.18
584.169	1615.38
584.529	1593.01
584.889	1598.43
585.249	1604.99
585.609	1559.79
585.969	1599.79
586.329	1593.69
586.688	1620.8
587.048	1592.56
587.408	1609.96
587.768	1583.74
588.127	1594.14
588.487	1593.23
588.846	1589.85
589.206	1627.13
589.565	1595.04
589.925	1609.73
590.284	1589.85
590.643	1582.16
591.003	1599.34
591.362	1600.47
591.721	1600.92
592.08	1586
592.44	1613.12
592.799	1601.6
593.158	1594.82
593.517	1577.42
593.876	1615.16
594.235	1597.98
594.593	1609.73
594.952	1589.85
595.311	1594.82
595.67	1586.23
596.029	1623.06
596.387	1590.3
596.746	1604.53
597.104	1624.19
597.463	1610.18
597.822	1596.62
598.18	1572.9
598.538	1572.44
598.897	1602.5
599.255	1551.65
599.613	1604.53
599.972	1591.88
600.33	1589.85
600.688	1592.78
601.046	1570.18
601.404	1586.68
601.762	1599.79
602.12	1612.44
602.478	1601.37
602.836	1596.62
603.194	1576.29
603.552	1582.61
603.91	1539.45
604.268	1569.05
604.625	1609.51
604.983	1577.42
605.341	1570.41
605.698	1584.2
606.056	1606.34
606.413	1597.75
606.771	1592.56
607.128	1592.56
607.485	1579.9
607.843	1586
608.2	1595.04
608.557	1602.95
608.914	1615.16
609.272	1607.92
609.629	1594.14
609.986	1595.95
610.343	1600.01
610.7	1611.54
611.057	1621.93
611.414	1615.83
611.771	1590.52
612.127	1597.98
612.484	1597.75
612.841	1616.51
613.198	1606.57
613.554	1621.48
613.911	1599.34
614.267	1627.13
614.624	1594.14
614.98	1594.59
615.337	1620.8
615.693	1593.69
616.05	1619
616.406	1617.42
616.762	1601.82
617.118	1623.06
617.475	1608.6
617.831	1614.48
618.187	1619
618.543	1619
618.899	1624.42
619.255	1642.27
619.611	1635.27
619.967	1596.17
620.323	1612.44
620.678	1614.48
621.034	1636.4
621.39	1629.84
621.746	1614.25
622.101	1655.15
622.457	1658.32
622.812	1616.74
623.168	1616.96
623.523	1627.81
623.879	1637.75
624.234	1593.23
624.589	1635.49
624.945	1611.54
625.3	1641.6
625.655	1634.59
626.01	1631.88
626.365	1645.44
626.72	1606.12
627.075	1644.31
627.43	1626.45
627.785	1595.49
628.14	1621.03
628.495	1659
628.85	1638.21
629.205	1613.12
629.559	1648.83
629.914	1642.05
630.269	1614.7
630.623	1641.14
630.978	1605.89
631.332	1609.05
631.687	1639.34
632.041	1639.34
632.396	1640.01
632.75	1602.05
633.104	1626
633.459	1635.49
633.813	1628.26
634.167	1643.4
634.521	1648.6
634.875	1618.09
635.229	1571.77
635.583	1605.44
635.937	1620.8
636.291	1661.71
636.645	1646.57
636.999	1632.56
637.352	1644.31
637.706	1599.56
638.06	1643.4
638.413	1606.57
638.767	1615.61
639.121	1615.83
639.474	1616.96
639.828	1606.12
640.181	1620.8
640.534	1627.13
640.888	1635.72
641.241	1618.77
641.594	1588.94
641.947	1643.86
642.301	1611.99
642.654	1612.67
643.007	1593.69
643.36	1618.55
643.713	1605.21
644.066	1621.03
644.419	1587.59
644.771	1598.88
645.124	1601.82
645.477	1578.55
645.83	1604.31
646.182	1606.79
646.535	1586
646.888	1598.43
647.24	1606.57
647.593	1592.11
647.945	1596.17
648.298	1601.37
648.65	1574.25
649.002	1576.06
649.355	1604.53
649.707	1606.12
650.059	1566.79
650.411	1590.98
650.763	1618.77
651.115	1633.91
651.467	1626.68
651.819	1620.35
652.171	1670.52
652.523	1621.48
652.875	1627.13
653.227	1641.37
653.578	1622.39
653.93	1632.33
654.282	1633.01
654.633	1612.9
654.985	1635.27
655.337	1646.57
655.688	1645.89
656.039	1641.6
656.391	1666.45
656.742	1652.44
657.094	1636.85
657.445	1646.11
657.796	1642.5
658.147	1634.59
658.498	1651.76
658.849	1624.42
659.2	1642.27
659.551	1618.55
659.902	1653.57
660.253	1630.75
660.604	1660.35
660.955	1654.7
661.306	1639.56
661.656	1650.63
662.007	1647.92
662.358	1661.26
662.708	1658.77
663.059	1649.96
663.409	1668.94
663.76	1659.9
664.11	1681.14
664.461	1682.72
664.811	1642.05
665.161	1660.8
665.511	1649.5
665.862	1671.2
666.212	1650.18
666.562	1649.05
666.912	1673.91
667.262	1666.45
667.612	1644.76
667.962	1648.83
668.312	1647.02
668.662	1653.35
669.011	1656.06
669.361	1637.53
669.711	1650.86
670.06	1645.44
670.41	1648.6
670.76	1640.24
671.109	1667.58
671.459	1627.58
671.808	1662.16
672.157	1636.17
672.507	1619.45
672.856	1630.97
673.205	1603.63
673.554	1638.43
673.904	1612.22
674.253	1631.88
674.602	1640.92
674.951	1616.06
675.3	1623.52
675.649	1629.39
675.998	1617.42
676.346	1614.25
676.695	1634.14
677.044	1625.1
677.393	1632.1
677.741	1632.56
678.09	1607.7
678.438	1600.47
678.787	1591.65
679.135	1602.27
679.484	1582.84
679.832	1588.26
680.181	1583.97
680.529	1582.61
680.877	1581.26
681.225	1560.92
681.573	1583.74
681.922	1564.76
682.27	1591.43
682.618	1604.53
682.966	1562.95
683.314	1590.98
683.661	1585.78
684.009	1569.28
684.357	1580.58
684.705	1575.38
685.053	1573.35
685.4	1575.61
685.748	1557.53
686.095	1555.5
686.443	1543.97
686.79	1538.32
687.138	1551.88
687.485	1548.49
687.832	1552.11
688.18	1534.03
688.527	1523.63
688.874	1496.29
689.221	1495.61
689.568	1496.97
689.915	1502.84
690.262	1530.19
690.609	1519.34
690.956	1494.48
691.303	1477.98
691.65	1499.45
691.997	1489.06
692.344	1492.67
692.69	1482.28
693.037	1485.89
693.383	1480.7
693.73	1482.05
694.077	1472.79
694.423	1466.23
694.769	1469.17
695.116	1480.47
695.462	1454.03
695.808	1470.3
696.155	1469.62
696.501	1442.73
696.847	1440.7
697.193	1458.32
697.539	1465.33
697.885	1435.95
698.231	1396.63
698.577	1440.02
698.923	1426.01
699.269	1397.31
699.614	1442.96
699.96	1432.79
700.306	1414.03
700.651	1434.37
700.997	1374.03
701.342	1388.04
701.688	1418.1
702.033	1386.01
702.379	1401.6
702.724	1397.31
703.069	1416.74
703.415	1382.62
703.76	1385.1
704.105	1390.98
704.45	1404.31
704.795	1407.25
705.14	1388.27
705.485	1389.4
705.83	1385.33
706.175	1377.42
706.52	1399.57
706.865	1402.05
707.209	1387.59
707.554	1368.83
707.899	1358.44
708.243	1348.04
708.588	1355.28
708.932	1369.96
709.277	1357.08
709.621	1364.54
709.966	1366.57
710.31	1370.19
710.654	1390.98
710.998	1360.25
711.342	1367.48
711.687	1368.38
712.031	1380.59
712.375	1368.83
712.719	1370.64
713.063	1368.83
713.407	1384.43
713.75	1370.19
714.094	1381.72
714.438	1390.08
714.782	1385.78
715.125	1363.86
715.469	1398.44
715.812	1387.14
716.156	1382.84
716.499	1388.49
716.843	1404.54
717.186	1383.97
717.53	1382.62
717.873	1406.8
718.216	1425.56
718.559	1402.28
718.902	1369.74
719.246	1432.11
719.589	1407.25
719.932	1434.82
720.275	1410.41
720.617	1401.83
720.96	1390.3
721.303	1449.28
721.646	1441.83
721.989	1398.44
722.331	1431.88
722.674	1430.98
723.016	1446.8
723.359	1447.02
723.701	1426.23
724.044	1428.95
724.386	1441.83
724.729	1461.26
725.071	1447.93
725.413	1462.39
725.755	1466.46
726.097	1438.66
726.439	1511.2
726.782	1448.15
727.124	1482.73
727.465	1485.89
727.807	1489.96
728.149	1477.31
728.491	1472.56
728.833	1466.01
729.175	1459.45
729.516	1474.59
729.858	1501.49
730.199	1505.78
730.541	1493.58
730.882	1504.2
731.224	1504.2
731.565	1536.29
731.906	1545.33
732.248	1573.8
732.589	1545.55
732.93	1555.27
733.271	1543.97
733.612	1581.94
733.953	1563.18
734.294	1607.7
734.635	1607.7
734.976	1622.39
735.317	1600.01
735.658	1592.11
735.999	1636.17
736.339	1634.59
736.68	1648.37
737.021	1624.87
737.361	1671.42
737.702	1675.04
738.042	1689.28
738.383	1675.27
738.723	1691.76
739.063	1684.98
739.404	1733.57
739.744	1715.94
740.084	1751.87
740.424	1749.39
740.764	1784.19
741.104	1775.38
741.444	1756.39
741.784	1798.2
742.124	1813.12
742.464	1812.21
742.804	1834.81
743.143	1843.62
743.483	1858.99
743.823	1883.85
744.162	1900.12
744.502	1928.82
744.841	1943.51
745.181	1997.07
745.52	2009.5
745.86	2049.72
746.199	2034.58
746.538	2058.31
746.877	2105.09
747.216	2100.79
747.556	2143.95
747.895	2150.73
748.234	2209.94
748.573	2224.86
748.911	2255.36
749.25	2287.68
749.589	2293.33
749.928	2320.45
750.267	2339.2
750.605	2441.57
750.944	2432.08
751.283	2446.55
751.621	2510.95
751.96	2544.17
752.298	2543.49
752.636	2616.03
752.975	2658.07
753.313	2703.94
753.651	2738.74
753.989	2777.16
754.327	2814.45
754.666	2843.37
755.004	2895.8
755.342	2948.91
755.679	2987.1
756.017	3019.86
756.355	3103.7
756.693	3124.72
757.031	3192.74
757.368	3234.55
757.706	3285.17
758.044	3318.61
758.381	3376.01
758.719	3421.44
759.056	3453.98
759.394	3512.05
759.731	3556.57
760.068	3609
760.405	3607.42
760.743	3713.63
761.08	3719.28
761.417	3763.57
761.754	3839.96
762.091	3870.24
762.428	3942.1
762.765	3971.93
763.102	3987.97
763.438	4078.59
763.775	4078.14
764.112	4107.97
764.449	4167.18
764.785	4242.2
765.122	4306.16
765.458	4276.55
765.795	4323.78
766.131	4364.24
766.467	4454.18
766.804	4459.37
767.14	4505.93
767.476	4496.44
767.812	4522.65
768.148	4572.59
768.485	4627.05
768.821	4633.61
769.157	4713.6
769.492	4749.99
769.828	4716.09
770.164	4767.16
770.5	4784.11
770.836	4825.47
771.171	4803.77
771.507	4891.68
