Data from blue_shiny_book_FLMS001491_00074.txt Node
Date: Wed Feb 08 15:27:31 GMT 2017
User: dcchb
Spectrometer: FLMS00149
Trigger mode: 0
Integration Time (sec): 2.000000E-2
Scans to average: 10
Electric dark correction enabled: true
Nonlinearity correction enabled: false
Boxcar width: 0
XAxis mode: Wavelengths
Number of Pixels in Spectrum: 2048
>>>>>Begin Spectral Data<<<<<
341.393	-4.17
341.776	-4.17
342.16	-4.17
342.543	-55.01
342.927	-71.96
343.31	-75.13
343.693	-61.79
344.077	-59.08
344.46	-59.31
344.843	-41.68
345.226	-60.89
345.61	-31.51
345.993	-23.83
346.376	-16.82
346.759	29.05
347.142	27.7
347.525	29.05
347.908	53.01
348.291	89.62
348.674	95.72
349.057	105.89
349.44	100.24
349.823	147.24
350.206	146.79
350.588	194.25
350.971	221.82
351.354	234.47
351.737	243.74
352.119	237.41
352.502	257.52
352.884	270.4
353.267	287.35
353.65	297.07
354.032	313.11
354.414	318.54
354.797	314.92
355.179	304.75
355.562	324.64
355.944	317.18
356.326	325.09
356.709	352.21
357.091	320.34
357.473	344.07
357.855	350.17
358.238	340.91
358.62	342.49
359.002	345.43
359.384	330.51
359.766	351.76
360.148	351.98
360.53	368.7
360.912	335.03
361.294	342.72
361.676	339.33
362.057	330.74
362.439	324.86
362.821	312.89
363.203	328.48
363.584	324.41
363.966	321.7
364.348	316.5
364.729	320.12
365.111	312.89
365.493	321.47
365.874	313.79
366.256	308.59
366.637	314.47
367.019	311.76
367.4	342.94
367.781	315.6
368.163	323.96
368.544	314.47
368.925	308.14
369.306	321.93
369.688	318.08
370.069	318.31
370.45	333.45
370.831	294.58
371.212	297.29
371.593	320.12
371.974	317.41
372.355	317.18
372.736	310.85
373.117	326.22
373.498	336.16
373.879	329.61
374.26	306.11
374.641	335.71
375.021	329.38
375.402	301.36
375.783	303.4
376.163	338.88
376.544	362.15
376.925	353.11
377.305	342.94
377.686	337.07
378.066	332.77
378.447	358.76
378.827	355.6
379.208	361.25
379.588	363.28
379.968	358.76
380.349	343.85
380.729	348.14
381.109	354.24
381.489	367.35
381.87	373.9
382.25	374.58
382.63	362.83
383.01	367.58
383.39	377.29
383.77	382.26
384.15	370.96
384.53	385.65
384.91	395.37
385.29	397.4
385.67	369.38
386.049	394.47
386.429	389.72
386.809	398.76
387.189	403.73
387.568	405.54
387.948	405.09
388.328	397.4
388.707	412.09
389.087	426.56
389.466	404.64
389.846	409.16
390.225	449.38
390.605	427.23
390.984	420.46
391.363	441.7
391.743	458.42
392.122	435.82
392.501	436.5
392.881	439.21
393.26	463.39
393.639	470.85
394.018	475.14
394.397	466.56
394.776	467.01
395.155	451.64
395.534	460.45
395.913	495.93
396.292	491.87
396.671	496.39
397.05	492.09
397.429	501.58
397.808	499.55
398.186	490.74
398.565	497.97
398.944	515.37
399.323	500.45
399.701	528.02
400.08	524.41
400.458	521.24
400.837	538.64
401.215	536.84
401.594	542.49
401.972	548.36
402.351	560.34
402.729	560.11
403.107	577.06
403.486	561.02
403.864	590.62
404.242	603.5
404.62	571.41
404.999	589.26
405.377	591.98
405.755	638.98
406.133	623.39
406.511	639.21
406.889	627.91
407.267	628.36
407.645	645.76
408.023	658.87
408.401	674.01
408.779	671.75
409.156	672.88
409.534	688.24
409.912	684.4
410.29	729.37
410.667	716.04
411.045	707.45
411.422	727.11
411.8	744.29
412.178	752.42
412.555	758.75
412.933	765.76
413.31	781.58
413.687	811.18
414.065	828.35
414.442	793.55
414.819	827.45
415.197	830.16
415.574	834.91
415.951	849.14
416.328	865.42
416.705	886.88
417.082	876.71
417.46	880.1
417.837	895.24
418.214	897.73
418.591	918.97
418.967	924.17
419.344	911.74
419.721	925.3
420.098	930.05
420.475	958.07
420.852	976.37
421.228	973.89
421.605	987.9
421.982	985.86
422.358	1006.43
422.735	1035.35
423.111	1036.48
423.488	1049.59
423.864	1077.39
424.241	1057.73
424.617	1073.55
424.994	1103.83
425.37	1108.8
425.746	1113.09
426.123	1147.44
426.499	1173.66
426.875	1181.56
427.251	1194.67
427.627	1214.56
428.003	1205.07
428.379	1234.44
428.756	1269.92
429.132	1250.72
429.507	1243.94
429.883	1293.65
430.259	1316.7
430.635	1304.05
431.011	1366.42
431.387	1396.25
431.763	1427.21
432.138	1401.22
432.514	1427.89
432.89	1447.77
433.265	1504.49
433.641	1506.08
434.016	1521.22
434.392	1531.61
434.767	1539.75
435.143	1547.88
435.518	1591.27
435.894	1593.53
436.269	1620.88
436.644	1643.02
437.02	1674.89
437.395	1669.69
437.77	1735.22
438.145	1775.67
438.52	1749.69
438.895	1766.86
439.271	1767.76
439.646	1837.37
440.021	1823.58
440.395	1829.68
440.77	1850.93
441.145	1895.9
441.52	1918.95
441.895	1944.03
442.27	1968.66
442.645	1982.9
443.019	1956.46
443.394	1987.87
443.769	2040.75
444.143	2018.61
444.518	2036.46
444.892	2019.74
445.267	2043.92
445.641	2079.17
446.016	2112.61
446.39	2109
446.764	2138.38
447.139	2125.27
447.513	2172.95
447.887	2201.65
448.262	2200.97
448.636	2228.77
449.01	2229.22
449.384	2226.06
449.758	2243.91
450.132	2278.49
450.506	2297.47
450.88	2348.77
451.254	2369.56
451.628	2376.79
452.002	2440.74
452.376	2440.97
452.75	2441.42
453.123	2516.45
453.497	2514.86
453.871	2595.09
454.244	2586.05
454.618	2613.39
454.992	2632.37
455.365	2635.54
455.739	2726.16
456.112	2776.55
456.486	2777.23
456.859	2828.75
457.232	2876.89
457.606	2900.16
457.979	2922.76
458.352	3006.6
458.725	3010.22
459.099	3002.99
459.472	3099.03
459.845	3085.92
460.218	3155.07
460.591	3183.77
460.964	3198.69
461.337	3299.7
461.71	3366.14
462.083	3395.29
462.456	3416.08
462.829	3456.76
463.201	3514.38
463.574	3521.62
463.947	3599.81
464.32	3666.02
464.692	3699.24
465.065	3706.24
465.438	3796.19
465.81	3836.86
466.183	3837.77
466.555	3947.14
466.928	3984.43
467.3	3967.71
467.672	4038.66
468.045	4148.94
468.417	4192.33
468.789	4216.74
469.161	4327.47
469.534	4322.27
469.906	4466.68
470.278	4462.38
470.65	4521.82
471.022	4580.12
471.394	4698.99
471.766	4716.16
472.138	4766.33
472.51	4843.16
472.882	4959.54
473.253	5036.15
473.625	5125.42
473.997	5214.68
474.369	5258.75
474.74	5312.98
475.112	5449.25
475.484	5522.92
475.855	5610.15
476.227	5634.33
476.598	5818.28
476.97	5867.09
477.341	5970.59
477.713	6041.32
478.084	6090.81
478.455	6276.8
478.827	6299.4
479.198	6536.9
479.569	6580.52
479.94	6745.26
480.311	6761.98
480.682	6924.69
481.053	7147.28
481.424	7177.79
481.795	7308.64
482.166	7337.56
482.537	7461.4
482.908	7654.62
483.279	7751.79
483.65	7847.38
484.021	8042.63
484.391	8178.67
484.762	8203.08
485.133	8386.12
485.503	8441.49
485.874	8651.43
486.244	8723.51
486.615	8899.1
486.985	8993.34
487.356	9124.41
487.726	9243.73
488.097	9453.66
488.467	9472.87
488.837	9664.28
489.207	9825.63
489.578	9998.96
489.948	10079.64
490.318	10219.97
490.688	10275.34
491.058	10472.39
491.428	10630.13
491.798	10764.59
492.168	10989.89
492.538	11008.43
492.908	11143.34
493.278	11288.87
493.648	11186.95
494.017	11493.16
494.387	11482.99
494.757	11608.64
495.126	11792.13
495.496	11819.93
495.866	11888.85
496.235	12179.92
496.605	12196.87
496.974	12257.21
497.344	12514.15
497.713	12565.22
498.082	12637.53
498.452	12804.08
498.821	12901.26
499.19	12918.66
499.559	13075.72
499.928	13193.68
500.298	13175.83
500.667	13391.41
501.036	13343.96
501.405	13500.11
501.774	13602.48
502.143	13743.49
502.512	13800.67
502.88	14010.61
503.249	13982.36
503.618	14092.64
503.987	14186.87
504.356	14325.17
504.724	14311.62
505.093	14419.18
505.462	14529.69
505.83	14640.19
506.199	14687.88
506.567	14906.18
506.936	14747.54
507.304	15057.81
507.672	15177.13
508.041	15280.18
508.409	15292.38
508.777	15469.32
509.145	15724.69
509.514	15750.45
509.882	15865.92
510.25	15993.83
510.618	15923.32
510.986	16079.25
511.354	16291.45
511.722	16462.97
512.09	16645.11
512.458	16515.63
512.826	16682.4
513.193	16724.21
513.561	16808.5
513.929	16956.52
514.297	16984.77
514.664	17170.3
515.032	17295.27
515.4	17348.6
515.767	17514.92
516.135	17626.56
516.502	17617.29
516.869	17989.03
517.237	18087.56
517.604	18147.22
517.972	18425.63
518.339	18502.47
518.706	18621.33
519.073	18503.6
519.44	18712.18
519.808	18839.41
520.175	18830.37
520.542	19137.7
520.909	19256.8
521.276	19262.9
521.643	19484.36
522.009	19611.14
522.376	19790.57
522.743	19859.27
523.11	20122.31
523.477	20344.45
523.843	20487.5
524.21	20726.81
524.577	20940.37
524.943	21051.78
525.31	21114.6
525.676	21369.73
526.043	21555.72
526.409	21529.05
526.776	21870.29
527.142	21736.73
527.508	21856.28
527.874	21984.41
528.241	22065.08
528.607	22176.49
528.973	22439.09
529.339	22334
529.705	22647.67
530.071	22835.68
530.437	23016.7
530.803	23236.35
531.169	23409.68
531.535	23446.06
531.901	23667.75
532.267	23673.4
532.632	23856.45
532.998	24037.69
533.364	24143.67
533.73	24126.05
534.095	24305.02
534.461	24291.92
534.826	24440.84
535.192	24547.05
535.557	24755.18
535.923	24617.11
536.288	24685.81
536.653	24775.29
537.019	24818.01
537.384	24983.43
537.749	25209.18
538.114	25234.94
538.479	25296.41
538.845	25632.67
539.21	25564.2
539.575	25815.95
539.94	25921.93
540.305	26038.09
540.67	25997.18
541.034	26198.08
541.399	26309.72
541.764	26345.42
542.129	26212.55
542.494	26221.81
542.858	26227.01
543.223	26410.96
543.587	26414.35
543.952	26405.31
544.316	26526.89
544.681	26542.03
545.045	26666.32
545.41	26725.53
545.774	26921
546.138	26993.99
546.503	27022.47
546.867	27160.99
547.231	27499.74
547.595	27652.06
547.959	27646.86
548.324	27736.12
548.688	27769.34
549.052	28018.37
549.416	27844.37
549.779	27738.38
550.143	27833.52
550.507	27876.23
550.871	27906.29
551.235	27805.05
551.599	28077.13
551.962	28092.27
552.326	28067.41
552.689	28229.67
553.053	28172.27
553.417	28318.7
553.78	28679.82
554.143	28543.11
554.507	28822.42
554.87	28902.87
555.234	29209.75
555.597	29122.07
555.96	29398.68
556.323	29479.13
556.686	29532.23
557.05	29688.84
557.413	29761.83
557.776	29726.13
558.139	29755.73
558.502	29754.6
558.865	29666.47
559.228	29722.74
559.59	29705.79
559.953	29757.31
560.316	30073.23
560.679	30047.02
561.041	30372.66
561.404	30359.55
561.767	30715.25
562.129	30569.49
562.492	30988.92
562.854	31024.62
563.217	31175.35
563.579	31180.32
563.941	31545.51
564.304	31752.96
564.666	31855.33
565.028	31961.32
565.39	32062.79
565.753	32223.46
566.115	32293.06
566.477	32281.31
566.839	32284.02
567.201	32367.19
567.563	32255.55
567.925	32404.25
568.287	32497.58
568.648	32468.88
569.01	32529.67
569.372	32821.64
569.734	32714.07
570.095	32785.03
570.457	32977.11
570.819	33139.37
571.18	33174.17
571.542	33539.81
571.903	33517.66
572.265	33858.67
572.626	33873.81
572.987	34129.4
573.349	34259.79
573.71	34408.94
574.071	34395.15
574.432	34527.81
574.794	34705.2
575.155	34669.5
575.516	34367.13
575.877	34575.49
576.238	34441.48
576.599	34622.04
576.96	34500.24
577.32	34523.97
577.681	34625.88
578.042	34664.53
578.403	34595.38
578.763	34694.81
579.124	34772.09
579.485	34926.67
579.845	35135.93
580.206	35088.24
580.566	35271.06
580.927	35254.57
581.287	35512.19
581.648	35474.9
582.008	35737.94
582.368	35709.92
582.728	35792.41
583.089	35729.81
583.449	35677.16
583.809	35753.76
584.169	35803.25
584.529	35564.39
584.889	35872.86
585.249	35551.06
585.609	35375.24
585.969	35686.65
586.329	35311.74
586.688	35271.29
587.048	35321.68
587.408	35362.81
587.768	35397.16
588.127	35471.96
588.487	35466.31
588.846	35625.18
589.206	35403.94
589.565	35550.38
589.925	35807.32
590.284	35860.2
590.643	35972.74
591.003	36080.08
591.362	36279.63
591.721	36130.48
592.08	36241.66
592.44	36323.01
592.799	36410.24
593.158	36397.81
593.517	36387.19
593.876	36210.25
594.235	36040.99
594.593	36194.43
594.952	36064.49
595.311	35886.64
595.67	35946.53
596.029	35983.59
596.387	35933.19
596.746	35976.81
597.104	35786.98
597.463	35909.69
597.822	36043.02
598.18	36042.34
598.538	36098.84
598.897	36177.48
599.255	36076.92
599.613	36484.59
599.972	36356.91
600.33	36593.97
600.688	36526.17
601.046	36754.64
601.404	36886.84
601.762	36849.1
602.12	36983.79
602.478	36842.77
602.836	36911.47
603.194	36680.97
603.552	36702.66
603.91	36584.93
604.268	36768.88
604.625	36432.62
604.983	36486.85
605.341	36395.1
605.698	36412.05
606.056	36511.71
606.413	36582.44
606.771	36582.89
607.128	36631.71
607.485	36375.89
607.843	36574.53
608.2	36795.09
608.557	36942.88
608.914	36958.25
609.272	37073.95
609.629	37289.77
609.986	37274.18
610.343	37166.38
610.7	37438.24
611.057	37470.78
611.414	37435.98
611.771	37648.63
612.127	37922.07
612.484	37725.46
612.841	37840.49
613.198	37746.93
613.554	37909.41
613.911	37875.74
614.267	37871.9
614.624	37760.04
614.98	37792.35
615.337	37887.94
615.693	37545.58
616.05	37537.9
616.406	37706.93
616.762	37635.3
617.118	37698.57
617.475	37641.85
617.831	37746.93
618.187	37822.18
618.543	37974.04
618.899	38237.31
619.255	38123.19
619.611	38114.15
619.967	38141.27
620.323	38394.82
620.678	38063.08
621.034	38365.9
621.39	38442.05
621.746	38442.96
622.101	38902.38
622.457	38610.41
622.812	38662.84
623.168	38664.2
623.523	38676.85
623.879	38876.39
624.234	38652.44
624.589	38572.45
624.945	38605.44
625.3	38593.46
625.655	38623.74
626.01	38381.26
626.365	38527.93
626.72	38306.01
627.075	38433.47
627.43	38260.82
627.785	38160.71
628.14	38249.06
628.495	38248.61
628.85	38241.83
629.205	38057.21
629.559	38176.98
629.914	38240.48
630.269	38271.44
630.623	38153.93
630.978	38306.01
631.332	38501.26
631.687	38606.34
632.041	38416.29
632.396	38503.07
632.75	38340.14
633.104	38224.43
633.459	38171.1
633.813	38238.67
634.167	38266.69
634.521	38109.41
634.875	38243.87
635.229	38019.01
635.583	37849.3
635.937	37952.12
636.291	37787.61
636.645	37846.59
636.999	37630.1
637.352	37631.91
637.706	37390.78
638.06	37588.29
638.413	37390.33
638.767	37214.97
639.121	37199.83
639.474	36947.86
639.828	36892.26
640.181	36910.8
640.534	36934.75
640.888	36954.41
641.241	36959.38
641.594	37014.52
641.947	37031.7
642.301	37044.8
642.654	37210.22
643.007	36996.22
643.36	37157.79
643.713	37125.25
644.066	37155.76
644.419	37096.1
644.771	37146.5
645.124	37067.4
645.477	37028.98
645.83	36947.18
646.182	36538.15
646.535	36086.86
646.888	36065.85
647.24	35704.05
647.593	35790.82
647.945	35463.38
648.298	35458.63
648.65	35396.03
649.002	35432.64
649.355	35479.65
649.707	35538.18
650.059	35708.57
650.411	36003.7
650.763	36135
651.115	36413.63
651.467	36198.95
651.819	36127.09
652.171	36249.34
652.523	36156.01
652.875	36184.71
653.227	36089.8
653.578	36456.12
653.93	36282.56
654.282	36136.8
654.633	36026.75
654.985	36271.04
655.337	36222.45
655.688	36378.38
656.039	36482.78
656.391	36176.13
656.742	36332.28
657.094	36373.63
657.445	36447.3
657.796	36174.32
658.147	36237.14
658.498	36245.73
658.849	36268.1
659.2	36198.05
659.551	36132.74
659.902	36243.92
660.253	36091.38
660.604	36180.64
660.955	35848.22
661.306	36049.35
661.656	36072.62
662.007	35739.3
662.358	35749.7
662.708	35692.97
663.059	35735.01
663.409	35446.88
663.76	35721.9
664.11	35612.98
664.461	35480.32
664.811	35422.25
665.161	35455.01
665.511	35523.49
665.862	35596.48
666.212	35651.17
666.562	35643.26
666.912	35723.26
667.262	35852.74
667.612	35999.41
667.962	36021.33
668.312	35907.88
668.662	36152.17
669.011	35999.63
669.361	35866.75
669.711	35967.09
670.06	35829.24
670.41	35954.89
670.76	35854.78
671.109	35795.8
671.459	35727.55
671.808	35535.92
672.157	35586.99
672.507	35520.55
672.856	35375.69
673.205	35511.28
673.554	35527.55
673.904	35360.1
674.253	35376.82
674.602	35088.7
674.951	34504.08
675.3	34506.34
675.649	35031.3
675.998	34868.36
676.346	34739.1
676.695	34805.09
677.044	34616.62
677.393	34737.07
677.741	34824.97
678.09	34711.53
678.438	34798.53
678.787	34776.16
679.135	34750.4
679.484	34678.76
679.832	34705.66
680.181	34626.11
680.529	34850.06
680.877	34729.84
681.225	34845.09
681.573	34924.18
681.922	34750.63
682.27	34785.2
682.618	34776.61
682.966	34618.43
683.314	34636.5
683.661	34638.31
684.009	34402.84
684.357	34321.26
684.705	34219.34
685.053	34294.59
685.4	34104.09
685.748	33793.59
686.095	33822.97
686.443	33592.92
686.79	33543.2
687.138	33472.24
687.485	33301.4
687.832	33104.79
688.18	33258.91
688.527	32997.9
688.874	32823.44
689.221	32711.13
689.568	32765.82
689.915	32576.22
690.262	32737.57
690.609	32682.43
690.956	32512.72
691.303	32452.61
691.65	32368.09
691.997	32370.12
692.344	32046.74
692.69	32218.26
693.037	32072.73
693.383	31846.07
693.73	32195.21
694.077	32040.87
694.423	32080.64
694.769	31882.68
695.116	31779.63
695.462	31804.94
695.808	31756.13
696.155	31933.98
696.501	31674.55
696.847	31633.19
697.193	31276.37
697.539	31353.43
697.885	31061.23
698.231	30997.5
698.577	30856.49
698.923	30720.45
699.269	30666.67
699.614	30300.12
699.96	30258.77
700.306	30227.81
700.651	30170.63
700.997	29927.48
701.342	29809.51
701.688	29734.71
702.033	29431.67
702.379	29509.18
702.724	29296.08
703.069	29561.84
703.415	29158.23
703.76	29174.28
704.105	29039.14
704.45	29099.93
704.795	28845.47
705.14	28875.98
705.485	28763.44
705.83	28841.85
706.175	29035.07
706.52	28799.82
706.865	28787.17
707.209	28735.64
707.554	28803.21
707.899	28727.06
708.243	28671.69
708.588	28587.4
708.932	28507.17
709.277	28414.52
709.621	28549.88
709.966	28386.05
710.31	28561.86
710.654	28160.74
710.998	28156
711.342	28226.96
711.687	28090.91
712.031	27927.98
712.375	27797.14
712.719	27752.17
713.063	27689.12
713.407	27786.52
713.75	27541.55
714.094	27461.33
714.438	27209.81
714.782	27271.5
715.125	26934.33
715.469	27135.68
715.812	26815.47
716.156	26613.44
716.499	26649.6
716.843	26852.3
717.186	26600.11
717.53	26840.1
717.873	26606.43
718.216	26433.33
718.559	26499.77
718.902	26411.64
719.246	26516.27
719.589	26547.9
719.932	26506.1
720.275	26522.59
720.617	26415.93
720.96	26390.62
721.303	26442.37
721.646	26464.06
721.989	26630.39
722.331	26648.24
722.674	26591.97
723.016	26586.09
723.359	26535.93
723.701	26641.69
724.044	26342.71
724.386	26265.88
724.729	26451.18
725.071	26351.75
725.413	26155.37
725.755	26273.33
726.097	26154.47
726.439	25966.45
726.782	26106.33
727.124	26110.4
727.465	25781.6
727.807	25856.62
728.149	25647.36
728.491	25684.2
728.833	25709.96
729.175	25517.42
729.516	25433.36
729.858	25562.62
730.199	25464.32
730.541	25386.58
730.882	25322.63
731.224	25450.31
731.565	25204.21
731.906	25360.14
732.248	25217.77
732.589	25207.15
732.93	25282.4
733.271	25209.18
733.612	25199.69
733.953	25329.18
734.294	25204.66
734.635	25210.99
734.976	25417.76
735.317	25266.13
735.658	25408.05
735.999	25435.62
736.339	25479.01
736.68	25539.12
737.021	25442.17
737.361	25388.39
737.702	25429.74
738.042	25424.77
738.383	25536.18
738.723	25637.42
739.063	25578.89
739.404	25591.32
739.744	25551.32
740.084	25569.4
740.424	25563.3
740.764	25437.2
741.104	25620.92
741.444	25314.94
741.784	25284.89
742.124	25378.44
742.464	25229.29
742.804	25165.12
743.143	25136.19
743.483	25309.97
743.823	25045.8
744.162	25106.81
744.502	25043.76
744.841	25013.48
745.181	25069.75
745.52	24986.81
745.86	25087.83
746.199	25063.65
746.538	24968.96
746.877	25040.82
747.216	25107.04
747.556	25043.99
747.895	24970.77
748.234	25078.56
748.573	25023.2
748.911	25076.76
749.25	25067.94
749.589	25037.43
749.928	25111.11
750.267	25297.99
750.605	25202.63
750.944	25296.86
751.283	25376.18
751.621	25432.68
751.96	25371.66
752.298	25463.64
752.636	25520.81
752.975	25495.95
753.313	25442.85
753.651	25593.8
