Data from blue_surface_keyboard_FLMS001491_082.txt Node
Date: Tue Feb 07 11:13:46 GMT 2017
User: dcchb
Spectrometer: FLMS00149
Trigger mode: 0
Integration Time (sec): 2.000000E-2
Scans to average: 10
Electric dark correction enabled: true
Nonlinearity correction enabled: false
Boxcar width: 0
XAxis mode: Wavelengths
Number of Pixels in Spectrum: 2048
>>>>>Begin Spectral Data<<<<<
341.393	-14.69
341.776	-14.69
342.16	-14.69
342.543	-44.29
342.927	-67.12
343.31	-67.57
343.693	-73.22
344.077	-52.2
344.46	-51.52
344.843	-58.08
345.226	-34.35
345.61	-47.91
345.993	-13.78
346.376	-18.53
346.759	9.49
347.142	18.98
347.525	41.81
347.908	51.3
348.291	76.61
348.674	102.82
349.057	116.16
349.44	122.71
349.823	160
350.206	162.93
350.588	187.79
350.971	179.2
351.354	202.71
351.737	212.88
352.119	240.9
352.502	236.83
352.884	240.67
353.267	260.56
353.65	279.54
354.032	286.55
354.414	280.22
354.797	302.36
355.179	297.39
355.562	298.07
355.944	306.21
356.326	307.56
356.709	302.59
357.091	285.19
357.473	323.83
357.855	308.69
358.238	304.85
358.62	306.21
359.002	305.98
359.384	317.05
359.766	306.88
360.148	329.71
360.53	316.6
360.912	315.25
361.294	312.99
361.676	326.55
362.057	312.08
362.439	306.66
362.821	306.66
363.203	290.84
363.584	293.78
363.966	302.14
364.348	285.87
364.729	314.79
365.111	292.87
365.493	290.84
365.874	281.57
366.256	313.44
366.637	279.99
367.019	276.15
367.4	307.34
367.781	283.83
368.163	286.77
368.544	275.47
368.925	290.61
369.306	303.49
369.688	312.31
370.069	293.78
370.45	282.93
370.831	273.44
371.212	293.78
371.593	282.48
371.974	284.06
372.355	294.68
372.736	292.42
373.117	292.65
373.498	277.73
373.879	294.68
374.26	261.91
374.641	285.87
375.021	298.3
375.402	286.55
375.783	292.2
376.163	287.68
376.544	300.78
376.925	279.09
377.305	287
377.686	315.47
378.066	309.82
378.447	288.35
378.827	288.13
379.208	289.71
379.588	296.94
379.968	312.31
380.349	299.88
380.729	317.73
381.109	288.35
381.489	297.85
381.87	305.3
382.25	320.9
382.63	305.98
383.01	301.91
383.39	314.57
383.77	295.36
384.15	314.57
384.53	306.66
384.91	301.69
385.29	308.69
385.67	328.8
386.049	326.55
386.429	322.7
386.809	324.06
387.189	327
387.568	291.74
387.948	324.96
388.328	296.72
388.707	307.11
389.087	319.99
389.466	324.51
389.846	331.06
390.225	324.74
390.605	314.57
390.984	331.74
391.363	320.67
391.743	312.76
392.122	329.26
392.501	333.1
392.881	336.94
393.26	325.87
393.639	310.95
394.018	330.39
394.397	317.73
394.776	335.36
395.155	325.64
395.534	324.51
395.913	322.48
396.292	353.89
396.671	308.69
397.05	333.55
397.429	324.51
397.808	345.98
398.186	311.86
398.565	332.87
398.944	359.76
399.323	321.12
399.701	315.47
400.08	328.58
400.458	332.87
400.837	344.62
401.215	355.02
401.594	339.2
401.972	318.18
402.351	320.22
402.729	333.1
403.107	336.71
403.486	342.36
403.864	345.3
404.242	349.14
404.62	349.14
404.999	328.58
405.377	345.08
405.755	337.62
406.133	365.41
406.511	353.89
406.889	374.45
407.267	344.62
407.645	350.95
408.023	382.14
408.401	374.23
408.779	362.93
409.156	355.47
409.534	358.18
409.912	374.68
410.29	365.41
410.667	380.1
411.045	361.35
411.422	362.48
411.8	386.43
412.178	367.9
412.555	370.84
412.933	384.62
413.31	376.04
413.687	388.69
414.065	379.88
414.442	387.11
414.819	392.98
415.197	398.41
415.574	394.11
415.951	378.07
416.328	369.26
416.705	383.94
417.082	404.28
417.46	401.8
417.837	405.64
418.214	401.8
418.591	390.05
418.967	401.57
419.344	393.89
419.721	394.79
420.098	408.58
420.475	388.46
420.852	426.88
421.228	415.36
421.605	374.23
421.982	397.96
422.358	398.41
422.735	405.19
423.111	419.65
423.488	406.77
423.864	429.14
424.241	421.23
424.617	438.18
424.994	410.61
425.37	422.59
425.746	431.63
426.123	418.07
426.499	426.43
426.875	418.52
427.251	440.21
427.627	439.99
428.003	445.41
428.379	428.69
428.756	440.67
429.132	435.69
429.507	442.02
429.883	419.65
430.259	450.16
430.635	427.33
431.011	455.36
431.387	481.8
431.763	452.64
432.138	448.8
432.514	446.77
432.89	473.89
433.265	485.41
433.641	492.19
434.016	480.67
434.392	463.04
434.767	470.27
435.143	454.23
435.518	478.63
435.894	484.96
436.269	489.25
436.644	499.65
437.02	477.95
437.395	486.99
437.77	510.04
438.145	496.94
438.52	517.95
438.895	510.04
439.271	524.73
439.646	526.54
440.021	502.13
440.395	505.07
440.77	517.73
441.145	500.78
441.52	526.54
441.895	515.47
442.27	506.65
442.645	534.9
443.019	552.53
443.394	538.52
443.769	519.99
444.143	520.89
444.518	542.13
444.892	528.12
445.267	537.61
445.641	544.62
446.016	546.88
446.39	532.42
446.764	543.49
447.139	552.75
447.513	563.38
447.887	557.73
448.262	550.27
448.636	563.83
449.01	568.8
449.384	538.74
449.758	548.46
450.132	575.8
450.506	564.5
450.88	596.82
451.254	570.83
451.628	564.28
452.002	582.13
452.376	578.06
452.75	575.35
453.123	556.82
453.497	588.01
453.871	565.63
454.244	599.08
454.618	612.64
454.992	580.1
455.365	589.82
455.739	622.13
456.112	631.62
456.486	610.38
456.859	608.35
457.232	623.94
457.606	618.97
457.979	622.36
458.352	632.07
458.725	633.2
459.099	639.08
459.472	637.27
459.845	649.7
460.218	645.18
460.591	655.35
460.964	662.36
461.337	666.65
461.71	690.15
462.083	685.41
462.456	660.55
462.829	680.89
463.201	675.69
463.574	687.21
463.947	677.5
464.32	697.38
464.692	708.46
465.065	711.17
465.438	697.83
465.81	708.68
466.183	726.31
466.555	718.17
466.928	724.73
467.3	735.8
467.672	738.74
468.045	755.01
468.417	742.35
468.789	759.75
469.161	757.95
469.534	783.48
469.906	771.51
470.278	767.89
470.65	770.83
471.022	797.95
471.394	813.76
471.766	801.79
472.138	792.52
472.51	832.97
472.882	825.29
473.253	810.6
473.625	826.64
473.997	829.58
474.369	840.43
474.74	841.11
475.112	859.86
475.484	873.65
475.855	875.23
476.227	905.74
476.598	893.76
476.97	897.83
477.341	933.99
477.713	926.98
478.084	931.5
478.455	946.87
478.827	957.26
479.198	966.08
479.569	960.2
479.94	998.17
480.311	983.02
480.682	1011.27
481.053	1025.96
481.424	1019.63
481.795	1026.87
482.166	1022.12
482.537	1032.74
482.908	1057.6
483.279	1066.64
483.65	1076.36
484.021	1084.04
484.391	1098.95
484.762	1091.27
485.133	1125.85
485.503	1126.98
485.874	1124.72
486.244	1131.04
486.615	1137.37
486.985	1167.43
487.356	1177.14
487.726	1164.49
488.097	1173.98
488.467	1205.17
488.837	1196.8
489.207	1214.66
489.578	1224.37
489.948	1230.02
490.318	1228.22
490.688	1245.17
491.058	1240.19
491.428	1261.21
491.798	1276.58
492.168	1265.73
492.538	1279.74
492.908	1274.99
493.278	1308.21
493.648	1280.42
494.017	1289.91
494.387	1328.55
494.757	1304.37
495.126	1312.28
495.496	1312.51
495.866	1328.78
496.235	1320.42
496.605	1317.93
496.974	1332.17
497.344	1322
497.713	1322.68
498.082	1316.35
498.452	1381.21
498.821	1364.94
499.19	1353.41
499.559	1397.48
499.928	1366.97
500.298	1369.23
500.667	1405.61
501.036	1377.82
501.405	1389.34
501.774	1390.47
502.143	1395.67
502.512	1391.15
502.88	1412.39
503.249	1405.84
503.618	1417.59
503.987	1403.8
504.356	1416.46
504.724	1405.61
505.093	1415.78
505.462	1402.67
505.83	1425.73
506.199	1420.53
506.567	1438.61
506.936	1426.18
507.304	1465.72
507.672	1437.25
508.041	1455.1
508.409	1458.04
508.777	1438.61
509.145	1463.01
509.514	1460.53
509.882	1434.31
510.25	1473.18
510.618	1481.99
510.986	1499.85
511.354	1474.54
511.722	1488.55
512.09	1474.31
512.458	1515.21
512.826	1484.03
513.193	1508.43
513.561	1471.83
513.929	1521.54
514.297	1514.76
514.664	1520.19
515.032	1485.16
515.4	1502.79
515.767	1500.07
516.135	1525.38
516.502	1492.39
516.869	1526.74
517.237	1515.67
517.604	1548.21
517.972	1523.8
518.339	1517.93
518.706	1544.59
519.073	1527.19
519.44	1552.05
519.808	1564.48
520.175	1553.63
520.542	1535.78
520.909	1549.79
521.276	1547.3
521.643	1551.6
522.009	1571.48
522.376	1587.75
522.743	1571.48
523.11	1592.95
523.477	1584.82
523.843	1579.85
524.21	1585.04
524.577	1575.55
524.943	1601.77
525.31	1591.6
525.676	1626.4
526.043	1615.1
526.409	1619.84
526.776	1637.92
527.142	1627.75
527.508	1644.93
527.874	1632.95
528.241	1650.8
528.607	1623.91
528.973	1640.41
529.339	1647.87
529.705	1622.1
530.071	1674.08
530.437	1671.59
530.803	1664.59
531.169	1696.45
531.535	1678.83
531.901	1640.86
532.267	1657.13
532.632	1699.62
532.998	1679.28
533.364	1672.5
533.73	1701.88
534.095	1689.67
534.461	1694.19
534.826	1668.43
535.192	1707.53
535.557	1696
535.923	1706.62
536.288	1677.7
536.653	1713.63
537.019	1705.94
537.384	1706.4
537.749	1698.49
538.114	1718.15
538.479	1693.74
538.845	1707.98
539.21	1703.68
539.575	1715.66
539.94	1739.39
540.305	1700.75
540.67	1704.36
541.034	1687.19
541.399	1719.73
541.764	1727.41
542.129	1693.97
542.494	1712.05
542.858	1743.68
543.223	1690.58
543.587	1703.91
543.952	1697.81
544.316	1712.05
544.681	1707.98
545.045	1683.8
545.41	1738.49
545.774	1740.29
546.138	1702.1
546.503	1686.74
546.867	1728.77
547.231	1722.89
547.595	1720.41
547.959	1735.32
548.324	1738.49
548.688	1696.23
549.052	1732.16
549.416	1734.64
549.779	1725.15
550.143	1737.36
550.507	1740.52
550.871	1711.59
551.235	1714.98
551.599	1724.7
551.962	1732.16
552.326	1724.47
552.689	1719.73
553.053	1726.06
553.417	1728.99
553.78	1756.11
554.143	1737.58
554.507	1703.68
554.87	1763.34
555.234	1769.9
555.597	1733.97
555.96	1743.91
556.323	1745.72
556.686	1785.94
557.05	1770.35
557.413	1780.97
557.776	1759.5
558.139	1785.49
558.502	1730.58
558.865	1779.39
559.228	1812.61
559.59	1793.85
559.953	1789.11
560.316	1850.35
560.679	1784.36
561.041	1811.7
561.404	1771.7
561.767	1803.57
562.129	1783.68
562.492	1812.38
562.854	1808.77
563.217	1808.54
563.579	1794.76
563.941	1835.43
564.304	1815.32
564.666	1799.27
565.028	1821.2
565.39	1816
565.753	1839.27
566.115	1825.26
566.477	1825.26
566.839	1844.02
567.201	1806.51
567.563	1819.61
567.925	1864.58
568.287	1851.93
568.648	1834.53
569.01	1822.78
569.372	1835.88
569.734	1847.86
570.095	1884.24
570.457	1861.19
570.819	1883.11
571.18	1873.4
571.542	1873.4
571.903	1861.65
572.265	1903.23
572.626	1891.02
572.987	1869.56
573.349	1864.13
573.71	1865.49
574.071	1881.08
574.432	1874.08
574.794	1907.97
575.155	1899.84
575.516	1883.57
575.877	1899.84
576.238	1888.09
576.599	1905.94
576.96	1888.09
577.32	1932.38
577.681	1894.41
578.042	1914.53
578.403	1905.49
578.763	1915.43
579.124	1915.88
579.485	1935.32
579.845	1933.73
580.206	1913.62
580.566	1935.32
580.927	1936.9
581.287	1913.4
581.648	1916.11
582.008	1933.28
582.368	1922.66
582.728	1941.64
583.089	1938.71
583.449	1951.14
583.809	1937.12
584.169	1936.22
584.529	1900.29
584.889	1943.45
585.249	1928.99
585.609	1944.13
585.969	1944.13
586.329	1940.06
586.688	1950.01
587.048	1944.81
587.408	1965.6
587.768	1978.03
588.127	1939.84
588.487	1931.25
588.846	1962.43
589.206	1940.06
589.565	1937.8
589.925	1933.96
590.284	1957.24
590.643	1935.09
591.003	1929.44
591.362	1983.22
591.721	1967.86
592.08	1949.1
592.44	1959.95
592.799	1948.88
593.158	1974.19
593.517	1934.86
593.876	1974.41
594.235	1947.29
594.593	1984.58
594.952	1961.76
595.311	1964.02
595.67	2005.82
596.029	2022.55
596.387	1959.72
596.746	1982.09
597.104	1987.52
597.463	2011.92
597.822	1996.78
598.18	1959.72
598.538	2000.4
598.897	1985.48
599.255	1982.09
599.613	2011.47
599.972	2009.66
600.33	2002.89
600.688	1994.98
601.046	1984.35
601.404	2039.49
601.762	1996.56
602.12	2024.13
602.478	2021.64
602.836	2019.38
603.194	2006.73
603.552	2013.96
603.91	2027.29
604.268	2030
604.625	2002.89
604.983	2035.88
605.341	1989.78
605.698	2016.44
606.056	2049.44
606.413	2043.56
606.771	2020.74
607.128	2020.06
607.485	2025.48
607.843	2027.29
608.2	2054.64
608.557	2048.53
608.914	2062.77
609.272	2032.49
609.629	2048.08
609.986	2044.69
610.343	2058.93
610.7	2081.08
611.057	2040.85
611.414	2060.06
611.771	2063.45
612.127	2058.02
612.484	2097.35
612.841	2088.53
613.198	2066.84
613.554	2092.15
613.911	2090.79
614.267	2061.87
614.624	2082.43
614.98	2099.83
615.337	2075.88
615.693	2105.48
616.05	2107.29
616.406	2071.81
616.762	2118.59
617.118	2128.76
617.475	2119.27
617.831	2102.54
618.187	2114.07
618.543	2093.5
618.899	2142.09
619.255	2122.2
619.611	2112.49
619.967	2141.41
620.323	2146.16
620.678	2135.76
621.034	2131.7
621.39	2144.35
621.746	2125.14
622.101	2142.77
622.457	2122.66
622.812	2135.09
623.168	2153.62
623.523	2188.87
623.879	2188.19
624.234	2170.34
624.589	2174.41
624.945	2172.37
625.3	2213.28
625.655	2171.02
626.01	2189.09
626.365	2192.03
626.72	2191.35
627.075	2199.26
627.43	2190.68
627.785	2182.77
628.14	2160.4
628.495	2163.78
628.85	2201.75
629.205	2198.81
629.559	2241.07
629.914	2217.12
630.269	2240.39
630.623	2203.33
630.978	2229.55
631.332	2193.16
631.687	2235.2
632.041	2241.75
632.396	2184.35
632.75	2229.55
633.104	2234.97
633.459	2232.03
633.813	2233.16
634.167	2277
634.521	2227.29
634.875	2240.17
635.229	2261.64
635.583	2262.99
635.937	2225.48
636.291	2268.19
636.645	2280.62
636.999	2278.81
637.352	2294.18
637.706	2259.38
638.06	2297.79
638.413	2262.77
638.767	2318.36
639.121	2287.17
639.474	2270.45
639.828	2303.67
640.181	2291.24
640.534	2349.54
640.888	2323.1
641.241	2333.72
641.594	2320.84
641.947	2359.26
642.301	2364.46
642.654	2347.28
643.007	2374.63
643.36	2340.73
643.713	2341.41
644.066	2337.79
644.419	2353.38
644.771	2331.24
645.124	2378.02
645.477	2366.49
645.83	2373.72
646.182	2354.51
646.535	2346.38
646.888	2373.95
647.24	2330.79
647.593	2383.89
647.945	2384.12
648.298	2368.75
648.65	2380.95
649.002	2397.68
649.355	2400.16
649.707	2433.38
650.059	2444.68
650.411	2438.13
650.763	2502.08
651.115	2498.69
651.467	2512.48
651.819	2515.87
652.171	2552.25
652.523	2526.26
652.875	2519.71
653.227	2557.67
653.578	2571.68
653.93	2570.78
654.282	2595.41
654.633	2583.66
654.985	2579.14
655.337	2629.99
655.688	2635.64
656.039	2635.41
656.391	2625.69
656.742	2633.15
657.094	2682.64
657.445	2691
657.796	2721.74
658.147	2687.39
658.498	2700.04
658.849	2699.36
659.2	2718.8
659.551	2719.7
659.902	2737.33
660.253	2766.25
660.604	2771.68
660.955	2749.31
661.306	2807.38
661.656	2800.38
662.007	2846.7
662.358	2847.16
662.708	2835.86
663.059	2872.92
663.409	2843.77
663.76	2909.53
664.11	2893.26
664.461	2924.44
664.811	2909.08
665.161	2915.4
665.511	2920.6
665.862	2941.62
666.212	2976.19
666.562	2987.27
666.912	2988.17
667.262	3012.58
667.612	3002.86
667.962	2991.11
668.312	3030.88
668.662	3060.03
669.011	3112.23
669.361	3116.53
669.711	3108.84
670.06	3092.8
670.41	3115.17
670.76	3135.28
671.109	3138.22
671.459	3157.88
671.808	3133.02
672.157	3205.57
672.507	3159.69
672.856	3170.99
673.205	3239.91
673.554	3215.28
673.904	3194.27
674.253	3254.83
674.602	3253.25
674.951	3187.49
675.3	3203.76
675.649	3276.52
675.998	3314.04
676.346	3322.62
676.695	3323.75
677.044	3342.51
677.393	3348.16
677.741	3359.46
678.09	3351.32
678.438	3362.85
678.787	3393.58
679.135	3399.91
679.484	3401.49
679.832	3436.29
680.181	3431.32
680.529	3422.28
680.877	3415.96
681.225	3415.96
681.573	3479
681.922	3426.35
682.27	3487.82
682.618	3466.12
682.966	3504.99
683.314	3497.08
683.661	3543.41
684.009	3499.12
684.357	3547.25
684.705	3473.81
685.053	3554.03
685.4	3570.98
685.748	3515.61
686.095	3563.52
686.443	3588.83
686.79	3550.87
687.138	3558.1
687.485	3634.03
687.832	3602.84
688.18	3619.79
688.527	3589.51
688.874	3608.94
689.221	3620.02
689.568	3652.79
689.915	3608.04
690.262	3624.54
690.609	3638.32
690.956	3626.8
691.303	3661.37
691.65	3634.25
691.997	3663.63
692.344	3613.92
692.69	3643.07
693.037	3686
693.383	3644.88
693.73	3639.23
694.077	3615.95
694.423	3622.5
694.769	3670.86
695.116	3649.17
695.462	3633.35
695.808	3687.81
696.155	3648.49
696.501	3617.76
696.847	3663.41
697.193	3631.54
697.539	3631.99
697.885	3650.53
698.231	3597.65
698.577	3620.02
698.923	3606.01
699.269	3632.45
699.614	3620.47
699.96	3668.6
700.306	3606.46
700.651	3605.55
700.997	3630.86
701.342	3631.77
701.688	3606.68
702.033	3624.54
702.379	3649.17
702.724	3607.81
703.069	3666.34
703.415	3564.43
703.76	3590.64
704.105	3634.93
704.45	3631.99
704.795	3546.8
705.14	3587.93
705.485	3544.99
705.83	3556.06
706.175	3563.97
706.52	3551.77
706.865	3583.18
707.209	3559.68
707.554	3554.03
707.899	3584.76
708.243	3565.1
708.588	3592
708.932	3510.42
709.277	3544.09
709.621	3537.99
709.966	3538.21
710.31	3540.92
710.654	3477.2
710.998	3531.88
711.342	3545.22
711.687	3494.82
712.031	3518.33
712.375	3497.76
712.719	3535.27
713.063	3523.75
713.407	3520.59
713.75	3521.72
714.094	3500.47
714.438	3489.63
714.782	3540.92
715.125	3522.17
715.469	3513.81
715.812	3493.69
716.156	3491.89
716.499	3502.96
716.843	3493.92
717.186	3445.11
717.53	3512
717.873	3537.53
718.216	3487.59
718.559	3492.34
718.902	3469.97
719.246	3465.67
719.589	3481.04
719.932	3484.65
720.275	3478.1
720.617	3469.74
720.96	3507.48
721.303	3490.53
721.646	3472.23
721.989	3460.93
722.331	3523.3
722.674	3462.96
723.016	3526.46
723.359	3476.74
723.701	3455.28
724.044	3457.99
724.386	3457.31
724.729	3470.42
725.071	3472.9
725.413	3462.73
725.755	3472.9
726.097	3488.5
726.439	3496.18
726.782	3466.8
727.124	3485.11
727.465	3521.49
727.807	3505.22
728.149	3467.93
728.491	3507.93
728.833	3453.69
729.175	3477.65
729.516	3471.55
729.858	3495.73
730.199	3533.69
730.541	3507.7
730.882	3508.16
731.224	3525.78
731.565	3507.03
731.906	3519.46
732.248	3521.49
732.589	3522.17
732.93	3535.73
733.271	3534.6
733.612	3541.38
733.953	3495.5
734.294	3552.22
734.635	3533.24
734.976	3591.77
735.317	3514.03
735.658	3546.12
735.999	3558.78
736.339	3528.95
736.68	3558.55
737.021	3555.84
737.361	3564.2
737.702	3605.78
738.042	3599
738.383	3557.65
738.723	3601.49
739.063	3605.1
739.404	3641.49
739.744	3622.73
740.084	3611.43
740.424	3613.01
740.764	3639.23
741.104	3651.66
741.444	3632.9
741.784	3639.68
742.124	3645.1
742.464	3699.79
742.804	3682.39
743.143	3685.55
743.483	3698.89
743.823	3678.1
744.162	3684.2
744.502	3701.82
744.841	3696.63
745.181	3771.43
745.52	3747.02
745.86	3810.3
746.199	3838.77
746.538	3787.7
746.877	3820.69
747.216	3826.34
747.556	3848.49
747.895	3826.34
748.234	3864.53
748.573	3868.37
748.911	3933
749.25	3886.45
749.589	3861.82
749.928	3911.31
750.267	3943.17
750.605	3982.04
750.944	4000.8
751.283	3959.9
751.621	4022.04
751.96	4102.72
752.298	4037.41
752.636	4128.25
752.975	4081.7
753.313	4066.56
753.651	4075.83
753.989	4156.73
754.327	4158.99
754.666	4172.77
755.004	4164.18
755.342	4233.34
755.679	4266.33
756.017	4244.41
756.355	4266.1
756.693	4315.59
757.031	4320.11
757.368	4368.7
757.706	4388.81
758.044	4347.46
758.381	4399.43
758.719	4393.56
759.056	4439.43
759.394	4442.6
759.731	4401.01
760.068	4421.13
760.405	4432.65
760.743	4475.59
761.08	4482.59
761.417	4478.98
761.754	4478.3
762.091	4453.44
762.428	4541.12
762.765	4474.23
763.102	4523.72
763.438	4505.42
763.775	4585.42
764.112	4579.31
764.449	4584.06
764.785	4577.05
765.122	4561.69
765.458	4527.56
765.795	4587.9
766.131	4575.02
766.467	4599.43
766.804	4567.34
767.14	4605.75
767.476	4590.84
767.812	4544.06
768.148	4631.29
768.485	4579.77
768.821	4540.67
769.157	4598.3
769.492	4579.99
769.828	4614.79
770.164	4591.52
770.5	4578.64
770.836	4600.56
771.171	4553.55
771.507	4579.77
771.842	4539.99
772.178	4572.31
