Data from blue_clamp_base_FLMS001491_00004.txt Node
Date: Wed Feb 08 15:15:28 GMT 2017
User: dcchb
Spectrometer: FLMS00149
Trigger mode: 0
Integration Time (sec): 2.000000E-2
Scans to average: 10
Electric dark correction enabled: true
Nonlinearity correction enabled: false
Boxcar width: 0
XAxis mode: Wavelengths
Number of Pixels in Spectrum: 2048
>>>>>Begin Spectral Data<<<<<
341.393	0.52
341.776	0.52
342.16	0.52
342.543	-56.2
342.927	-59.59
343.31	-77.67
343.693	-65.01
344.077	-69.53
344.46	-64.79
344.843	-47.61
345.226	-41.96
345.61	-32.92
345.993	-21.17
346.376	-9.87
346.759	10.24
347.142	14.53
347.525	29.22
347.908	69.67
348.291	75.77
348.674	96.57
349.057	134.53
349.44	133.85
349.823	142.89
350.206	164.59
350.588	193.29
350.971	215.43
351.354	212.49
351.737	231.7
352.119	234.87
352.502	262.21
352.884	243.91
353.267	281.42
353.65	279.84
354.032	290.01
354.414	289.55
354.797	303.34
355.179	330.68
355.562	312.83
355.944	322.1
356.326	339.27
356.709	305.37
357.091	347.63
357.473	346.5
357.855	318.03
358.238	328.42
358.62	351.02
359.002	348.31
359.384	330.68
359.766	334.53
360.148	332.72
360.53	334.07
360.912	325.49
361.294	327.29
361.676	324.58
362.057	326.39
362.439	339.5
362.821	327.75
363.203	318.25
363.584	286.62
363.966	309.89
364.348	310.8
364.729	309.67
365.111	304.47
365.493	302.21
365.874	309.67
366.256	288.42
366.637	304.92
367.019	316.45
367.4	313.28
367.781	309.67
368.163	310.8
368.544	308.54
368.925	294.98
369.306	334.53
369.688	295.66
370.069	311.93
370.45	315.54
370.831	314.19
371.212	304.7
371.593	316.45
371.974	301.98
372.355	316.22
372.736	293.62
373.117	318.71
373.498	303.79
373.879	308.31
374.26	317.35
374.641	324.81
375.021	299.72
375.402	311.47
375.783	315.99
376.163	325.71
376.544	323
376.925	327.07
377.305	325.26
377.686	328.42
378.066	322.55
378.447	323.9
378.827	323.68
379.208	339.95
379.588	334.07
379.968	344.02
380.349	324.13
380.729	333.4
381.109	317.12
381.489	330.01
381.87	346.05
382.25	334.3
382.63	344.02
383.01	334.75
383.39	341.76
383.77	340.4
384.15	320.74
384.53	350.57
384.91	351.02
385.29	345.6
385.67	373.85
386.049	358.48
386.429	339.5
386.809	349.44
387.189	344.24
387.568	368.65
387.948	349.21
388.328	347.63
388.707	335.88
389.087	361.42
389.466	387.18
389.846	364.35
390.225	377.91
390.605	367.97
390.984	376.11
391.363	373.85
391.743	397.12
392.122	361.19
392.501	395.09
392.881	407.52
393.26	401.19
393.639	381.98
394.018	399.38
394.397	394.41
394.776	417.01
395.155	392.83
395.534	394.41
395.913	397.57
396.292	403.45
396.671	430.57
397.05	415.65
397.429	400.96
397.808	437.8
398.186	451.13
398.565	419.27
398.944	448.65
399.323	438.48
399.701	452.94
400.08	434.18
400.458	472.37
400.837	485.03
401.215	475.09
401.594	447.74
401.972	491.36
402.351	475.09
402.729	509.44
403.107	502.88
403.486	506.95
403.864	498.59
404.242	494.07
404.62	500.62
404.999	501.3
405.377	509.89
405.755	537.23
406.133	522.09
406.511	534.52
406.889	551.24
407.267	535.2
407.645	559.15
408.023	542.2
408.401	562.32
408.779	580.39
409.156	564.58
409.534	580.17
409.912	578.36
410.29	595.31
410.667	597.12
411.045	587.4
411.422	603.67
411.8	639.83
412.178	616.1
412.555	645.7
412.933	645.48
413.31	616.1
413.687	661.3
414.065	656.78
414.442	694.29
414.819	657.45
415.197	650.45
415.574	689.32
415.951	695.87
416.328	707.4
416.705	716.89
417.082	725.48
417.46	735.64
417.837	716.21
418.214	711.69
418.591	723.22
418.967	755.98
419.344	730.45
419.721	739.26
420.098	767.28
420.475	767.73
420.852	760.28
421.228	789.43
421.605	792.37
421.982	783.55
422.358	824.91
422.735	819.03
423.111	804.8
423.488	808.18
423.864	814.06
424.241	835.3
424.617	852.93
424.994	882.76
425.37	854.96
425.746	848.64
426.123	853.61
426.499	888.41
426.875	899.26
427.251	878.69
427.627	935.41
428.003	930.89
428.379	962.31
428.756	949.88
429.132	966.15
429.507	963.66
429.883	981.51
430.259	1001.4
430.635	1025.35
431.011	1026.48
431.387	1046.37
431.763	1045.01
432.138	1055.41
432.514	1086.37
432.89	1092.47
433.265	1096.09
433.641	1115.75
434.016	1136.09
434.392	1145.13
434.767	1164.79
435.143	1180.6
435.518	1141.51
435.894	1179.25
436.269	1203.2
436.644	1234.84
437.02	1243.88
437.395	1252.02
437.77	1275.07
438.145	1271
438.52	1287.72
438.895	1302.86
439.271	1306.02
439.646	1318.23
440.021	1340.83
440.395	1373.59
440.77	1344.89
441.145	1353.71
441.52	1414.72
441.895	1392.12
442.27	1390.09
442.645	1407.72
443.019	1444.78
443.394	1439.35
443.769	1449.98
444.143	1441.39
444.518	1499.69
444.892	1493.14
445.267	1479.81
445.641	1506.02
446.016	1537.21
446.39	1534.04
446.764	1561.16
447.139	1546.02
447.513	1568.16
447.887	1582.63
448.262	1590.09
448.636	1611.55
449.01	1609.97
449.384	1606.58
449.758	1633.93
450.132	1665.79
450.506	1652.23
450.88	1689.29
451.254	1659.91
451.628	1679.57
452.002	1710.53
452.376	1752.11
452.75	1772.91
453.123	1761.61
453.497	1804.32
453.871	1819.68
454.244	1833.47
454.618	1837.76
454.992	1882.51
455.365	1856.97
455.739	1909.4
456.112	1946.01
456.486	1969.96
456.859	1973.35
457.232	1995.72
457.606	1985.78
457.979	2037.76
458.352	2017.42
458.725	2060.58
459.099	2071.2
459.472	2104.87
459.845	2132.67
460.218	2148.26
460.591	2167.7
460.964	2182.84
461.337	2205.66
461.71	2236.17
462.083	2275.04
462.456	2289.73
462.829	2290.18
463.201	2349.39
463.574	2329.95
463.947	2360.91
464.32	2415.6
464.692	2428.03
465.065	2457.18
465.438	2476.39
465.81	2490.85
466.183	2505.99
466.555	2578.53
466.928	2603.62
467.3	2594.8
467.672	2607.69
468.045	2676.84
468.417	2684.52
468.789	2723.16
469.161	2719.55
469.534	2781.92
469.906	2816.95
470.278	2842.03
470.65	2898.98
471.022	2936.26
471.394	2966.55
471.766	2959.99
472.138	2986.88
472.51	3047
472.882	3107.33
473.253	3145.3
473.625	3127.9
473.997	3196.82
474.369	3211.29
474.74	3249.7
475.112	3329.93
475.484	3367.44
475.855	3416.25
476.227	3423.71
476.598	3506.65
476.97	3485.85
477.341	3625.51
477.713	3602.01
478.084	3669.8
478.455	3713.87
478.827	3770.37
479.198	3838.16
479.569	3842.46
479.94	3925.84
480.311	3943.92
480.682	4059.17
481.053	4106.18
481.424	4174.65
481.795	4177.59
482.166	4239.51
482.537	4257.13
482.908	4336
483.279	4333.74
483.65	4407.41
484.021	4480.18
484.391	4481.08
484.762	4565.37
485.133	4612.83
485.503	4594.98
485.874	4700.06
486.244	4656.22
486.615	4785.71
486.985	4817.35
487.356	4851.24
487.726	4902.31
488.097	4950.45
488.467	5012.82
488.837	5047.85
489.207	5082.42
489.578	5118.81
489.948	5129.88
490.318	5228.86
490.688	5218.69
491.058	5252.14
491.428	5342.53
491.798	5362.42
492.168	5427.27
492.538	5483.77
492.908	5464.11
493.278	5512.47
493.648	5491.45
494.017	5546.14
494.387	5583.2
494.757	5568.29
495.126	5633.59
495.496	5629.08
495.866	5662.75
496.235	5695.97
496.605	5720.82
496.974	5742.74
497.344	5807.83
497.713	5769.18
498.082	5819.35
498.452	5815.96
498.821	5883.76
499.19	5859.13
499.559	5879.92
499.928	5936.19
500.298	5974.83
500.667	5929.63
501.036	5932.12
501.405	5976.18
501.774	5976.86
502.143	5995.17
502.512	6045.79
502.88	6042.85
503.249	6048.95
503.618	6115.39
503.987	6095.28
504.356	6083.53
504.724	6176.63
505.093	6175.73
505.462	6161.04
505.83	6171.66
506.199	6248.27
506.567	6224.99
506.936	6225.67
507.304	6261.15
507.672	6313.8
508.041	6316.29
508.409	6312.67
508.777	6363.29
509.145	6392.22
509.514	6391.77
509.882	6421.37
510.25	6406
510.618	6455.49
510.986	6406.68
511.354	6513.35
511.722	6539.11
512.09	6532.78
512.458	6521.71
512.826	6563.74
513.193	6585.66
513.561	6558.32
513.929	6639.44
514.297	6640.57
514.664	6724.64
515.032	6620.69
515.4	6707.92
515.767	6712.89
516.135	6700.23
516.502	6682.38
516.869	6781.14
517.237	6752.89
517.604	6748.37
517.972	6792.89
518.339	6857.97
518.706	6812.09
519.073	6824.98
519.44	6880.12
519.808	6913.34
520.175	6902.49
520.542	6922.15
520.909	6958.31
521.276	6915.59
521.643	6993.79
522.009	7010.28
522.376	7012.54
522.743	7081.01
523.11	7116.49
523.477	7122.6
523.843	7215.25
524.21	7228.81
524.577	7222.71
524.943	7273.1
525.31	7304.06
525.676	7335.92
526.043	7389.25
526.409	7404.85
526.776	7442.59
527.142	7417.73
527.508	7429.03
527.874	7510.38
528.241	7473.55
528.607	7509.03
528.973	7558.97
529.339	7570.49
529.705	7618.63
530.071	7652.3
530.437	7647.1
530.803	7695.69
531.169	7796.48
531.535	7776.82
531.901	7725.52
532.267	7719.42
532.632	7826.98
532.998	7854.78
533.364	7828.34
533.73	7862.24
534.095	7874.67
534.461	7944.27
534.826	7973.19
535.192	7985.85
535.557	8020.88
535.923	8032.85
536.288	8030.37
536.653	8093.42
537.019	8007.77
537.384	8119.86
537.749	8140.2
538.114	8141.1
538.479	8205.73
538.845	8156.47
539.21	8134.09
539.575	8209.57
539.94	8219.97
540.305	8231.49
540.67	8233.07
541.034	8233.07
541.399	8295.45
541.764	8286.86
542.129	8303.13
542.494	8337.25
542.858	8370.7
543.223	8308.1
543.587	8429
543.952	8438.27
544.316	8449.79
544.681	8411.83
545.045	8477.81
545.41	8464.03
545.774	8553.74
546.138	8492.05
546.503	8471.71
546.867	8516.46
547.231	8594.42
547.595	8591.71
547.959	8651.37
548.324	8619.73
548.688	8593.74
549.052	8639.84
549.416	8650.92
549.779	8619.5
550.143	8664.7
550.507	8669.45
550.871	8719.62
551.235	8752.38
551.599	8717.58
551.962	8828.54
552.326	8794.19
552.689	8813.4
553.053	8712.84
553.417	8803.23
553.78	8892.94
554.143	8820.86
554.507	8951.7
554.87	8893.62
555.234	8957.8
555.597	8865.6
555.96	8925.26
556.323	8936.33
556.686	8904.02
557.05	9012.49
557.413	8994.18
557.776	8952.6
558.139	9019.49
558.502	9020.85
558.865	9053.62
559.228	9011.81
559.59	9104.69
559.953	9119.38
560.316	9199.6
560.679	9172.71
561.041	9197.12
561.404	9244.57
561.767	9272.14
562.129	9261.75
562.492	9337.45
562.854	9357.79
563.217	9313.27
563.579	9333.84
563.941	9391.46
564.304	9395.3
564.666	9395.08
565.028	9484.57
565.39	9435.75
565.753	9541.74
566.115	9608.63
566.477	9566.82
566.839	9601.85
567.201	9673.49
567.563	9629.42
567.925	9669.65
568.287	9742.87
568.648	9738.35
569.01	9803.65
569.372	9831
569.734	9771.57
570.095	9814.5
570.457	9912.35
570.819	9911
571.18	9913.93
571.542	10015.17
571.903	9938.11
572.265	10039.81
572.626	10069.64
572.987	10105.57
573.349	10118
573.71	10136.53
574.071	10115.28
574.432	10188.73
574.794	10228.95
575.155	10245.45
575.516	10180.82
575.877	10301.27
576.238	10245.9
576.599	10295.85
576.96	10338.1
577.32	10306.24
577.681	10334.94
578.042	10395.73
578.403	10458.1
578.763	10450.19
579.124	10443.19
579.485	10515.73
579.845	10564.31
580.206	10524.31
580.566	10489.96
580.927	10513.47
581.287	10514.14
581.648	10522.28
582.008	10558.66
582.368	10553.69
582.728	10548.27
583.089	10624.42
583.449	10555.5
583.809	10508.72
584.169	10663.29
584.529	10621.49
584.889	10713.69
585.249	10651.77
585.609	10617.87
585.969	10706.91
586.329	10633.92
586.688	10669.62
587.048	10592.33
587.408	10669.85
587.768	10655.84
588.127	10647.7
588.487	10629.4
588.846	10692.44
589.206	10605.67
589.565	10763.4
589.925	10666.46
590.284	10787.36
590.643	10772.44
591.003	10786
591.362	10754.59
591.721	10752.1
592.08	10803.4
592.44	10746.45
592.799	10862.38
593.158	10800.92
593.517	10765.44
593.876	10813.8
594.235	10822.16
594.593	10726.34
594.952	10842.5
595.311	10757.98
595.67	10842.05
596.029	10846.11
596.387	10824.42
596.746	10915.49
597.104	10841.37
597.463	10878.65
597.822	10887.24
598.18	10854.02
598.538	10868.94
598.897	10904.87
599.255	10835.72
599.613	10942.61
599.972	10892.67
600.33	10983.28
600.688	10929.05
601.046	10960.91
601.404	10985.54
601.762	11010.18
602.12	11052.44
602.478	11064.86
602.836	10985.77
603.194	11008.14
603.552	10930.4
603.91	10962.04
604.268	10979.22
604.625	10959.1
604.983	11068.48
605.341	10909.61
605.698	11037.75
606.056	11054.7
606.413	11049.95
606.771	11122.04
607.128	11066.22
607.485	11034.81
607.843	11085.43
608.2	11092.89
608.557	11234.13
608.914	11136.05
609.272	11156.39
609.629	11147.57
609.986	11160.68
610.343	11141.7
610.7	11252.2
611.057	11162.71
611.414	11154.35
611.771	11217.63
612.127	11221.47
612.484	11237.97
612.841	11207.69
613.198	11329.94
613.554	11272.99
613.911	11331.52
614.267	11368.13
614.624	11273.67
614.98	11292.2
615.337	11388.47
615.693	11411.3
616.05	11430.73
616.406	11404.97
616.762	11385.99
617.118	11395.25
617.475	11389.83
617.831	11445.87
618.187	11427.79
618.543	11453.55
618.899	11450.39
619.255	11469.6
619.611	11436.83
619.967	11524.74
620.323	11484.06
620.678	11435.25
621.034	11512.99
621.39	11529.03
621.746	11536.04
622.101	11626.21
622.457	11547.11
622.812	11635.47
623.168	11619.65
623.523	11603.61
623.879	11670.05
624.234	11600.9
624.589	11573.55
624.945	11542.14
625.3	11648.35
625.655	11671.4
626.01	11672.98
626.365	11738.97
626.72	11689.25
627.075	11646.54
627.43	11604.74
627.785	11682.25
628.14	11672.98
628.495	11706.66
628.85	11773.32
629.205	11763.6
629.559	11784.62
629.914	11765.86
630.269	11783.26
630.623	11698.75
630.978	11754.11
631.332	11814
631.687	11778.52
632.041	11858.52
632.396	11759.99
632.75	11835.69
633.104	11844.28
633.459	11881.11
633.813	11810.16
634.167	11852.64
634.521	11939.42
634.875	11867.56
635.229	11809.03
635.583	11872.07
635.937	11858.52
636.291	11835.47
636.645	11953.88
636.999	11809.7
637.352	11965.63
637.706	11857.16
638.06	11922.24
638.413	11959.08
638.767	11875.46
639.121	11948.23
639.474	11839.53
639.828	11923.82
640.181	12008.57
640.534	11935.8
640.888	11901.9
641.241	11980.77
641.594	11916.37
641.947	11924.5
642.301	11966.76
642.654	12042.24
643.007	12021.22
643.36	12019.64
643.713	11978.51
644.066	12074.1
644.419	12039.53
644.771	12030.49
645.124	11968.57
645.477	11952.3
645.83	11871.4
646.182	11804.73
646.535	11750.5
646.888	11804.28
647.24	11764.96
647.593	11851.06
647.945	11828.69
648.298	11807.67
648.65	11820.1
649.002	11813.77
649.355	11766.99
649.707	11852.87
650.059	11945.07
650.411	12098.06
650.763	12167.43
651.115	12311.61
651.467	12305.28
651.819	12280.88
652.171	12240.65
652.523	12350.93
652.875	12202.46
653.227	12222.57
653.578	12369.91
653.93	12336.24
654.282	12286.98
654.633	12349.35
654.985	12291.72
655.337	12377.82
655.688	12445.39
656.039	12431.61
656.391	12283.36
656.742	12459.4
657.094	12463.92
657.445	12519.29
657.796	12430.7
658.147	12366.53
658.498	12375.79
658.849	12478.39
659.2	12475
659.551	12451.72
659.902	12473.87
660.253	12446.75
660.604	12443.36
660.955	12409.69
661.306	12500.08
661.656	12566.97
662.007	12549.57
662.358	12494.43
662.708	12523.36
663.059	12574.2
663.409	12436.58
663.76	12590.7
664.11	12572.4
664.461	12520.87
664.811	12495.34
665.161	12543.47
665.511	12530.14
665.862	12564.94
666.212	12556.35
666.562	12556.35
666.912	12528.55
667.262	12490.59
667.612	12580.08
667.962	12554.09
668.312	12509.8
668.662	12552.96
669.011	12469.8
669.361	12477.26
669.711	12445.17
670.06	12426.64
670.41	12389.12
670.76	12426.18
671.109	12407.43
671.459	12412.85
671.808	12346.86
672.157	12331.72
672.507	12197.26
672.856	12257.83
673.205	12237.71
673.554	12298.96
673.904	12247.66
674.253	12242.01
674.602	12222.8
674.951	12097.15
675.3	12018.51
675.649	12217.83
675.998	12181.22
676.346	12176.47
676.695	12193.87
677.044	12023.71
677.393	12057.83
677.741	12061.45
678.09	11983.94
678.438	11989.81
678.787	12010.38
679.135	11974.67
679.484	11945.75
679.832	11924.5
680.181	11815.81
680.529	11902.13
680.877	11966.76
681.225	11814.45
681.573	11809.25
681.922	11754.11
682.27	11816.48
682.618	11747.11
682.966	11689.03
683.314	11682.02
683.661	11722.25
684.009	11592.31
684.357	11497.62
684.705	11544.4
685.053	11515.02
685.4	11600.67
685.748	11456.04
686.095	11485.64
686.443	11531.07
686.79	11475.7
687.138	11469.37
687.485	11489.49
687.832	11353.67
688.18	11407.91
688.527	11366.33
688.874	11326.33
689.221	11319.77
689.568	11249.27
689.915	11313.9
690.262	11293.56
690.609	11315.93
690.956	11201.81
691.303	11221.02
691.65	11179.89
691.997	11256.27
692.344	11153
692.69	11085.43
693.037	11120.68
693.383	11100.57
693.73	11087.24
694.077	11046.56
694.423	11079.78
694.769	11030.74
695.116	11049.27
695.462	10967.92
695.808	10934.92
696.155	11014.24
696.501	10961.36
696.847	10942.16
697.193	10908.71
697.539	10988.48
697.885	10848.6
698.231	10841.14
698.577	10890.18
698.923	10829.39
699.269	10774.93
699.614	10794.59
699.96	10706
700.306	10694.48
700.651	10672.33
700.997	10705.33
701.342	10690.41
701.688	10660.58
702.033	10678.21
702.379	10674.14
702.724	10618.55
703.069	10676.63
703.415	10613.58
703.76	10538.32
704.105	10605.67
704.45	10571.09
704.795	10532
705.14	10571.09
705.485	10543.52
705.83	10527.03
706.175	10447.93
706.52	10424.43
706.865	10502.17
707.209	10552.34
707.554	10461.26
707.899	10526.8
708.243	10417.65
708.588	10455.16
708.932	10367.71
709.277	10404.32
709.621	10385.33
709.966	10309.86
710.31	10337.88
710.654	10319.12
710.998	10317.54
711.342	10371.1
711.687	10367.26
712.031	10321.16
712.375	10277.31
712.719	10254.04
713.063	10291.78
713.407	10279.57
713.75	10266.24
714.094	10264.43
714.438	10286.35
714.782	10353.7
715.125	10307.82
715.469	10198.9
715.812	10200.93
716.156	10215.17
716.499	10274.15
716.843	10351.66
717.186	10182.63
717.53	10268.28
717.873	10251.55
718.216	10251.33
718.559	10186.47
718.902	10144.66
719.246	10222.85
719.589	10188.28
719.932	10143.76
720.275	10180.82
720.617	10143.08
720.96	10152.57
721.303	10144.44
721.646	10183.53
721.989	10057.66
722.331	10172.23
722.674	10156.19
723.016	10198.9
723.359	10132.23
723.701	10139.01
724.044	10062.4
724.386	10066.47
724.729	10134.04
725.071	10170.65
725.413	10191.22
725.755	10102.4
726.097	10115.96
726.439	10093.59
726.782	10092.46
727.124	10175.17
727.465	10142.18
727.807	10093.36
728.149	10083.87
728.491	10177.2
728.833	10149.63
729.175	10078.68
729.516	10106.02
729.858	10128.39
730.199	10155.96
730.541	10144.66
730.882	10122.52
731.224	10113.7
731.565	10139.47
731.906	10161.39
732.248	10225.79
732.589	10132.91
732.93	10139.01
733.271	10171.1
733.612	10232.12
733.953	10171.55
734.294	10209.52
734.635	10107.83
734.976	10176.75
735.317	10209.97
735.658	10242.51
735.999	10257.2
736.339	10284.32
736.68	10254.94
737.021	10230.99
737.361	10285
737.702	10364.09
738.042	10326.35
738.383	10314.38
738.723	10308.73
739.063	10325.45
739.404	10458.55
739.744	10373.58
740.084	10361.61
740.424	10386.01
740.764	10393.02
741.104	10430.3
741.444	10436.41
741.784	10510.98
742.124	10487.48
742.464	10493.13
742.804	10559.34
743.143	10483.41
743.483	10547.14
743.823	10563.63
744.162	10680.69
744.502	10692.67
744.841	10613.8
745.181	10717.3
745.52	10619
745.86	10714.37
746.199	10752.1
746.538	10760.47
746.877	10828.26
747.216	10871.42
747.556	10788.94
747.895	10898.99
748.234	10909.16
748.573	10981.48
748.911	10928.37
749.25	10990.06
749.589	10961.36
749.928	10960.46
750.267	11082.72
750.605	11022.15
750.944	11034.58
751.283	11124.07
751.621	11074.36
751.96	11051.08
752.298	11199.32
752.636	11205.2
752.975	11244.52
753.313	11268.25
753.651	11357.51
753.989	11356.61
754.327	11304.63
754.666	11313.22
755.004	11414.01
755.342	11389.83
755.679	11372.65
756.017	11480.9
756.355	11477.73
756.693	11500.33
757.031	11578.3
757.368	11508.47
757.706	11560.44
758.044	11584.17
758.381	11519.32
758.719	11613.55
759.056	11647
759.394	11667.33
