Data from blue_clamp_base_FLMS001491_00098.txt Node
Date: Wed Feb 08 15:16:49 GMT 2017
User: dcchb
Spectrometer: FLMS00149
Trigger mode: 0
Integration Time (sec): 2.000000E-2
Scans to average: 10
Electric dark correction enabled: true
Nonlinearity correction enabled: false
Boxcar width: 0
XAxis mode: Wavelengths
Number of Pixels in Spectrum: 2048
>>>>>Begin Spectral Data<<<<<
341.393	-2.54
341.776	-2.54
342.16	-2.54
342.543	-59.04
342.927	-53.84
343.31	-77.79
343.693	-70.79
344.077	-66.5
344.46	-56.1
344.843	-35.31
345.226	-58.36
345.61	-26.5
345.993	-7.29
346.376	8.3
346.759	-5.71
347.142	30.68
347.525	51.47
347.908	39.49
348.291	94.4
348.674	80.62
349.057	99.38
349.44	110.9
349.823	147.28
350.206	161.97
350.588	194.97
350.971	220.5
351.354	232.03
351.737	243.78
352.119	262.54
352.502	255.76
352.884	291.91
353.267	290.33
353.65	296.43
354.032	305.25
354.414	297.34
354.797	322.42
355.179	331.69
355.562	337.56
355.944	326.49
356.326	324.91
356.709	337.11
357.091	351.8
357.473	377.56
357.855	360.39
358.238	338.24
358.62	340.5
359.002	363.32
359.384	334.4
359.766	355.64
360.148	338.47
360.53	347.05
360.912	350.44
361.294	333.27
361.676	332.82
362.057	338.92
362.439	321.07
362.821	327.84
363.203	324.68
363.584	336.43
363.966	334.85
364.348	327.17
364.729	337.56
365.111	329.43
365.493	316.77
365.874	336.43
366.256	314.74
366.637	331.69
367.019	314.96
367.4	335.53
367.781	313.38
368.163	327.39
368.544	325.81
368.925	357.45
369.306	348.18
369.688	330.1
370.069	337.34
370.45	335.53
370.831	313.61
371.212	322.19
371.593	335.53
371.974	332.59
372.355	325.58
372.736	315.19
373.117	348.18
373.498	324
373.879	321.74
374.26	334.62
374.641	332.36
375.021	320.84
375.402	329.2
375.783	329.88
376.163	368.97
376.544	332.82
376.925	351.8
377.305	350.89
377.686	342.53
378.066	345.47
378.447	362.65
378.827	368.75
379.208	353.15
379.588	345.92
379.968	341.63
380.349	359.26
380.729	381.63
381.109	370.56
381.489	351.8
381.87	385.7
382.25	373.04
382.63	378.24
383.01	375.75
383.39	378.24
383.77	389.99
384.15	383.89
384.53	377.56
384.91	387.28
385.29	365.36
385.67	369.65
386.049	385.24
386.429	389.09
386.809	411.68
387.189	388.18
387.568	394.51
387.948	408.97
388.328	400.38
388.707	419.14
389.087	413.49
389.466	412.14
389.846	419.14
390.225	429.31
390.605	422.76
390.984	423.21
391.363	421.18
391.743	429.54
392.122	447.84
392.501	438.8
392.881	439.93
393.26	450.1
393.639	454.17
394.018	442.19
394.397	471.12
394.776	463.89
395.155	463.66
395.534	467.5
395.913	475.41
396.292	473.15
396.671	484
397.05	496.43
397.429	497.56
397.808	508.4
398.186	477.22
398.565	500.27
398.944	501.85
399.323	508.86
399.701	525.13
400.08	518.35
400.458	520.83
400.837	527.84
401.215	531.45
401.594	565.35
401.972	528.29
402.351	544.56
402.729	559.7
403.107	563.77
403.486	554.28
403.864	564
404.242	584.56
404.62	589.31
404.999	584.56
405.377	609.42
405.755	606.93
406.133	614.16
406.511	604.9
406.889	598.35
407.267	621.62
407.645	652.58
408.023	657.55
408.401	651
408.779	650.1
409.156	653.49
409.534	670.21
409.912	676.31
410.29	693.26
410.667	706.82
411.045	722.86
411.422	731
411.8	726.93
412.178	732.35
412.555	731.68
412.933	769.41
413.31	783.88
413.687	767.38
414.065	770.09
414.442	792.47
414.819	807.61
415.197	822.52
415.574	814.61
415.951	812.35
416.328	854.16
416.705	823.42
417.082	841.73
417.46	854.16
417.837	854.38
418.214	872.69
418.591	884.89
418.967	887.6
419.344	879.02
419.721	901.84
420.098	905.91
420.475	916.08
420.852	904.55
421.228	947.72
421.605	947.26
421.982	952.23
422.358	972.35
422.735	950.43
423.111	981.61
423.488	977.09
423.864	980.26
424.241	1013.02
424.617	1024.55
424.994	1047.37
425.37	1018.22
425.746	1033.59
426.123	1061.38
426.499	1076.75
426.875	1086.47
427.251	1056.86
427.627	1109.07
428.003	1126.02
428.379	1131.44
428.756	1130.31
429.132	1163.3
429.507	1159.01
429.883	1173.7
430.259	1217.76
430.635	1218.67
431.011	1213.02
431.387	1250.53
431.763	1259.8
432.138	1293.02
432.514	1311.77
432.89	1343.64
433.265	1337.08
433.641	1356.07
434.016	1358.55
434.392	1353.13
434.767	1402.17
435.143	1417.31
435.518	1464.76
435.894	1448.72
436.269	1461.83
436.644	1480.58
437.02	1490.98
437.395	1503.86
437.77	1534.82
438.145	1560.58
438.52	1538.66
438.895	1607.58
439.271	1587.25
439.646	1631.31
440.021	1612.1
440.395	1643.29
440.77	1638.54
441.145	1653.91
441.52	1675.15
441.895	1657.75
442.27	1716.51
442.645	1723.97
443.019	1739.56
443.394	1765.32
443.769	1777.98
444.143	1721.03
444.518	1808.48
444.892	1782.04
445.267	1815.26
445.641	1827.69
446.016	1855.71
446.39	1870.63
446.764	1856.17
447.139	1875.6
447.513	1868.37
447.887	1899.55
448.262	1915.37
448.636	1931.64
449.01	1947.01
449.384	1943.62
449.758	1990.17
450.132	2001.47
450.506	2023.62
450.88	2013.45
451.254	2030.62
451.628	2052.32
452.002	2057.06
452.376	2085.31
452.75	2120.79
453.123	2137.74
453.497	2155.14
453.871	2169.6
454.244	2216.38
454.618	2228.81
454.992	2259.77
455.365	2235.36
455.739	2317.62
456.112	2351.52
456.486	2341.12
456.859	2377.28
457.232	2417.96
457.606	2433.55
457.979	2476.94
458.352	2487.34
458.725	2479.88
459.099	2516.26
459.472	2550.16
459.845	2592.64
460.218	2632.42
460.591	2610.04
460.964	2645.98
461.337	2651.85
461.71	2737.27
462.083	2757.39
462.456	2774.56
462.829	2783.15
463.201	2814.56
463.574	2839.19
463.947	2886.42
464.32	2979.3
464.692	2969.81
465.065	2944.05
465.438	3019.07
465.81	3030.6
466.183	3071.73
466.555	3117.83
466.928	3150.37
467.3	3145.62
467.672	3163.25
468.045	3249.35
468.417	3256.81
468.789	3303.59
469.161	3292.06
469.534	3371.61
469.906	3452.28
470.278	3457.71
470.65	3477.59
471.022	3549.45
471.394	3604.14
471.766	3606.63
472.138	3650.24
472.51	3728.89
472.882	3769.79
473.253	3766.4
473.625	3842.55
473.997	3937.69
474.369	3930.01
474.74	3959.39
475.112	4034.64
475.484	4071.02
475.855	4139.72
476.227	4148.08
476.598	4226.27
476.97	4295.2
477.341	4396.89
477.713	4413.84
478.084	4423.33
478.455	4563.21
478.827	4586.72
479.198	4710.33
479.569	4678.24
479.94	4799.14
480.311	4820.61
480.682	4887.5
481.053	5020.83
481.424	5048.4
481.795	5093.37
482.166	5186.02
482.537	5237.32
482.908	5279.58
483.279	5319.8
483.65	5392.8
484.021	5463.3
484.391	5503.08
484.762	5537.2
485.133	5597.54
485.503	5654.26
485.874	5736.29
486.244	5797.53
486.615	5867.36
486.985	5886.57
487.356	5999.33
487.726	5986.9
488.097	6092.89
488.467	6055.38
488.837	6234.36
489.207	6233.23
489.578	6339.21
489.948	6324.97
490.318	6423.96
490.688	6373.56
491.058	6499.66
491.428	6525.87
491.798	6577.85
492.168	6682.48
492.538	6715.02
492.908	6687.9
493.278	6819.65
493.648	6817.17
494.017	6848.35
494.387	6850.16
494.757	6894.45
495.126	6945.52
495.496	6968.12
495.866	7013.32
496.235	7027.33
496.605	7047.44
496.974	7103.26
497.344	7101.9
497.713	7184.84
498.082	7177.83
498.452	7259.41
498.821	7275.23
499.19	7202.69
499.559	7365.85
499.928	7307.32
500.298	7336.02
500.667	7378.51
501.036	7390.71
501.405	7455.79
501.774	7404.49
502.143	7450.14
502.512	7490.14
502.88	7536.02
503.249	7536.02
503.618	7537.37
503.987	7499.86
504.356	7597.94
504.724	7637.48
505.093	7647.65
505.462	7594.32
505.83	7683.81
506.199	7755.22
506.567	7782.11
506.936	7716.8
507.304	7853.3
507.672	7797.03
508.041	7907.08
508.409	7873.63
508.777	7933.75
509.145	7996.34
509.514	7958.15
509.882	8008.09
510.25	7969.68
510.618	8042.67
510.986	8098.71
511.354	8171.93
511.722	8116.57
512.09	8143.01
512.458	8169.22
512.826	8266.17
513.193	8242.44
513.561	8227.52
513.929	8242.66
514.297	8331.48
514.664	8351.59
515.032	8333.74
515.4	8437.24
515.767	8464.81
516.135	8439.5
516.502	8425.48
516.869	8520.62
517.237	8556.78
517.604	8532.6
517.972	8586.61
518.339	8669.55
518.706	8682.2
519.073	8627.29
519.44	8700.96
519.808	8724.46
520.175	8751.8
520.542	8772.14
520.909	8844.46
521.276	8805.14
521.643	8877
522.009	8956.54
522.376	8911.8
522.743	8994.28
523.11	9050.78
523.477	9102.98
523.843	9073.38
524.21	9169.42
524.577	9217.78
524.943	9281.28
525.31	9228.4
525.676	9416.19
526.043	9381.84
526.409	9438.57
526.776	9494.84
527.142	9516.08
527.508	9567.83
527.874	9585.91
528.241	9620.71
528.607	9665.45
528.973	9719.24
529.339	9676.53
529.705	9759.69
530.071	9826.13
530.437	9912.9
530.803	9853.92
531.169	9935.73
531.535	9921.49
531.901	9962.62
532.267	9986.8
532.632	10029.96
532.998	10090.53
533.364	10097.53
533.73	10074.71
534.095	10146.34
534.461	10213.01
534.826	10293.91
535.192	10255.95
535.557	10344.08
535.923	10293.23
536.288	10301.37
536.653	10399.67
537.019	10396.51
537.384	10507.01
537.749	10505.2
538.114	10439.67
538.479	10523.96
538.845	10532.77
539.21	10539.55
539.575	10572.32
539.94	10627.69
540.305	10656.84
540.67	10640.12
541.034	10682.6
541.399	10658.19
541.764	10785.65
542.129	10841.01
542.494	10819.77
542.858	10852.99
543.223	10890.28
543.587	10895.48
543.952	10912.42
544.316	10939.09
544.681	10957.4
545.045	10986.55
545.41	11096.6
545.774	11104.96
546.138	11105.87
546.503	11133.89
546.867	11130.5
547.231	11211.4
547.595	11172.98
547.959	11227.67
548.324	11189.93
548.688	11312.64
549.052	11295.69
549.416	11344.73
549.779	11291.4
550.143	11312.41
550.507	11469.7
550.871	11416.59
551.235	11467.66
551.599	11530.71
551.962	11497.27
552.326	11495.23
552.689	11608.23
553.053	11577.94
553.417	11535.23
553.78	11699.75
554.143	11575.68
554.507	11717.83
554.87	11678.96
555.234	11829.46
555.597	11720.54
555.96	11879.41
556.323	11787.88
556.686	11855
557.05	11874.66
557.413	11866.52
557.776	11917.82
558.139	11948.1
558.502	12012.96
558.865	12007.76
559.228	12107.87
559.59	12147.42
559.953	12178.83
560.316	12214.31
560.679	12219.96
561.041	12319.39
561.404	12372.73
561.767	12457.7
562.129	12363.01
562.492	12508.99
562.854	12524.81
563.217	12514.64
563.579	12475.55
563.941	12678.25
564.304	12612.04
564.666	12787.18
565.028	12691.81
565.39	12750.34
565.753	12866.05
566.115	12866.27
566.477	12996.66
566.839	13025.59
567.201	13014.06
567.563	13039.83
567.925	13211.57
568.287	13198.47
568.648	13137.9
569.01	13273.27
569.372	13249.54
569.734	13252.02
570.095	13354.39
570.457	13430.32
570.819	13433.49
571.18	13414.51
571.542	13534.95
571.903	13527.05
572.265	13599.81
572.626	13650.88
572.987	13704.89
573.349	13660.6
573.71	13753.93
574.071	13855.4
574.432	13835.96
574.794	13946.24
575.155	14022.17
575.516	13951.44
575.877	13986.24
576.238	14004.55
576.599	14100.82
576.96	14055.39
577.32	14185.79
577.681	14081.61
578.042	14167.03
578.403	14181.72
578.763	14198.21
579.124	14318.66
579.485	14382.16
579.845	14336.74
580.206	14396.85
580.566	14409.73
580.927	14395.27
581.287	14505.1
581.648	14386.01
582.008	14499
582.368	14443.86
582.728	14473.01
583.089	14536.96
583.449	14553.01
583.809	14514.14
584.169	14555.94
584.529	14564.31
584.889	14717.3
585.249	14530.18
585.609	14440.02
585.969	14592.55
586.329	14583.51
586.688	14710.07
587.048	14642.04
587.408	14653.8
587.768	14628.03
588.127	14612.89
588.487	14635.04
588.846	14736.05
589.206	14728.37
589.565	14708.48
589.925	14692.21
590.284	14681.82
590.643	14680.46
591.003	14759.33
591.362	14770.4
591.721	14806.33
592.08	14860.57
592.44	14826.67
592.799	14722.04
593.158	14849.72
593.517	14792.32
593.876	14873.68
594.235	14728.6
594.593	14845.43
594.952	14935.82
595.311	14816.96
595.67	14921.81
596.029	15004.07
596.387	14962.04
596.746	15004.29
597.104	14928.14
597.463	14944.41
597.822	14912.09
598.18	14878.2
598.538	14936.95
598.897	14997.29
599.255	14925.2
599.613	15056.5
599.972	15087.91
600.33	14990.51
600.688	15011.75
601.046	15068.02
601.404	15058.98
601.762	15084.07
602.12	15194.57
602.478	15097.63
602.836	15144.63
603.194	15106.66
603.552	15051.75
603.91	15025.54
604.268	15171.07
604.625	15086.78
604.983	15164.29
605.341	15091.07
605.698	15160.67
606.056	15249.03
606.413	15132.88
606.771	15248.58
607.128	15212.65
607.485	15186.66
607.843	15182.6
608.2	15246.32
608.557	15388.01
608.914	15369.03
609.272	15366.09
609.629	15368.13
609.986	15430.5
610.343	15347.56
610.7	15499.2
611.057	15463.27
611.414	15387.79
611.771	15371.06
612.127	15397.28
612.484	15506.65
612.841	15576.03
613.198	15617.16
613.554	15555.01
613.911	15639.53
614.267	15559.08
614.624	15578.06
614.98	15537.39
615.337	15745.97
615.693	15695.8
616.05	15620.55
616.406	15747.1
616.762	15663.49
617.118	15682.69
617.475	15717.95
617.831	15761.79
618.187	15796.14
618.543	15763.14
618.899	15922.46
619.255	15773.99
619.611	15863.71
619.967	15885.18
620.323	15859.41
620.678	15838.85
621.034	15808.12
621.39	15835.46
621.746	15825.29
622.101	15954.55
622.457	15927.21
622.812	15919.52
623.168	15945.06
623.523	15980.31
623.879	16056.02
624.234	15893.99
624.589	16078.39
624.945	16076.13
625.3	16143.02
625.655	16050.82
626.01	16013.99
626.365	16102.57
626.72	16014.21
627.075	16093.53
627.43	16072.52
627.785	16004.27
628.14	16151.84
628.495	16155
628.85	16198.16
629.205	16174.89
629.559	16242.68
629.914	16181.21
630.269	16233.19
630.623	16169.24
630.978	16126.07
631.332	16183.7
631.687	16348.89
632.041	16210.14
632.396	16319.51
632.75	16251.49
633.104	16291.49
633.459	16168.56
633.813	16201.78
634.167	16178.73
634.521	16252.62
634.875	16333.07
635.229	16284.04
635.583	16228.22
635.937	16224.6
636.291	16231.16
636.645	16265.73
636.999	16346.63
637.352	16343.02
637.706	16290.36
638.06	16339.4
638.413	16294.88
638.767	16282
639.121	16303.92
639.474	16278.61
639.828	16151.84
640.181	16311.15
640.534	16370.36
640.888	16442.9
641.241	16233.64
641.594	16350.7
641.947	16383.92
642.301	16288.33
642.654	16413.75
643.007	16353.41
643.36	16342.56
643.713	16385.95
644.066	16411.26
644.419	16328.55
644.771	16270.7
645.124	16178.28
645.477	16097.37
645.83	15997.26
646.182	16085.62
646.535	15964.04
646.888	16160.65
647.24	16078.62
647.593	16143.7
647.945	16104.38
648.298	16101.22
648.65	16111.16
649.002	16063.93
649.355	16141.21
649.707	16132.63
650.059	16141.44
650.411	16387.99
650.763	16337.82
651.115	16704.59
651.467	16646.96
651.819	16600.64
652.171	16624.14
652.523	16616.46
652.875	16679.96
653.227	16606.74
653.578	16648.09
653.93	16677.47
654.282	16587.08
654.633	16604.03
654.985	16747.75
655.337	16736.45
655.688	16818.26
656.039	16796.79
656.391	16636.34
656.742	16662.33
657.094	16717.02
657.445	16764.47
657.796	16735.1
658.147	16689.67
658.498	16784.59
658.849	16851.48
659.2	16715.44
659.551	16746.4
659.902	16744.36
660.253	16852.61
660.604	16851.25
660.955	16744.59
661.306	16869.1
661.656	16793.85
662.007	16826.85
662.358	16733.29
662.708	16900.52
663.059	16772.16
663.409	16771.93
663.76	16863.45
664.11	16882.89
664.461	16889.44
664.811	16875.66
665.161	16833.63
665.511	16793.17
665.862	16937.58
666.212	16938.48
666.562	16862.1
666.912	16907.52
667.262	16817.81
667.612	16808.09
667.962	16739.16
668.312	16806.28
668.662	16909.56
669.011	16834.53
669.361	16753.4
669.711	16738.49
670.06	16719.73
670.41	16668.88
670.76	16669.79
671.109	16742.33
671.459	16671.6
671.808	16617.81
672.157	16639.05
672.507	16475.89
672.856	16547.31
673.205	16583.46
673.554	16559.51
673.904	16472.28
674.253	16565.16
674.602	16461.66
674.951	16207.43
675.3	16071.16
675.649	16477.48
675.998	16339.63
676.346	16304.83
676.695	16282.91
677.044	16246.75
677.393	16258.73
677.741	16331.27
678.09	16150.93
678.438	16241.32
678.787	16282
679.135	16226.86
679.484	16143.25
679.832	16094.66
680.181	16010.37
680.529	16053.76
680.877	16024.38
681.225	15995.46
681.573	16058.73
681.922	15948.68
682.27	15897.15
682.618	15857.15
682.966	15808.34
683.314	15860.32
683.661	15778.74
684.009	15786.2
684.357	15648.12
684.705	15656.26
685.053	15685.86
685.4	15636.59
685.748	15544.85
686.095	15541
686.443	15481.57
686.79	15434.11
687.138	15468.01
687.485	15484.51
687.832	15412.42
688.18	15456.26
688.527	15423.04
688.874	15420.1
689.221	15331.97
689.568	15311.41
689.915	15323.61
690.262	15224.4
690.609	15219.66
690.956	15134.23
691.303	15198.41
691.65	15079.32
691.997	15052.88
692.344	15105.99
692.69	14978.08
693.037	15113.9
693.383	14977.4
693.73	15018.08
694.077	14907.57
694.423	14927.46
694.769	14932.21
695.116	14912.32
695.462	14899.44
695.808	14782.83
696.155	14902.6
696.501	14731.76
696.847	14800.01
697.193	14698.77
697.539	14787.58
697.885	14726.34
698.231	14564.98
698.577	14654.02
698.923	14630.29
699.269	14614.47
699.614	14533.35
699.96	14510.07
700.306	14549.62
700.651	14473.69
700.997	14529.05
701.342	14392.11
701.688	14441.82
702.033	14454.93
702.379	14395.95
702.724	14360.02
703.069	14418.1
703.415	14239.34
703.76	14360.92
704.105	14320.47
704.45	14311.43
704.795	14208.84
705.14	14225.33
705.485	14175.84
705.83	14149.63
706.175	14156.18
706.52	14180.59
706.865	14100.59
707.209	14053.81
707.554	14034.38
707.899	14141.72
708.243	14011.78
708.588	14076.86
708.932	13928.39
709.277	14015.62
709.621	14014.04
709.966	13863.76
710.31	13955.73
710.654	13874.61
710.998	13841.16
711.342	13945.79
711.687	13899.24
712.031	13897.66
712.375	13838.45
712.719	13876.41
713.063	13852.69
713.407	13897.43
713.75	13829.64
714.094	13845.68
714.438	13802.74
714.782	13796.42
715.125	13767.04
715.469	13798.45
715.812	13834.61
716.156	13708.51
716.499	13727.49
716.843	13734.5
717.186	13659.7
717.53	13752.8
717.873	13778.79
718.216	13767.49
718.559	13652.01
718.902	13645.23
719.246	13684.33
719.589	13574.28
719.932	13632.35
720.275	13575.41
720.617	13518.91
720.96	13576.76
721.303	13550.55
721.646	13631.9
721.989	13563.2
722.331	13646.36
722.674	13550.77
723.016	13625.57
723.359	13595.74
723.701	13565.91
724.044	13510.55
724.386	13457.44
724.729	13476.2
725.071	13473.94
725.413	13493.37
725.755	13524.33
726.097	13454.5
726.439	13378.35
726.782	13416.99
727.124	13492.92
727.465	13350.33
727.807	13459.48
728.149	13424
728.491	13383.55
728.833	13434.17
729.175	13469.87
729.516	13421.96
729.858	13431
730.199	13417.67
730.541	13410.66
730.882	13363.21
731.224	13498.57
731.565	13464.22
731.906	13443.66
732.248	13449.76
732.589	13430.55
732.93	13423.09
733.271	13419.03
733.612	13445.92
733.953	13498.57
734.294	13528.85
734.635	13500.61
734.976	13483.88
735.317	13443.66
735.658	13518.91
735.999	13433.04
736.339	13464.45
736.68	13572.69
737.021	13510.55
737.361	13481.62
737.702	13611.11
738.042	13553.49
738.383	13598.23
738.723	13512.36
739.063	13611.11
739.404	13665.12
739.744	13623.54
740.084	13617.44
740.424	13706.02
740.764	13743.31
741.104	13821.95
741.444	13734.27
741.784	13787.6
742.124	13807.94
742.464	13827.15
742.804	13818.11
743.143	13850.65
743.483	13867.38
743.823	13900.59
744.162	13861.73
744.502	13967.26
744.841	13962.97
745.181	14004.55
745.52	14001.84
745.86	14066.47
746.199	14123.64
746.538	14068.05
746.877	14190.3
747.216	14166.8
747.556	14127.03
747.895	14240.25
748.234	14255.84
748.573	14226.24
748.911	14173.81
749.25	14215.61
749.589	14250.87
749.928	14366.8
750.267	14387.59
750.605	14500.58
750.944	14385.1
751.283	14364.09
751.621	14487.47
751.96	14419
752.298	14497.64
752.636	14532.44
752.975	14506
753.313	14527.47
753.651	14581.93
753.989	14601.82
754.327	14536.51
754.666	14558.88
755.004	14619.9
755.342	14751.87
755.679	14721.82
756.017	14667.81
756.355	14774.7
756.693	14667.58
757.031	14785.77
