Data from blue_clamp_base_FLMS001491_00096.txt Node
Date: Wed Feb 08 15:16:48 GMT 2017
User: dcchb
Spectrometer: FLMS00149
Trigger mode: 0
Integration Time (sec): 2.000000E-2
Scans to average: 10
Electric dark correction enabled: true
Nonlinearity correction enabled: false
Boxcar width: 0
XAxis mode: Wavelengths
Number of Pixels in Spectrum: 2048
>>>>>Begin Spectral Data<<<<<
341.393	-0.99
341.776	-0.99
342.16	-0.99
342.543	-60.87
342.927	-75.11
343.31	-77.6
343.693	-82.12
344.077	-60.42
344.46	-63.36
344.843	-48.9
345.226	-43.25
345.61	-22.91
345.993	-16.13
346.376	-6.41
346.759	9.18
347.142	15.96
347.525	38.33
347.908	58.44
348.291	80.37
348.674	98.9
349.057	119.91
349.44	122.62
349.823	146.13
350.206	170.76
350.588	199.23
350.971	213.02
351.354	218.89
351.737	234.03
352.119	249.4
352.502	267.7
352.884	263.19
353.267	271.77
353.65	298.21
354.032	299.79
354.414	301.6
354.797	316.52
355.179	328.04
355.562	317.2
355.944	335.27
356.326	343.86
356.709	319.23
357.091	336.18
357.473	332.11
357.855	352.67
358.238	366.69
358.62	338.21
359.002	321.94
359.384	345.67
359.766	331.43
360.148	344.31
360.53	349.51
360.912	347.02
361.294	330.98
361.676	337.76
362.057	339.12
362.439	331.21
362.821	346.57
363.203	321.49
363.584	323.3
363.966	321.94
364.348	333.69
364.729	342.51
365.111	340.02
365.493	319.91
365.874	329.85
366.256	325.78
366.637	338.21
367.019	330.08
367.4	334.82
367.781	304.77
368.163	323.52
368.544	328.27
368.925	320.13
369.306	353.58
369.688	323.75
370.069	311.77
370.45	330.98
370.831	340.92
371.212	319.68
371.593	333.92
371.974	326.46
372.355	338.21
372.736	323.97
373.117	349.06
373.498	330.75
373.879	333.24
374.26	324.88
374.641	311.09
375.021	324.2
375.402	354.03
375.783	349.28
376.163	346.57
376.544	348.15
376.925	332.79
377.305	343.86
377.686	344.99
378.066	355.16
378.447	338.66
378.827	346.57
379.208	346.12
379.588	364.43
379.968	356.74
380.349	363.75
380.729	356.52
381.109	360.58
381.489	353.35
381.87	369.85
382.25	375.27
382.63	372.11
383.01	374.82
383.39	378.21
383.77	364.88
384.15	369.85
384.53	382.5
384.91	361.04
385.29	400.13
385.67	388.15
386.049	393.13
386.429	392.9
386.809	386.12
387.189	387.48
387.568	385.89
387.948	399
388.328	408.27
388.707	385.89
389.087	384.76
389.466	402.84
389.846	436.06
390.225	413.24
390.605	416.85
390.984	436.74
391.363	418.44
391.743	423.63
392.122	461.82
392.501	452.78
392.881	439
393.26	439.9
393.639	449.17
394.018	450.3
394.397	458.66
394.776	439.23
395.155	464.76
395.534	473.8
395.913	473.8
396.292	462.5
396.671	464.99
397.05	479.9
397.429	484.65
397.808	475.83
398.186	507.92
398.565	499.34
398.944	504.31
399.323	515.83
399.701	495.95
400.08	512.9
400.458	518.09
400.837	534.59
401.215	531.43
401.594	535.72
401.972	541.37
402.351	545.89
402.729	552.9
403.107	569.39
403.486	576.17
403.864	557.41
404.242	555.15
404.62	561.71
404.999	574.59
405.377	583.63
405.755	600.13
406.133	617.3
406.511	619.56
406.889	636.51
407.267	640.35
407.645	636.96
408.023	647.36
408.401	676.51
408.779	672.44
409.156	683.97
409.534	675.15
409.912	674.7
410.29	688.26
410.667	709.5
411.045	714.47
411.422	718.09
411.8	732.1
412.178	730.74
412.555	742.27
412.933	737.07
413.31	779.56
413.687	780.01
414.065	766
414.442	777.07
414.819	797.41
415.197	809.16
415.574	802.61
415.951	816.39
416.328	817.52
416.705	816.62
417.082	822.72
417.46	839.22
417.837	864.53
418.214	867.69
418.591	851.19
418.967	882.15
419.344	850.06
419.721	891.64
420.098	896.61
420.475	918.31
420.852	893.23
421.228	946.78
421.605	945.88
421.982	971.42
422.358	966.22
422.735	970.06
423.111	981.36
423.488	988.59
423.864	1004.86
424.241	1014.58
424.617	1019.32
424.994	1014.13
425.37	1037.18
425.746	1020.45
426.123	1061.58
426.499	1087.57
426.875	1074.01
427.251	1084.18
427.627	1109.94
428.003	1111.07
428.379	1131.64
428.756	1146.1
429.132	1165.31
429.507	1180.9
429.883	1198.53
430.259	1208.47
430.635	1217.51
431.011	1231.3
431.387	1264.51
431.763	1264.29
432.138	1310.62
432.514	1310.39
432.89	1292.99
433.265	1320.78
433.641	1349.94
434.016	1356.49
434.392	1373.44
434.767	1415.25
435.143	1406.66
435.518	1432.65
435.894	1441.46
436.269	1459.31
436.644	1481.01
437.02	1508.12
437.395	1510.84
437.77	1534.34
438.145	1542.47
438.52	1556.26
438.895	1585.86
439.271	1582.92
439.646	1622.92
440.021	1605.97
440.395	1623.15
440.77	1625.41
441.145	1674.22
441.52	1668.8
441.895	1672.87
442.27	1713.54
442.645	1704.96
443.019	1727.55
443.394	1708.34
443.769	1760.32
444.143	1737.27
444.518	1805.29
444.892	1769.81
445.267	1813.43
445.641	1791.51
446.016	1815.91
446.39	1864.27
446.764	1848.23
447.139	1862.92
447.513	1912.41
447.887	1888
448.262	1909.7
448.636	1908.11
449.01	1942.69
449.384	1950.6
449.758	1985.85
450.132	2020.65
450.506	2004.38
450.88	1997.6
451.254	2012.52
451.628	2062.91
452.002	2062.91
452.376	2075.11
452.75	2100.42
453.123	2113.31
453.497	2152.85
453.871	2193.98
454.244	2220.87
454.618	2215.68
454.992	2265.84
455.365	2247.54
455.739	2296.58
456.112	2318.05
456.486	2329.12
456.859	2398.72
457.232	2418.83
457.606	2432.17
457.979	2448.21
458.352	2471.94
458.725	2539.51
459.099	2534.99
459.472	2549.45
459.845	2553.29
460.218	2638.72
460.591	2594.42
460.964	2635.78
461.337	2698.38
461.71	2751.93
462.083	2770.46
462.456	2782.67
462.829	2778.6
463.201	2837.35
463.574	2814.76
463.947	2844.13
464.32	2938.82
464.692	2961.42
465.065	2977.01
465.438	3014.07
465.81	3045.71
466.183	3045.94
466.555	3084.35
466.928	3131.36
467.3	3153.28
467.672	3164.8
468.045	3248.87
468.417	3262.43
468.789	3279.6
469.161	3351.47
469.534	3357.12
469.906	3444.12
470.278	3448.41
470.65	3461.75
471.022	3530.67
471.394	3577.67
471.766	3591.69
472.138	3660.84
472.51	3718.91
472.882	3741.06
473.253	3798.69
473.625	3864.9
473.997	3907.38
474.369	3880.27
474.74	3963.43
475.112	4040.71
475.484	4106.25
475.855	4130.43
476.227	4164.78
476.598	4245.45
476.97	4258.79
477.341	4347.82
477.713	4409.97
478.084	4439.57
478.455	4544.65
478.827	4577.2
479.198	4680.24
479.569	4673.24
479.94	4779.22
480.311	4810.64
480.682	4921.14
481.053	4954.14
481.424	5083.17
481.795	5097.63
482.166	5148.71
482.537	5171.53
482.908	5302.83
483.279	5341.7
483.65	5368.36
484.021	5468.47
484.391	5492.43
484.762	5565.42
485.133	5597.51
485.503	5591.63
485.874	5701.91
486.244	5806.32
486.615	5831.4
486.985	5871.85
487.356	5982.81
487.726	5953.43
488.097	6063.94
488.467	6150.04
488.837	6190.26
489.207	6229.81
489.578	6338.28
489.948	6293.76
490.318	6399.97
490.688	6441.55
491.058	6504.6
491.428	6547.54
491.798	6589.35
492.168	6653.07
492.538	6663.92
492.908	6746.86
493.278	6792.73
493.648	6843.35
494.017	6910.02
494.387	6880.19
494.757	6881.77
495.126	6999.96
495.496	6980.3
495.866	7001.77
496.235	7078.15
496.605	7115.21
496.974	7065.49
497.344	7180.29
497.713	7128.54
498.082	7166.73
498.452	7204.02
498.821	7217.58
499.19	7279.5
499.559	7347.29
499.928	7323.56
500.298	7369.89
500.667	7341.87
501.036	7403.34
501.405	7446.05
501.774	7408.08
502.143	7513.84
502.512	7481.98
502.88	7467.74
503.249	7501.64
503.618	7507.29
503.987	7508.64
504.356	7548.19
504.724	7617.57
505.093	7668.41
505.462	7629.09
505.83	7613.95
506.199	7676.1
506.567	7721.07
506.936	7761.97
507.304	7863.89
507.672	7811.24
508.041	7801.07
508.409	7895.75
508.777	7969.88
509.145	7952.47
509.514	7944.34
509.882	7983.21
510.25	8036.99
510.618	8016.65
510.986	8004.22
511.354	8171.45
511.722	8195.86
512.09	8201.06
512.458	8139.81
512.826	8237.44
513.193	8207.84
513.561	8246.03
513.929	8258.23
514.297	8253.71
514.664	8367.83
515.032	8418.45
515.4	8404.89
515.767	8421.16
516.135	8401.28
516.502	8417.55
516.869	8529.41
517.237	8530.31
517.604	8502.97
517.972	8547.71
518.339	8566.02
518.706	8579.12
519.073	8650.31
519.44	8626.81
519.808	8747.03
520.175	8705
520.542	8757.65
520.909	8826.35
521.276	8830.87
521.643	8888.27
522.009	8858.89
522.376	8958.55
522.743	8984.76
523.11	9020.92
523.477	9088.26
523.843	9055.95
524.21	9177.53
524.577	9205.1
524.943	9221.59
525.31	9315.15
525.676	9319.44
526.043	9361.7
526.409	9354.25
526.776	9437.18
527.142	9432.44
527.508	9508.59
527.874	9574.58
528.241	9649.38
528.607	9629.27
528.973	9678.98
529.339	9713.78
529.705	9806.21
530.071	9836.04
530.437	9862.48
530.803	9908.13
531.169	9922.14
531.535	9917.85
531.901	9938.86
532.267	9922.14
532.632	10084.85
532.998	10111.51
533.364	10081.68
533.73	10135.24
534.095	10187.22
534.461	10220.89
534.826	10225.86
535.192	10292.3
535.557	10350.15
535.923	10305.18
536.288	10356.71
536.653	10363.48
537.019	10426.31
537.384	10436.03
537.749	10438.28
538.114	10486.19
538.479	10546.53
538.845	10575.23
539.21	10545.85
539.575	10608.22
539.94	10623.82
540.305	10658.62
540.67	10657.04
541.034	10684.38
541.399	10715.11
541.764	10750.14
542.129	10731.16
542.494	10780.65
542.858	10779.97
543.223	10864.04
543.587	10950.59
543.952	10975.22
544.316	10923.24
544.681	10953.53
545.045	11030.59
545.41	11050.7
545.774	11149.23
546.138	11092.28
546.503	11165.5
546.867	11164.37
547.231	11218.6
547.595	11209.34
547.959	11303.8
548.324	11277.58
548.688	11247.98
549.052	11241.2
549.416	11302.22
549.779	11313.06
550.143	11313.74
550.507	11422.89
550.871	11406.62
551.235	11476.68
551.599	11478.48
551.962	11465.38
552.326	11508.77
552.689	11582.21
553.053	11469.67
553.417	11603.23
553.78	11709.89
554.143	11646.39
554.507	11687.74
554.87	11675.31
555.234	11828.08
555.597	11779.49
555.96	11801.41
556.323	11853.39
556.686	11833.5
557.05	11881.41
557.413	11910.79
557.776	11889.77
558.139	12059.03
558.502	12029.43
558.865	12159.6
559.228	12126.38
559.59	12050.67
559.953	12202.98
560.316	12223.32
560.679	12219.03
561.041	12283.21
561.404	12371.12
561.767	12515.52
562.129	12325.92
562.492	12428.52
562.854	12444.56
563.217	12451.57
563.579	12510.77
563.941	12580.38
564.304	12631
564.666	12684.55
565.028	12741.73
565.39	12693.82
565.753	12819.24
566.115	12959.57
566.477	12925.45
566.839	12960.48
567.201	12984.88
567.563	12998.9
567.925	13122.73
568.287	13064.66
568.648	13160.93
569.01	13195.27
569.372	13346.46
569.734	13287.25
570.095	13478.2
570.457	13391.2
570.819	13487.47
571.18	13483.85
571.542	13628.94
571.903	13583.06
572.265	13641.59
572.626	13657.18
572.987	13678.65
573.349	13794.81
573.71	13811.53
574.071	13790.29
574.432	13875.93
574.794	13931.53
575.155	13950.28
575.516	13885.88
575.877	13970.62
576.238	14016.5
576.599	14026.89
576.96	14116.83
577.32	14070.73
577.681	14109.6
578.042	14162.71
578.403	14197.51
578.763	14244.51
579.124	14326.54
579.485	14322.25
579.845	14399.76
580.206	14299.2
580.566	14325.64
580.927	14440.44
581.287	14424.39
581.648	14470.27
582.008	14503.49
582.368	14517.27
582.728	14529.93
583.089	14449.7
583.449	14536.48
583.809	14502.81
584.169	14577.39
584.529	14533.77
584.889	14665.52
585.249	14527.44
585.609	14508.46
585.969	14598.63
586.329	14538.52
586.688	14634.78
587.048	14625.75
587.408	14579.87
587.768	14613.09
588.127	14636.14
588.487	14638.85
588.846	14733.99
589.206	14655.8
589.565	14703.26
589.925	14783.93
590.284	14692.18
590.643	14693.77
591.003	14667.1
591.362	14710.26
591.721	14759.3
592.08	14775.35
592.44	14818.51
592.799	14823.03
593.158	14729.25
593.517	14825.29
593.876	14877.26
594.235	14816.02
594.593	14797.94
594.952	14818.51
595.311	14847.66
595.67	14934.21
596.029	14979.86
596.387	14924.04
596.746	15037.94
597.104	14904.61
597.463	14931.73
597.822	14946.19
598.18	14905.51
598.538	14940.54
598.897	15085.39
599.255	14899.41
599.613	15083.81
599.972	14965.62
600.33	15048.79
600.688	14919.3
601.046	14977.6
601.404	15144.38
601.762	14978.5
602.12	15179.63
602.478	15077.26
602.836	15168.78
603.194	15019.63
603.552	15114.77
603.91	15046.3
604.268	15160.19
604.625	15107.54
604.983	15253.07
605.341	15185.96
605.698	15126.3
606.056	15268.21
606.413	15102.57
606.771	15236.12
607.128	15286.52
607.485	15192.28
607.843	15222.11
608.2	15329.46
608.557	15348.66
608.914	15287.42
609.272	15373.3
609.629	15356.8
609.986	15385.73
610.343	15402.67
610.7	15477.47
611.057	15397.02
611.414	15403.35
611.771	15454.42
612.127	15493.75
612.484	15482.45
612.841	15531.94
613.198	15547.08
613.554	15530.58
613.911	15628.66
614.267	15611.03
614.624	15574.2
614.98	15567.19
615.337	15653.06
615.693	15715.21
616.05	15623.91
616.406	15790.23
616.762	15633.63
617.118	15670.46
617.475	15684.02
617.831	15724.02
618.187	15730.12
618.543	15798.82
618.899	15941.64
619.255	15855.09
619.611	15858.48
619.967	15814.19
620.323	15809.22
620.678	15823.91
621.034	15865.71
621.39	15903.9
621.746	15902.77
622.101	16055.76
622.457	15923.79
622.812	16002.21
623.168	15962.43
623.523	16017.57
623.879	16019.61
624.234	15901.64
624.589	15930.12
624.945	16023.45
625.3	16115.2
625.655	16098.48
626.01	16114.75
626.365	16061.41
626.72	16110.9
627.075	16120.4
627.43	16054.63
627.785	16088.98
628.14	16156.1
628.495	16174.63
628.85	16205.59
629.205	16148.87
629.559	16189.55
629.914	16145.25
630.269	16224.57
630.623	16140.06
630.978	16189.55
631.332	16239.26
631.687	16290.79
632.041	16200.39
632.396	16337.34
632.75	16270.45
633.104	16242.43
633.459	16227.06
633.813	16220.51
634.167	16351.58
634.521	16294.85
634.875	16281.3
635.229	16312.71
635.583	16171.92
635.937	16229.55
636.291	16133.5
636.645	16267.96
636.999	16303.67
637.352	16331.69
637.706	16250.11
638.06	16347.28
638.413	16403.78
638.767	16330.33
639.121	16340.05
639.474	16198.13
639.828	16252.6
640.181	16309.99
640.534	16359.26
640.888	16260.73
641.241	16235.87
641.594	16343.67
641.947	16422.76
642.301	16332.14
642.654	16371.24
643.007	16472.25
643.36	16348.41
643.713	16355.87
644.066	16486.49
644.419	16376.66
644.771	16280.62
645.124	16220.73
645.477	16172.82
645.83	16023.67
646.182	15936.9
646.535	15985.71
646.888	16054.63
647.24	15948.42
647.593	16197.46
647.945	16142.09
648.298	16061.64
648.65	15986.84
649.002	16058.25
649.355	16160.62
649.707	16103.67
650.059	16109.32
650.411	16411.69
650.763	16373.95
651.115	16604.68
651.467	16574.39
651.819	16604.9
652.171	16620.27
652.523	16560.16
652.875	16614.62
653.227	16587.5
653.578	16703.43
653.93	16746.59
654.282	16641.74
654.633	16699.82
654.985	16650.55
655.337	16724.67
655.688	16739.14
656.039	16772.13
656.391	16572.59
656.742	16711.11
657.094	16750.21
657.445	16770.77
657.796	16670.21
658.147	16750.89
658.498	16785.91
658.849	16857.33
659.2	16735.75
659.551	16688.74
659.902	16800.15
660.253	16773.49
660.604	16834.05
660.955	16670.89
661.306	16850.09
661.656	16814.39
662.007	16780.94
662.358	16880.83
662.708	16848.96
663.059	16883.31
663.409	16705.92
663.76	16894.39
664.11	16833.14
664.461	16903.43
664.811	16853.48
665.161	16910.88
665.511	16805.58
665.862	16846.7
666.212	16898.68
666.562	16912.92
666.912	16823.2
667.262	16866.82
667.612	16911.79
667.962	16896.87
668.312	16792.47
668.662	16879.92
669.011	16792.92
669.361	16793.37
669.711	16748.63
670.06	16742.07
670.41	16617.11
670.76	16698.46
671.109	16716.76
671.459	16635.18
671.808	16619.59
672.157	16695.07
672.507	16511.35
672.856	16542.76
673.205	16528.97
673.554	16564.45
673.904	16559.48
674.253	16476.54
674.602	16456.43
674.951	16289.43
675.3	16128.98
675.649	16404
675.998	16344.57
676.346	16332.82
676.695	16356.1
677.044	16159.94
677.393	16321.97
677.741	16283.1
678.09	16250.34
678.438	16203.78
678.787	16197.46
679.135	16119.27
679.484	16099.15
679.832	16004.01
680.181	16037.46
680.529	16013.05
680.877	15980.74
681.225	15900.29
681.573	16058.25
681.922	15877.01
682.27	15908.65
682.618	15827.97
682.966	15874.3
683.314	15840.4
683.661	15835.88
684.009	15730.12
684.357	15727.41
684.705	15686.96
685.053	15674.98
685.4	15595.21
685.748	15528.09
686.095	15487.19
686.443	15535.55
686.79	15415.56
687.138	15526.96
687.485	15499.62
687.832	15478.83
688.18	15538.26
688.527	15411.26
688.874	15333.52
689.221	15384.82
689.568	15246.75
689.915	15241.32
690.262	15267.54
690.609	15247.88
690.956	15159.74
691.303	15163.58
691.65	15142.57
691.997	15111.38
692.344	15042.91
692.69	15058.5
693.037	15016.24
693.383	14938.51
693.73	14971.95
694.077	14916.59
694.423	14922.91
694.769	14910.26
695.116	14864.38
695.462	14851.05
695.808	14828
696.155	14901.9
696.501	14788
696.847	14748.23
697.193	14671.17
697.539	14769.7
697.885	14673.2
698.231	14595.92
698.577	14675.01
698.923	14634.11
699.269	14616.48
699.614	14510.27
699.96	14566.31
700.306	14529.7
700.651	14456.71
700.997	14452.87
701.342	14477.05
701.688	14392.08
702.033	14341.46
702.379	14331.52
702.724	14311.63
703.069	14324.06
703.415	14290.61
703.76	14286.55
704.105	14269.14
704.45	14255.59
704.795	14279.09
705.14	14192.31
705.485	14163.61
705.83	14147.11
706.175	14236.6
706.52	14198.19
706.865	14095.14
707.209	14089.26
707.554	14083.16
707.899	14127
708.243	14017.85
708.588	14033.44
708.932	13990.73
709.277	14040.68
709.621	13976.27
709.966	13970.62
710.31	13972.43
710.654	13852.88
710.998	13848.82
711.342	13940.11
711.687	13938.31
712.031	13895.37
712.375	13851.53
712.719	13894.69
713.063	13883.17
713.407	13947.57
713.75	13762.72
714.094	13824.86
714.438	13800.23
714.782	13852.21
715.125	13851.08
715.469	13790.06
715.812	13770.85
716.156	13750.97
716.499	13771.98
716.843	13681.59
717.186	13686.56
717.53	13780.57
717.873	13745.09
718.216	13701.25
718.559	13757.97
718.902	13639.1
719.246	13728.37
719.589	13670.06
719.932	13557.98
720.275	13630.97
720.617	13577.41
720.96	13545.55
721.303	13635.71
721.646	13551.65
721.989	13586
722.331	13596.39
722.674	13540.8
723.016	13548.71
723.359	13520.46
723.701	13555.04
724.044	13454.02
724.386	13464.19
724.729	13536.06
725.071	13507.36
725.413	13477.75
725.755	13450.64
726.097	13480.24
726.439	13395.04
726.782	13468.04
727.124	13558.65
727.465	13498.54
727.807	13410.86
728.149	13434.14
728.491	13369.28
728.833	13467.36
729.175	13508.26
729.516	13359.79
729.858	13475.27
730.199	13374.48
730.541	13439.79
730.882	13401.6
731.224	13531.08
731.565	13443.86
731.906	13433.01
732.248	13400.69
732.589	13403.86
732.93	13388.04
733.271	13393.01
733.612	13500.58
733.953	13522.27
734.294	13459.67
734.635	13435.27
734.976	13479.33
735.317	13411.77
735.658	13466.45
735.999	13526.34
736.339	13388.04
736.68	13495.61
737.021	13480.24
737.361	13452.89
737.702	13639.78
738.042	13555.72
738.383	13582.38
738.723	13695.6
739.063	13567.92
739.404	13640.46
739.744	13629.16
740.084	13710.52
740.424	13670.29
740.764	13638.88
741.104	13778.08
741.444	13761.36
741.784	13774.24
742.124	13784.19
742.464	13796.61
742.804	13820.12
743.143	13799.78
743.483	13896.95
743.823	13814.92
744.162	13947.35
744.502	13940.79
744.841	13955.93
745.181	14076.38
745.52	14022.15
745.86	14079.77
746.199	14025.99
746.538	14036.16
746.877	14084.29
747.216	14195.7
747.556	14156.15
747.895	14232.31
748.234	14204.97
748.573	14219.43
748.911	14183.27
749.25	14246.55
749.589	14252.87
749.928	14337.62
750.267	14351.85
750.605	14409.71
750.944	14427.56
751.283	14357.28
751.621	14384.4
751.96	14464.62
752.298	14504.39
752.636	14467.56
752.975	14505.3
753.313	14500.32
753.651	14631.17
753.989	14563.15
754.327	14603.37
754.666	14624.84
755.004	14543.49
755.342	14713.88
755.679	14761.34
756.017	14672.52
756.355	14749.13
