Data from blue_shiny_book_FLMS001491_00093.txt Node
Date: Wed Feb 08 15:27:48 GMT 2017
User: dcchb
Spectrometer: FLMS00149
Trigger mode: 0
Integration Time (sec): 2.000000E-2
Scans to average: 10
Electric dark correction enabled: true
Nonlinearity correction enabled: false
Boxcar width: 0
XAxis mode: Wavelengths
Number of Pixels in Spectrum: 2048
>>>>>Begin Spectral Data<<<<<
341.393	-0.18
341.776	-0.18
342.16	-0.18
342.543	-51.71
342.927	-53.97
343.31	-70.69
343.693	-67.3
344.077	-72.95
344.46	-52.16
344.843	-65.27
345.226	-43.57
345.61	-27.08
345.993	-1.31
346.376	-3.57
346.759	14.28
347.142	17.22
347.525	35.75
347.908	54.5
348.291	65.35
348.674	102.41
349.057	114.39
349.44	115.07
349.823	136.76
350.206	157.1
350.588	200.94
350.971	193.26
351.354	226.03
351.737	207.72
352.119	234.16
352.502	237.55
352.884	288.62
353.267	268.96
353.65	284.1
354.032	303.76
354.414	323.2
354.797	309.19
355.179	329.07
355.562	319.81
355.944	325.68
356.326	307.6
356.709	344.44
357.091	354.84
357.473	353.93
357.855	353.71
358.238	343.76
358.62	338.11
359.002	332.91
359.384	322.97
359.766	324.55
360.148	313.03
360.53	342.63
360.912	345.34
361.294	323.88
361.676	316.64
362.057	333.82
362.439	332.24
362.821	328.85
363.203	305.12
363.584	314.84
363.966	318.68
364.348	317.32
364.729	316.87
365.111	314.16
365.493	302.86
365.874	310.09
366.256	322.29
366.637	321.39
367.019	299.02
367.4	327.49
367.781	325.23
368.163	312.12
368.544	302.18
368.925	327.27
369.306	320.71
369.688	309.41
370.069	306.93
370.45	310.54
370.831	319.13
371.212	324.78
371.593	317.32
371.974	306.02
372.355	310.99
372.736	299.92
373.117	310.99
373.498	317.1
373.879	309.86
374.26	308.96
374.641	329.75
375.021	323.88
375.402	328.17
375.783	350.32
376.163	328.62
376.544	335.63
376.925	346.93
377.305	334.5
377.686	334.27
378.066	349.64
378.447	349.19
378.827	340.37
379.208	332.69
379.588	340.37
379.968	345.57
380.349	350.54
380.729	348.51
381.109	350.32
381.489	357.32
381.87	357.55
382.25	360.03
382.63	347.6
383.01	355.51
383.39	374.5
383.77	379.69
384.15	380.6
384.53	381.05
384.91	364.78
385.29	376.98
385.67	380.37
386.049	383.54
386.429	371.78
386.809	372.46
387.189	384.21
387.568	394.16
387.948	385.12
388.328	391.9
388.707	386.02
389.087	391.67
389.466	409.52
389.846	396.19
390.225	403.42
390.605	410.88
390.984	409.07
391.363	405.91
391.743	425.57
392.122	444.1
392.501	415.4
392.881	433.93
393.26	444.1
393.639	445.91
394.018	440.26
394.397	449.3
394.776	443.87
395.155	442.06
395.534	452.91
395.913	457.43
396.292	458.56
396.671	462.63
397.05	460.82
397.429	475.51
397.808	454.95
398.186	464.66
398.565	480.71
398.944	466.7
399.323	496.3
399.701	494.94
400.08	509.86
400.458	494.49
400.837	510.54
401.215	482.29
401.594	493.81
401.972	507.15
402.351	526.36
402.729	500.37
403.107	535.62
403.486	537.66
403.864	555.28
404.242	548.5
404.62	566.81
404.999	552.34
405.377	564.55
405.755	579.46
406.133	579.69
406.511	578.11
406.889	561.84
407.267	589.63
407.645	606.81
408.023	620.14
408.401	611.1
408.779	611.78
409.156	635.96
409.534	643.42
409.912	634.6
410.29	652.68
410.667	654.94
411.045	676.63
411.422	670.99
411.8	686.35
412.178	697.88
412.555	713.24
412.933	734.94
413.31	708.27
413.687	699.68
414.065	736.52
414.442	724.09
414.819	757.31
415.197	761.83
415.574	744.2
415.951	772
416.328	789.85
416.705	789.63
417.082	807.48
417.46	851.32
417.837	822.17
418.214	829.85
418.591	840.02
418.967	851.09
419.344	840.92
419.721	847.48
420.098	859.68
420.475	893.35
420.852	884.54
421.228	880.47
421.605	898.32
421.982	917.31
422.358	944.65
422.735	933.13
423.111	930.19
423.488	939.45
423.864	949.17
424.241	972.22
424.617	987.36
424.994	957.31
425.37	985.33
425.746	1028.49
426.123	1030.75
426.499	1015.61
426.875	1042.05
427.251	1071.88
427.627	1099.67
428.003	1091.54
428.379	1089.05
428.756	1140.13
429.132	1123.85
429.507	1150.07
429.883	1161.82
430.259	1171.09
430.635	1188.03
431.011	1216.96
431.387	1246.56
431.763	1255.15
432.138	1236.62
432.514	1291.53
432.89	1285.66
433.265	1317.75
433.641	1317.3
434.016	1341.25
434.392	1363.62
434.767	1388.25
435.143	1399.1
435.518	1414.92
435.894	1438.42
436.269	1468.48
436.644	1496.27
437.02	1486.56
437.395	1506.9
437.77	1543.73
438.145	1523.39
438.52	1528.14
438.895	1562.26
439.271	1584.86
439.646	1603.84
440.021	1620.34
440.395	1645.2
440.77	1654.69
441.145	1642.49
441.52	1700.79
441.895	1697.85
442.27	1737.62
442.645	1739.66
443.019	1735.36
443.394	1757.96
443.769	1776.27
444.143	1752.99
444.518	1771.3
444.892	1800.9
445.267	1804.29
445.641	1844.29
446.016	1859.65
446.39	1859.88
446.764	1851.52
447.139	1883.16
447.513	1907.56
447.887	1899.65
448.262	1894.68
448.636	1923.16
449.01	1932.19
449.384	1980.78
449.758	2018.29
450.132	2050.61
450.506	2038.41
450.88	2068.01
451.254	2065.75
451.628	2116.82
452.002	2087.45
452.376	2139.87
452.75	2159.08
453.123	2166.31
453.497	2200.21
453.871	2204.73
454.244	2279.98
454.618	2261.9
454.992	2304.39
455.365	2314.78
455.739	2357.49
456.112	2373.77
456.486	2434.78
456.859	2438.85
457.232	2508.23
457.606	2481.33
457.979	2508
458.352	2590.03
458.725	2633.65
459.099	2631.16
459.472	2690.59
459.845	2717.71
460.218	2716.13
460.591	2722
460.964	2768.33
461.337	2887.65
461.71	2895.33
462.083	2914.99
462.456	2937.82
462.829	2969.91
463.201	3034.54
463.574	3069.11
463.947	3105.5
464.32	3183.24
464.692	3193.63
465.065	3229.11
465.438	3287.64
465.81	3292.39
466.183	3290.58
466.555	3420.74
466.928	3454.64
467.3	3469.33
467.672	3509.55
468.045	3587.07
468.417	3602.43
468.789	3637.91
469.161	3643.11
469.534	3727.4
469.906	3792.49
470.278	3786.61
470.65	3834.74
471.022	3929.66
471.394	3996.77
471.766	4074.96
472.138	4079.71
472.51	4189.99
472.882	4293.26
473.253	4339.82
473.625	4403.32
473.997	4509.3
474.369	4470.21
474.74	4519.25
475.112	4648.28
475.484	4728.05
475.855	4819.8
476.227	4828.62
476.598	4934.15
476.97	5010.31
477.341	5147.7
477.713	5204.43
478.084	5240.36
478.455	5396.51
478.827	5462.95
479.198	5604.87
479.569	5589.73
479.94	5772.55
480.311	5817.97
480.682	5959.21
481.053	6038.08
481.424	6166.21
481.795	6214.34
482.166	6305.19
482.537	6417.5
482.908	6539.08
483.279	6597.83
483.65	6732.97
484.021	6836.25
484.391	6922.57
484.762	7039.63
485.133	7124.37
485.503	7231.26
485.874	7356.91
486.244	7464.03
486.615	7585.83
486.985	7685.49
487.356	7782.89
487.726	7845.26
488.097	8100.39
488.467	8069.43
488.837	8250.22
489.207	8354.17
489.578	8446.37
489.948	8563.43
490.318	8705.12
490.688	8827.15
491.058	9011.33
491.428	9042.06
491.798	9162.51
492.168	9386.46
492.538	9408.61
492.908	9453.35
493.278	9523.86
493.648	9619
494.017	9731.99
494.387	9781.48
494.757	9883.62
495.126	10009.95
495.496	10046.33
495.866	10222.37
496.235	10315.93
496.605	10468.69
496.974	10491.74
497.344	10659.65
497.713	10764.28
498.082	10853.32
498.452	10915.46
498.821	10907.33
499.19	11018.28
499.559	11048.79
499.928	11098.73
500.298	11231.61
500.667	11273.64
501.036	11351.16
501.405	11425.96
501.774	11429.35
502.143	11634.99
502.512	11756.8
502.88	11851.93
503.249	11870.69
503.618	12056.45
503.987	12089.67
504.356	12211.02
504.724	12235.65
505.093	12318.14
505.462	12355.42
505.83	12415.31
506.199	12565.81
506.567	12612.82
506.936	12636.55
507.304	12726.26
507.672	12789.99
508.041	12822.76
508.409	13020.49
508.777	13140.49
509.145	13256.64
509.514	13410.09
509.882	13455.06
510.25	13503.19
510.618	13655.5
510.986	13723.3
511.354	13854.14
511.722	13983.63
512.09	14076.28
512.458	14070.41
512.826	14195.38
513.193	14198.09
513.561	14320.12
513.929	14354.92
514.297	14413
514.664	14521.24
515.032	14643.27
515.4	14751.52
515.767	14884.85
516.135	14988.8
516.502	14923.27
516.869	15151.73
517.237	15339.07
517.604	15286.65
517.972	15601.67
518.339	15636.69
518.706	15724.15
519.073	15696.8
519.44	15848.21
519.808	15949.23
520.175	15919.85
520.542	16172.27
520.909	16242.78
521.276	16243.23
521.643	16429.89
522.009	16491.13
522.376	16634.63
522.743	16727.06
523.11	16949.88
523.477	17210.66
523.843	17317.55
524.21	17594.16
524.577	17729.07
524.943	17877.99
525.31	17950.08
525.676	18033.69
526.043	18125.67
526.409	18184.42
526.776	18327.47
527.142	18410.86
527.508	18417.86
527.874	18543.96
528.241	18663.05
528.607	18725.2
528.973	18805.88
529.339	18824.86
529.705	19001.8
530.071	19270.5
530.437	19456.48
530.803	19499.64
531.169	19740.77
531.535	19809.69
531.901	19930.82
532.267	20040.65
532.632	20169.68
532.998	20315.67
533.364	20385.95
533.73	20457.13
534.095	20616.68
534.461	20584.36
534.826	20666.39
535.192	20641.99
535.557	20834.3
535.923	20693.06
536.288	20878.36
536.653	20933.05
537.019	20926.95
537.384	21105.7
537.749	21257.11
538.114	21504.79
538.479	21417.33
538.845	21618.46
539.21	21609.87
539.575	21820.03
539.94	21976.19
540.305	22017.99
540.67	21938.45
541.034	22075.39
541.399	22199.91
541.764	22091.44
542.129	22219.8
542.494	22214.37
542.858	22206.69
543.223	22165.11
543.587	22239.23
543.952	22273.13
544.316	22259.57
544.681	22351.09
545.045	22496.63
545.41	22623.85
545.774	22766.22
546.138	22694.13
546.503	22761.03
546.867	22968.03
547.231	23236.95
547.595	23242.14
547.959	23359.43
548.324	23416.15
548.688	23483.94
549.052	23547.45
549.416	23504.51
549.779	23451.63
550.143	23490.95
550.507	23619.08
550.871	23611.4
551.235	23511.51
551.599	23647.56
551.962	23665.18
552.326	23721.68
552.689	23875.57
553.053	23659.53
553.417	23779.08
553.78	24195.56
554.143	24136.13
554.507	24305.39
554.87	24398.95
555.234	24696.12
555.597	24541.77
555.96	24692.05
556.323	24788.09
556.686	24874.64
557.05	24932.04
557.413	25104.92
557.776	25132.49
558.139	25198.7
558.502	25025.37
558.865	25088.65
559.228	25170.45
559.59	25142.21
559.953	25145.37
560.316	25523.67
560.679	25429.88
561.041	25645.47
561.404	25687.73
561.767	25880.27
562.129	25952.35
562.492	26247.49
562.854	26151.45
563.217	26296.98
563.579	26432.57
563.941	26727.48
564.304	26843.18
564.666	27022.16
565.028	27053.57
565.39	27160.68
565.753	27311.87
566.115	27315.71
566.477	27233.45
566.839	27328.82
567.201	27451.52
567.563	27480.9
567.925	27519.32
568.287	27463.28
568.648	27481.81
569.01	27664.85
569.372	27858.07
569.734	27761.57
570.095	27881.57
570.457	27964.5
570.819	28100.77
571.18	28087.89
571.542	28350.48
571.903	28510.93
572.265	28748.21
572.626	28765.84
572.987	28785.73
573.349	29009.9
573.71	29153.85
574.071	29182.33
574.432	29242.89
574.794	29383.68
575.155	29374.64
575.516	29189.33
575.877	29246.73
576.238	29318.82
576.599	29358.14
576.96	29330.12
577.32	29339.38
577.681	29406.5
578.042	29534.63
578.403	29375.09
578.763	29591.13
579.124	29602.43
579.485	29807.85
579.845	29884
580.206	29848.07
580.566	30078.12
580.927	30158.57
581.287	30402.18
581.648	30220.72
582.008	30516.3
582.368	30461.61
582.728	30581.39
583.089	30511.78
583.449	30399.24
583.809	30449.64
584.169	30441.28
584.529	30442.18
584.889	30612.57
585.249	30425.46
585.609	30388.17
585.969	30480.6
586.329	30414.38
586.688	30293.03
587.048	30273.37
587.408	30277.21
587.768	30425.23
588.127	30308.85
588.487	30408.96
588.846	30713.81
589.206	30599.69
589.565	30536.19
589.925	30693.47
590.284	30608.5
590.643	30884.88
591.003	30865.9
591.362	30992
591.721	30939.34
592.08	31053.46
592.44	31086
592.799	31129.62
593.158	31136.17
593.517	31123.74
593.876	31151.99
594.235	30928.04
594.593	30999
594.952	31013.92
595.311	30872.45
595.67	30899.12
596.029	31187.92
596.387	30976.85
596.746	30900.02
597.104	30829.97
597.463	30915.84
597.822	30996.52
598.18	30873.35
598.538	31090.75
598.897	31116.51
599.255	31008.04
599.613	31381.36
599.972	31436.73
600.33	31458.42
600.688	31342.27
601.046	31547.46
601.404	31603.73
601.762	31650.28
602.12	31657.52
602.478	31666.33
602.836	31717.63
603.194	31613
603.552	31700.23
603.91	31703.39
604.268	31718.3
604.625	31466.56
604.983	31537.97
605.341	31388.82
605.698	31459.1
606.056	31613.9
606.413	31601.25
606.771	31640.79
607.128	31729.15
607.485	31536.61
607.843	31529.61
608.2	31808.47
608.557	31972.99
608.914	31815.03
609.272	32186.31
609.629	32143.83
609.986	32320.55
610.343	32130.72
610.7	32433.77
611.057	32330.49
611.414	32505.63
611.771	32491.84
612.127	32572.97
612.484	32628.56
612.841	32725.74
613.198	32578.39
613.554	32641.9
613.911	32821.1
614.267	32752.85
614.624	32633.53
614.98	32617.26
615.337	32775
615.693	32748.79
616.05	32578.17
616.406	32885.96
616.762	32711.05
617.118	32472.18
617.475	32540.43
617.831	32742.68
618.187	32751.05
618.543	32713.76
618.899	32869.01
619.255	32852.96
619.611	32929.35
619.967	33081.21
620.323	33135.22
620.678	32993.53
621.034	33125.27
621.39	33222.22
621.746	33236.91
622.101	33465.15
622.457	33351.93
622.812	33340.86
623.168	33533.4
623.523	33532.49
623.879	33625.82
624.234	33314.42
624.589	33502.44
624.945	33621.31
625.3	33640.74
625.655	33324.59
626.01	33383.35
626.365	33317.13
626.72	33330.24
627.075	33247.98
627.43	33194.88
627.785	33153.07
628.14	33250.69
628.495	33042.56
628.85	33128.21
629.205	33010.25
629.559	33038.27
629.914	32946.29
630.269	33156.46
630.623	33094.54
630.978	33030.81
631.332	33153.52
631.687	33184.71
632.041	33118.27
632.396	33285.04
632.75	33057.48
633.104	33127.98
633.459	33133.18
633.813	33080.75
634.167	33066.07
634.521	32919.85
634.875	32982.23
635.229	33040.08
635.583	32881.66
635.937	33020.42
636.291	32822.46
636.645	32929.12
636.999	32777.71
637.352	32773.87
637.706	32552.41
638.06	32647.77
638.413	32700.65
638.767	32539.53
639.121	32422.24
639.474	32085.07
639.828	32084.62
640.181	32204.17
640.534	32161.46
640.888	31954.91
641.241	31880.56
641.594	32116.26
641.947	32172.53
642.301	32132.76
642.654	32139.08
643.007	32212.08
643.36	32208.46
643.713	32139.31
644.066	32378.4
644.419	32229.48
644.771	32223.15
645.124	32111.29
645.477	32137.05
645.83	31972.99
646.182	31728.25
646.535	31356.96
646.888	31291.2
647.24	30959.91
647.593	31060.47
647.945	31027.02
648.298	30768.27
648.65	30826.12
649.002	30675.62
649.355	30902.05
649.707	30895.5
650.059	31084.2
650.411	31570.74
650.763	31328.48
651.115	31682.83
651.467	31528.7
651.819	31465.66
652.171	31340.24
652.523	31239.9
652.875	31214.81
653.227	31259.33
653.578	31496.16
653.93	31483.06
654.282	31343.17
654.633	31332.55
654.985	31415.04
655.337	31432.66
655.688	31404.41
656.039	31624.75
656.391	31427.92
656.742	31543.62
657.094	31598.99
657.445	31819.32
657.796	31641.47
658.147	31537.29
658.498	31554.24
658.849	31725.76
659.2	31594.47
659.551	31383.62
659.902	31636.95
660.253	31450.74
660.604	31516.73
660.955	31229.73
661.306	31269.5
661.656	31256.62
662.007	31244.42
662.358	31114.03
662.708	31121.94
663.059	31135.72
663.409	30765.11
663.76	31122.16
664.11	30935.27
664.461	30946.35
664.811	30823.86
665.161	30822.06
665.511	30882.39
665.862	30899.57
666.212	31017.08
666.562	31013.92
666.912	31064.54
667.262	31083.52
667.612	31147.7
667.962	31077.42
668.312	31216.4
668.662	31398.31
669.011	31436.28
669.361	31387.69
669.711	31446.45
670.06	31399.22
670.41	31274.02
670.76	31326.22
671.109	31203.06
671.459	31159.9
671.808	31161.26
672.157	31137.98
672.507	30931.88
672.856	30928.04
673.205	30922.62
673.554	30929.85
673.904	30748.16
674.253	30863.19
674.602	30689.63
674.951	30161.74
675.3	30035.64
675.649	30548.84
675.998	30402.63
676.346	30237.44
676.695	30328.51
677.044	30173.94
677.393	30213.49
677.741	30296.42
678.09	30354.95
678.438	30201.96
678.787	30250.32
679.135	30152.02
679.484	30055.07
679.832	30179.81
680.181	30041.74
680.529	30163.09
680.877	30439.47
681.225	30325.57
681.573	30442.86
681.922	30358.11
682.27	30248.29
682.618	30295.74
682.966	30232.24
683.314	30181.85
683.661	30140.04
684.009	30045.35
684.357	29922.42
684.705	29792.93
685.053	29955.19
685.4	29724.23
685.748	29634.07
686.095	29484.46
686.443	29382.09
686.79	29329.21
687.138	29262.78
687.485	29336.9
687.832	29020.07
688.18	29027.3
688.527	28895.55
688.874	28661.66
689.221	28549.12
689.568	28483.59
689.915	28405.85
690.262	28507.77
690.609	28349.13
690.956	28201.11
691.303	28217.61
691.65	27993.43
691.997	28086.76
692.344	27833.21
692.69	27935.58
693.037	28003.83
693.383	27784.62
693.73	27814.45
694.077	27693.1
694.423	27849.25
694.769	27726.77
695.116	27733.32
695.462	27570.62
695.808	27559.77
696.155	27704.17
696.501	27483.84
696.847	27486.55
697.193	27207.91
697.539	27368.59
697.885	27122.95
698.231	26881.6
698.577	26929.73
698.923	26817.64
699.269	26705.55
699.614	26625.11
699.96	26586.46
700.306	26465.56
700.651	26331.55
700.997	26032.8
701.342	25963.88
701.688	25913.49
702.033	25811.57
702.379	25673.72
702.724	25586.04
703.069	25662.64
703.415	25348.53
703.76	25354.4
704.105	25368.19
704.45	25349.66
704.795	25193.28
705.14	25061.76
705.485	25131.58
705.83	25135.88
706.175	25048.2
706.52	24926.84
706.865	25015.43
707.209	25022.44
707.554	25142.43
707.899	25120.51
708.243	24894.76
708.588	25038.71
708.932	24854.76
709.277	24971.36
709.621	24910.57
709.966	24698.38
710.31	24815.21
710.654	24584.25
710.998	24572.96
711.342	24511.94
711.687	24511.49
712.031	24336.58
712.375	24281.44
712.719	24229.69
713.063	24231.72
713.407	24132.06
713.75	24076.02
714.094	23925.97
714.438	23741.34
714.782	23777.72
715.125	23639.42
715.469	23599.87
715.812	23368.02
716.156	23311.52
716.499	23261.58
716.843	23172.77
717.186	23116.72
717.53	23150.85
717.873	23207.12
718.216	23186.55
718.559	22978.87
718.902	22946.11
719.246	23037.4
719.589	23046.89
719.932	23020.23
720.275	22961.25
720.617	23084.41
720.96	22920.12
721.303	23104.75
721.646	23154.24
721.989	23018.19
722.331	23190.62
722.674	23072.2
723.016	23227.23
723.359	23186.33
723.701	23180.45
724.044	23001.92
724.386	22842.15
724.729	23084.41
725.071	23040.57
725.413	22976.84
725.755	22927.8
726.097	22904.3
726.439	22837.86
726.782	22722.83
727.124	22769.16
727.465	22486
727.807	22633.12
728.149	22487.36
728.491	22529.17
728.833	22549.51
729.175	22435.16
729.516	22390.19
729.858	22493.24
730.199	22511.99
730.541	22465.44
730.882	22365.56
731.224	22323.98
731.565	22129.18
731.906	22170.31
732.248	22177.54
732.589	22068.16
732.93	22075.17
733.271	22176.63
733.612	22226.35
733.953	22239.46
734.294	22192.45
734.635	22090.53
734.976	22217.31
735.317	22112.91
735.658	22292.79
735.999	22323.98
736.339	22222.96
736.68	22423.41
737.021	22313.58
737.361	22290.98
737.702	22331.43
738.042	22306.8
738.383	22387.7
738.723	22434.93
739.063	22392.9
739.404	22650.07
739.744	22554.25
740.084	22387.93
740.424	22470.86
740.764	22509.51
741.104	22617.07
741.444	22475.84
741.784	22292.56
742.124	22544.08
742.464	22382.96
742.804	22459.79
743.143	22476.74
743.483	22392.9
743.823	22286.46
744.162	22338.66
744.502	22300.25
744.841	22173.47
745.181	22285.11
745.52	22233.81
745.86	22137.99
746.199	22348.61
746.538	22237.2
746.877	22251.21
747.216	22378.44
747.556	22277.2
747.895	22389.51
748.234	22226.58
748.573	22404.65
748.911	22330.08
749.25	22435.84
749.589	22394.03
749.928	22345.22
750.267	22598.09
750.605	22549.73
750.944	22589.96
751.283	22442.84
751.621	22608.71
751.96	22566
752.298	22681.71
752.636	22768.26
752.975	22736.85
753.313	22690.52
753.651	22811.19
753.989	22745.66
754.327	22865.88
