Data from blue_chair_FLMS001491_00090.txt Node
Date: Wed Feb 08 10:31:56 GMT 2017
User: dcchb
Spectrometer: FLMS00149
Trigger mode: 0
Integration Time (sec): 2.000000E-2
Scans to average: 10
Electric dark correction enabled: true
Nonlinearity correction enabled: false
Boxcar width: 0
XAxis mode: Wavelengths
Number of Pixels in Spectrum: 2048
>>>>>Begin Spectral Data<<<<<
341.393	-20.03
341.776	-20.03
342.16	-20.03
342.543	-65.68
342.927	-58.67
343.31	-75.39
343.693	-79.24
344.077	-66.13
344.46	-55.96
344.843	-57.99
345.226	-48.05
345.61	-30.65
345.993	-19.12
346.376	-6.24
346.759	4.83
347.142	19.29
347.525	70.82
347.908	68.56
348.291	81.89
348.674	79.63
349.057	113.75
349.44	126.64
349.823	147.43
350.206	153.08
350.588	199.4
350.971	215.9
351.354	197.59
351.737	224.26
352.119	232.62
352.502	245.05
352.884	255.67
353.267	277.37
353.65	272.85
354.032	251.15
354.414	276.46
354.797	294.31
355.179	286.63
355.562	294.99
355.944	297.93
356.326	287.76
356.709	306.07
357.091	338.61
357.473	317.14
357.855	317.14
358.238	329.34
358.62	304.94
359.002	324.82
359.384	312.39
359.766	315.56
360.148	331.6
360.53	308.1
360.912	310.81
361.294	313.3
361.676	308.55
362.057	306.07
362.439	304.48
362.821	290.92
363.203	314.65
363.584	311.94
363.966	296.35
364.348	281.89
364.729	317.36
365.111	280.76
365.493	301.77
365.874	279.63
366.256	294.31
366.637	290.25
367.019	284.6
367.4	280.53
367.781	308.78
368.163	298.38
368.544	303.58
368.925	300.64
369.306	301.55
369.688	278.5
370.069	285.95
370.45	292.96
370.831	279.4
371.212	300.87
371.593	305.39
371.974	294.31
372.355	285.05
372.736	317.82
373.117	288.66
373.498	278.04
373.879	294.09
374.26	278.5
374.641	275.56
375.021	305.61
375.402	304.94
375.783	283.02
376.163	295.44
376.544	294.77
376.925	292.28
377.305	290.47
377.686	306.29
378.066	303.35
378.447	294.77
378.827	280.08
379.208	294.99
379.588	304.03
379.968	309.23
380.349	298.61
380.729	289.57
381.109	308.33
381.489	317.36
381.87	289.79
382.25	292.51
382.63	321.88
383.01	302.45
383.39	317.36
383.77	302
384.15	308.78
384.53	302.9
384.91	321.88
385.29	285.73
385.67	307.2
386.049	296.57
386.429	318.72
386.809	297.03
387.189	330.25
387.568	305.16
387.948	295.22
388.328	318.72
388.707	321.66
389.087	318.49
389.466	333.86
389.846	319.17
390.225	288.44
390.605	329.79
390.984	325.73
391.363	299.06
391.743	323.92
392.122	310.36
392.501	308.55
392.881	326.18
393.26	351.04
393.639	317.14
394.018	332.28
394.397	310.36
394.776	322.11
395.155	338.15
395.534	344.93
395.913	328.89
396.292	351.04
396.671	336.35
397.05	342.22
397.429	338.15
397.808	345.84
398.186	350.81
398.565	333.64
398.944	352.39
399.323	326.86
399.701	353.07
400.08	359.62
400.458	351.04
400.837	353.75
401.215	364.14
401.594	342.45
401.972	348.78
402.351	361.21
402.729	347.42
403.107	358.72
403.486	365.95
403.864	358.04
404.242	369.11
404.62	369.34
404.999	382.67
405.377	360.3
405.755	363.47
406.133	377.7
406.511	376.8
406.889	378.15
407.267	382.9
407.645	384.03
408.023	391.71
408.401	384.48
408.779	396.91
409.156	392.39
409.534	386.74
409.912	407.08
410.29	384.03
410.667	399.62
411.045	417.02
411.422	418.38
411.8	409.57
412.178	408.21
412.555	398.49
412.933	412.73
413.31	428.55
413.687	429.45
414.065	426.06
414.442	428.77
414.819	433.52
415.197	419.96
415.574	435.33
415.951	432.84
416.328	437.81
416.705	425.38
417.082	441.2
417.46	431.71
417.837	454.54
418.214	453.41
418.591	439.4
418.967	450.24
419.344	453.63
419.721	451.37
420.098	455.89
420.475	462.45
420.852	460.86
421.228	473.52
421.605	455.44
421.982	472.84
422.358	483.24
422.735	435.33
423.111	473.97
423.488	488.66
423.864	483.69
424.241	503.57
424.617	516.68
424.994	492.5
425.37	513.52
425.746	493.18
426.123	524.82
426.499	491.15
426.875	521.88
427.251	529.79
427.627	517.59
428.003	523.46
428.379	523.46
428.756	547.87
429.132	549
429.507	567.98
429.883	549.67
430.259	551.93
430.635	558.26
431.011	552.39
431.387	570.92
431.763	577.92
432.138	576.57
432.514	577.24
432.89	585.61
433.265	605.27
433.641	605.04
434.016	618.15
434.392	621.09
434.767	643.23
435.143	650.92
435.518	649.79
435.894	631.93
436.269	656.34
436.644	647.53
437.02	679.16
437.395	673.06
437.77	696.56
438.145	688.2
438.52	683
438.895	704.25
439.271	707.18
439.646	687.75
440.021	723.23
440.395	721.87
440.77	757.8
441.145	708.09
441.52	741.31
441.895	737.24
442.27	724.36
442.645	751.93
443.019	769.33
443.394	767.07
443.769	772.04
444.143	774.53
444.518	793.96
444.892	815.66
445.267	818.14
445.641	805.71
446.016	795.09
446.39	806.62
446.764	788.09
447.139	830.57
447.513	814.3
447.887	813.62
448.262	821.98
448.636	812.72
449.01	831.02
449.384	854.75
449.758	861.76
450.132	852.94
450.506	846.84
450.88	891.81
451.254	880.74
451.628	881.42
452.002	890
452.376	880.06
452.75	898.59
453.123	907.18
453.497	937.01
453.871	907.86
454.244	942.88
454.618	915.31
454.992	940.4
455.365	952.83
455.739	948.53
456.112	954.64
456.486	959.83
456.859	989.44
457.232	994.41
457.606	1021.98
457.979	1005.26
458.352	1000.74
458.725	1008.42
459.099	1027.4
459.472	1042.32
459.845	1039.61
460.218	1031.7
460.591	1065.82
460.964	1053.39
461.337	1094.52
461.71	1099.94
462.083	1079.83
462.456	1097.68
462.829	1101.75
463.201	1096.33
463.574	1108.08
463.947	1110.56
464.32	1139.94
464.692	1162.09
465.065	1137.23
465.438	1147.85
465.81	1184.69
466.183	1170.45
466.555	1198.92
466.928	1193.5
467.3	1215.19
467.672	1225.14
468.045	1239.15
468.417	1201.86
468.789	1233.72
469.161	1229.88
469.534	1258.13
469.906	1288.19
470.278	1285.47
470.65	1290.67
471.022	1311.46
471.394	1313.95
471.766	1341.74
472.138	1332.03
472.51	1354.17
472.882	1366.38
473.253	1356.66
473.625	1398.92
473.997	1409.09
474.369	1424.23
474.74	1455.19
475.112	1415.19
475.484	1433.95
475.855	1464.68
476.227	1480.5
476.598	1498.35
476.97	1505.36
477.341	1519.14
477.713	1543.1
478.084	1570.66
478.455	1557.78
478.827	1590.78
479.198	1622.64
479.569	1616.09
479.94	1632.81
480.311	1644.34
480.682	1645.92
481.053	1657.89
481.424	1697.22
481.795	1705.58
482.166	1722.98
482.537	1716.2
482.908	1746.93
483.279	1781.28
483.65	1763.65
484.021	1765.24
484.391	1821.05
484.762	1809.75
485.133	1819.02
485.503	1812.47
485.874	1847.49
486.244	1844.56
486.615	1887.94
486.985	1881.17
487.356	1925.23
487.726	1904.44
488.097	1908.06
488.467	1897.66
488.837	1927.04
489.207	1942.18
489.578	1967.26
489.948	1968.62
490.318	1969.52
490.688	1977.66
491.058	2005.46
491.428	2020.14
491.798	1979.47
492.168	2006.36
492.538	2016.98
492.908	2024.21
493.278	2040.48
493.648	2014.72
494.017	2032.12
494.387	2058.34
494.757	2070.76
495.126	2058.79
495.496	2044.32
495.866	2067.38
496.235	2040.26
496.605	2036.87
496.974	2075.28
497.344	2052.91
497.713	2058.56
498.082	2052.69
498.452	2062.86
498.821	2063.53
499.19	2063.31
499.559	2027.38
499.928	2055.4
500.298	2049.07
500.667	2043.19
501.036	2060.82
501.405	2041.61
501.774	2036.87
502.143	2063.76
502.512	2070.54
502.88	2052.23
503.249	2045.45
503.618	2050.43
503.987	2012.24
504.356	2065.34
504.724	2057.88
505.093	2024.44
505.462	2035.51
505.83	2047.71
506.199	2038.22
506.567	2021.05
506.936	2012.46
507.304	2024.89
507.672	2029.41
508.041	2027.83
508.409	2006.36
508.777	2037.32
509.145	2013.82
509.514	2021.73
509.882	2014.27
510.25	1981.95
510.618	2028.73
510.986	1983.54
511.354	2005.46
511.722	2005.91
512.09	2006.81
512.458	1984.44
512.826	1976.98
513.193	1995.74
513.561	2017.43
513.929	2007.72
514.297	1967.04
514.664	2039.58
515.032	1970.88
515.4	1979.24
515.767	1963.87
516.135	1976.76
516.502	1965.91
516.869	1953.93
517.237	1964.55
517.604	1959.13
517.972	1936.98
518.339	1964.33
518.706	1925.46
519.073	1950.99
519.44	1970.43
519.808	1919.58
520.175	1941.28
520.542	1926.81
520.909	1910.32
521.276	1935.4
521.643	1910.32
522.009	1936.53
522.376	1908.28
522.743	1899.02
523.11	1939.47
523.477	1932.46
523.843	1904.22
524.21	1933.82
524.577	1932.69
524.943	1924.33
525.31	1913.93
525.676	1932.92
526.043	1939.02
526.409	1923.2
526.776	1929.98
527.142	1907.61
527.508	1919.58
527.874	1919.36
528.241	1922.75
528.607	1893.82
528.973	1909.19
529.339	1923.88
529.705	1943.54
530.071	1934.27
530.437	1917.55
530.803	1903.99
531.169	1927.27
531.535	1927.72
531.901	1905.12
532.267	1901.5
532.632	1950.77
532.998	1915.51
533.364	1935.18
533.73	1920.94
534.095	1917.77
534.461	1906.48
534.826	1925.91
535.192	1898.79
535.557	1927.94
535.923	1917.32
536.288	1905.57
536.653	1912.58
537.019	1924.1
537.384	1928.62
537.749	1973.59
538.114	1918.23
538.479	1914.84
538.845	1892.01
539.21	1919.58
539.575	1909.64
539.94	1884.33
540.305	1917.55
540.67	1883.65
541.034	1895.85
541.399	1926.36
541.764	1898.57
542.129	1890.43
542.494	1904.67
542.858	1891.79
543.223	1885.46
543.587	1896.08
543.952	1918.9
544.316	1901.28
544.681	1864.22
545.045	1875.52
545.41	1880.49
545.774	1895.4
546.138	1891.33
546.503	1911.9
546.867	1857.21
547.231	1885.91
547.595	1874.84
547.959	1899.47
548.324	1871.67
548.688	1870.77
549.052	1860.83
549.416	1859.92
549.779	1850.21
550.143	1825.8
550.507	1866.93
550.871	1864.22
551.235	1845.69
551.599	1863.76
551.962	1858.34
552.326	1850.66
552.689	1859.92
553.053	1866.02
553.417	1838.45
553.78	1846.59
554.143	1842.97
554.507	1840.04
554.87	1843.2
555.234	1838
555.597	1847.04
555.96	1828.74
556.323	1852.69
556.686	1806.36
557.05	1867.61
557.413	1843.88
557.776	1822.86
558.139	1813.37
558.502	1849.08
558.865	1835.29
559.228	1836.65
559.59	1834.39
559.953	1819.02
560.316	1819.02
560.679	1841.84
561.041	1888.62
561.404	1838.45
561.767	1854.05
562.129	1843.88
562.492	1819.7
562.854	1841.84
563.217	1855.18
563.579	1859.47
563.941	1868.28
564.304	1854.5
564.666	1891.33
565.028	1865.12
565.39	1862.18
565.753	1893.37
566.115	1890.43
566.477	1863.54
566.839	1871.22
567.201	1906.93
567.563	1910.09
567.925	1889.98
568.287	1911.22
568.648	1905.57
569.01	1898.11
569.372	1900.83
569.734	1918
570.095	1906.25
570.457	1936.76
570.819	1939.24
571.18	1922.07
571.542	1940.15
571.903	1933.59
572.265	1947.15
572.626	1941.73
572.987	1977.21
573.349	1974.5
573.71	1965.23
574.071	1947.38
574.432	1994.38
574.794	1974.5
575.155	2012.69
575.516	1950.54
575.877	1977.89
576.238	2018.56
576.599	2036.87
576.96	2051.78
577.32	1994.83
577.681	2042.97
578.042	2056.3
578.403	2029.41
578.763	2050.88
579.124	2035.96
579.485	2058.34
579.845	2061.05
580.206	2014.5
580.566	2044.78
580.927	2067.38
581.287	2087.71
581.648	2061.27
582.008	2082.97
582.368	2092.91
582.728	2085
583.089	2097.2
583.449	2139.01
583.809	2097.2
584.169	2142.18
584.529	2101.5
584.889	2136.07
585.249	2102.63
585.609	2118.9
585.969	2144.44
586.329	2106.24
586.688	2117.09
587.048	2137.2
587.408	2150.31
587.768	2141.5
588.127	2125.68
588.487	2135.4
588.846	2139.46
589.206	2128.16
589.565	2135.17
589.925	2145.57
590.284	2127.94
590.643	2153.7
591.003	2137.43
591.362	2110.99
591.721	2122.74
592.08	2146.02
592.44	2132.68
592.799	2141.27
593.158	2122.97
593.517	2128.84
593.876	2141.5
594.235	2154.83
594.593	2148.5
594.952	2154.83
595.311	2122.06
595.67	2159.8
596.029	2155.51
596.387	2151.67
596.746	2156.41
597.104	2137.43
597.463	2142.85
597.822	2157.32
598.18	2152.34
598.538	2159.8
598.897	2172.46
599.255	2125.23
599.613	2173.59
599.972	2162.51
600.33	2131.33
600.688	2118.22
601.046	2138.11
601.404	2159.12
601.762	2099.46
602.12	2183.08
602.478	2152.34
602.836	2141.5
603.194	2137.43
603.552	2138.56
603.91	2156.86
604.268	2127.03
604.625	2129.75
604.983	2160.25
605.341	2125.68
605.698	2128.62
606.056	2131.33
606.413	2144.21
606.771	2122.51
607.128	2142.18
607.485	2161.38
607.843	2138.56
608.2	2152.8
608.557	2140.59
608.914	2144.44
609.272	2150.99
609.629	2116.19
609.986	2158.67
610.343	2145.79
610.7	2138.56
611.057	2170.2
611.414	2143.31
611.771	2154.38
612.127	2217.65
612.484	2192.12
612.841	2161.38
613.198	2161.16
613.554	2170.88
613.911	2119.13
614.267	2149.86
614.624	2158.22
614.98	2167.03
615.337	2155.73
615.693	2162.29
616.05	2181.27
616.406	2200.03
616.762	2158.45
617.118	2185.11
617.475	2213.13
617.831	2174.04
618.187	2176.3
618.543	2162.29
618.899	2182.17
619.255	2161.84
619.611	2208.16
619.967	2175.62
620.323	2176.98
620.678	2169.07
621.034	2181.5
621.39	2189.18
621.746	2170.42
622.101	2187.82
622.457	2188.73
622.812	2187.82
623.168	2157.54
623.523	2174.26
623.879	2182.63
624.234	2205
624.589	2173.13
624.945	2188.05
625.3	2180.14
625.655	2183.98
626.01	2185.79
626.365	2168.62
626.72	2167.03
627.075	2198.67
627.43	2219.69
627.785	2162.74
628.14	2166.81
628.495	2185.34
628.85	2173.36
629.205	2176.07
629.559	2227.14
629.914	2178.78
630.269	2162.51
630.623	2219.69
630.978	2191.44
631.332	2173.36
631.687	2201.61
632.041	2215.39
632.396	2187.6
632.75	2156.64
633.104	2176.52
633.459	2206.35
633.813	2178.33
634.167	2187.15
634.521	2191.21
634.875	2213.36
635.229	2151.21
635.583	2180.37
635.937	2176.75
636.291	2236.18
636.645	2159.12
636.999	2192.12
637.352	2180.37
637.706	2176.98
638.06	2192.34
638.413	2199.8
638.767	2191.44
639.121	2175.62
639.474	2181.5
639.828	2188.28
640.181	2176.3
640.534	2226.01
640.888	2198.22
641.241	2187.6
641.594	2166.58
641.947	2199.35
642.301	2147.37
642.654	2173.13
643.007	2209.29
643.36	2180.59
643.713	2176.98
644.066	2156.64
644.419	2189.18
644.771	2190.54
645.124	2150.08
645.477	2145.11
645.83	2131.55
646.182	2120.48
646.535	2137.2
646.888	2140.37
647.24	2136.98
647.593	2167.03
647.945	2162.74
648.298	2160.03
648.65	2175.17
649.002	2187.37
649.355	2161.84
649.707	2168.62
650.059	2190.54
650.411	2202.06
650.763	2222.17
651.115	2201.61
651.467	2230.08
651.819	2232.79
652.171	2190.54
652.523	2231.21
652.875	2222.85
653.227	2238.67
653.578	2242.29
653.93	2227.37
654.282	2247.26
654.633	2233.25
654.985	2267.14
655.337	2264.66
655.688	2247.71
656.039	2228.05
656.391	2221.72
656.742	2235.51
657.094	2246.13
657.445	2264.43
657.796	2272.79
658.147	2279.57
658.498	2254.94
658.849	2256.75
659.2	2264.66
659.551	2274.38
659.902	2278.89
660.253	2285.67
660.604	2278.22
660.955	2282.06
661.306	2275.28
661.656	2258.78
662.007	2274.15
662.358	2248.39
662.708	2288.61
663.059	2257.65
663.409	2238.44
663.76	2308.27
664.11	2289.52
664.461	2285.9
664.811	2314.83
665.161	2297.88
665.511	2273.02
665.862	2260.14
666.212	2305.79
666.562	2290.19
666.912	2272.34
667.262	2268.27
667.612	2273.25
667.962	2297.88
668.312	2306.92
668.662	2297.2
669.011	2285
669.361	2278.67
669.711	2283.41
670.06	2304.2
670.41	2257.88
670.76	2266.24
671.109	2283.64
671.459	2303.3
671.808	2280.7
672.157	2261.49
672.507	2272.12
672.856	2254.04
673.205	2249.07
673.554	2252.91
673.904	2233.7
674.253	2252
674.602	2191.44
674.951	2223.98
675.3	2173.13
675.649	2213.36
675.998	2236.86
676.346	2201.83
676.695	2226.92
677.044	2241.38
677.393	2216.52
677.741	2186.24
678.09	2185.11
678.438	2181.04
678.787	2216.52
679.135	2218.33
679.484	2199.57
679.832	2168.84
680.181	2176.52
680.529	2174.72
680.877	2191.21
681.225	2184.43
681.573	2187.37
681.922	2158.22
682.27	2149.86
682.618	2163.64
682.966	2131.55
683.314	2146.02
683.661	2146.47
684.009	2146.47
684.357	2157.54
684.705	2121.38
685.053	2139.69
685.4	2095.17
685.748	2099.01
686.095	2086.36
686.443	2097.88
686.79	2113.02
687.138	2088.84
687.485	2054.72
687.832	2113.93
688.18	2064.44
688.527	2056.08
688.874	2083.65
689.221	2072.12
689.568	2047.71
689.915	2032.57
690.262	2044.32
690.609	2042.74
690.956	2033.93
691.303	2052.69
691.65	2001.16
691.997	2014.95
692.344	2027.15
692.69	2010.65
693.037	1995.29
693.383	1968.85
693.73	1963.2
694.077	1988.06
694.423	1989.41
694.769	1993.25
695.116	1981.5
695.462	1974.04
695.808	1969.07
696.155	1950.54
696.501	1950.54
696.847	1924.33
697.193	1955.74
697.539	1946.47
697.885	1932.69
698.231	1937.89
698.577	1903.99
698.923	1923.65
699.269	1899.47
699.614	1903.99
699.96	1915.51
700.306	1891.33
700.651	1874.84
700.997	1880.49
701.342	1888.62
701.688	1880.94
702.033	1877.55
702.379	1863.54
702.724	1870.32
703.069	1885.46
703.415	1852.69
703.76	1854.05
704.105	1855.18
704.45	1860.15
704.795	1859.02
705.14	1860.15
705.485	1846.82
705.83	1854.05
706.175	1843.43
706.52	1830.32
706.865	1832.13
707.209	1833.03
707.554	1848.4
707.899	1826.25
708.243	1832.8
708.588	1873.03
708.932	1821.73
709.277	1829.64
709.621	1840.04
709.966	1825.12
710.31	1823.31
710.654	1824.67
710.998	1809.08
711.342	1806.82
711.687	1859.24
712.031	1808.85
712.375	1808.62
712.719	1839.36
713.063	1844.56
713.407	1856.53
713.75	1817.21
714.094	1820.6
714.438	1808.85
714.782	1874.16
715.125	1871.45
715.469	1864.67
715.812	1854.05
716.156	1841.39
716.499	1873.71
716.843	1863.76
717.186	1836.65
717.53	1857.66
717.873	1856.53
718.216	1859.24
718.559	1872.13
718.902	1858.57
719.246	1882.52
719.589	1867.15
719.932	1869.19
720.275	1901.73
720.617	1913.93
720.96	1850.21
721.303	1913.03
721.646	1887.27
721.989	1886.14
722.331	1924.78
722.674	1912.8
723.016	1928.17
723.359	1948.06
723.701	1946.7
724.044	1928.4
724.386	1914.61
724.729	1964.78
725.071	1919.13
725.413	1924.33
725.755	1986.25
726.097	1946.93
726.439	1962.52
726.782	1978.34
727.124	2013.37
727.465	1999.58
727.807	2001.39
728.149	2024.89
728.491	2011.11
728.833	2005.23
729.175	2036.87
729.516	2045.68
729.858	2039.13
730.199	2076.41
730.541	2091.1
730.882	2046.58
731.224	2082.52
731.565	2095.4
731.906	2071.22
732.248	2081.16
732.589	2094.94
732.93	2112.12
733.271	2145.57
733.612	2144.21
733.953	2146.92
734.294	2144.21
734.635	2203.64
734.976	2181.04
735.317	2176.52
735.658	2212.91
735.999	2213.81
736.339	2232.79
736.68	2266.69
737.021	2243.64
737.361	2271.44
737.702	2296.97
738.042	2287.93
738.383	2301.95
738.723	2326.8
739.063	2339.46
739.404	2357.08
739.744	2371.32
740.084	2364.54
740.424	2401.83
740.764	2397.31
741.104	2433.69
741.444	2452.68
741.784	2438.21
742.124	2498.55
742.464	2518.44
742.804	2541.49
743.143	2579
743.483	2575.84
743.823	2615.61
744.162	2658.32
744.502	2680.47
744.841	2735.83
745.181	2737.87
745.52	2748.26
745.86	2821.71
746.199	2823.74
746.538	2831.42
746.877	2888.82
747.216	2920.23
747.556	2959.1
747.895	3029.38
748.234	3052.21
748.573	3048.82
748.911	3094.69
749.25	3171.53
749.589	3214.01
749.928	3288.59
750.267	3300.79
750.605	3339.88
750.944	3368.36
751.283	3432.54
751.621	3502.82
751.96	3516.83
752.298	3545.98
752.636	3651.74
752.975	3637.28
753.313	3682.47
753.651	3788.23
753.989	3792.3
754.327	3898.74
754.666	3948.91
755.004	3985.52
755.342	4064.38
755.679	4086.98
756.017	4160.88
756.355	4238.17
756.693	4251.05
757.031	4337.6
757.368	4449.46
757.706	4483.81
758.044	4488.55
758.381	4602
758.719	4669.34
759.056	4718.6
759.394	4807.19
759.731	4852.16
760.068	4843.8
760.405	4904.36
760.743	4947.98
761.08	5065.49
761.417	5099.39
761.754	5162.43
762.091	5204.02
762.428	5246.05
762.765	5269.1
763.102	5351.36
763.438	5432.48
763.775	5479.26
764.112	5495.31
764.449	5589.32
764.785	5630.22
765.122	5642.2
765.458	5695.98
765.795	5724.23
766.131	5760.84
766.467	5871.34
766.804	5918.35
767.14	5892.81
767.476	5941.4
767.812	5972.13
768.148	6035.41
768.485	6036.99
768.821	6056.42
769.157	6124.67
769.492	6199.24
769.828	6208.28
770.164	6228.85
770.5	6230.2
770.836	6283.76
