Data from blue_surface_keyboard_FLMS001491_037.txt Node
Date: Tue Feb 07 11:13:00 GMT 2017
User: dcchb
Spectrometer: FLMS00149
Trigger mode: 0
Integration Time (sec): 2.000000E-2
Scans to average: 10
Electric dark correction enabled: true
Nonlinearity correction enabled: false
Boxcar width: 0
XAxis mode: Wavelengths
Number of Pixels in Spectrum: 2048
>>>>>Begin Spectral Data<<<<<
341.393	-13.19
341.776	-13.19
342.16	-13.19
342.543	-40.99
342.927	-61.33
343.31	-68.11
343.693	-60.65
344.077	-57.48
344.46	-65.39
344.843	-65.39
345.226	-41.44
345.61	-35.11
345.993	-3.25
346.376	-12.51
346.759	15.96
347.142	39.69
347.525	39.01
347.908	54.15
348.291	62.51
348.674	80.82
349.057	117.2
349.44	134.15
349.823	141.83
350.206	164.66
350.588	163.3
350.971	174.83
351.354	196.97
351.737	197.2
352.119	221.38
352.502	229.06
352.884	252.34
353.267	253.92
353.65	273.35
354.032	262.73
354.414	292.79
354.797	288.5
355.179	278.55
355.562	302.51
355.944	293.01
356.326	325.78
356.709	311.32
357.091	293.24
357.473	309.96
357.855	301.83
358.238	320.58
358.62	312
359.002	302.73
359.384	320.13
359.766	294.6
360.148	312.9
360.53	320.58
360.912	307.03
361.294	320.58
361.676	315.61
362.057	305.67
362.439	310.64
362.821	300.7
363.203	311.77
363.584	282.62
363.966	289.17
364.348	307.93
364.729	302.28
365.111	284.2
365.493	267.48
365.874	285.78
366.256	288.5
366.637	285.11
367.019	291.43
367.4	285.78
367.781	272.68
368.163	274.71
368.544	284.2
368.925	273.13
369.306	302.28
369.688	276.29
370.069	272.22
370.45	279
370.831	286.69
371.212	278.1
371.593	295.05
371.974	298.44
372.355	275.16
372.736	276.52
373.117	291.43
373.498	293.47
373.879	273.81
374.26	285.11
374.641	274.71
375.021	285.33
375.402	287.82
375.783	287.59
376.163	293.24
376.544	312
376.925	287.37
377.305	279
377.686	299.34
378.066	301.38
378.447	291.21
378.827	295.05
379.208	286.69
379.588	286.24
379.968	281.04
380.349	310.19
380.729	308.16
381.109	294.37
381.489	304.99
381.87	275.16
382.25	316.97
382.63	299.79
383.01	288.27
383.39	311.77
383.77	288.5
384.15	300.02
384.53	308.16
384.91	299.57
385.29	294.14
385.67	301.38
386.049	319.23
386.429	296.18
386.809	298.89
387.189	306.8
387.568	309.06
387.948	304.77
388.328	309.29
388.707	295.73
389.087	337.08
389.466	328.49
389.846	290.08
390.225	338.21
390.605	316.97
390.984	320.36
391.363	308.38
391.743	323.07
392.122	314.26
392.501	305.22
392.881	298.44
393.26	341.15
393.639	330.08
394.018	319.68
394.397	319.91
394.776	310.42
395.155	330.3
395.534	322.17
395.913	326.69
396.292	317.87
396.671	339.79
397.05	324.88
397.429	323.97
397.808	326.69
398.186	320.36
398.565	337.53
398.944	308.61
399.323	343.64
399.701	327.36
400.08	321.26
400.458	330.3
400.837	337.76
401.215	323.97
401.594	334.82
401.972	323.75
402.351	318.32
402.729	355.39
403.107	341.6
403.486	345.22
403.864	341.38
404.242	319.23
404.62	348.38
404.999	361.26
405.377	365.78
405.755	343.41
406.133	348.15
406.511	326.46
406.889	351.77
407.267	351.77
407.645	340.7
408.023	340.25
408.401	368.04
408.779	337.08
409.156	362.17
409.534	356.74
409.912	344.09
410.29	368.95
410.667	364.2
411.045	356.06
411.422	359.23
411.8	377.76
412.178	377.53
412.555	372.79
412.933	365.33
413.31	376.63
413.687	365.33
414.065	393.35
414.442	367.59
414.819	368.49
415.197	383.18
415.574	397.87
415.951	365.1
416.328	371.88
416.705	399.23
417.082	398.32
417.46	384.09
417.837	391.09
418.214	384.54
418.591	403.75
418.967	376.4
419.344	381.37
419.721	372.33
420.098	396.06
420.475	389.06
420.852	396.51
421.228	403.52
421.605	400.13
421.982	376.4
422.358	407.36
422.735	410.07
423.111	392.45
423.488	383.63
423.864	423.18
424.241	407.59
424.617	388.38
424.994	399.23
425.37	416.63
425.746	411.43
426.123	405.1
426.499	423.41
426.875	433.35
427.251	410.75
427.627	410.07
428.003	431.09
428.379	426.57
428.756	407.81
429.132	429.73
429.507	427.02
429.883	436.51
430.259	440.13
430.635	416.18
431.011	447.14
431.387	457.76
431.763	461.37
432.138	461.15
432.514	460.47
432.89	442.39
433.265	472.9
433.641	462.05
434.016	449.39
434.392	458.43
434.767	472.45
435.143	496.17
435.518	491.2
435.894	468.6
436.269	491.88
436.644	465.67
437.02	491.43
437.395	471.54
437.77	462.5
438.145	488.94
438.52	486.91
438.895	502.27
439.271	478.09
439.646	503.18
440.021	504.53
440.395	498.21
440.77	504.53
441.145	510.41
441.52	491.88
441.895	511.54
442.27	531.88
442.645	504.08
443.019	512.67
443.394	509.73
443.769	523.74
444.143	506.57
444.518	526
444.892	511.99
445.267	492.11
445.641	528.04
446.016	546.57
446.39	526
446.764	552.9
447.139	520.35
447.513	528.04
447.887	524.42
448.262	521.71
448.636	549.05
449.01	546.57
449.384	544.76
449.758	554.7
450.132	549.96
450.506	526.46
450.88	547.02
451.254	565.78
451.628	551.09
452.002	568.04
452.376	558.54
452.75	572.33
453.123	580.46
453.497	577.3
453.871	577.98
454.244	588.83
454.618	595.38
454.992	569.17
455.365	579.56
455.739	599.67
456.112	611.2
456.486	592.22
456.859	613.23
457.232	595.83
457.606	612.55
457.979	608.71
458.352	619.56
458.725	623.63
459.099	616.17
459.472	635.6
459.845	630.86
460.218	634.02
460.591	648.26
460.964	632.44
461.337	643.97
461.71	643.51
462.083	636.73
462.456	675.15
462.829	671.76
463.201	659.33
463.574	672.44
463.947	690.07
464.32	684.87
464.692	690.74
465.065	666.79
465.438	692.55
465.81	709.28
466.183	689.84
466.555	726.22
466.928	700.46
467.3	722.16
467.672	719.44
468.045	705.66
468.417	710.41
468.789	721.48
469.161	727.13
469.534	745.88
469.906	746.56
470.278	769.61
470.65	780.23
471.022	767.8
471.394	788.82
471.766	793.79
472.138	792.21
472.51	805.32
472.882	801.25
473.253	799.44
473.625	806.9
473.997	821.36
474.369	801.93
474.74	848.71
475.112	847.8
475.484	813
475.855	845.77
476.227	863.62
476.598	892.32
476.97	889.38
477.341	885.32
477.713	906.56
478.084	896.16
478.455	913.11
478.827	899.55
479.198	939.78
479.569	960.34
479.94	943.39
480.311	955.14
480.682	991.98
481.053	982.04
481.424	1011.64
481.795	993.79
482.166	992.88
482.537	1003.28
482.908	1017.29
483.279	1026.33
483.65	1027.68
484.021	1047.57
484.391	1055.03
484.762	1068.81
485.133	1067.91
485.503	1096.16
485.874	1075.14
486.244	1084.86
486.615	1106.33
486.985	1105.87
487.356	1115.37
487.726	1100.45
488.097	1153.56
488.467	1149.94
488.837	1160.34
489.207	1181.35
489.578	1167.57
489.948	1182.03
490.318	1181.13
490.688	1208.47
491.058	1177.06
491.428	1204.63
491.798	1227.68
492.168	1231.75
492.538	1231.97
492.908	1257.06
493.278	1223.16
493.648	1252.54
494.017	1262.03
494.387	1224.74
494.757	1247.34
495.126	1262.93
495.496	1258.19
495.866	1285.08
496.235	1311.52
496.605	1304.74
496.974	1314.68
497.344	1314.68
497.713	1290.05
498.082	1272.88
498.452	1307.9
498.821	1294.34
499.19	1332.54
499.559	1344.29
499.928	1309.71
500.298	1321.69
500.667	1348.58
501.036	1316.72
501.405	1347.9
501.774	1339.99
502.143	1341.57
502.512	1344.96
502.88	1334.12
503.249	1335.7
503.618	1382.25
503.987	1344.96
504.356	1362.14
504.724	1347
505.093	1357.17
505.462	1377.28
505.83	1388.35
506.199	1379.77
506.567	1348.81
506.936	1369.37
507.304	1408.47
507.672	1395.58
508.041	1406.66
508.409	1422.93
508.777	1408.24
509.145	1416.38
509.514	1417.96
509.882	1401.69
510.25	1412.53
510.618	1411.86
510.986	1450.5
511.354	1385.42
511.722	1431.74
512.09	1439.2
512.458	1444.4
512.826	1442.82
513.193	1426.54
513.561	1444.4
513.929	1456.15
514.297	1452.31
514.664	1483.49
515.032	1452.76
515.4	1464.74
515.767	1426.32
516.135	1462.02
516.502	1471.74
516.869	1466.77
517.237	1484.62
517.604	1473.55
517.972	1500.44
518.339	1467.9
518.706	1469.71
519.073	1477.62
519.44	1483.94
519.808	1490.27
520.175	1511.06
520.542	1508.12
520.909	1495.92
521.276	1507.9
521.643	1502.93
522.009	1508.12
522.376	1467.22
522.743	1511.74
523.11	1537.95
523.477	1537.5
523.843	1537.5
524.21	1512.19
524.577	1563.26
524.943	1577.27
525.31	1543.15
525.676	1545.41
526.043	1562.36
526.409	1580.21
526.776	1587.67
527.142	1558.74
527.508	1577.73
527.874	1589.48
528.241	1569.37
528.607	1603.04
528.973	1589.93
529.339	1587.9
529.705	1580.89
530.071	1597.84
530.437	1583.83
530.803	1604.39
531.169	1586.99
531.535	1603.94
531.901	1617.27
532.267	1615.01
532.632	1581.12
532.998	1621.79
533.364	1592.64
533.73	1616.14
534.095	1609.14
534.461	1624.05
534.826	1614.34
535.192	1634.45
535.557	1652.75
535.923	1632.19
536.288	1613.43
536.653	1648.01
537.019	1626.31
537.384	1668.35
537.749	1642.13
538.114	1632.87
538.479	1633.09
538.845	1616.37
539.21	1628.57
539.575	1677.61
539.94	1621.12
540.305	1651.62
540.67	1636.48
541.034	1646.2
541.399	1644.17
541.764	1632.87
542.129	1658.85
542.494	1646.43
542.858	1652.53
543.223	1645.3
543.587	1662.7
543.952	1653.21
544.316	1644.62
544.681	1656.82
545.045	1676.93
545.41	1669.02
545.774	1673.77
546.138	1679.42
546.503	1687.78
546.867	1648.46
547.231	1665.41
547.595	1678.97
547.959	1688.01
548.324	1699.08
548.688	1666.99
549.052	1686.2
549.416	1673.09
549.779	1670.61
550.143	1674.22
550.507	1693.66
550.871	1688.01
551.235	1667.89
551.599	1704.5
551.962	1686.65
552.326	1692.07
552.689	1662.47
553.053	1669.93
553.417	1691.4
553.78	1697.5
554.143	1696.14
554.507	1678.97
554.87	1667.44
555.234	1699.08
555.597	1695.69
555.96	1670.83
556.323	1710.6
556.686	1661.34
557.05	1730.72
557.413	1690.27
557.776	1722.58
558.139	1716.93
558.502	1707.44
558.865	1737.27
559.228	1728.01
559.59	1717.16
559.953	1728.91
560.316	1751.28
560.679	1725.29
561.041	1747.44
561.404	1755.35
561.767	1755.35
562.129	1764.16
562.492	1787.89
562.854	1775.69
563.217	1740.89
563.579	1750.6
563.941	1752.19
564.304	1767.55
564.666	1789.02
565.028	1788.79
565.39	1759.64
565.753	1771.17
566.115	1783.37
566.477	1813.43
566.839	1790.6
567.201	1788.79
567.563	1784.28
567.925	1783.82
568.287	1791.51
568.648	1791.28
569.01	1779.98
569.372	1800.77
569.734	1802.81
570.095	1827.44
570.457	1814.33
570.819	1817.04
571.18	1825.4
571.542	1823.6
571.903	1822.92
572.265	1823.37
572.626	1834.22
572.987	1837.38
573.349	1845.29
573.71	1855.69
574.071	1840.54
574.432	1847.78
574.794	1855.46
575.155	1895.68
575.516	1841.22
575.877	1849.13
576.238	1834.67
576.599	1878.28
576.96	1879.64
577.32	1847.1
577.681	1873.76
578.042	1852.75
578.403	1841.9
578.763	1862.47
579.124	1874.67
579.485	1855.69
579.845	1880.77
580.206	1865.63
580.566	1904.95
580.927	1878.51
581.287	1857.04
581.648	1848
582.008	1882.58
582.368	1873.31
582.728	1897.27
583.089	1882.13
583.449	1903.59
583.809	1883.93
584.169	1892.52
584.529	1908.34
584.889	1872.86
585.249	1915.35
585.609	1897.04
585.969	1877.38
586.329	1928.9
586.688	1882.58
587.048	1878.74
587.408	1882.8
587.768	1870.15
588.127	1871.73
588.487	1888.91
588.846	1906.08
589.206	1896.59
589.565	1899.75
589.925	1900.66
590.284	1895.23
590.643	1892.07
591.003	1897.04
591.362	1944.04
591.721	1879.19
592.08	1885.74
592.44	1908.11
592.799	1928.9
593.158	1921.22
593.517	1922.35
593.876	1899.3
594.235	1911.96
594.593	1906.08
594.952	1912.86
595.311	1932.75
595.67	1906.31
596.029	1964.16
596.387	1945.63
596.746	1919.41
597.104	1920.09
597.463	1935.01
597.822	1917.38
598.18	1949.02
598.538	1970.26
598.897	1932.29
599.255	1929.58
599.613	1965.97
599.972	1936.81
600.33	1979.98
600.688	1937.72
601.046	1943.82
601.404	1959.19
601.762	1960.54
602.12	1950.6
602.478	1953.08
602.836	1939.98
603.194	1973.42
603.552	1971.84
603.91	1972.29
604.268	1952.41
604.625	1957.6
604.983	1957.83
605.341	1956.93
605.698	1989.47
606.056	1989.24
606.413	1955.34
606.771	1973.87
607.128	1977.49
607.485	1970.94
607.843	2018.62
608.2	1986.76
608.557	2012.07
608.914	1989.92
609.272	2014.1
609.629	2010.26
609.986	1996.02
610.343	1981.33
610.7	2017.94
611.057	2005.29
611.414	2005.29
611.771	2025.17
612.127	1998.05
612.484	2031.5
612.841	1997.38
613.198	2010.03
613.554	2029.69
613.911	2012.52
614.267	2024.72
614.624	2045.06
614.98	2024.04
615.337	2062.69
615.693	2070.14
616.05	2037.38
616.406	2032.63
616.762	2060.43
617.118	2058.17
617.475	2054.32
617.831	2073.08
618.187	2036.92
618.543	2074.66
618.899	2051.39
619.255	2081.89
619.611	2032.63
619.967	2088.67
620.323	2074.21
620.678	2049.58
621.034	2082.12
621.39	2061.1
621.746	2060.43
622.101	2077.15
622.457	2099.97
622.812	2082.57
623.168	2091.39
623.523	2096.13
623.879	2105.62
624.234	2078.96
624.589	2080.76
624.945	2076.47
625.3	2107.66
625.655	2112.63
626.01	2113.98
626.365	2113.98
626.72	2135.23
627.075	2135.45
627.43	2135.68
627.785	2116.47
628.14	2101.78
628.495	2185.62
628.85	2129.58
629.205	2161.44
629.559	2146.98
629.914	2158.28
630.269	2138.84
630.623	2154.66
630.978	2131.38
631.332	2111.05
631.687	2186.75
632.041	2156.24
632.396	2142.01
632.75	2153.98
633.104	2155.34
633.459	2196.02
633.813	2162.34
634.167	2142.01
634.521	2187.2
634.875	2198.73
635.229	2182.23
635.583	2134.1
635.937	2182.46
636.291	2196.47
636.645	2173.19
636.999	2177.71
637.352	2208.67
637.706	2176.58
638.06	2209.8
638.413	2183.13
638.767	2200.99
639.121	2212.29
639.474	2227.43
639.828	2221.1
640.181	2218.16
640.534	2225.39
640.888	2248.67
641.241	2233.98
641.594	2250.25
641.947	2260.19
642.301	2235.34
642.654	2240.31
643.007	2250.93
643.36	2249.35
643.713	2265.39
644.066	2275.11
644.419	2274.66
644.771	2249.35
645.124	2259.52
645.477	2263.36
645.83	2255
646.182	2232.62
646.535	2224.26
646.888	2265.62
647.24	2244.6
647.593	2231.27
647.945	2284.37
648.298	2301.32
648.65	2283.47
649.002	2284.83
649.355	2327.31
649.707	2335.67
650.059	2309.69
650.411	2350.36
650.763	2375.9
651.115	2369.34
651.467	2398.5
651.819	2412.51
652.171	2455.67
652.523	2419.74
652.875	2444.6
653.227	2419.51
653.578	2459.51
653.93	2458.61
654.282	2450.92
654.633	2436.91
654.985	2470.81
655.337	2511.04
655.688	2510.13
656.039	2502.45
656.391	2533.18
656.742	2516.69
657.094	2536.35
657.445	2514.65
657.796	2532.05
658.147	2502.22
658.498	2540.19
658.849	2548.77
659.2	2613.18
659.551	2575.89
659.902	2616.12
660.253	2595.33
660.604	2661.77
660.955	2626.51
661.306	2645.5
661.656	2654.99
662.007	2667.87
662.358	2680.3
662.708	2727.3
663.059	2715.55
663.409	2698.83
663.76	2711.03
664.11	2720.52
664.461	2720.75
664.811	2784.7
665.161	2776.57
665.511	2799.16
665.862	2792.16
666.212	2845.94
666.562	2833.06
666.912	2816.56
667.262	2815.89
667.612	2851.59
667.962	2878.94
668.312	2854.76
668.662	2867.41
669.011	2906.28
669.361	2869.22
669.711	2905.6
670.06	2906.28
670.41	2905.83
670.76	2931.82
671.109	2959.16
671.459	2931.14
671.808	2976.33
672.157	2996.45
672.507	2978.59
672.856	2997.12
673.205	3026.73
673.554	3039.38
673.904	2996.45
674.253	3057.24
674.602	3062.66
674.951	3026.73
675.3	3021.08
675.649	3091.13
675.998	3100.62
676.346	3097.91
676.695	3109.44
677.044	3084.81
677.393	3142.88
677.741	3163.45
678.09	3126.84
678.438	3165.71
678.787	3180.17
679.135	3172.49
679.484	3168.19
679.832	3180.4
680.181	3201.86
680.529	3200.06
680.877	3223.56
681.225	3256.78
681.573	3273.5
681.922	3237.34
682.27	3256.33
682.618	3278.7
682.966	3261.98
683.314	3266.04
683.661	3276.21
684.009	3254.29
684.357	3285.25
684.705	3280.51
685.053	3296.1
685.4	3267.17
685.748	3297.23
686.095	3278.93
686.443	3302.2
686.79	3321.64
687.138	3355.76
687.485	3366.15
687.832	3309.88
688.18	3330.9
688.527	3357.12
688.874	3368.87
689.221	3334.97
689.568	3354.4
689.915	3341.07
690.262	3398.7
690.609	3337.23
690.956	3354.4
691.303	3383.78
691.65	3321.64
691.997	3355.31
692.344	3379.71
692.69	3354.4
693.037	3355.53
693.383	3373.16
693.73	3382.2
694.077	3324.57
694.423	3363.22
694.769	3376.78
695.116	3339.94
695.462	3349.66
695.808	3346.95
696.155	3384.01
696.501	3332.26
696.847	3345.14
697.193	3344.23
697.539	3343.1
697.885	3362.76
698.231	3343.78
698.577	3366.61
698.923	3348.3
699.269	3320.51
699.614	3315.31
699.96	3345.59
700.306	3348.98
700.651	3317.34
700.997	3279.83
701.342	3292.48
701.688	3340.39
702.033	3296.33
702.379	3310.79
702.724	3278.7
703.069	3319.38
703.415	3277.34
703.76	3289.32
704.105	3299.26
704.45	3272.82
704.795	3263.78
705.14	3274.18
705.485	3279.6
705.83	3231.24
706.175	3294.52
706.52	3271.47
706.865	3215.2
707.209	3258.13
707.554	3250.23
707.899	3254.74
708.243	3235.99
708.588	3230.11
708.932	3215.88
709.277	3258.36
709.621	3209.77
709.966	3217.46
710.31	3231.92
710.654	3199.15
710.998	3210
711.342	3181.75
711.687	3184.92
712.031	3172.49
712.375	3205.25
712.719	3227.85
713.063	3205.48
713.407	3225.37
713.75	3222.2
714.094	3225.82
714.438	3221.98
714.782	3162.77
715.125	3219.94
715.469	3210.68
715.812	3205.93
716.156	3153.28
716.499	3189.66
716.843	3197.57
717.186	3138.59
717.53	3218.81
717.873	3168.65
718.216	3170
718.559	3188.98
718.902	3138.14
719.246	3174.07
719.589	3172.49
719.932	3166.16
720.275	3164.35
720.617	3177.91
720.96	3149.21
721.303	3157.8
721.646	3204.58
721.989	3174.07
722.331	3182.66
722.674	3172.49
723.016	3144.01
723.359	3173.17
723.701	3162.77
724.044	3167.29
724.386	3175.88
724.729	3190.34
725.071	3216.1
725.413	3166.16
725.755	3197.57
726.097	3167.52
726.439	3181.75
726.782	3164.35
727.124	3195.76
727.465	3179.27
727.807	3165.48
728.149	3217.23
728.491	3187.63
728.833	3177.23
729.175	3187.85
729.516	3185.59
729.858	3181.07
730.199	3232.15
730.541	3203.45
730.882	3203.67
731.224	3222.43
731.565	3220.17
731.906	3202.77
732.248	3214.97
732.589	3200.51
732.93	3209.32
733.271	3213.62
733.612	3206.16
733.953	3217.01
734.294	3244.12
734.635	3207.06
734.976	3193.5
735.317	3230.11
735.658	3200.74
735.999	3271.69
736.339	3257.91
736.68	3241.64
737.021	3246.84
737.361	3244.12
737.702	3287.74
738.042	3280.73
738.383	3228.08
738.723	3255.87
739.063	3272.82
739.404	3261.52
739.744	3286.16
740.084	3268.08
740.424	3317.79
740.764	3326.61
741.104	3343.56
741.444	3347.4
741.784	3331.35
742.124	3315.76
742.464	3338.36
742.804	3365.02
743.143	3367.74
743.483	3379.04
743.823	3384.69
744.162	3397.79
744.502	3422.88
744.841	3386.94
745.181	3412.93
745.52	3423.33
745.86	3427.62
746.199	3463.78
746.538	3444.8
746.877	3462.2
747.216	3493.83
747.556	3501.29
747.895	3522.08
748.234	3554.17
748.573	3528.18
748.911	3561.86
749.25	3569.99
749.589	3624.68
749.928	3605.92
750.267	3620.61
750.605	3611.35
750.944	3648.41
751.283	3674.39
751.621	3688.86
751.96	3672.36
752.298	3684.11
752.636	3744.45
752.975	3779.93
753.313	3773.15
753.651	3822.64
753.989	3798.23
754.327	3837.1
754.666	3824.9
755.004	3858.12
755.342	3864.67
755.679	3918
756.017	3933.37
756.355	3933.6
756.693	3957.55
757.031	3947.38
757.368	3988.06
757.706	4050.66
758.044	4035.52
758.381	4026.7
758.719	4039.36
759.056	4056.76
759.394	4106.25
759.731	4092.91
760.068	4084.1
760.405	4158.22
760.743	4111.67
761.08	4176.75
761.417	4176.08
761.754	4142.18
762.091	4201.61
762.428	4170.2
762.765	4211.56
763.102	4230.54
763.438	4225.79
763.775	4197.32
764.112	4263.31
764.449	4268.05
764.785	4234.83
765.122	4240.93
765.458	4252.23
765.795	4270.09
766.131	4257.2
766.467	4221.5
766.804	4258.11
767.14	4238
767.476	4277.32
767.812	4280.25
768.148	4256.53
768.485	4284.77
768.821	4247.04
769.157	4327.94
769.492	4286.58
769.828	4310.99
770.164	4263.31
770.5	4266.24
770.836	4273.02
771.171	4266.92
771.507	4251.1
771.842	4221.73
772.178	4186.7
772.513	4220.82
