Data from blue_shiny_book_FLMS001491_00043.txt Node
Date: Wed Feb 08 15:27:00 GMT 2017
User: dcchb
Spectrometer: FLMS00149
Trigger mode: 0
Integration Time (sec): 2.000000E-2
Scans to average: 10
Electric dark correction enabled: true
Nonlinearity correction enabled: false
Boxcar width: 0
XAxis mode: Wavelengths
Number of Pixels in Spectrum: 2048
>>>>>Begin Spectral Data<<<<<
341.393	-11.06
341.776	-11.06
342.16	-11.06
342.543	-61.45
342.927	-77.72
343.31	-52.41
343.693	-76.37
344.077	-51.28
344.46	-68.23
344.843	-38.4
345.226	-48.35
345.61	-26.43
345.993	-21.23
346.376	-10.16
346.759	4.31
347.142	22.84
347.525	33.46
347.908	57.87
348.291	85.44
348.674	98.32
349.057	90.63
349.44	129.95
349.823	135.38
350.206	161.59
350.588	189.16
350.971	219.44
351.354	225.77
351.737	234.81
352.119	247.69
352.502	262.38
352.884	263.51
353.267	306.9
353.65	285.43
354.032	308.93
354.414	321.81
354.797	336.05
355.179	327.69
355.562	323.4
355.944	318.88
356.326	355.94
356.709	353.68
357.091	333.34
357.473	343.73
357.855	341.02
358.238	359.33
358.62	350.29
359.002	352.55
359.384	347.58
359.766	362.04
360.148	371.08
360.53	357.29
360.912	355.26
361.294	336.05
361.676	337.63
362.057	339.44
362.439	364.52
362.821	352.1
363.203	348.48
363.584	330.17
363.966	324.3
364.348	343.51
364.729	332.89
365.111	334.92
365.493	360.23
365.874	326.33
366.256	349.84
366.637	359.55
367.019	330.63
367.4	359.1
367.781	348.48
368.163	341.25
368.544	330.4
368.925	358.2
369.306	325.43
369.688	307.58
370.069	336.05
370.45	356.61
370.831	346.22
371.212	343.06
371.593	333.56
371.974	335.82
372.355	352.77
372.736	333.11
373.117	366.56
373.498	379.44
373.879	361.13
374.26	360.46
374.641	372.43
375.021	351.87
375.402	359.1
375.783	382.15
376.163	370.85
376.544	389.83
376.925	377.63
377.305	354.58
377.686	358.42
378.066	375.82
378.447	391.87
378.827	390.96
379.208	389.83
379.588	404.75
379.968	373.34
380.349	368.37
380.729	377.63
381.109	398.65
381.489	391.42
381.87	413.56
382.25	414.47
382.63	393.9
383.01	404.3
383.39	411.98
383.77	414.01
384.15	414.69
384.53	433.45
384.91	431.64
385.29	418.08
385.67	430.74
386.049	421.47
386.429	452.43
386.809	446.78
387.189	436.61
387.568	462.37
387.948	451.75
388.328	458.31
388.707	460.79
389.087	432.09
389.466	451.08
389.846	442.94
390.225	484.75
390.605	465.09
390.984	491.07
391.363	504.63
391.743	493.33
392.122	532.2
392.501	512.54
392.881	523.16
393.26	519.32
393.639	518.19
394.018	512.99
394.397	518.19
394.776	513.45
395.155	526.78
395.534	529.04
395.913	542.82
396.292	551.86
396.671	555.48
397.05	556.16
397.429	577.4
397.808	565.42
398.186	553.45
398.565	570.17
398.944	565.87
399.323	575.14
399.701	578.53
400.08	608.13
400.458	609.26
400.837	598.19
401.215	617.4
401.594	613.56
401.972	614.46
402.351	657.4
402.729	644.74
403.107	676.83
403.486	664.18
403.864	672.09
404.242	656.27
404.62	676.83
404.999	676.38
405.377	708.47
405.755	675.93
406.133	704.63
406.511	726.77
406.889	704.18
407.267	728.58
407.645	738.07
408.023	756.83
408.401	768.58
408.779	785.3
409.156	808.81
409.534	798.86
409.912	804.74
410.29	829.37
410.667	832.31
411.045	837.96
411.422	850.61
411.8	855.13
412.178	888.35
412.555	890.16
412.933	901.23
413.31	901.01
413.687	929.03
414.065	931.06
414.442	967.9
414.819	944.4
415.197	975.13
415.574	1001.12
415.951	1009.71
416.328	1015.35
416.705	1009.48
417.082	1010.84
417.46	1030.95
417.837	1066.65
418.214	1047.67
418.591	1074.56
418.967	1092.41
419.344	1113.43
419.721	1089.25
420.098	1076.37
420.475	1123.83
420.852	1130.15
421.228	1147.1
421.605	1158.85
421.982	1182.36
422.358	1205.86
422.735	1207.21
423.111	1212.64
423.488	1225.52
423.864	1234.56
424.241	1257.16
424.617	1278.17
424.994	1279.3
425.37	1258.06
425.746	1290.15
426.123	1319.53
426.499	1342.58
426.875	1356.14
427.251	1398.4
427.627	1418.96
428.003	1423.03
428.379	1468.68
428.756	1467.09
429.132	1471.39
429.507	1521.56
429.883	1519.3
430.259	1539.18
430.635	1555.23
431.011	1569.69
431.387	1580.99
431.763	1662.12
432.138	1663.47
432.514	1698.27
432.89	1695.11
433.265	1722.91
433.641	1752.74
434.016	1747.54
434.392	1800.19
434.767	1835.9
435.143	1799.29
435.518	1860.08
435.894	1872.96
436.269	1914.99
436.644	1940.98
437.02	1950.02
437.395	1981.88
437.77	2027.53
438.145	2048.55
438.52	2066.85
438.895	2089.22
439.271	2090.58
439.646	2143.01
440.021	2114.08
440.395	2165.15
440.77	2137.13
441.145	2167.64
441.52	2240.18
441.895	2237.47
442.27	2253.51
442.645	2262.55
443.019	2327.64
443.394	2335.09
443.769	2350.91
444.143	2330.35
444.518	2359.73
444.892	2357.01
445.267	2394.3
445.641	2428.42
446.016	2387.97
446.39	2459.16
446.764	2465.94
447.139	2504.58
447.513	2525.6
447.887	2523.11
448.262	2538.25
448.636	2521.53
449.01	2622.32
449.384	2613.5
449.758	2642.66
450.132	2671.58
450.506	2684.69
450.88	2723.33
451.254	2738.25
451.628	2751.35
452.002	2800.17
452.376	2822.54
452.75	2875.19
453.123	2894.18
453.497	2960.61
453.871	2990.67
454.244	3017.56
454.618	3029.31
454.992	3095.53
455.365	3062.53
455.739	3166.03
456.112	3170.78
456.486	3270.21
456.859	3260.04
457.232	3298.23
457.606	3356.99
457.979	3395.63
458.352	3469.3
458.725	3521.96
459.099	3541.84
459.472	3576.64
459.845	3661.16
460.218	3655.06
460.591	3655.29
460.964	3726.47
461.337	3793.81
461.71	3823.42
462.083	3902.51
462.456	3918.1
462.829	3985.9
463.201	4033.81
463.574	4065.22
463.947	4176.4
464.32	4257.76
464.692	4270.86
465.065	4293.69
465.438	4349.73
465.81	4446.9
466.183	4447.35
466.555	4528.93
466.928	4594.7
467.3	4610.74
467.672	4685.31
468.045	4754.69
468.417	4809.61
468.789	4889.38
469.161	4923.05
469.534	5017.74
469.906	5127.56
470.278	5145.42
470.65	5198.97
471.022	5294.11
471.394	5368.23
471.766	5459.98
472.138	5490.27
472.51	5611.39
472.882	5687.55
473.253	5779.52
473.625	5827.88
473.997	6006.86
474.369	6032.4
474.74	6127.54
475.112	6243.47
475.484	6391.03
475.855	6483.01
476.227	6513.29
476.598	6664.25
476.97	6715.09
477.341	6925.71
477.713	6995.76
478.084	7035.76
478.455	7231.46
478.827	7259.48
479.198	7478.01
479.569	7461.06
479.94	7740.15
480.311	7879.13
480.682	7995.28
481.053	8210.65
481.424	8360.92
481.795	8440.47
482.166	8569.96
482.537	8697.86
482.908	8920.46
483.279	8912.1
483.65	9124.52
484.021	9329.71
484.391	9403.61
484.762	9485.19
485.133	9545.3
485.503	9744.62
485.874	9883.37
486.244	10038.39
486.615	10260.31
486.985	10377.37
487.356	10508.89
487.726	10707.53
488.097	10962.21
488.467	10996.56
488.837	11212.83
489.207	11244.46
489.578	11525.13
489.948	11626.83
490.318	11801.74
490.688	11861.17
491.058	11967.61
491.428	12161.5
491.798	12372.12
492.168	12605.11
492.538	12668.83
492.908	12814.14
493.278	12946.11
493.648	13040.8
494.017	13226.78
494.387	13364.63
494.757	13455.93
495.126	13723.95
495.496	13676.49
495.866	13816.83
496.235	13930.04
496.605	14110.38
496.974	14209.36
497.344	14282.35
497.713	14338.39
498.082	14512.63
498.452	14700.64
498.821	14716.24
499.19	14860.64
499.559	14947.42
499.928	15120.75
500.298	15272.61
500.667	15403.68
501.036	15466.73
501.405	15601.64
501.774	15648.87
502.143	15785.81
502.512	15841.86
502.88	16066.71
503.249	15994.62
503.618	16217.44
503.987	16203.2
504.356	16376.53
504.724	16486.36
505.093	16607.26
505.462	16666.02
505.83	16877.54
506.199	16968.16
506.567	17089.51
506.936	17171.09
507.304	17364.08
507.672	17376.73
508.041	17623.96
508.409	17612.88
508.777	17842.03
509.145	17902.14
509.514	18102.59
509.882	18136.71
510.25	18239.08
510.618	18436.37
510.986	18453.99
511.354	18690.14
511.722	18839.29
512.09	18931.49
512.458	18922.91
512.826	19145.73
513.193	19219.85
513.561	19337.58
513.929	19638.59
514.297	19549.56
514.664	19708.87
515.032	19827.97
515.4	20097.11
515.767	20114.51
516.135	20356.54
516.502	20292.14
516.869	20732.35
517.237	20728.28
517.604	20766.25
517.972	21022.74
518.339	21196.52
518.706	21113.81
519.073	21366.23
519.44	21401.94
519.808	21793.57
520.175	21638.09
520.542	21984.97
520.909	22110.62
521.276	22241.69
521.643	22422.7
522.009	22534.79
522.376	22756.7
522.743	22927.55
523.11	23019.07
523.477	23291.38
523.843	23463.13
524.21	23924.13
524.577	24026.28
524.943	24052.72
525.31	24145.14
525.676	24433.27
526.043	24692.92
526.409	24709.87
526.776	24931.34
527.142	25097.21
527.508	25254.72
527.874	25478.67
528.241	25479.8
528.607	25612.45
528.973	25760.47
529.339	25841.37
529.705	26054.24
530.071	26318.19
530.437	26551.41
530.803	26808.8
531.169	26952.75
531.535	26929.93
531.901	27204.72
532.267	27382.57
532.632	27460.08
532.998	27654.65
533.364	27857.81
533.73	27908.21
534.095	28049.22
534.461	27991.37
534.826	28293.06
535.192	28395.43
535.557	28531.47
535.923	28508.19
536.288	28696.43
536.653	28787.73
537.019	28821.63
537.384	28839.03
537.749	29167.38
538.114	29254.39
538.479	29329.86
538.845	29502.29
539.21	29483.53
539.575	29626.13
539.94	29833.81
540.305	30123.06
540.67	30071.99
541.034	30102.95
541.399	30342.04
541.764	30296.84
542.129	30406.45
542.494	30491.19
542.858	30472.66
543.223	30541.58
543.587	30658.19
543.952	30703.39
544.316	30834.91
544.681	30950.61
545.045	31082.81
545.41	31057.95
545.774	31236.71
546.138	31311.51
546.503	31331.62
546.867	31439.64
547.231	31826.07
547.595	31871.94
547.959	32119.62
548.324	32101.32
548.688	32179.73
549.052	32365.49
549.416	32464.92
549.779	32490.69
550.143	32503.34
550.507	32667.63
550.871	32763.9
551.235	32593.96
551.599	32813.39
551.962	32750.11
552.326	32824.01
552.689	33024.23
553.053	32864.46
553.417	33107.62
553.78	33353.71
554.143	33387.16
554.507	33548.28
554.87	33635.29
555.234	34069.4
555.597	34008.84
555.96	34254.25
556.323	34345.33
556.686	34409.96
557.05	34672.55
557.413	34796.16
557.776	34767.46
558.139	34975.82
558.502	34937.63
558.865	35036.61
559.228	35162.25
559.59	35111.18
559.953	35150.95
560.316	35527.22
560.679	35479.08
561.041	35764.05
561.404	35884.49
561.767	36043.36
562.129	35926.08
562.492	36380.07
562.854	36342.11
563.217	36476.12
563.579	36655.77
563.941	36949.33
564.304	37156.78
564.666	37423.89
565.028	37399.48
565.39	37626.37
565.753	37897.77
566.115	37945.23
566.477	38065.45
566.839	38161.95
567.201	38306.13
567.563	38281.04
567.925	38490.75
568.287	38353.13
568.648	38401.72
569.01	38454.37
569.372	38645.55
569.734	38491.43
570.095	38815.94
570.457	39013
570.819	39211.19
571.18	39237.4
571.542	39338.64
571.903	39624.51
572.265	39844.39
572.626	39753.32
572.987	39985.4
573.349	40301.78
573.71	40600.75
574.071	40521.21
574.432	40598.95
574.794	40980.41
575.155	40892.27
575.516	40642.11
575.877	40812.27
576.238	40708.1
576.599	40940.41
576.96	40971.82
577.32	40986.51
577.681	41099.72
578.042	41085.04
578.403	41032.61
578.763	41047.75
579.124	41142.21
579.485	41116
579.845	41440.05
580.206	41392.37
580.566	41531.35
580.927	41628.98
581.287	41895.41
581.648	41918.46
582.008	42123.88
582.368	42076.42
582.728	42121.39
583.089	42196.87
583.449	42128.4
583.809	42369.52
584.169	42353.93
584.529	42326.58
584.889	42608.61
585.249	42146.7
585.609	42162.3
585.969	42249.52
586.329	42064.9
586.688	41991.23
587.048	42132.92
587.408	41968.4
587.768	41924.34
588.127	41932.7
588.487	41883.66
588.846	42217.21
589.206	41899.48
589.565	41990.1
589.925	42205.01
590.284	42069.64
590.643	42289.98
591.003	42610.19
591.362	42724.77
591.721	42609.52
592.08	42738.55
592.44	42877.3
592.799	42925.44
593.158	42985.32
593.517	42894.93
593.876	42910.75
594.235	42845.44
594.593	42994.82
594.952	42953.91
595.311	42739.46
595.67	42643.86
596.029	42887.93
596.387	42859.23
596.746	42800.7
597.104	42591.21
597.463	42585.79
597.822	42735.61
598.18	42550.99
598.538	42738.1
598.897	42747.59
599.255	42557.31
599.613	43075.04
599.972	42861.26
600.33	43152.55
600.688	43081.37
601.046	43243.62
601.404	43597.06
601.762	43514.58
602.12	43651.07
602.478	43796.83
602.836	43786.21
603.194	43539.89
603.552	43784.4
603.91	43546.89
604.268	43726.32
604.625	43409.04
604.983	43573.33
605.341	43202.49
605.698	43486.33
606.056	43457.85
606.413	43537.85
606.771	43617.17
607.128	43517.51
607.485	43310.74
607.843	43337.41
608.2	43527.01
608.557	43736.27
608.914	43547.34
609.272	43820.1
609.629	43966.99
609.986	44038.4
610.343	44155.69
610.7	44498.28
611.057	44355.01
611.414	44406.3
611.771	44509.8
612.127	44912.51
612.484	44738.05
612.841	44868.21
613.198	44740.08
613.554	44779.85
613.911	44960.41
614.267	44839.51
614.624	44763.36
614.98	45051.48
615.337	45002.45
615.693	44978.72
616.05	44737.37
616.406	44964.03
616.762	44789.57
617.118	44697.82
617.475	44726.3
617.831	44858.72
618.187	44747.54
618.543	44750.25
618.899	45067.53
619.255	44953.63
619.611	45001.54
619.967	45109.11
620.323	45185.72
620.678	45209.22
621.034	45138.04
621.39	45385.71
621.746	45301.42
622.101	45783.22
622.457	45427.29
622.812	45712.48
623.168	45758.58
623.523	45631.13
623.879	45927.85
624.234	45580.74
624.589	45614.41
624.945	45757.68
625.3	45635.88
625.655	45496.67
626.01	45514.3
626.365	45477.69
626.72	45366.5
627.075	45307.75
627.43	45223.23
627.785	45081.77
628.14	45226.62
628.495	45161.09
628.85	45238.15
629.205	44969.45
629.559	45173.06
629.914	44888.1
630.269	45113.86
630.623	44997.93
630.978	45062.56
631.332	45275.21
631.687	45517.69
632.041	45212.16
632.396	45386.39
632.75	45084.25
633.104	45380.06
633.459	45199.5
633.813	45266.39
634.167	45388.65
634.521	45191.59
634.875	45224.14
635.229	45118.83
635.583	44998.6
635.937	45049.45
636.291	45034.08
636.645	45004.03
636.999	44796.58
637.352	44787.31
637.706	44414.89
638.06	44622.34
638.413	44402.69
638.767	44291.73
639.121	44112.75
639.474	43847
639.828	43983.94
640.181	44050.83
640.534	43864.17
640.888	43861.69
641.241	43844.96
641.594	43807.22
641.947	43876.83
642.301	43903.27
642.654	43936.26
643.007	43915.24
643.36	43979.42
643.713	43772.2
644.066	44065.52
644.419	43961.8
644.771	44023.94
645.124	43875.47
645.477	44009.48
645.83	43594.12
646.182	43056.51
646.535	42675.73
646.888	42662.17
647.24	42496.75
647.593	42641.6
647.945	42585.56
648.298	42185.12
648.65	42215.18
649.002	41914.62
649.355	42144.89
649.707	42103.54
650.059	42294.95
650.411	42675.73
650.763	42826.91
651.115	43209.5
651.467	42895.16
651.819	42833.92
652.171	42741.49
652.523	42757.31
652.875	42666.69
653.227	42603.87
653.578	42948.49
653.93	43013.57
654.282	42873.46
654.633	42587.37
654.985	42719.57
655.337	42709.17
655.688	42795.95
656.039	42989.84
656.391	42713.24
656.742	42776.97
657.094	42981.93
657.445	43141.48
657.796	43144.87
658.147	43011.54
658.498	42881.37
658.849	43182.83
659.2	42815.39
659.551	42894.93
659.902	43010.18
660.253	42961.6
660.604	43062.84
660.955	42691.1
661.306	42666.01
661.656	42536.07
662.007	42529.29
662.358	42371.78
662.708	42390.54
663.059	42213.37
663.409	41892.92
663.76	42260.15
664.11	42123.65
664.461	42103.31
664.811	42027.16
665.161	41987.38
665.511	42065.8
665.862	42150.54
666.212	42210.2
666.562	42182.41
666.912	42248.39
667.262	42298.56
667.612	42489.29
667.962	42567.71
668.312	42403.64
668.662	42699
669.011	42646.58
669.361	42798.21
669.711	42680.02
670.06	42550.31
670.41	42703.98
670.76	42446.81
671.109	42666.69
671.459	42392.35
671.808	42395.06
672.157	42435.73
672.507	42141.5
672.856	42222.86
673.205	42201.39
673.554	42213.59
673.904	42012.92
674.253	42273.7
674.602	41976.09
674.951	41299.49
675.3	40814.76
675.649	41534.52
675.998	41486.15
676.346	41149.21
676.695	41468.08
677.044	40957.58
677.393	41234.64
677.741	41203.9
678.09	41057.24
678.438	40997.81
678.787	41014.3
679.135	41058.6
679.484	40855.66
679.832	41269.89
680.181	41102.66
680.529	41296.56
680.877	41101.53
681.225	41201.87
681.573	41361.41
681.922	41206.61
682.27	41079.39
682.618	41151.25
682.966	41242.77
683.314	41162.77
683.661	41125.71
684.009	41008.2
684.357	40870.8
684.705	40709.23
685.053	40780.86
685.4	40622.45
685.748	40375.68
686.095	40249.8
686.443	39977.49
686.79	39907.21
687.138	39758.29
687.485	39780.89
687.832	39736.14
688.18	39582.48
688.527	39302.26
688.874	39201.47
689.221	39091.19
689.568	39031.53
689.915	38899.33
690.262	38780.92
690.609	38690.07
690.956	38572.79
691.303	38639.68
691.65	38420.7
691.997	38553.12
692.344	38256.41
692.69	38262.06
693.037	38302.06
693.383	38096.64
693.73	38361.04
694.077	38146.81
694.423	38229.29
694.769	38023.65
695.116	37916.31
695.462	38007.38
695.808	37858
696.155	37983.65
696.501	37735.97
696.847	37811
697.193	37505.92
697.539	37592.92
697.885	37320.84
698.231	37169.43
698.577	37148.64
698.923	36992.26
699.269	36873.17
699.614	36524.93
699.96	36267.99
700.306	36261.21
700.651	36179.63
700.997	35876.36
701.342	35773.54
701.688	35707.78
702.033	35500.78
702.379	35401.34
702.724	35358.63
703.069	35449.93
703.415	34924.52
703.76	34913.45
704.105	34960.68
704.45	34786.44
704.795	34772.43
705.14	34494.25
705.485	34348.72
705.83	34538.99
706.175	34468.26
706.52	34453.35
706.865	34264.2
707.209	34427.13
707.554	34517.75
707.899	34595.26
708.243	34239.11
708.588	34393.46
708.932	34186.23
709.277	34135.16
709.621	34349.39
709.966	34007.03
710.31	34181.49
710.654	33927.03
710.998	33906.47
711.342	33984.21
711.687	33989.4
712.031	33665.34
712.375	33531.34
712.719	33541.28
713.063	33422.19
713.407	33334.5
713.75	33271.23
714.094	33128.41
714.438	32941.07
714.782	32909.88
715.125	32708.53
715.469	32720.28
715.812	32373.85
716.156	32276.23
716.499	32217.92
716.843	32029.91
717.186	32047.31
717.53	32006.18
717.873	31921.21
718.216	31871.49
718.559	31834.43
718.902	31704.27
719.246	31742.91
719.589	31733.19
719.932	31623.14
720.275	31736.35
720.617	31871.72
720.96	31715.11
721.303	31776.13
721.646	31965.28
721.989	31673.53
722.331	31975.9
722.674	31881.21
723.016	31932.06
723.359	31826.97
723.701	31854.77
724.044	31580.43
724.386	31518.28
724.729	31777.94
725.071	31716.02
725.413	31750.82
725.755	31711.72
726.097	31632.63
726.439	31479.41
726.782	31452.07
727.124	31509.69
727.465	31272.19
727.807	31124.85
728.149	31048.46
728.491	30952.19
728.833	30931.18
729.175	30995.36
729.516	30855.7
729.858	30833.55
730.199	30875.13
730.541	30676.27
730.882	30705.42
731.224	30670.62
731.565	30380.23
731.906	30490.06
732.248	30519.89
732.589	30430.4
732.93	30239.45
733.271	30396.73
733.612	30456.84
733.953	30612.77
734.294	30400.8
734.635	30399.21
734.976	30514.24
735.317	30340.91
735.658	30423.39
735.999	30577.29
736.339	30540.45
736.68	30630.85
737.021	30582.94
737.361	30476.95
737.702	30640.11
738.042	30525.77
738.383	30648.93
738.723	30781.35
739.063	30576.39
739.404	30679.66
739.744	30645.76
740.084	30627.46
740.424	30688.7
740.764	30760.56
741.104	30808.47
741.444	30534.8
741.784	30478.76
742.124	30799.88
742.464	30554.24
742.804	30694.57
743.143	30410.29
743.483	30450.06
743.823	30308.14
744.162	30274.92
744.502	30265.66
744.841	30226.34
745.181	30217.75
745.52	30047.81
745.86	30167.13
746.199	30100.24
746.538	30039
746.877	30211.2
747.216	30063.86
747.556	30084.19
747.895	30206.68
748.234	30024.54
748.573	30053.69
748.911	30058.66
749.25	30182.5
749.589	30161.48
749.928	30162.38
750.267	30243.06
750.605	30295.26
750.944	30158.54
751.283	30261.37
751.621	30493.9
751.96	30335.49
752.298	30480.12
752.636	30580.23
752.975	30400.57
753.313	30565.54
