Data from blue_surface_keyboard_FLMS001491_031.txt Node
Date: Tue Feb 07 11:12:59 GMT 2017
User: dcchb
Spectrometer: FLMS00149
Trigger mode: 0
Integration Time (sec): 2.000000E-2
Scans to average: 10
Electric dark correction enabled: true
Nonlinearity correction enabled: false
Boxcar width: 0
XAxis mode: Wavelengths
Number of Pixels in Spectrum: 2048
>>>>>Begin Spectral Data<<<<<
341.393	-25.54
341.776	-25.54
342.16	-25.54
342.543	-41.58
342.927	-59.89
343.31	-61.69
343.693	-76.83
344.077	-73.22
344.46	-65.53
344.843	-47.23
345.226	-29.15
345.61	-29.6
345.993	-28.02
346.376	-0.23
346.759	9.72
347.142	18.08
347.525	36.61
347.908	55.14
348.291	65.99
348.674	92.88
349.057	133.1
349.44	128.36
349.823	130.39
350.206	145.98
350.588	168.81
350.971	181.46
351.354	192.31
351.737	197.28
352.119	222.37
352.502	218.53
352.884	252.42
353.267	270.5
353.65	267.79
354.032	278.18
354.414	274.12
354.797	289.71
355.179	294.68
355.562	285.19
355.944	316.15
356.326	312.99
356.709	306.43
357.091	297.62
357.473	320.22
357.855	317.73
358.238	305.98
358.62	317.51
359.002	311.18
359.384	319.09
359.766	310.73
360.148	309.6
360.53	294.91
360.912	325.42
361.294	307.34
361.676	321.57
362.057	300.56
362.439	290.16
362.821	300.56
363.203	297.62
363.584	299.88
363.966	299.88
364.348	302.14
364.729	303.04
365.111	290.16
365.493	295.13
365.874	287
366.256	294.68
366.637	283.16
367.019	286.55
367.4	292.65
367.781	269.37
368.163	268.47
368.544	273.67
368.925	273.21
369.306	258.3
369.688	288.35
370.069	275.25
370.45	271.18
370.831	295.59
371.212	294
371.593	289.94
371.974	305.3
372.355	308.92
372.736	281.12
373.117	283.83
373.498	285.42
373.879	292.65
374.26	290.84
374.641	286.55
375.021	278.64
375.402	290.16
375.783	295.36
376.163	279.99
376.544	301.46
376.925	296.94
377.305	289.03
377.686	284.96
378.066	304.4
378.447	309.37
378.827	326.55
379.208	298.75
379.588	290.84
379.968	311.63
380.349	307.56
380.729	292.42
381.109	301.69
381.489	295.81
381.87	303.27
382.25	324.74
382.63	313.89
383.01	304.85
383.39	312.76
383.77	302.14
384.15	305.3
384.53	310.5
384.91	291.07
385.29	301.24
385.67	303.27
386.049	318.41
386.429	320.22
386.809	312.76
387.189	320.44
387.568	302.59
387.948	298.3
388.328	283.38
388.707	303.04
389.087	325.64
389.466	316.38
389.846	300.56
390.225	319.54
390.605	300.11
390.984	315.47
391.363	331.06
391.743	332.42
392.122	319.99
392.501	321.8
392.881	324.51
393.26	330.16
393.639	332.65
394.018	315.02
394.397	314.34
394.776	327.68
395.155	324.06
395.534	298.98
395.913	319.09
396.292	324.51
396.671	325.87
397.05	316.83
397.429	335.58
397.808	325.42
398.186	332.42
398.565	327.45
398.944	334
399.323	334.45
399.701	326.55
400.08	341.91
400.458	316.38
400.837	329.26
401.215	321.12
401.594	334.23
401.972	339.88
402.351	321.8
402.729	337.17
403.107	341.23
403.486	351.63
403.864	347.56
404.242	359.31
404.62	352.99
404.999	349.14
405.377	354.79
405.755	334.23
406.133	338.07
406.511	337.84
406.889	362.48
407.267	364.74
407.645	351.86
408.023	359.31
408.401	375.36
408.779	364.74
409.156	385.53
409.534	366.09
409.912	378.97
410.29	370.39
410.667	388.92
411.045	359.54
411.422	375.13
411.8	375.58
412.178	372.42
412.555	360.67
412.933	385.53
413.31	363.61
413.687	372.87
414.065	376.26
414.442	363.61
414.819	377.62
415.197	368.58
415.574	399.54
415.951	373.32
416.328	398.18
416.705	393.44
417.082	378.07
417.46	369.26
417.837	386.66
418.214	391.63
418.591	378.52
418.967	373.55
419.344	377.84
419.721	382.14
420.098	389.37
420.475	406.99
420.852	395.47
421.228	391.85
421.605	414.23
421.982	389.59
422.358	395.7
422.735	398.18
423.111	402.02
423.488	414
423.864	415.13
424.241	392.53
424.617	439.54
424.994	401.12
425.37	430.5
425.746	413.55
426.123	422.14
426.499	419.88
426.875	410.61
427.251	417.62
427.627	419.2
428.003	431.18
428.379	443.83
428.756	433.66
429.132	438.63
429.507	423.72
429.883	450.61
430.259	437.5
430.635	435.92
431.011	464.39
431.387	435.02
431.763	459.87
432.138	444.96
432.514	464.17
432.89	458.52
433.265	463.72
433.641	469.14
434.016	471.17
434.392	454.9
434.767	477.05
435.143	466.2
435.518	466.88
435.894	491.06
436.269	477.05
436.644	497.16
437.02	479.99
437.395	498.29
437.77	496.03
438.145	477.05
438.52	486.54
438.895	479.08
439.271	504.62
439.646	501.91
440.021	489.93
440.395	508.01
440.77	533.09
441.145	517.95
441.52	496.48
441.895	517.5
442.27	522.02
442.645	510.95
443.019	511.4
443.394	506.2
443.769	512.3
444.143	505.3
444.518	528.8
444.892	519.76
445.267	523.15
445.641	551.4
446.016	525.86
446.39	541.68
446.764	532.42
447.139	524.51
447.513	541.45
447.887	542.81
448.262	543.26
448.636	548.01
449.01	545.07
449.384	545.07
449.758	552.53
450.132	573.32
450.506	552.75
450.88	561.34
451.254	554.79
451.628	579.42
452.002	562.7
452.376	555.24
452.75	589.36
453.123	574.22
453.497	595.92
453.871	556.37
454.244	587.33
454.618	576.26
454.992	600.66
455.365	588.46
455.739	598.63
456.112	604.28
456.486	590.94
456.859	599.53
457.232	616.03
457.606	583.49
457.979	620.55
458.352	620.77
458.725	628.68
459.099	636.14
459.472	629.59
459.845	624.62
460.218	623.26
460.591	639.53
460.964	650.38
461.337	656.48
461.71	637.27
462.083	658.51
462.456	660.32
462.829	678.63
463.201	652.19
463.574	661
463.947	667.78
464.32	672.52
464.692	686.31
465.065	679.76
465.438	697.38
465.81	703.94
466.183	699.42
466.555	708
466.928	700.55
467.3	715.69
467.672	728.79
468.045	744.39
468.417	735.12
468.789	723.6
469.161	748.45
469.534	745.07
469.906	764.73
470.278	737.61
470.65	771.73
471.022	755.91
471.394	785.97
471.766	787.55
472.138	766.08
472.51	790.49
472.882	794.56
473.253	811.05
473.625	785.97
473.997	808.57
474.369	819.64
474.74	834.1
475.112	821.45
475.484	841.56
475.855	849.7
476.227	876.36
476.598	863.71
476.97	870.26
477.341	882.69
477.713	901.22
478.084	898.96
478.455	906.64
478.827	922.91
479.198	926.76
479.569	924.72
479.94	958.62
480.311	957.94
480.682	962.23
481.053	952.97
481.424	1010.37
481.795	999.3
482.166	1004.72
482.537	1020.99
482.908	1024.83
483.279	1032.97
483.65	1059.63
484.021	1033.42
484.391	1056.47
484.762	1052.63
485.133	1079.07
485.503	1074.32
485.874	1086.98
486.244	1092.17
486.615	1089.69
486.985	1108.67
487.356	1110.25
487.726	1146.64
488.097	1164.72
488.467	1160.2
488.837	1162
489.207	1164.04
489.578	1162
489.948	1166.52
490.318	1174.88
490.688	1180.76
491.058	1225.5
491.428	1213.75
491.798	1205.62
492.168	1256.92
492.538	1241.55
492.908	1207.43
493.278	1242.45
493.648	1268.44
494.017	1268.67
494.387	1274.99
494.757	1269.57
495.126	1294.43
495.496	1274.54
495.866	1264.15
496.235	1281.77
496.605	1289.23
496.974	1296.24
497.344	1317.71
497.713	1329.68
498.082	1303.92
498.452	1309.8
498.821	1314.99
499.19	1306.41
499.559	1327.87
499.928	1298.04
500.298	1314.54
500.667	1327.65
501.036	1369.91
501.405	1332.85
501.774	1305.5
502.143	1332.62
502.512	1335.56
502.88	1360.19
503.249	1331.49
503.618	1338.27
503.987	1345.05
504.356	1351.38
504.724	1344.82
505.093	1347.76
505.462	1366.07
505.83	1376.01
506.199	1366.29
506.567	1377.82
506.936	1361.09
507.304	1404.03
507.672	1400.64
508.041	1395.44
508.409	1419.17
508.777	1408.1
509.145	1414.65
509.514	1395.44
509.882	1402.9
510.25	1405.39
510.618	1410.58
510.986	1411.04
511.354	1404.03
511.722	1434.99
512.09	1451.94
512.458	1442.22
512.826	1444.71
513.193	1430.47
513.561	1409.45
513.929	1454.88
514.297	1462.56
514.664	1448.55
515.032	1438.15
515.4	1452.84
515.767	1432.96
516.135	1471.6
516.502	1451.94
516.869	1469.57
517.237	1497.14
517.604	1463.69
517.972	1490.81
518.339	1489.45
518.706	1465.5
519.073	1467.98
519.44	1459.85
519.808	1491.03
520.175	1527.42
520.542	1503.46
520.909	1480.41
521.276	1499.4
521.643	1514.31
522.009	1501.66
522.376	1511.82
522.743	1524.71
523.11	1523.12
523.477	1505.72
523.843	1552.73
524.21	1549.34
524.577	1538.04
524.943	1558.38
525.31	1566.74
525.676	1563.8
526.043	1571.03
526.409	1564.25
526.776	1567.87
527.142	1566.29
527.508	1581.65
527.874	1545.95
528.241	1553.63
528.607	1586.62
528.973	1567.64
529.339	1576.91
529.705	1601.31
530.071	1613.52
530.437	1625.04
530.803	1619.84
531.169	1618.26
531.535	1593.4
531.901	1605.83
532.267	1591.37
532.632	1611.48
532.998	1642.22
533.364	1609.22
533.73	1609.9
534.095	1609
534.461	1622.33
534.826	1646.96
535.192	1641.76
535.557	1621.43
535.923	1637.7
536.288	1660.07
536.653	1594.53
537.019	1634.31
537.384	1638.15
537.749	1640.86
538.114	1664.36
538.479	1638.15
538.845	1660.52
539.21	1639.96
539.575	1622.1
539.94	1667.3
540.305	1629.56
540.67	1653.74
541.034	1625.95
541.399	1660.75
541.764	1663.46
542.129	1646.74
542.494	1641.99
542.858	1677.24
543.223	1648.54
543.587	1656
543.952	1648.09
544.316	1656.68
544.681	1670.24
545.045	1686.06
545.41	1663.01
545.774	1664.81
546.138	1668.88
546.503	1650.58
546.867	1637.7
547.231	1690.8
547.595	1630.47
547.959	1672.72
548.324	1674.53
548.688	1666.4
549.052	1675.66
549.416	1657.36
549.779	1681.54
550.143	1677.7
550.507	1704.14
550.871	1678.37
551.235	1650.13
551.599	1679.96
551.962	1705.04
552.326	1702.1
552.689	1703.68
553.053	1693.51
553.417	1689
553.78	1700.75
554.143	1685.38
554.507	1692.84
554.87	1697.58
555.234	1700.07
555.597	1680.63
555.96	1673.4
556.323	1695.77
556.686	1733.97
557.05	1730.8
557.413	1718.37
557.776	1696
558.139	1753.85
558.502	1726.73
558.865	1740.07
559.228	1714.31
559.59	1715.44
559.953	1719.28
560.316	1732.38
560.679	1727.19
561.041	1744.36
561.404	1703.01
561.767	1728.09
562.129	1726.06
562.492	1738.03
562.854	1780.74
563.217	1764.25
563.579	1756.79
563.941	1752.04
564.304	1752.5
564.666	1755.89
565.028	1779.39
565.39	1783.91
565.753	1764.47
566.115	1785.26
566.477	1782.33
566.839	1786.39
567.201	1798.14
567.563	1752.27
567.925	1821.42
568.287	1811.03
568.648	1807.41
569.01	1794.98
569.372	1797.92
569.734	1821.87
570.095	1794.98
570.457	1831.59
570.819	1835.66
571.18	1825.71
571.542	1827.07
571.903	1818.03
572.265	1844.02
572.626	1838.6
572.987	1842.44
573.349	1827.97
573.71	1844.02
574.071	1881.98
574.432	1846.96
574.794	1856.45
575.155	1848.76
575.516	1827.97
575.877	1878.59
576.238	1856.45
576.599	1851.7
576.96	1862.78
577.32	1876.11
577.681	1858.93
578.042	1847.64
578.403	1856.45
578.763	1855.09
579.124	1846.28
579.485	1852.15
579.845	1859.39
580.206	1868.2
580.566	1861.87
580.927	1881.08
581.287	1906.16
581.648	1858.93
582.008	1883.11
582.368	1896.45
582.728	1876.33
583.089	1855.09
583.449	1901.42
583.809	1898.26
584.169	1895.54
584.529	1872.27
584.889	1892.38
585.249	1881.31
585.609	1895.09
585.969	1911.14
586.329	1878.14
586.688	1884.47
587.048	1883.34
587.408	1871.82
587.768	1892.15
588.127	1900.29
588.487	1866.39
588.846	1897.8
589.206	1880.18
589.565	1879.95
589.925	1881.31
590.284	1912.04
590.643	1881.76
591.003	1928.08
591.362	1939.38
591.721	1903.9
592.08	1894.87
592.44	1894.41
592.799	1916.33
593.158	1902.1
593.517	1935.99
593.876	1905.26
594.235	1921.31
594.593	1903.9
594.952	1931.02
595.311	1943.45
595.67	1916.33
596.029	1918.37
596.387	1935.32
596.746	1968.08
597.104	1951.36
597.463	1925.83
597.822	1930.12
598.18	1925.15
598.538	1917.69
598.897	1917.46
599.255	1927.41
599.613	1949.78
599.972	1953.62
600.33	1917.92
600.688	1952.27
601.046	1956.56
601.404	1953.85
601.762	1962.66
602.12	1975.77
602.478	1970.12
602.836	1972.38
603.194	1964.24
603.552	1966.73
603.91	1944.81
604.268	1999.95
604.625	1973.96
604.983	1946.62
605.341	1934.41
605.698	1987.29
606.056	1958.82
606.413	1971.93
606.771	1966.05
607.128	1985.48
607.485	1988.2
607.843	1969.67
608.2	1990.46
608.557	1967.18
608.914	1978.93
609.272	1997.01
609.629	2013.05
609.986	2012.83
610.343	1997.69
610.7	2008.31
611.057	2012.38
611.414	2001.98
611.771	2033.84
612.127	2048.31
612.484	2015.31
612.841	2034.3
613.198	2043.79
613.554	2038.14
613.911	2033.39
614.267	2074.07
614.624	2001.3
614.98	2019.38
615.337	2032.49
615.693	2041.98
616.05	2034.75
616.406	2009.21
616.762	2034.97
617.118	2030.91
617.475	2050.79
617.831	2061.87
618.187	2086.5
618.543	2040.85
618.899	2070.91
619.255	2040.4
619.611	2064.35
619.967	2077.01
620.323	2063.9
620.678	2053.28
621.034	2085.82
621.39	2094.18
621.746	2052.38
622.101	2084.92
622.457	2072.49
622.812	2092.6
623.168	2105.71
623.523	2104.35
623.879	2095.76
624.234	2078.82
624.589	2099.15
624.945	2067.52
625.3	2099.38
625.655	2082.43
626.01	2106.61
626.365	2139.15
626.72	2119.27
627.075	2131.92
627.43	2145.03
627.785	2097.35
628.14	2101.64
628.495	2105.48
628.85	2132.6
629.205	2146.38
629.559	2154.97
629.914	2155.88
630.269	2153.62
630.623	2159.04
630.978	2140.96
631.332	2162.88
631.687	2168.53
632.041	2164.24
632.396	2177.34
632.75	2153.84
633.104	2166.95
633.459	2161.75
633.813	2138.93
634.167	2206.04
634.521	2180.06
634.875	2164.01
635.229	2157.68
635.583	2159.72
635.937	2202.43
636.291	2182.77
636.645	2193.84
636.999	2174.41
637.352	2169.21
637.706	2203.56
638.06	2174.86
638.413	2221.41
638.767	2198.81
639.121	2201.3
639.474	2189.32
639.828	2233.84
640.181	2199.72
640.534	2225.7
640.888	2225.03
641.241	2221.18
641.594	2256.66
641.947	2245.59
642.301	2252.82
642.654	2226.16
643.007	2257.12
643.36	2283.78
643.713	2249.88
644.066	2283.56
644.419	2293.5
644.771	2276.1
645.124	2250.79
645.477	2268.64
645.83	2263.9
646.182	2245.59
646.535	2263.67
646.888	2298.47
647.24	2276.55
647.593	2295.31
647.945	2253.27
648.298	2300.73
648.65	2296.21
649.002	2274.06
649.355	2313.84
649.707	2293.05
650.059	2310
650.411	2365.81
650.763	2375.3
651.115	2354.51
651.467	2420.05
651.819	2415.53
652.171	2387.96
652.523	2460.5
652.875	2438.13
653.227	2417.11
653.578	2451.91
653.93	2454.4
654.282	2460.95
654.633	2470.22
654.985	2466.15
655.337	2498.01
655.688	2519.71
656.039	2488.3
656.391	2497.56
656.742	2523.78
657.094	2529.65
657.445	2549.09
657.796	2492.82
658.147	2565.81
658.498	2559.48
658.849	2556.54
659.2	2612.81
659.551	2596.99
659.902	2625.02
660.253	2623.89
660.604	2678.8
660.955	2633.83
661.306	2614.17
661.656	2670.21
662.007	2667.95
662.358	2716.99
662.708	2702.3
663.059	2681.06
663.409	2693.94
663.76	2734.39
664.11	2724.45
664.461	2731.68
664.811	2766.25
665.161	2752.02
665.511	2785.69
665.862	2796.76
666.212	2797.21
666.562	2813.03
666.912	2845.57
667.262	2842.86
667.612	2872.47
667.962	2899.58
668.312	2845.57
668.662	2898.23
669.011	2930.32
669.361	2906.14
669.711	2952.46
670.06	2947.49
670.41	2935.97
670.76	2922.86
671.109	2959.02
671.459	2967.61
671.808	2935.52
672.157	2976.42
672.507	2965.12
672.856	3014.61
673.205	2992.69
673.554	3083.08
673.904	3049.86
674.253	3020.26
674.602	3045.8
674.951	2987.49
675.3	3015.29
675.649	3076.76
675.998	3111.78
676.346	3133.48
676.695	3118.56
677.044	3113.59
677.393	3133.48
677.741	3167.83
678.09	3140.26
678.438	3163.08
678.787	3181.61
679.135	3223.42
679.484	3172.8
679.832	3217.77
680.181	3188.84
680.529	3198.11
680.877	3208.05
681.225	3237.43
681.573	3269.52
681.922	3275.39
682.27	3260.25
682.618	3248.73
682.966	3274.94
683.314	3264.32
683.661	3282.63
684.009	3265.22
684.357	3275.17
684.705	3263.64
685.053	3300.25
685.4	3324.21
685.748	3288.05
686.095	3317.2
686.443	3314.49
686.79	3351.78
687.138	3323.98
687.485	3376.18
687.832	3332.57
688.18	3372.11
688.527	3354.26
688.874	3356.52
689.221	3361.72
689.568	3332.79
689.915	3389.97
690.262	3325.56
690.609	3356.3
690.956	3354.94
691.303	3384.32
691.65	3360.59
691.997	3348.61
692.344	3377.99
692.69	3374.15
693.037	3369.63
693.383	3342.74
693.73	3402.17
694.077	3369.18
694.423	3391.1
694.769	3387.48
695.116	3383.64
695.462	3394.49
695.808	3384.54
696.155	3380.02
696.501	3348.16
696.847	3346.8
697.193	3325.34
697.539	3365.79
697.885	3334.15
698.231	3369.85
698.577	3341.16
698.923	3330.53
699.269	3333.92
699.614	3343.19
699.96	3307.48
700.306	3330.53
700.651	3315.85
700.997	3329.63
701.342	3315.17
701.688	3312
702.033	3326.01
702.379	3313.59
702.724	3328.27
703.069	3286.92
703.415	3248.95
703.76	3293.47
704.105	3297.77
704.45	3317.2
704.795	3253.25
705.14	3292.57
705.485	3262.29
705.83	3288.73
706.175	3238.11
706.52	3213.02
706.865	3256.19
707.209	3254.38
707.554	3213.93
707.899	3213.7
708.243	3245.34
708.588	3230.2
708.932	3272.23
709.277	3214.15
709.621	3214.38
709.966	3211.89
710.31	3246.02
710.654	3214.15
710.998	3218.45
711.342	3204.89
711.687	3216.64
712.031	3243.76
712.375	3187.71
712.719	3206.92
713.063	3208.28
713.407	3219.58
713.75	3226.81
714.094	3222.97
714.438	3191.78
714.782	3203.98
715.125	3172.8
715.469	3236.98
715.812	3188.16
716.156	3184.55
716.499	3157.21
716.843	3188.62
717.186	3185.9
717.53	3196.07
717.873	3197.88
718.216	3179.8
718.559	3141.84
718.902	3142.97
719.246	3168.05
719.589	3135.28
719.932	3145.68
720.275	3224.1
720.617	3186.13
720.96	3182.06
721.303	3203.08
721.646	3185.23
721.989	3216.86
722.331	3176.19
722.674	3169.63
723.016	3184.55
723.359	3166.02
723.701	3170.09
724.044	3140.93
724.386	3162.85
724.729	3205.34
725.071	3207.15
725.413	3168.96
725.755	3195.62
726.097	3194.04
726.439	3146.36
726.782	3184.55
727.124	3147.26
727.465	3189.52
727.807	3162.4
728.149	3164.44
728.491	3187.94
728.833	3150.88
729.175	3177.32
729.516	3145.23
729.858	3192.91
730.199	3201.5
730.541	3173.48
730.882	3187.49
731.224	3199.46
731.565	3182.52
731.906	3202.18
732.248	3206.7
732.589	3223.19
732.93	3166.7
733.271	3210.09
733.612	3218.9
733.953	3234.72
734.294	3171.22
734.635	3207.83
734.976	3228.62
735.317	3229.29
735.658	3196.75
735.999	3240.37
736.339	3256.19
736.68	3235.85
737.021	3248.5
737.361	3250.08
737.702	3290.99
738.042	3208.73
738.383	3264.55
738.723	3309.07
739.063	3272.68
739.404	3230.42
739.744	3307.48
740.084	3307.03
740.424	3289.63
740.764	3297.31
741.104	3346.13
741.444	3324.43
741.784	3340.93
742.124	3295.05
742.464	3348.39
742.804	3356.52
743.143	3354.71
743.483	3374.83
743.823	3397.65
744.162	3360.59
744.502	3396.07
744.841	3389.52
745.181	3410.98
745.52	3405.56
745.86	3431.77
746.199	3438.1
746.538	3447.37
746.877	3505.22
747.216	3499.34
747.556	3530.3
747.895	3557.42
748.234	3544.99
748.573	3545.9
748.911	3525.33
749.25	3560.36
749.589	3613.92
749.928	3584.54
750.267	3610.53
750.605	3614.82
750.944	3659.79
751.283	3662.73
751.621	3681.26
751.96	3730.98
752.298	3698.89
752.636	3738.43
752.975	3753.12
753.313	3761.93
753.651	3822.72
753.989	3821.14
754.327	3794.48
754.666	3849.16
755.004	3878.54
755.342	3864.08
755.679	3916.28
756.017	3911.08
756.355	3965.55
756.693	3925.32
757.031	3955.38
757.368	3984.08
757.706	3985.88
758.044	4041.93
758.381	4051.19
758.719	4086.9
759.056	4102.04
759.394	4103.17
759.731	4110.17
760.068	4141.59
760.405	4130.06
760.743	4162.83
761.08	4168.7
761.417	4183.17
761.754	4163.05
762.091	4182.26
762.428	4203.28
762.765	4192.88
763.102	4211.64
763.438	4219.55
763.775	4225.65
764.112	4242.15
764.449	4256.16
764.785	4287.8
765.122	4260.23
765.458	4235.59
765.795	4235.59
766.131	4296.16
766.467	4248.02
766.804	4264.75
767.14	4217.06
767.476	4269.49
767.812	4279.44
768.148	4289.83
768.485	4271.53
768.821	4256.39
769.157	4297.51
769.492	4272.43
769.828	4283.5
770.164	4219.55
770.5	4257.97
770.836	4271.98
771.171	4245.99
771.507	4247.8
771.842	4282.83
772.178	4255.48
