Data from blue_surface_keyboard_FLMS001491_013.txt Node
Date: Tue Feb 07 11:12:42 GMT 2017
User: dcchb
Spectrometer: FLMS00149
Trigger mode: 0
Integration Time (sec): 2.000000E-2
Scans to average: 10
Electric dark correction enabled: true
Nonlinearity correction enabled: false
Boxcar width: 0
XAxis mode: Wavelengths
Number of Pixels in Spectrum: 2048
>>>>>Begin Spectral Data<<<<<
341.393	0.83
341.776	0.83
342.16	0.83
342.543	-59.05
342.927	-65.15
343.31	-93.4
343.693	-57.7
344.077	-54.31
344.46	-81.65
344.843	-55.44
345.226	-45.49
345.61	-43.01
345.993	1.29
346.376	-2.33
346.759	21.4
347.142	38.12
347.525	40.61
347.908	52.13
348.291	87.61
348.674	91
349.057	101.17
349.44	122.86
349.823	149.3
350.206	159.7
350.588	182.98
350.971	199.02
351.354	201.96
351.737	216.87
352.119	239.92
352.502	246.7
352.884	272.46
353.267	273.37
353.65	283.09
354.032	290.77
354.414	289.87
354.797	298.9
355.179	288.06
355.562	315.63
355.944	305.01
356.326	296.42
356.709	320.15
357.091	323.31
357.473	330.09
357.855	305.91
358.238	320.82
358.62	316.98
359.002	329.41
359.384	335.29
359.766	321.95
360.148	297.77
360.53	296.19
360.912	312.69
361.294	331.67
361.676	308.62
362.057	289.87
362.439	315.63
362.821	309.75
363.203	305.46
363.584	316.31
363.966	315.4
364.348	283.54
364.729	305.23
365.111	303.65
365.493	307.94
365.874	300.71
366.256	298.45
366.637	294.38
367.019	296.42
367.4	291
367.781	275.63
368.163	280.15
368.544	285.57
368.925	300.71
369.306	311.11
369.688	295.97
370.069	293.48
370.45	284.89
370.831	292.13
371.212	308.85
371.593	286.25
371.974	275.85
372.355	273.14
372.736	299.81
373.117	273.14
373.498	290.54
373.879	281.96
374.26	273.82
374.641	294.84
375.021	292.8
375.402	318.34
375.783	306.59
376.163	293.48
376.544	296.42
376.925	284.67
377.305	300.26
377.686	288.96
378.066	299.13
378.447	318.11
378.827	309.53
379.208	285.35
379.588	291.9
379.968	301.39
380.349	307.72
380.729	292.8
381.109	307.27
381.489	313.14
381.87	296.19
382.25	313.37
382.63	316.08
383.01	287.15
383.39	305.01
383.77	308.4
384.15	294.61
384.53	310.66
384.91	302.97
385.29	317.44
385.67	317.66
386.049	309.3
386.429	312.24
386.809	328.28
387.189	302.07
387.568	309.3
387.948	314.95
388.328	309.07
388.707	318.79
389.087	300.03
389.466	290.09
389.846	288.28
390.225	324.21
390.605	317.44
390.984	327.38
391.363	338.45
391.743	297.55
392.122	323.99
392.501	321.5
392.881	331.9
393.26	328.96
393.639	301.16
394.018	320.6
394.397	321.28
394.776	331.45
395.155	330.54
395.534	341.62
395.913	321.5
396.292	330.99
396.671	328.28
397.05	320.37
397.429	321.73
397.808	328.96
398.186	326.93
398.565	320.15
398.944	340.94
399.323	355.4
399.701	340.03
400.08	333.48
400.458	316.53
400.837	352.24
401.215	349.75
401.594	330.77
401.972	332.58
402.351	348.85
402.729	352.46
403.107	334.84
403.486	358.79
403.864	350.2
404.242	330.77
404.62	330.32
404.999	330.54
405.377	339.58
405.755	370.77
406.133	379.35
406.511	339.58
406.889	351.33
407.267	376.19
407.645	358.79
408.023	366.93
408.401	371.67
408.779	357.89
409.156	360.6
409.534	361.5
409.912	356.76
410.29	377.55
410.667	364.21
411.045	374.16
411.422	370.99
411.8	365.57
412.178	376.87
412.555	375.51
412.933	379.58
413.31	372.12
413.687	402.4
414.065	393.37
414.442	378.22
414.819	359.24
415.197	376.42
415.574	381.84
415.951	388.39
416.328	385.23
416.705	389.07
417.082	382.74
417.46	394.04
417.837	390.65
418.214	389.75
418.591	400.14
418.967	389.52
419.344	389.75
419.721	416.42
420.098	398.11
420.475	396.76
420.852	414.38
421.228	397.21
421.605	396.98
421.982	402.4
422.358	392.01
422.735	417.77
423.111	403.76
423.488	417.77
423.864	416.19
424.241	421.39
424.617	391.56
424.994	397.21
425.37	413.7
425.746	417.32
426.123	420.94
426.499	419.58
426.875	432.69
427.251	418.22
427.627	416.19
428.003	425.68
428.379	411.22
428.756	440.37
429.132	418.22
429.507	431.56
429.883	452.57
430.259	434.95
430.635	443.53
431.011	451.89
431.387	436.08
431.763	460.48
432.138	466.58
432.514	454.61
432.89	443.31
433.265	472.69
433.641	465
434.016	465.45
434.392	457.54
434.767	476.75
435.143	464.55
435.518	488.05
435.894	445.79
436.269	456.19
436.644	472.46
437.02	495.51
437.395	486.02
437.77	488.05
438.145	500.26
438.52	475.4
438.895	513.14
439.271	482.4
439.646	486.47
440.021	520.37
440.395	497.32
440.77	517.88
441.145	510.65
441.52	522.18
441.895	499.35
442.27	509.75
442.645	503.19
443.019	511.1
443.394	515.17
443.769	507.71
444.143	530.76
444.518	504.1
444.892	519.01
445.267	539.12
445.641	546.81
446.016	545.68
446.39	530.76
446.764	533.93
447.139	539.35
447.513	528.5
447.887	546.58
448.262	537.77
448.636	541.38
449.01	528.05
449.384	569.18
449.758	573.93
450.132	555.4
450.506	584.32
450.88	558.56
451.254	550.42
451.628	547.26
452.002	543.19
452.376	544.77
452.75	564.21
453.123	595.62
453.497	567.82
453.871	587.71
454.244	606.47
454.618	583.64
454.992	585
455.365	563.08
455.739	625.45
456.112	585.22
456.486	607.15
456.859	603.98
457.232	605.56
457.606	617.09
457.979	596.07
458.352	623.42
458.725	627.94
459.099	608.27
459.472	615.96
459.845	613.7
460.218	631.33
460.591	637.43
460.964	629.29
461.337	680.59
461.71	654.38
462.083	649.86
462.456	640.36
462.829	673.81
463.201	673.81
463.574	676.97
463.947	647.37
464.32	654.15
464.692	678.1
465.065	666.8
465.438	687.37
465.81	697.76
466.183	669.06
466.555	708.84
466.928	697.76
467.3	677.88
467.672	700.7
468.045	709.74
468.417	750.19
468.789	730.98
469.161	736.86
469.534	734.37
469.906	772.56
470.278	737.76
470.65	742.96
471.022	743.41
471.394	749.74
471.766	753.81
472.138	767.14
472.51	792.9
472.882	800.59
473.253	802.17
473.625	800.59
473.997	811.43
474.369	809.85
474.74	837.2
475.112	855.05
475.484	837.2
475.855	844.65
476.227	859.34
476.598	837.87
476.97	876.74
477.341	872.67
477.713	876.29
478.084	846.01
478.455	917.42
478.827	909.74
479.198	918.55
479.569	923.07
479.94	942.28
480.311	955.61
480.682	976.85
481.053	979.11
481.424	961.94
481.795	973.46
482.166	960.36
482.537	1000.58
482.908	1006.46
483.279	992.22
483.65	1034.7
484.021	1033.8
484.391	1055.49
484.762	1050.52
485.133	1053.46
485.503	1020.69
485.874	1067.47
486.244	1092.33
486.615	1089.17
486.985	1112.22
487.356	1102.5
487.726	1113.8
488.097	1123.97
488.467	1104.53
488.837	1123.06
489.207	1146.79
489.578	1159.22
489.948	1183.4
490.318	1174.36
490.688	1149.96
491.058	1177.3
491.428	1179.33
491.798	1212.78
492.168	1191.54
492.538	1203.06
492.908	1220.69
493.278	1226.34
493.648	1209.84
494.017	1225.89
494.387	1209.84
494.757	1273.34
495.126	1201.25
495.496	1231.31
495.866	1222.27
496.235	1258.65
496.605	1261.59
496.974	1278.77
497.344	1239.9
497.713	1270.86
498.082	1246.22
498.452	1310.63
498.821	1283.29
499.19	1277.86
499.559	1288.03
499.928	1299.33
500.298	1285.09
500.667	1328.48
501.036	1275.15
501.405	1323.28
501.774	1325.09
502.143	1300.91
502.512	1323.96
502.88	1324.41
503.249	1322.61
503.618	1321.7
503.987	1319.22
504.356	1335.94
504.724	1348.14
505.093	1352.66
505.462	1319.44
505.83	1328.93
506.199	1345.88
506.567	1354.24
506.936	1378.2
507.304	1354.02
507.672	1351.31
508.041	1317.63
508.409	1366.22
508.777	1377.29
509.145	1372.77
509.514	1367.35
509.882	1368.71
510.25	1394.24
510.618	1370.06
510.986	1361.93
511.354	1376.16
511.722	1381.59
512.09	1397.18
512.458	1427.91
512.826	1389.5
513.193	1379.33
513.561	1397.18
513.929	1403.06
514.297	1382.94
514.664	1421.36
515.032	1415.49
515.4	1419.1
515.767	1418.88
516.135	1403.28
516.502	1405.09
516.869	1398.08
517.237	1463.85
517.604	1431.98
517.972	1408.71
518.339	1453.22
518.706	1423.62
519.073	1453
519.44	1438.99
519.808	1441.02
520.175	1432.66
520.542	1436.5
520.909	1445.99
521.276	1408.03
521.643	1443.96
522.009	1458.87
522.376	1446.22
522.743	1466.78
523.11	1482.15
523.477	1473.34
523.843	1463.17
524.21	1467.01
524.577	1478.31
524.943	1503.62
525.31	1509.04
525.676	1497.52
526.043	1476.27
526.409	1495.71
526.776	1498.87
527.142	1489.16
527.508	1484.86
527.874	1527.35
528.241	1551.08
528.607	1533.67
528.973	1510.4
529.339	1526.44
529.705	1532.77
530.071	1516.5
530.437	1533.67
530.803	1546.33
531.169	1549.95
531.535	1535.71
531.901	1546.56
532.267	1530.06
532.632	1544.75
532.998	1536.39
533.364	1537.52
533.73	1545.43
534.095	1539.1
534.461	1555.37
534.826	1564.18
535.192	1554.46
535.557	1577.29
535.923	1554.24
536.288	1564.18
536.653	1561.02
537.019	1554.46
537.384	1582.94
537.749	1576.84
538.114	1572.54
538.479	1551.98
538.845	1562.83
539.21	1569.61
539.575	1573.9
539.94	1592.43
540.305	1589.49
540.67	1593.56
541.034	1596.95
541.399	1555.82
541.764	1595.59
542.129	1565.54
542.494	1572.54
542.858	1577.52
543.223	1566.44
543.587	1572.09
543.952	1573.67
544.316	1547.69
544.681	1562.37
545.045	1587.91
545.41	1585.2
545.774	1600.79
546.138	1602.6
546.503	1585.2
546.867	1566.44
547.231	1605.08
547.595	1605.99
547.959	1613.67
548.324	1593.11
548.688	1575.26
549.052	1596.27
549.416	1604.18
549.779	1610.51
550.143	1586.1
550.507	1589.94
550.871	1584.97
551.235	1591.75
551.599	1607.12
551.962	1584.29
552.326	1606.89
552.689	1589.72
553.053	1598.76
553.417	1609.38
553.78	1601.24
554.143	1627.23
554.507	1608.47
554.87	1596.27
555.234	1605.99
555.597	1603.05
555.96	1607.34
556.323	1580.23
556.686	1596.72
557.05	1611.41
557.413	1599.66
557.776	1618.42
558.139	1600.11
558.502	1639.89
558.865	1638.98
559.228	1624.52
559.59	1605.76
559.953	1649.83
560.316	1636.72
560.679	1635.82
561.041	1627.46
561.404	1629.49
561.767	1667.46
562.129	1631.07
562.492	1671.3
562.854	1651.86
563.217	1650.06
563.579	1660.45
563.941	1638.08
564.304	1676.72
564.666	1640.11
565.028	1662.26
565.39	1675.37
565.753	1664.97
566.115	1664.07
566.477	1672.65
566.839	1669.72
567.201	1674.91
567.563	1655.25
567.925	1644.18
568.287	1669.49
568.648	1682.82
569.01	1708.59
569.372	1722.82
569.734	1704.29
570.095	1675.37
570.457	1750.62
570.819	1736.15
571.18	1688.92
571.542	1699.32
571.903	1676.95
572.265	1702.48
572.626	1723.73
572.987	1725.31
573.349	1707.91
573.71	1734.12
574.071	1726.89
574.432	1713.33
574.794	1739.77
575.155	1763.95
575.516	1736.15
575.877	1740.22
576.238	1775.25
576.599	1754.01
576.96	1728.47
577.32	1719.66
577.681	1739.32
578.042	1753.33
578.403	1769.15
578.763	1758.75
579.124	1764.85
579.485	1744.74
579.845	1759.43
580.206	1731.41
580.566	1769.83
580.927	1734.57
581.287	1752.65
581.648	1762.59
582.008	1752.88
582.368	1735.48
582.728	1775.93
583.089	1723.73
583.449	1773.22
583.809	1776.15
584.169	1782.03
584.529	1795.81
584.889	1768.92
585.249	1781.58
585.609	1761.92
585.969	1791.97
586.329	1749.26
586.688	1766.66
587.048	1772.76
587.408	1778.87
587.768	1775.93
588.127	1762.14
588.487	1741.58
588.846	1735.48
589.206	1781.13
589.565	1762.14
589.925	1776.38
590.284	1787.9
590.643	1802.59
591.003	1795.81
591.362	1780.45
591.721	1784.06
592.08	1781.58
592.44	1798.3
592.799	1782.48
593.158	1784.74
593.517	1819.09
593.876	1799.66
594.235	1793.55
594.593	1821.12
594.952	1799.88
595.311	1788.13
595.67	1785.87
596.029	1798.98
596.387	1787.23
596.746	1813.89
597.104	1797.85
597.463	1822.48
597.822	1770.05
598.18	1793.33
598.538	1824.29
598.897	1812.76
599.255	1800.79
599.613	1809.15
599.972	1827.9
600.33	1840.56
600.688	1809.37
601.046	1804.18
601.404	1831.29
601.762	1812.76
602.12	1831.07
602.478	1812.54
602.836	1847.79
603.194	1857.51
603.552	1825.42
603.91	1833.55
604.268	1824.06
604.625	1858.86
604.983	1823.84
605.341	1845.76
605.698	1879.2
606.056	1862.48
606.413	1858.86
606.771	1836.94
607.128	1848.24
607.485	1842.82
607.843	1852.76
608.2	1830.39
608.557	1895.25
608.914	1878.52
609.272	1859.09
609.629	1864.97
609.986	1857.28
610.343	1874.91
610.7	1918.3
611.057	1858.19
611.414	1873.1
611.771	1873.55
612.127	1899.09
612.484	1894.57
612.841	1879.43
613.198	1870.16
613.554	1896.83
613.911	1918.75
614.267	1917.17
614.624	1881.24
614.98	1908.35
615.337	1914.68
615.693	1911.29
616.05	1905.64
616.406	1928.92
616.762	1912.65
617.118	1905.64
617.475	1916.26
617.831	1943.38
618.187	1924.4
618.543	1938.41
618.899	1955.58
619.255	1929.37
619.611	1909.03
619.967	1935.47
620.323	1963.95
620.678	1964.17
621.034	1942.48
621.39	1960.1
621.746	1949.26
622.101	1945.64
622.457	1949.03
622.812	1969.14
623.168	1955.81
623.523	1955.36
623.879	1963.72
624.234	1943.61
624.589	1957.39
624.945	2003.04
625.3	2028.35
625.655	1985.87
626.01	2019.54
626.365	2012.08
626.72	1956.49
627.075	1982.25
627.43	2014.34
627.785	1983.83
628.14	1987.45
628.495	1967.34
628.85	2013.21
629.205	2017.73
629.559	2017.05
629.914	2024.28
630.269	2013.21
630.623	2058.63
630.978	2034.9
631.332	2029.25
631.687	2048.24
632.041	2035.13
632.396	2037.16
632.75	2042.36
633.104	2066.99
633.459	2055.47
633.813	2059.76
634.167	2078.07
634.521	2059.99
634.875	2060.67
635.229	2070.38
635.583	2051.63
635.937	2094.56
636.291	2069.93
636.645	2074.9
636.999	2077.16
637.352	2096.15
637.706	2089.59
638.06	2075.81
638.413	2091.17
638.767	2098.18
639.121	2107.67
639.474	2112.87
639.828	2122.13
640.181	2122.13
640.534	2149.48
640.888	2081
641.241	2120.33
641.594	2151.06
641.947	2154.67
642.301	2173.88
642.654	2149.03
643.007	2164.84
643.36	2167.33
643.713	2161.68
644.066	2180.66
644.419	2194.9
644.771	2156.48
645.124	2157.16
645.477	2152.42
645.83	2176.14
646.182	2172.98
646.535	2131.85
646.888	2201.23
647.24	2155.8
647.593	2189.7
647.945	2237.16
648.298	2187.89
648.65	2223.15
649.002	2188.8
649.355	2226.54
649.707	2219.98
650.059	2251.85
650.411	2270.38
650.763	2262.24
651.115	2274.9
651.467	2322.13
651.819	2332.52
652.171	2365.06
652.523	2339.08
652.875	2329.36
653.227	2353.31
653.578	2408.23
653.93	2407.55
654.282	2361.22
654.633	2385.63
654.985	2411.62
655.337	2416.14
655.688	2404.16
656.039	2459.07
656.391	2412.97
656.742	2459.07
657.094	2480.99
657.445	2487.1
657.796	2486.87
658.147	2496.59
658.498	2498.62
658.849	2499.75
659.2	2512.63
659.551	2509.02
659.902	2525.29
660.253	2577.26
660.604	2564.38
660.955	2599.18
661.306	2587.88
661.656	2620.88
662.007	2629.24
662.358	2639.86
662.708	2606.41
663.059	2625.17
663.409	2618.17
663.76	2680.99
664.11	2677.37
664.461	2684.38
664.811	2678.05
665.161	2733.42
665.511	2714.66
665.862	2730.48
666.212	2736.35
666.562	2771.16
666.912	2772.96
667.262	2795.79
667.612	2787.43
667.962	2840.08
668.312	2845.73
668.662	2848.44
669.011	2836.69
669.361	2849.57
669.711	2860.65
670.06	2874.43
670.41	2877.59
670.76	2905.62
671.109	2917.82
671.459	2943.58
671.808	2904.49
672.157	2960.53
672.507	2972.28
672.856	2960.76
673.205	2968.44
673.554	2991.04
673.904	3025.16
674.253	3048.44
674.602	3070.13
674.951	3005.27
675.3	3011.38
675.649	3075.33
675.998	3071.71
676.346	3136.12
676.695	3114.65
677.044	3123.69
677.393	3155.55
677.741	3116.91
678.09	3137.02
678.438	3162.11
678.787	3163.24
679.135	3150.13
679.484	3200.98
679.832	3214.08
680.181	3205.49
680.529	3246.17
680.877	3222.22
681.225	3253.86
681.573	3257.02
681.922	3257.7
682.27	3275.32
682.618	3283.01
682.966	3299.28
683.314	3271.93
683.661	3272.61
684.009	3328.66
684.357	3306.96
684.705	3327.75
685.053	3339.05
685.4	3376.11
685.748	3363.68
686.095	3340.18
686.443	3324.36
686.79	3363
687.138	3398.71
687.485	3393.51
687.832	3428.77
688.18	3408.65
688.527	3390.12
688.874	3428.09
689.221	3398.26
689.568	3417.92
689.915	3412.5
690.262	3450.46
690.609	3457.92
690.956	3440.97
691.303	3430.35
691.65	3440.29
691.997	3453.17
692.344	3420.4
692.69	3458.37
693.037	3467.41
693.383	3438.26
693.73	3485.26
694.077	3443.68
694.423	3468.99
694.769	3421.99
695.116	3455.21
695.462	3450.91
695.808	3474.64
696.155	3460.86
696.501	3462.21
696.847	3465.6
697.193	3457.24
697.539	3489.78
697.885	3464.02
698.231	3455.88
698.577	3465.6
698.923	3421.53
699.269	3427.64
699.614	3399.16
699.96	3396
700.306	3442.55
700.651	3451.36
700.997	3426.05
701.342	3427.41
701.688	3417.47
702.033	3452.95
702.379	3417.24
702.724	3370.46
703.069	3435.32
703.415	3387.64
703.76	3417.47
704.105	3377.02
704.45	3405.49
704.795	3377.92
705.14	3369.78
705.485	3404.36
705.83	3414.08
706.175	3355.1
706.52	3390.12
706.865	3384.93
707.209	3386.51
707.554	3436.45
707.899	3378.82
708.243	3342.89
708.588	3403.91
708.932	3345.15
709.277	3366.62
709.621	3389.44
709.966	3337.92
710.31	3384.7
710.654	3322.33
710.998	3348.32
711.342	3372.95
711.687	3358.03
712.031	3346.96
712.375	3297.24
712.719	3287.53
713.063	3351.93
713.407	3367.52
713.75	3299.5
714.094	3335.66
714.438	3312.16
714.782	3315.32
715.125	3303.57
715.469	3318.03
715.812	3322.1
716.156	3325.49
716.499	3332.5
716.843	3340.18
717.186	3300.63
717.53	3331.37
717.873	3329.11
718.216	3285.49
718.559	3370.69
718.902	3331.82
719.246	3341.31
719.589	3289.33
719.932	3325.72
720.275	3314.19
720.617	3349.45
720.96	3271.48
721.303	3330.69
721.646	3365.26
721.989	3295.44
722.331	3344.93
722.674	3320.52
723.016	3306.06
723.359	3350.35
723.701	3304.02
724.044	3285.72
724.386	3303.8
724.729	3329.56
725.071	3307.19
725.413	3328.43
725.755	3330.24
726.097	3318.26
726.439	3339.05
726.782	3323.91
727.124	3353.06
727.465	3321.2
727.807	3344.47
728.149	3353.97
728.491	3348.09
728.833	3329.79
729.175	3321.88
729.516	3313.74
729.858	3352.38
730.199	3359.84
730.541	3332.5
730.882	3361.2
731.224	3379.5
731.565	3351.25
731.906	3369.33
732.248	3360.52
732.589	3335.66
732.93	3360.07
733.271	3385.83
733.612	3357.81
733.953	3385.38
734.294	3339.05
734.635	3334.53
734.976	3412.5
735.317	3370.01
735.658	3369.78
735.999	3400.29
736.339	3384.93
736.68	3414.53
737.021	3414.53
737.361	3410.01
737.702	3415.88
738.042	3422.44
738.383	3431.03
738.723	3443.68
739.063	3451.36
739.404	3441.65
739.744	3451.59
740.084	3448.65
740.424	3468.09
740.764	3445.26
741.104	3496.33
741.444	3499.5
741.784	3486.62
742.124	3512.38
742.464	3473.74
742.804	3496.11
743.143	3511.25
743.483	3518.48
743.823	3504.47
744.162	3519.84
744.502	3574.3
744.841	3582.43
745.181	3580.4
745.52	3594.64
745.86	3573.39
746.199	3613.62
746.538	3659.04
746.877	3653.39
747.216	3642.09
747.556	3672.15
747.895	3705.82
748.234	3667.18
748.573	3710.34
748.911	3713.96
749.25	3713.05
749.589	3729.32
749.928	3762.99
750.267	3797.8
750.605	3777.68
750.944	3812.71
751.283	3812.48
751.621	3852.94
751.96	3894.29
752.298	3883.9
752.636	3922.54
752.975	3900.84
753.313	3920.28
753.651	3950.33
753.989	3936.32
754.327	3962.31
754.666	3993.04
755.004	4008.86
755.342	4029.65
755.679	4020.39
756.017	4045.7
756.355	4068.52
756.693	4104
757.031	4161.18
757.368	4154.17
757.706	4122.98
758.044	4188.75
758.381	4173.83
758.719	4177.67
759.056	4201.63
759.394	4238.24
759.731	4212.7
760.068	4283.21
760.405	4312.36
760.743	4239.14
761.08	4270.78
761.417	4249.08
761.754	4277.33
762.091	4309.19
762.428	4302.87
762.765	4330.66
763.102	4372.02
763.438	4329.08
763.775	4329.76
764.112	4373.15
764.449	4331.34
764.785	4345.35
765.122	4377.67
765.458	4365.46
765.795	4392.36
766.131	4371.34
766.467	4282.53
766.804	4315.52
767.14	4382.41
767.476	4373.37
767.812	4326.14
768.148	4376.09
768.485	4343.09
768.821	4372.7
769.157	4393.26
769.492	4362.3
769.828	4381.74
770.164	4369.98
770.5	4338.35
770.836	4348.74
771.171	4364.56
771.507	4397.78
771.842	4307.61
772.178	4335.41
