Data from blue_clamp_base_FLMS001491_00044.txt Node
Date: Wed Feb 08 15:16:03 GMT 2017
User: dcchb
Spectrometer: FLMS00149
Trigger mode: 0
Integration Time (sec): 2.000000E-2
Scans to average: 10
Electric dark correction enabled: true
Nonlinearity correction enabled: false
Boxcar width: 0
XAxis mode: Wavelengths
Number of Pixels in Spectrum: 2048
>>>>>Begin Spectral Data<<<<<
341.393	6.5
341.776	6.5
342.16	6.5
342.543	-56.33
342.927	-68.53
343.31	-81.64
343.693	-66.95
344.077	-67.85
344.46	-57.91
344.843	-62.43
345.226	-43.67
345.61	-43.45
345.993	3.33
346.376	-13.16
346.759	5.14
347.142	33.61
347.525	47.4
347.908	69.55
348.291	66.61
348.674	103.44
349.057	107.96
349.44	114.74
349.823	133.05
350.206	160.39
350.588	218.02
350.971	237.45
351.354	235.42
351.737	226.6
352.119	270.22
352.502	248.07
352.884	267.51
353.267	276.32
353.65	280.16
354.032	298.01
354.414	311.8
354.797	311.35
355.179	325.36
355.562	300.73
355.944	357.22
356.326	340.73
356.709	345.92
357.091	326.94
357.473	351.35
357.855	330.78
358.238	378.24
358.62	340.95
359.002	335.75
359.384	356.32
359.766	349.54
360.148	347.73
360.53	362.87
360.912	327.39
361.294	362.87
361.676	352.48
362.057	337.34
362.439	343.44
362.821	334.4
363.203	336.88
363.584	337.56
363.966	347.5
364.348	333.49
364.729	326.94
365.111	334.17
365.493	319.26
365.874	311.35
366.256	339.82
366.637	338.01
367.019	317.45
367.4	320.61
367.781	324.91
368.163	309.77
368.544	308.18
368.925	340.73
369.306	330.1
369.688	308.64
370.069	315.19
370.45	324.23
370.831	323.32
371.212	329.65
371.593	351.8
371.974	335.98
372.355	339.14
372.736	341.18
373.117	318.13
373.498	327.17
373.879	340.27
374.26	344.34
374.641	329.88
375.021	323.1
375.402	318.13
375.783	335.3
376.163	343.21
376.544	359.48
376.925	342.08
377.305	345.92
377.686	348.63
378.066	336.88
378.447	356.09
378.827	352.7
379.208	395.41
379.588	348.18
379.968	368.52
380.349	359.48
380.729	373.49
381.109	389.99
381.489	366.94
381.87	379.14
382.25	366.26
382.63	372.14
383.01	379.37
383.39	382.08
383.77	387.96
384.15	374.85
384.53	389.09
384.91	385.02
385.29	382.53
385.67	388.86
386.049	393.83
386.429	389.99
386.809	395.41
387.189	421.4
387.568	410.33
387.948	428.41
388.328	425.92
388.707	418.92
389.087	411.01
389.466	403.55
389.846	421.18
390.225	434.28
390.605	432.47
390.984	426.15
391.363	424.34
391.743	459.82
392.122	446.71
392.501	453.49
392.881	466.82
393.26	450.1
393.639	468.86
394.018	470.44
394.397	479.03
394.776	479.93
395.155	484.9
395.534	473.83
395.913	480.16
396.292	513.15
396.671	515.86
397.05	512.7
397.429	520.16
397.808	505.69
398.186	527.61
398.565	529.65
398.944	524
399.323	547.05
399.701	544.34
400.08	536.43
400.458	559.48
400.837	555.86
401.215	536.88
401.594	569.42
401.972	556.99
402.351	575.97
402.729	576.43
403.107	599.7
403.486	608.52
403.864	620.04
404.242	605.13
404.62	620.04
404.999	622.53
405.377	625.24
405.755	637.21
406.133	652.13
406.511	646.03
406.889	651.9
407.267	672.02
407.645	682.64
408.023	712.69
408.401	710.89
408.779	703.65
409.156	719.92
409.534	719.7
409.912	714.73
410.29	748.4
410.667	753.37
411.045	783.2
411.422	765.12
411.8	759.47
412.178	785.91
412.555	780.26
412.933	794.95
413.31	827.04
413.687	818.45
414.065	824.1
414.442	832.46
414.819	863.88
415.197	855.06
415.574	886.47
415.951	894.61
416.328	872.69
416.705	900.48
417.082	923.31
417.46	913.14
417.837	893.03
418.214	932.8
418.591	945.23
418.967	943.65
419.344	958.11
419.721	969.64
420.098	979.8
420.475	989.97
420.852	971.67
421.228	998.34
421.605	1026.13
421.982	1014.61
422.358	1025
422.735	1032.91
423.111	1027.71
423.488	1045.34
423.864	1068.39
424.241	1089.41
424.617	1097.54
424.994	1088.05
425.37	1127.6
425.746	1135.73
426.123	1139.8
426.499	1161.72
426.875	1189.29
427.251	1159.01
427.627	1177.99
428.003	1192.45
428.379	1206.92
428.756	1222.06
429.132	1260.93
429.507	1272.45
429.883	1293.69
430.259	1303.64
430.635	1327.59
431.011	1361.04
431.387	1368.72
431.763	1351.09
432.138	1368.95
432.514	1409.62
432.89	1422.73
433.265	1449.4
433.641	1489.62
434.016	1485.55
434.392	1500.02
434.767	1527.13
435.143	1521.71
435.518	1556.51
435.894	1595.61
436.269	1563.52
436.644	1584.31
437.02	1638.77
437.395	1677.64
437.77	1649.39
438.145	1702.5
438.52	1690.29
438.895	1727.13
439.271	1729.39
439.646	1760.58
440.021	1750.63
440.395	1775.72
440.77	1790.63
441.145	1829.95
441.52	1828.82
441.895	1838.31
442.27	1867.69
442.645	1869.05
443.019	1907.92
443.394	1880.35
443.769	1919.22
444.143	1944.3
444.518	1939.78
444.892	1952.43
445.267	1993.56
445.641	1979.1
446.016	2015.03
446.39	1984.75
446.764	1981.13
447.139	2041.7
447.513	2083.96
447.887	2078.08
448.262	2060.23
448.636	2075.37
449.01	2144.52
449.384	2134.58
449.758	2142.26
450.132	2196.95
450.506	2191.52
450.88	2212.54
451.254	2233.33
451.628	2275.82
452.002	2258.19
452.376	2299.09
452.75	2308.13
453.123	2325.31
453.497	2386.55
453.871	2367.56
454.244	2416.15
454.618	2434.23
454.992	2448.24
455.365	2483.72
455.739	2511.97
456.112	2574.34
456.486	2616.15
456.859	2588.58
457.232	2670.38
457.606	2612.3
457.979	2671.29
458.352	2704.73
458.725	2766.65
459.099	2745.63
459.472	2792.19
459.845	2814.33
460.218	2879.19
460.591	2889.36
460.964	2894.33
461.337	2968.45
461.71	2998.28
462.083	3043.48
462.456	3010.26
462.829	3051.61
463.201	3098.62
463.574	3104.04
463.947	3169.8
464.32	3205.51
464.692	3231.72
465.065	3274.43
465.438	3295.22
465.81	3323.25
466.183	3369.57
466.555	3438.27
466.928	3462
467.3	3491.38
467.672	3468.33
468.045	3547.87
468.417	3556.01
468.789	3599.62
469.161	3651.15
469.534	3711.48
469.906	3789.45
470.278	3774.53
470.65	3878.26
471.022	3901.08
471.394	3950.8
471.766	4053.62
472.138	4054.53
472.51	4138.14
472.882	4163.45
473.253	4167.07
473.625	4249.78
473.997	4343.78
474.369	4348.76
474.74	4403.44
475.112	4452.93
475.484	4514.18
475.855	4568.41
476.227	4639.14
476.598	4714.62
476.97	4736.54
477.341	4856.31
477.713	4872.81
478.084	4913.03
478.455	5026.03
478.827	5062.64
479.198	5228.51
479.569	5153.03
479.94	5330.65
480.311	5312.8
480.682	5420.82
481.053	5543.53
481.424	5590.08
481.795	5657.87
482.166	5698.1
482.537	5788.04
482.908	5896.96
483.279	5911.65
483.65	6016.28
484.021	6059.22
484.391	6160.91
484.762	6180.57
485.133	6241.36
485.503	6302.6
485.874	6381.02
486.244	6437.74
486.615	6558.87
486.985	6556.83
487.356	6664.4
487.726	6700.11
488.097	6818.52
488.467	6811.97
488.837	6908.69
489.207	6904.85
489.578	7038.85
489.948	7080.89
490.318	7138.96
490.688	7100.1
491.058	7194.56
491.428	7307.32
491.798	7424.16
492.168	7512.29
492.538	7480.42
492.908	7531.04
493.278	7580.54
493.648	7596.58
494.017	7663.02
494.387	7681.1
494.757	7784.82
495.126	7769.46
495.496	7855.56
495.866	7875.89
496.235	7882
496.605	7984.37
496.974	7932.84
497.344	8035.21
497.713	8053.74
498.082	8097.13
498.452	8183.91
498.821	8154.76
499.19	8114.98
499.559	8190.01
499.928	8270.23
500.298	8262.55
500.667	8342.55
501.036	8294.41
501.405	8463.68
501.774	8411.25
502.143	8394.98
502.512	8410.57
502.88	8525.82
503.249	8481.98
503.618	8470
503.987	8529.89
504.356	8565.37
504.724	8636.78
505.093	8583.9
505.462	8691.47
505.83	8674.07
506.199	8765.36
506.567	8761.97
506.936	8725.14
507.304	8857.56
507.672	8852.14
508.041	8895.08
508.409	8935.75
508.777	8989.99
509.145	9027.5
509.514	8960.39
509.882	9066.15
510.25	9044.23
510.618	9121.51
510.986	9147.73
511.354	9185.69
511.722	9178.01
512.09	9261.85
512.458	9264.78
512.826	9318.34
513.193	9319.47
513.561	9301.17
513.929	9422.52
514.297	9437.89
514.664	9520.37
515.032	9482.41
515.4	9572.35
515.767	9500.26
516.135	9615.28
516.502	9608.5
516.869	9614.83
517.237	9726.47
517.604	9710.87
517.972	9775.51
518.339	9810.98
518.706	9770.53
519.073	9764.66
519.44	9801.04
519.808	9926.69
520.175	9878.1
520.542	10030.19
520.909	10093.24
521.276	9985.22
521.643	10105.89
522.009	10067.02
522.376	10229.05
522.743	10200.58
523.11	10251.88
523.477	10348.15
523.843	10384.76
524.21	10469.05
524.577	10553.56
524.943	10589.95
525.31	10488.93
525.676	10649.61
526.043	10677.63
526.409	10738.87
526.776	10742.03
527.142	10789.94
527.508	10855.03
527.874	10985.42
528.241	10970.73
528.607	10985.19
528.973	11085.3
529.339	11041.24
529.705	11200.1
530.071	11210.72
530.437	11302.7
530.803	11283.26
531.169	11312.87
531.535	11293.21
531.901	11374.56
532.267	11426.08
532.632	11432.86
532.998	11506.76
533.364	11559.19
533.73	11541.33
534.095	11646.87
534.461	11776.13
534.826	11775.91
535.192	11746.08
535.557	11877.37
535.923	11856.81
536.288	11892.29
536.653	11913.53
537.019	11897.26
537.384	11934.77
537.749	12071.49
538.114	12126.18
538.479	12090.02
538.845	12137.25
539.21	12165.27
539.575	12227.64
539.94	12124.6
540.305	12246.85
540.67	12177.93
541.034	12250.02
541.399	12266.29
541.764	12374.99
542.129	12426.96
542.494	12429.22
542.858	12540.86
543.223	12468.77
543.587	12530.46
543.952	12542.21
544.316	12576.79
544.681	12627.63
545.045	12668.08
545.41	12742.89
545.774	12767.52
546.138	12691.59
546.503	12760.74
546.867	12776.56
547.231	12884.12
547.595	12903.11
547.959	12935.42
548.324	12866.95
548.688	12958.47
549.052	12928.87
549.416	12934.97
549.779	12989.66
550.143	13104.68
550.507	13121.86
550.871	13082.76
551.235	13112.37
551.599	13275.75
551.962	13249.54
552.326	13251.8
552.689	13329.99
553.053	13274.17
553.417	13266.49
553.78	13445.01
554.143	13399.14
554.507	13520.94
554.87	13472.36
555.234	13585.8
555.597	13426.71
555.96	13570.66
556.323	13654.05
556.686	13628.06
557.05	13774.04
557.413	13717.55
557.776	13741.73
558.139	13861.5
558.502	13825.57
558.865	13885.91
559.228	13967.71
559.59	13978.78
559.953	14020.59
560.316	14128.84
560.679	14093.36
561.041	14249.96
561.404	14263.52
561.767	14322.73
562.129	14354.82
562.492	14441.82
562.854	14387.81
563.217	14464.42
563.579	14472.78
563.941	14538.77
564.304	14635.72
564.666	14663.96
565.028	14729.27
565.39	14729.05
565.753	14917.07
566.115	14886.33
566.477	14958.87
566.839	15020.79
567.201	15012.66
567.563	15101.69
567.925	15209.71
568.287	15169.71
568.648	15173.78
569.01	15319.31
569.372	15429.82
569.734	15325.64
570.095	15448.8
570.457	15419.65
570.819	15524.28
571.18	15586.88
571.542	15623.04
571.903	15636.82
572.265	15705.07
572.626	15837.49
572.987	15834.1
573.349	15897.38
573.71	15981.67
574.071	15995.46
574.432	16088.11
574.794	16156.35
575.155	16077.26
575.516	16133.53
575.877	16162.46
576.238	16169.01
576.599	16274.77
576.96	16327.65
577.32	16350.25
577.681	16361.32
578.042	16459.62
578.403	16460.08
578.763	16487.19
579.124	16464.6
579.485	16524.93
579.845	16656.91
580.206	16587.98
580.566	16573.07
580.927	16616
581.287	16747.07
581.648	16605.83
582.008	16651.03
582.368	16670.92
582.728	16780.97
583.089	16627.53
583.449	16713.18
583.809	16732.61
584.169	16806.96
584.529	16799.05
584.889	16875.88
585.249	16793.4
585.609	16729.9
585.969	16892.38
586.329	16797.47
586.688	16911.59
587.048	16853.51
587.408	16874.98
587.768	16874.98
588.127	16914.08
588.487	16829.33
588.846	17054.41
589.206	16900.06
589.565	16880.86
589.925	16954.07
590.284	17039.5
590.643	16971.7
591.003	17008.08
591.362	17040.4
591.721	17059.16
592.08	17123.79
592.44	17112.94
592.799	17086.27
593.158	17118.36
593.517	17129.21
593.876	17108.19
594.235	17081.75
594.593	17170.79
594.952	17194.29
595.311	17114.07
595.67	17193.39
596.029	17193.39
596.387	17295.53
596.746	17302.77
597.104	17179.83
597.463	17224.12
597.822	17230.9
598.18	17037.69
598.538	17320.84
598.897	17324.69
599.255	17123.34
599.613	17414.63
599.972	17226.38
600.33	17338.24
600.688	17253.95
601.046	17232.26
601.404	17304.57
601.762	17318.81
602.12	17482.2
602.478	17416.21
602.836	17410.56
603.194	17392.93
603.552	17307.29
603.91	17328.08
604.268	17461.18
604.625	17489.88
604.983	17505.25
605.341	17374.18
605.698	17586.15
606.056	17600.84
606.413	17532.36
606.771	17561.06
607.128	17565.13
607.485	17490.11
607.843	17464.8
608.2	17604.45
608.557	17651.91
608.914	17572.14
609.272	17666.37
609.629	17750.44
609.986	17696.43
610.343	17603.32
610.7	17826.59
611.057	17759.48
611.414	17770.55
611.771	17631.12
612.127	17854.62
612.484	17760.61
612.841	17881.73
613.198	17807.84
613.554	17954.05
613.911	17931.68
614.267	18011.45
614.624	17975.52
614.98	17881.28
615.337	18017.55
615.693	17972.58
616.05	17986.14
616.406	18083.31
616.762	18049.64
617.118	18020.94
617.475	18118.11
617.831	18017.77
618.187	18169.41
618.543	18138.68
618.899	18257.09
619.255	18236.07
619.611	18214.15
619.967	18272.46
620.323	18304.32
620.678	18173.48
621.034	18173.93
621.39	18260.03
621.746	18188.39
622.101	18400.82
622.457	18284.21
622.812	18230.42
623.168	18398.1
623.523	18333.47
623.879	18486.46
624.234	18375.51
624.589	18446.01
624.945	18443.98
625.3	18424.54
625.655	18453.7
626.01	18434.71
626.365	18574.37
626.72	18480.81
627.075	18456.86
627.43	18506.8
627.785	18474.26
628.14	18536.63
628.495	18436.75
628.85	18515.84
629.205	18462.96
629.559	18603.97
629.914	18498.67
630.269	18533.69
630.623	18421.83
630.978	18461.15
631.332	18560.13
631.687	18617.76
632.041	18535.73
632.396	18626.12
632.75	18557.42
633.104	18582.96
633.459	18463.86
633.813	18596.06
634.167	18613.24
634.521	18654.14
634.875	18631.54
635.229	18598.78
635.583	18572.11
635.937	18562.62
636.291	18588.16
636.645	18641.49
636.999	18664.09
637.352	18702.95
637.706	18584.99
638.06	18654.82
638.413	18642.84
638.767	18692.11
639.121	18717.64
639.474	18524.65
639.828	18560.13
640.181	18668.61
640.534	18658.89
640.888	18656.18
641.241	18604.88
641.594	18640.36
641.947	18657.31
642.301	18667.25
642.654	18646.68
643.007	18668.61
643.36	18651.2
643.713	18674.71
644.066	18764.65
644.419	18667.48
644.771	18577.53
645.124	18363.98
645.477	18222.97
645.83	18261.16
646.182	18265.9
646.535	18222.06
646.888	18314.72
647.24	18295.96
647.593	18384.77
647.945	18398.56
648.298	18307.03
648.65	18444.2
649.002	18326.02
649.355	18471.55
649.707	18288.73
650.059	18447.59
650.411	18716.97
650.763	18752.22
651.115	18897.07
651.467	18931.2
651.819	18926
652.171	19001.7
652.523	18938.43
652.875	18965.32
653.227	18841.48
653.578	19043.28
653.93	18972.78
654.282	18965.09
654.633	18949.95
654.985	19033.57
655.337	19012.55
655.688	19075.15
656.039	19138.88
656.391	18915.15
656.742	18982.95
657.094	19035.6
657.445	19083.06
657.796	19027.01
658.147	19015.71
658.498	19069.72
658.849	19028.14
659.2	19139.1
659.551	19168.71
659.902	19053.45
660.253	19022.04
660.604	19049.61
660.955	19071.08
661.306	19097.97
661.656	19146.11
662.007	19140.68
662.358	19123.06
662.708	19097.29
663.059	19154.47
663.409	19068.14
663.76	19184.3
664.11	19137.52
664.461	19171.64
664.811	19240.57
665.161	19121.7
665.511	19142.94
665.862	19173.45
666.212	19109.5
666.562	19186.78
666.912	19116.05
667.262	19169.38
667.612	19136.39
667.962	19139.1
668.312	19134.81
668.662	19249.38
669.011	19084.41
669.361	19070.18
669.711	19103.4
670.06	19015.04
670.41	18979.56
670.76	18899.33
671.109	19048.03
671.459	19000.57
671.808	18940.91
672.157	18991.31
672.507	18765.55
672.856	18808.26
673.205	18844.19
673.554	18904.76
673.904	18787.47
674.253	18798.77
674.602	18785.66
674.951	18487.59
675.3	18390.87
675.649	18660.02
675.998	18568.04
676.346	18599.91
676.695	18582.73
677.044	18388.39
677.393	18525.33
677.741	18582.96
678.09	18394.49
678.438	18408.05
678.787	18406.01
679.135	18424.77
679.484	18299.35
679.832	18293.25
680.181	18295.28
680.529	18199.69
680.877	18136.42
681.225	18055.29
681.573	18199.01
681.922	18171.22
682.27	17999.92
682.618	17998.57
682.966	18016.19
683.314	18053.48
683.661	17957.66
684.009	17809.19
684.357	17777.78
684.705	17813.26
685.053	17681.06
685.4	17865.24
685.748	17686.26
686.095	17707.95
686.443	17633.38
686.79	17742.98
687.138	17688.97
687.485	17718.8
687.832	17627.05
688.18	17599.93
688.527	17408.53
688.874	17489.88
689.221	17408.75
689.568	17354.74
689.915	17406.94
690.262	17383.89
690.609	17326.27
690.956	17236.55
691.303	17283.1
691.65	17306.38
691.997	17246.27
692.344	17166.5
692.69	17162.43
693.037	17258.7
693.383	17064.58
693.73	17153.84
694.077	16964.24
694.423	16897.13
694.769	16969.67
695.116	16853.51
695.462	16914.3
695.808	16834.08
696.155	16832.5
696.501	16800.86
696.847	16820.52
697.193	16611.71
697.539	16707.3
697.885	16601.31
698.231	16633.86
698.577	16680.41
698.923	16658.26
699.269	16616.23
699.614	16514.31
699.96	16475.22
700.306	16451.49
700.651	16427.53
700.997	16409.91
701.342	16403.81
701.688	16341.21
702.033	16322.68
702.379	16371.94
702.724	16307.99
703.069	16331.94
703.415	16160.2
703.76	16134.21
704.105	16289.46
704.45	16223.02
704.795	16128.33
705.14	16080.65
705.485	16131.72
705.83	16058.05
706.175	16078.62
706.52	15993.42
706.865	16030.48
707.209	15921.33
707.554	15965.4
707.899	15994.1
708.243	15961.78
708.588	15908.23
708.932	15881.11
709.277	15848.34
709.621	15879.53
709.966	15855.8
710.31	15785.29
710.654	15732.86
710.998	15809.7
711.342	15844.05
711.687	15766.53
712.031	15724.5
712.375	15628.69
712.719	15671.62
713.063	15649.48
713.407	15779.87
713.75	15596.37
714.094	15654
714.438	15607.44
714.782	15635.01
715.125	15542.81
715.469	15655.58
715.812	15537.16
716.156	15458.07
716.499	15518.86
716.843	15521.57
717.186	15494.23
717.53	15586.65
717.873	15642.92
718.216	15534
718.559	15414.45
718.902	15363.38
719.246	15356.83
719.589	15335.13
719.932	15301.24
720.275	15338.98
720.617	15213.33
720.96	15318.86
721.303	15377.17
721.646	15366.55
721.989	15263.72
722.331	15284.06
722.674	15336.26
723.016	15334.23
723.359	15287.23
723.701	15325.19
724.044	15208.58
724.386	15073.9
724.729	15243.16
725.071	15211.52
725.413	15238.41
725.755	15273.89
726.097	15131.52
726.439	15150.28
726.782	15145.99
727.124	15238.86
727.465	15155.25
727.807	15115.93
728.149	15122.26
728.491	15102.6
728.833	15126.33
729.175	15096.27
729.516	15134.23
729.858	15107.12
730.199	15078.64
730.541	15131.98
730.882	15157.74
731.224	15190.05
731.565	15009.49
731.906	15216.49
732.248	15171.52
732.589	15126.33
732.93	15071.86
733.271	15094.46
733.612	15106.66
733.953	15187.57
734.294	15164.97
734.635	15119.09
734.976	15159.54
735.317	15087.91
735.658	15205.65
735.999	15183.27
736.339	15217.4
736.68	15279.99
737.021	15143.27
737.361	15156.16
737.702	15232.76
738.042	15229.6
738.383	15305.08
738.723	15353.66
739.063	15258.53
739.404	15411.74
739.744	15368.8
740.084	15304.4
740.424	15380.56
740.764	15265.53
741.104	15412.42
741.444	15409.93
741.784	15338.52
742.124	15393.89
742.464	15406.32
742.804	15403.83
743.143	15436.83
743.483	15556.14
743.823	15489.71
744.162	15547.11
744.502	15598.18
744.841	15495.58
745.181	15737.83
745.52	15627.33
745.86	15720.21
746.199	15688.12
746.538	15757.5
746.877	15752.52
747.216	15748.68
747.556	15795.69
747.895	15836.14
748.234	15826.87
748.573	15879.07
748.911	15879.07
749.25	15925.85
749.589	15911.62
749.928	15958.62
750.267	16059.63
750.605	16130.37
750.944	16035.23
751.283	16098.28
751.621	16109.58
751.96	15982.12
752.298	16035
752.636	16131.72
752.975	16126.07
753.313	16087.88
753.651	16285.84
753.989	16202.68
754.327	16255.79
754.666	16178.28
755.004	16346.63
755.342	16322.45
755.679	16347.76
