Data from blue_shiny_book_FLMS001491_00006.txt Node
Date: Wed Feb 08 15:26:27 GMT 2017
User: dcchb
Spectrometer: FLMS00149
Trigger mode: 0
Integration Time (sec): 2.000000E-2
Scans to average: 10
Electric dark correction enabled: true
Nonlinearity correction enabled: false
Boxcar width: 0
XAxis mode: Wavelengths
Number of Pixels in Spectrum: 2048
>>>>>Begin Spectral Data<<<<<
341.393	-14.53
341.776	-14.53
342.16	-14.53
342.543	-56.34
342.927	-51.37
343.31	-72.16
343.693	-66.96
344.077	-72.61
344.46	-51.59
344.843	-39.62
345.226	-42.56
345.61	-44.36
345.993	-5.49
346.376	13.94
346.759	14.84
347.142	26.82
347.525	31.12
347.908	50.32
348.291	85.12
348.674	75.41
349.057	97.78
349.44	140.04
349.823	134.39
350.206	168.29
350.588	206.7
350.971	218.68
351.354	254.39
351.737	225.01
352.119	250.32
352.502	278.57
352.884	305.01
353.267	310.88
353.65	306.81
354.032	301.16
354.414	319.92
354.797	309.3
355.179	337.77
355.562	343.42
355.944	356.76
356.326	324.89
356.709	370.77
357.091	338.68
357.473	355.4
357.855	347.94
358.238	361.95
358.62	369.41
359.002	369.64
359.384	353.37
359.766	349.75
360.148	353.82
360.53	363.08
360.912	366.93
361.294	371.67
361.676	359.02
362.057	344.78
362.439	370.99
362.821	368.06
363.203	355.63
363.584	354.95
363.966	358.11
364.348	334.61
364.729	355.63
365.111	326.7
365.493	363.99
365.874	361.95
366.256	340.26
366.637	338.9
367.019	352.24
367.4	345.46
367.781	352.24
368.163	351.56
368.544	335.51
368.925	364.21
369.306	347.72
369.688	363.31
370.069	335.51
370.45	348.17
370.831	360.15
371.212	351.78
371.593	370.77
371.974	347.04
372.355	346.81
372.736	359.69
373.117	356.08
373.498	361.05
373.879	379.35
374.26	365.34
374.641	357.21
375.021	355.17
375.402	363.76
375.783	380.03
376.163	383.65
376.544	401.27
376.925	408.28
377.305	391.33
377.686	376.87
378.066	377.77
378.447	390.88
378.827	408.28
379.208	394.72
379.588	398.34
379.968	412.35
380.349	396.08
380.729	412.35
381.109	415.74
381.489	415.06
381.87	438.79
382.25	436.08
382.63	422.97
383.01	443.31
383.39	426.13
383.77	442.4
384.15	441.05
384.53	425
384.91	451.22
385.29	442.4
385.67	455.28
386.049	471.56
386.429	464.55
386.809	467.49
387.189	458.67
387.568	478.11
387.948	482.63
388.328	491.89
388.707	486.02
389.087	497.32
389.466	487.15
389.846	467.94
390.225	498.9
390.605	491.44
390.984	513.36
391.363	545.68
391.743	523.98
392.122	512.68
392.501	538.45
392.881	580.71
393.26	546.81
393.639	585
394.018	556.98
394.397	572.34
394.776	572.34
395.155	566.92
395.534	594.26
395.913	564.21
396.292	582.51
396.671	586.13
397.05	604.66
397.429	602.4
397.808	609.63
398.186	591.33
398.565	611.89
398.944	656.18
399.323	627.26
399.701	621.38
400.08	631.55
400.458	640.36
400.837	665
401.215	662.51
401.594	667.93
401.972	668.61
402.351	691.89
402.729	697.76
403.107	699.8
403.486	717.88
403.864	719.46
404.242	717.42
404.62	716.29
404.999	748.61
405.377	750.19
405.755	756.75
406.133	760.81
406.511	780.47
406.889	812.34
407.267	791.1
407.645	819.34
408.023	837.2
408.401	824.77
408.779	834.94
409.156	829.74
409.534	854.6
409.912	878.78
410.29	870.64
410.667	909.06
411.045	902.73
411.422	909.06
411.8	930.53
412.178	930.75
412.555	961.49
412.933	976.63
413.31	1010.07
413.687	1006.46
414.065	1027.7
414.442	1015.72
414.819	1054.14
415.197	1067.25
415.574	1083.97
415.951	1074.93
416.328	1097.08
416.705	1108.15
417.082	1120.8
417.46	1114.02
417.837	1141.82
418.214	1156.28
418.591	1159.67
418.967	1161.48
419.344	1189.73
419.721	1191.54
420.098	1214.36
420.475	1250.74
420.852	1224.98
421.228	1243.06
421.605	1225.21
421.982	1260.46
422.358	1288.26
422.735	1316.5
423.111	1328.26
423.488	1338.2
423.864	1360.57
424.241	1381.81
424.617	1400.8
424.994	1425.43
425.37	1442.15
425.746	1442.6
426.123	1454.35
426.499	1457.97
426.875	1481.25
427.251	1528.02
427.627	1544.97
428.003	1554.24
428.379	1591.07
428.756	1585.2
429.132	1652.99
429.507	1688.92
429.883	1670.85
430.259	1715.59
430.635	1736.15
431.011	1717.17
431.387	1751.52
431.763	1792.42
432.138	1810.96
432.514	1835.81
432.89	1881.46
433.265	1941.12
433.641	1982.25
434.016	1949.71
434.392	1963.49
434.767	2005.98
435.143	2009.82
435.518	2033.1
435.894	2055.92
436.269	2068.58
436.644	2140.89
437.02	2199.87
437.395	2157.16
437.77	2227.22
438.145	2238.06
438.52	2300.43
438.895	2308.57
439.271	2308.57
439.646	2370.94
440.021	2373.2
440.395	2389.02
440.77	2389.02
441.145	2416.81
441.52	2436.25
441.895	2417.27
442.27	2502.69
442.645	2478.51
443.019	2563.03
443.394	2562.8
443.769	2584.95
444.143	2618.17
444.518	2641.89
444.892	2621.33
445.267	2641.22
445.641	2681.67
446.016	2683.47
446.39	2707.65
446.764	2711.5
447.139	2735.45
447.513	2755.34
447.887	2796.01
448.262	2782.91
448.636	2846.63
449.01	2890.47
449.384	2942.68
449.758	2960.76
450.132	3012.28
450.506	2981.32
450.88	2989.23
451.254	3005.05
451.628	3020.19
452.002	3086.85
452.376	3078.94
452.75	3141.77
453.123	3194.42
453.497	3237.13
453.871	3296.79
454.244	3397.81
454.618	3382.21
454.992	3471.7
455.365	3441.87
455.739	3558.71
456.112	3536.79
456.486	3589.67
456.859	3578.37
457.232	3650.23
457.606	3688.87
457.979	3737.68
458.352	3832.15
458.725	3857.46
459.099	3949.88
459.472	4004.57
459.845	4050.67
460.218	4112.59
460.591	4138.13
460.964	4123.89
461.337	4254.51
461.71	4273.49
462.083	4329.99
462.456	4372.47
462.829	4337.67
463.201	4462.41
463.574	4500.6
463.947	4604.55
464.32	4723.65
464.692	4782.4
465.065	4780.37
465.438	4861.04
465.81	4949.4
466.183	4992.34
466.555	5098.55
466.928	5100.59
467.3	5067.82
467.672	5158.21
468.045	5312.33
468.417	5298.1
468.789	5348.04
469.161	5415.15
469.534	5571.99
469.906	5674.81
470.278	5744.19
470.65	5816.95
471.022	5964.74
471.394	6079.54
471.766	6141.69
472.138	6233.44
472.51	6282.02
472.882	6389.37
473.253	6459.19
473.625	6488.12
473.997	6662.81
474.369	6691.96
474.74	6840.88
475.112	6987.32
475.484	7060.76
475.855	7249.68
476.227	7272.05
476.598	7597.47
476.97	7680.86
477.341	7805.83
477.713	7863.45
478.084	7990.91
478.455	8158.58
478.827	8177.57
479.198	8415.98
479.569	8418.92
479.94	8641.06
480.311	8704.33
480.682	9005.57
481.053	9167.82
481.424	9399.91
481.795	9438.55
482.166	9622.95
482.537	9741.37
482.908	10012.32
483.279	10119.21
483.65	10266.55
484.021	10459.32
484.391	10644.4
484.762	10640.55
485.133	10767.78
485.503	10917.83
485.874	11118.73
486.244	11240.99
486.615	11498.38
486.985	11653.63
487.356	11842.78
487.726	11976.34
488.097	12332.26
488.467	12311.7
488.837	12720.27
489.207	12888.63
489.578	13039.81
489.948	13139.7
490.318	13254.5
490.688	13392.12
491.058	13502.4
491.428	13691.55
491.798	13807.25
492.168	14047.24
492.538	14109.61
492.908	14305.54
493.278	14600.22
493.648	14594.12
494.017	14856.26
494.387	15157.72
494.757	15129.02
495.126	15376.7
495.496	15456.25
495.866	15624.38
496.235	15745.05
496.605	15884.71
496.974	15976.68
497.344	16202.67
497.713	16237.92
498.082	16312.95
498.452	16475.43
498.821	16488.54
499.19	16688.3
499.559	16893.27
499.928	17018.24
500.298	17109.08
500.667	17267.5
501.036	17350.89
501.405	17594.95
501.774	17615.06
502.143	17832.23
502.512	17911.32
502.88	18035.16
503.249	18154.48
503.618	18247.59
503.987	18325.1
504.356	18478.77
504.724	18524.41
505.093	18670.62
505.462	18739.78
505.83	18811.64
506.199	19043.27
506.567	19296.6
506.936	19352.64
507.304	19530.72
507.672	19595.8
508.041	19794.44
508.409	19887.09
508.777	20176.8
509.145	20315.55
509.514	20304.25
509.882	20450.24
510.25	20481.88
510.618	20663.11
510.986	20786.28
511.354	20904.92
511.722	21069.43
512.09	21360.27
512.458	21337.22
512.826	21520.27
513.193	21614.28
513.561	21788.28
513.929	21932.91
514.297	22227.59
514.664	22414.03
515.032	22625.55
515.4	22722.95
515.767	22862.38
516.135	23042.94
516.502	22846.79
516.869	23240.9
517.237	23331.52
517.604	23276.83
517.972	23666.88
518.339	23676.37
518.706	23886.98
519.073	24083.36
519.44	24145.51
519.808	24405.84
520.175	24653.07
520.542	24862.1
520.909	25012.61
521.276	25007.86
521.643	25293.05
522.009	25530.78
522.376	25714.73
522.743	25761.51
523.11	26036.76
523.477	26333.47
523.843	26504.32
524.21	26801.48
524.577	26928.26
524.943	27180.23
525.31	27172.1
525.676	27544.97
526.043	27651.63
526.409	27819.54
526.776	28132.3
527.142	28252.29
527.508	28372.74
527.874	28662.9
528.241	28981.31
528.607	28939.73
528.973	29189.67
529.339	29273.06
529.705	29522.77
530.071	29730.22
530.437	29825.81
530.803	30031.68
531.169	30190.32
531.535	30141.28
531.901	30362.07
532.267	30460.82
532.632	30731.55
532.998	30954.14
533.364	31141.48
533.73	31345.55
534.095	31584.86
534.461	31649.27
534.826	31956.15
535.192	32006.55
535.557	32198.18
535.923	32180.55
536.288	32349.59
536.653	32470.49
537.019	32476.36
537.384	32689.69
537.749	32763.59
538.114	32652.86
538.479	32728.33
538.845	33059.17
539.21	33030.7
539.575	33339.39
539.94	33437.92
540.305	33596.79
540.67	33552.72
541.034	33707.74
541.399	33950
541.764	34102.08
542.129	34349.76
542.494	34398.57
542.858	34468.4
543.223	34747.26
543.587	34779.58
543.952	34754.27
544.316	34746.81
544.681	34805.79
545.045	35043.98
545.41	35010.08
545.774	35208.95
546.138	35156.07
546.503	35323.29
546.867	35341.6
547.231	35476.28
547.595	35657.07
547.959	35813.9
548.324	35945.2
548.688	36242.37
549.052	36329.6
549.416	36401.68
549.779	36480.33
550.143	36741.11
550.507	36863.59
550.871	36966.64
551.235	36748.79
551.599	37246.63
551.962	37301.55
552.326	37249.35
552.689	37511.03
553.053	37277.37
553.417	37499.06
553.78	37685.49
554.143	37556.23
554.507	37782.66
554.87	37970
555.234	38195.99
555.597	38090.68
555.96	38212.03
556.323	38558.01
556.686	38681.62
557.05	39042.29
557.413	39059.92
557.776	39154.15
558.139	39540.58
558.502	39399.8
558.865	39686.8
559.228	40012.21
559.59	40091.98
559.953	40066.9
560.316	40316.16
560.679	40277.51
561.041	40517.28
561.404	40505.08
561.767	40688.8
562.129	40580.78
562.492	40959.76
562.854	40903.71
563.217	41028.46
563.579	41332.18
563.941	41464.15
564.304	41693.97
564.666	41846.96
565.028	42054.64
565.39	42195.43
565.753	42361.3
566.115	42712.48
566.477	42958.57
566.839	43079.47
567.201	43294.61
567.563	43267.94
567.925	43678.55
568.287	43590.2
568.648	43561.27
569.01	43851.43
569.372	43848.49
569.734	43624.32
570.095	43858.21
570.457	43819.12
570.819	43889.4
571.18	43841.49
571.542	44156.73
571.903	44173.01
572.265	44249.61
572.626	44478.08
572.987	44636.5
573.349	44952.87
573.71	45228.34
574.071	45352.86
574.432	45482.12
574.794	45835.79
575.155	45716.02
575.516	45801.21
575.877	46114.88
576.238	46177.02
576.599	46116
576.96	46167.3
577.32	46296.57
577.681	46456.11
578.042	46343.34
578.403	46180.64
578.763	46189.9
579.124	46212.27
579.485	46279.62
579.845	46301.99
580.206	46078.04
580.566	46203.69
580.927	46401.42
581.287	46479.39
581.648	46416.56
582.008	46778.59
582.368	46755.54
582.728	46961.18
583.089	47035.98
583.449	47021.29
583.809	47179.71
584.169	47365.69
584.529	47180.61
584.889	47684.78
585.249	47544.89
585.609	47393.94
585.969	47727.49
586.329	47333.83
586.688	47555.52
587.048	47362.98
587.408	47262.19
587.768	47130.67
588.127	46987.39
588.487	46873.05
588.846	47071.91
589.206	46795.31
589.565	46977.9
589.925	47134.96
590.284	46919.15
590.643	47033.95
591.003	47350.55
591.362	47398.23
591.721	47430.55
592.08	47484.33
592.44	47661.5
592.799	47714.38
593.158	47782.63
593.517	47860.59
593.876	48028.95
594.235	47909.86
594.593	48017.2
594.952	48225.55
595.311	47962.06
595.67	47989.85
596.029	47992.11
596.387	47947.37
596.746	48092.45
597.104	47621.95
597.463	47625.57
597.822	47695.85
598.18	47524.78
598.538	47550.54
598.897	47673.48
599.255	47183.55
599.613	47783.53
599.972	47560.49
600.33	47775.85
600.688	47673.03
601.046	47988.5
601.404	48212.9
601.762	48052.68
602.12	48341.26
602.478	48474.59
602.836	48461.25
603.194	48381.93
603.552	48569.95
603.91	48430.29
604.268	48773.79
604.625	48471.2
604.983	48685.43
605.341	48363.18
605.698	48587.13
606.056	48716.61
606.413	48632.55
606.771	48680.68
607.128	48602.72
607.485	48381.93
607.843	48393.01
608.2	48551.42
608.557	48711.42
608.914	48455.83
609.272	48621.25
609.629	48647.92
609.986	48733.56
610.343	48537.18
610.7	48824.63
611.057	48861.24
611.414	48943.5
611.771	49075.25
612.127	49395.01
612.484	49439.99
612.841	49519.98
613.198	49474.79
613.554	49481.57
613.911	49714.1
614.267	49806.3
614.624	49654.44
614.98	49810.37
615.337	49948.45
615.693	49897.83
616.05	49926.75
616.406	50043.59
616.762	49625.52
617.118	49677.72
617.475	49571.96
617.831	49634.78
618.187	49578.96
618.543	49599.76
618.899	49733.31
619.255	49688.79
619.611	49564.28
619.967	49707.77
620.323	49713.42
620.678	49656.7
621.034	49708
621.39	49582.13
621.746	49591.39
622.101	50073.19
622.457	49881.1
622.812	50152.51
623.168	50100.31
623.523	50214.65
623.879	50268.44
624.234	50190.25
624.589	50405.84
624.945	50348.66
625.3	50457.36
625.655	50436.12
626.01	50321.32
626.365	50334.88
626.72	50186.41
627.075	50106.86
627.43	50044.72
627.785	49908.67
628.14	49964.72
628.495	49899.18
628.85	49768.56
629.205	49639.3
629.559	49844.95
629.914	49694.67
630.269	49652.86
630.623	49596.82
630.978	49475.46
631.332	49684.72
631.687	49835.46
632.041	49706.42
632.396	49762.01
632.75	49756.81
633.104	49901.22
633.459	49667.55
633.813	49844.04
634.167	49762.46
634.521	49789.81
634.875	49869.35
635.229	49772.41
635.583	49701.67
635.937	49676.36
636.291	49668.45
636.645	49748.45
636.999	49609.25
637.352	49735.8
637.706	49378.97
638.06	49573.54
638.413	49352.98
638.767	49162.7
639.121	49137.62
639.474	48870.28
639.828	48867.57
640.181	48833.67
640.534	48778.53
640.888	48582.38
641.241	48396.17
641.594	48472.1
641.947	48596.39
642.301	48367.92
642.654	48529.05
643.007	48417.41
643.36	48270.07
643.713	48224.88
644.066	48520.91
644.419	48386
644.771	48536.96
645.124	48382.16
645.477	48496.28
645.83	48184.2
646.182	47954.15
646.535	47596.42
646.888	47474.39
647.24	47231.91
647.593	47552.35
647.945	47369.08
648.298	47244.11
648.65	47121.18
649.002	46940.39
649.355	47240.95
649.707	47095.41
650.059	47387.61
650.411	47792.35
650.763	47828.95
651.115	47914.6
651.467	47839.35
651.819	47589.41
652.171	47548.51
652.523	47469.87
652.875	47495.86
653.227	47323.2
653.578	47615.85
653.93	47460.6
654.282	47287.5
654.633	47153.94
654.985	47485.01
655.337	47370.89
655.688	47362.98
656.039	47607.94
656.391	47039.82
656.742	47308.97
657.094	47418.12
657.445	47759.35
657.796	47639.35
658.147	47639.58
658.498	47681.61
658.849	47749.41
659.2	47681.61
659.551	47693.36
659.902	47824.43
660.253	47783.08
660.604	47790.54
660.955	47488.85
661.306	47670.31
661.656	47461.96
662.007	47346.26
662.358	47169.99
662.708	47318.23
663.059	47214.96
663.409	47012.48
663.76	47204.34
664.11	47005.7
664.461	46728.64
664.811	46797.12
665.161	46749.66
665.511	46634.86
665.862	46692.71
666.212	46818.36
666.562	46854.29
666.912	46802.09
667.262	46821.52
667.612	46677.35
667.962	46874.18
668.312	46777.68
668.662	47098.8
669.011	47169.76
669.361	47102.65
669.711	47144
670.06	47018.13
670.41	47082.31
670.76	47079.82
671.109	47368.18
671.459	47133.38
671.808	47071.46
672.157	47337.67
672.507	47092.7
672.856	47135.41
673.205	47043.21
673.554	47108.07
673.904	46868.98
674.253	46988.98
674.602	46879.37
674.951	46304.93
675.3	45975.67
675.649	46426.28
675.998	46363.23
676.346	46233.29
676.695	46204.14
677.044	46075.78
677.393	46025.61
677.741	46113.52
678.09	45719.63
678.438	45713.76
678.787	45790.82
679.135	45745.85
679.484	45528.22
679.832	45831.04
680.181	45532.52
680.529	45791.27
680.877	45614.55
681.225	45767.54
681.573	46081.43
681.922	45828.55
682.27	45744.49
682.618	45816.35
682.966	45841.66
683.314	46024.93
683.661	45764.38
684.009	45750.82
684.357	45545.4
684.705	45502.69
685.053	45600.54
685.4	45494.78
685.748	45254.11
686.095	45261.34
686.443	45048.01
686.79	44836.04
687.138	44855.7
687.485	44898.41
687.832	44631.75
688.18	44421.59
688.527	44385.43
688.874	44140.92
689.221	44076.74
689.568	43835.61
689.915	43738.21
690.262	43677.88
690.609	43436.3
690.956	43345.68
691.303	43302.07
691.65	43132.58
691.997	42936.88
692.344	42744.79
692.69	42624.35
693.037	42781.4
693.383	42657.56
693.73	42620.73
694.077	42459.83
694.423	42514.74
694.769	42498.25
695.116	42408.53
695.462	42563.56
695.808	42367.18
696.155	42472.26
696.501	42206.05
696.847	42165.37
697.193	42011.93
697.539	42183
697.885	41877.7
698.231	41856
698.577	41743.01
698.923	41792.73
699.269	41496.01
699.614	41302.35
699.96	41288.56
700.306	41222.35
700.651	40986.65
700.997	40712.76
701.342	40566.32
701.688	40346.89
702.033	40131.08
702.379	40103.96
702.724	39892.21
703.069	39908.26
703.415	39255.17
703.76	39269.18
704.105	39406.58
704.45	39137.88
704.795	38806.14
705.14	38767.5
705.485	38859.02
705.83	38615.64
706.175	38627.61
706.52	38480.05
706.865	38401.63
707.209	38521.63
707.554	38359.15
707.899	38464
708.243	38304.01
708.588	38278.47
708.932	38146.72
709.277	38348.3
709.621	38324.57
709.966	38094.07
710.31	38354.4
710.654	38140.62
710.998	38271.69
711.342	38295.42
711.687	38142.43
712.031	38120.51
712.375	37906.73
712.719	37885.71
713.063	37630.8
713.407	37749.9
713.75	37576.34
714.094	37492.28
714.438	37259.97
714.782	37309.68
715.125	37066.07
715.469	37078.05
715.812	36646.2
716.156	36541.79
716.499	36487.33
716.843	36382.48
717.186	36059.77
717.53	36180.67
717.873	36139.54
718.216	35935.93
718.559	35703.62
718.902	35503.18
719.246	35577.52
719.589	35619.33
719.932	35433.35
720.275	35421.14
720.617	35518.09
720.96	35385.44
721.303	35505.44
721.646	35473.8
721.989	35393.58
722.331	35507.92
722.674	35522.39
723.016	35697.52
723.359	35508.37
723.701	35559.9
724.044	35515.15
724.386	35377.53
724.729	35634.7
725.071	35496.85
725.413	35469.73
725.755	35659.78
726.097	35429.05
726.439	35300.92
726.782	35373.24
727.124	35411.43
727.465	35204.88
727.807	35190.64
728.149	34961.04
728.491	35065
728.833	34954.49
729.175	34806.47
729.516	34693.93
729.858	34653.48
730.199	34660.26
730.541	34452.81
730.882	34293.49
731.224	34486.93
731.565	34107.96
731.906	34016.66
732.248	34063.21
732.589	34018.02
732.93	33933.27
733.271	33807.85
733.612	33786.84
733.953	33879.72
734.294	33721.3
734.635	33566.28
734.976	33864.35
735.317	33718.59
735.658	33692.15
735.999	33873.84
736.339	33851.69
736.68	33947.74
737.021	33904.35
737.361	33764.24
737.702	33893.73
738.042	33947.51
738.383	33937.57
738.723	34173.04
739.063	34086.49
739.404	34389.53
739.744	34342.08
740.084	34189.99
740.424	34339.37
740.764	34334.17
741.104	34449.19
741.444	34087.62
741.784	34067.73
742.124	34374.84
742.464	34280.84
742.804	34225.24
743.143	34055.53
743.483	33990.67
743.823	33853.05
744.162	33956.55
744.502	33914.07
744.841	33623
745.181	33794.3
745.52	33605.83
745.86	33631.59
746.199	33570.8
746.538	33388.43
746.877	33565.83
747.216	33464.59
747.556	33387.3
747.895	33361.54
748.234	33241.99
748.573	33228.89
748.911	33186.18
749.25	33326.06
749.589	33134.43
749.928	33193.18
750.267	33207.19
750.605	33234.31
750.944	33289.68
751.283	33179.62
751.621	33383.23
751.96	33215.78
752.298	33213.29
752.636	33573.51
752.975	33438.82
753.313	33483.12
