Data from blue_chair_FLMS001491_00031.txt Node
Date: Wed Feb 08 10:30:35 GMT 2017
User: dcchb
Spectrometer: FLMS00149
Trigger mode: 0
Integration Time (sec): 2.000000E-2
Scans to average: 10
Electric dark correction enabled: true
Nonlinearity correction enabled: false
Boxcar width: 0
XAxis mode: Wavelengths
Number of Pixels in Spectrum: 2048
>>>>>Begin Spectral Data<<<<<
341.393	-16.1
341.776	-16.1
342.16	-16.1
342.543	-60.39
342.927	-64.24
343.31	-57.23
343.693	-69.89
344.077	-60.17
344.46	-52.26
344.843	-53.84
345.226	-62.43
345.61	-23.56
345.993	-17.68
346.376	2.66
346.759	-20.62
347.142	19.38
347.525	66.83
347.908	76.33
348.291	65.93
348.674	80.62
349.057	105.93
349.44	125.36
349.823	120.84
350.206	159.04
350.588	163.78
350.971	178.92
351.354	199.26
351.737	222.76
352.119	225.93
352.502	236.77
352.884	219.6
353.267	239.71
353.65	256.66
354.032	284.91
354.414	271.57
354.797	263.89
355.179	286.26
355.562	286.94
355.944	302.76
356.326	302.53
356.709	288.3
357.091	304.79
357.473	314.29
357.855	298.01
358.238	302.31
358.62	310.67
359.002	311.35
359.384	308.86
359.766	295.08
360.148	306.15
360.53	296.88
360.912	279.71
361.294	316.32
361.676	299.37
362.057	292.37
362.439	310.67
362.821	307.05
363.203	295.53
363.584	275.64
363.966	281.97
364.348	290.11
364.729	251.24
365.111	304.12
365.493	279.94
365.874	284.23
366.256	280.84
366.637	275.42
367.019	268.86
367.4	252.82
367.781	280.84
368.163	273.16
368.544	285.36
368.925	279.48
369.306	296.88
369.688	273.61
370.069	279.48
370.45	269.77
370.831	275.42
371.212	262.08
371.593	280.61
371.974	283.55
372.355	293.5
372.736	287.39
373.117	266.6
373.498	286.49
373.879	265.47
374.26	268.86
374.641	294.4
375.021	294.17
375.402	289.65
375.783	291.01
376.163	287.39
376.544	286.26
376.925	265.7
377.305	298.69
377.686	264.57
378.066	292.82
378.447	269.31
378.827	284.23
379.208	287.85
379.588	274.51
379.968	294.17
380.349	285.13
380.729	285.81
381.109	286.04
381.489	284
381.87	281.74
382.25	298.47
382.63	301.86
383.01	298.47
383.39	300.73
383.77	273.38
384.15	290.78
384.53	301.4
384.91	292.59
385.29	288.75
385.67	278.81
386.049	312.25
386.429	307.28
386.809	296.43
387.189	301.18
387.568	303.21
387.948	305.25
388.328	296.43
388.707	296.88
389.087	291.91
389.466	318.58
389.846	321.07
390.225	309.09
390.605	303.44
390.984	335.08
391.363	290.56
391.743	293.27
392.122	312.7
392.501	314.06
392.881	302.08
393.26	322.87
393.639	320.16
394.018	319.48
394.397	303.89
394.776	302.31
395.155	308.18
395.534	304.79
395.913	301.4
396.292	308.86
396.671	315.64
397.05	319.48
397.429	329.2
397.808	315.87
398.186	316.55
398.565	334.85
398.944	303.44
399.323	312.25
399.701	329.88
400.08	331.01
400.458	322.87
400.837	337.56
401.215	319.26
401.594	336.43
401.972	312.48
402.351	327.84
402.729	333.95
403.107	326.94
403.486	340.27
403.864	338.47
404.242	319.03
404.62	347.73
404.999	342.08
405.377	332.14
405.755	343.89
406.133	357.22
406.511	349.54
406.889	336.43
407.267	338.69
407.645	361.29
408.023	370.1
408.401	346.15
408.779	364.45
409.156	339.37
409.534	381.85
409.912	349.76
410.29	376.2
410.667	360.16
411.045	359.93
411.422	383.21
411.8	366.26
412.178	378.24
412.555	367.62
412.933	365.36
413.31	383.66
413.687	366.49
414.065	375.75
414.442	399.26
414.819	368.07
415.197	375.75
415.574	392.25
415.951	386.83
416.328	378.46
416.705	395.19
417.082	385.92
417.46	378.69
417.837	387.73
418.214	381.18
418.591	380.27
418.967	388.63
419.344	395.19
419.721	375.75
420.098	390.22
420.475	382.53
420.852	392.93
421.228	409.42
421.605	401.74
421.982	409.2
422.358	411.23
422.735	404.68
423.111	405.13
423.488	392.7
423.864	397.9
424.241	409.65
424.617	405.81
424.994	430.44
425.37	435.19
425.746	420.95
426.123	437.67
426.499	432.25
426.875	437.22
427.251	448.29
427.627	439.71
428.003	461.85
428.379	443.55
428.756	443.32
429.132	453.72
429.507	447.62
429.883	479.25
430.259	437.45
430.635	450.1
431.011	473.83
431.387	454.62
431.763	470.89
432.138	481.74
432.514	452.36
432.89	469.54
433.265	478.12
433.641	499.59
434.016	478.35
434.392	507.05
434.767	498.69
435.143	515.18
435.518	524.9
435.894	514.51
436.269	519.03
436.644	529.42
437.02	547.27
437.395	524.22
437.77	540.95
438.145	541.17
438.52	542.3
438.895	547.95
439.271	572.13
439.646	551.34
440.021	547.27
440.395	567.84
440.77	574.39
441.145	576.65
441.52	588.85
441.895	594.5
442.27	583.21
442.645	603.32
443.019	605.58
443.394	609.42
443.769	589.08
444.143	607.84
444.518	612.58
444.892	609.64
445.267	587.72
445.641	594.05
446.016	605.35
446.39	633.83
446.764	622.75
447.139	634.73
447.513	645.12
447.887	633.15
448.262	661.85
448.636	643.77
449.01	621.4
449.384	642.19
449.758	672.69
450.132	659.59
450.506	664.56
450.88	651.68
451.254	659.14
451.628	650.77
452.002	676.31
452.376	672.92
452.75	681.96
453.123	683.99
453.497	707.5
453.871	694.61
454.244	691.68
454.618	697.33
454.992	720.15
455.365	701.85
455.739	724.44
456.112	715.86
456.486	712.24
456.859	736.65
457.232	747.04
457.606	735.07
457.979	746.59
458.352	772.13
458.725	763.54
459.099	752.24
459.472	795.85
459.845	763.54
460.218	786.14
460.591	813.71
460.964	795.85
461.337	810.77
461.71	811.45
462.083	807.61
462.456	831.56
462.829	811.45
463.201	832.69
463.574	815.52
463.947	834.72
464.32	832.69
464.692	842.41
465.065	836.08
465.438	866.81
465.81	870.2
466.183	879.47
466.555	904.1
466.928	893.93
467.3	892.8
467.672	909.07
468.045	902.52
468.417	938.68
468.789	926.7
469.161	931.67
469.534	951.56
469.906	962.63
470.278	967.15
470.65	941.39
471.022	967.6
471.394	994.49
471.766	999.92
472.138	991.78
472.51	1001.05
472.882	1012.12
473.253	1036.75
473.625	1032.46
473.997	1029.75
474.369	1049.41
474.74	1047.37
475.112	1079.46
475.484	1079.92
475.855	1088.28
476.227	1105.9
476.598	1125.56
476.97	1126.69
477.341	1143.64
477.713	1144.09
478.084	1166.24
478.455	1145
478.827	1172.57
479.198	1179.12
479.569	1195.17
479.94	1211.89
480.311	1212.34
480.682	1236.3
481.053	1264.54
481.424	1274.71
481.795	1293.69
482.166	1281.72
482.537	1293.47
482.908	1325.11
483.279	1341.83
483.65	1352.45
484.021	1352.9
484.391	1372.34
484.762	1375.73
485.133	1351.32
485.503	1401.26
485.874	1405.56
486.244	1407.14
486.615	1428.15
486.985	1441.26
487.356	1457.76
487.726	1469.74
488.097	1468.38
488.467	1476.29
488.837	1462.5
489.207	1524.2
489.578	1487.81
489.948	1536.17
490.318	1566.46
490.688	1560.35
491.058	1545.89
491.428	1560.13
491.798	1535.5
492.168	1590.18
492.538	1564.42
492.908	1595.61
493.278	1618.66
493.648	1616.17
494.017	1608.04
494.387	1579.34
494.757	1633.12
495.126	1646.91
495.496	1603.52
495.866	1650.52
496.235	1641.93
496.605	1663.18
496.974	1653.69
497.344	1658.43
497.713	1667.47
498.082	1646.91
498.452	1695.04
498.821	1685.55
499.19	1679.67
499.559	1694.36
499.928	1672.22
500.298	1692.55
500.667	1676.06
501.036	1690.75
501.405	1711.08
501.774	1678.77
502.143	1729.39
502.512	1704.31
502.88	1721.71
503.249	1702.95
503.618	1697.75
503.987	1698.66
504.356	1705.21
504.724	1714.25
505.093	1721.93
505.462	1692.33
505.83	1722.61
506.199	1722.84
506.567	1721.93
506.936	1713.34
507.304	1775.49
507.672	1696.4
508.041	1704.53
508.409	1712.67
508.777	1766.45
509.145	1731.42
509.514	1726
509.882	1727.36
510.25	1745.66
510.618	1724.64
510.986	1730.97
511.354	1742.04
511.722	1754.7
512.09	1718.77
512.458	1756.73
512.826	1766.45
513.193	1736.62
513.561	1731.2
513.929	1762.84
514.297	1751.31
514.664	1756.96
515.032	1760.12
515.4	1741.59
515.767	1737.07
516.135	1728.49
516.502	1736.85
516.869	1759.9
517.237	1724.87
517.604	1748.82
517.972	1763.74
518.339	1780.01
518.706	1723.29
519.073	1759.9
519.44	1718.77
519.808	1748.37
520.175	1761.71
520.542	1744.76
520.909	1713.34
521.276	1716.73
521.643	1724.87
522.009	1740.91
522.376	1785.89
522.743	1721.03
523.11	1737.3
523.477	1753.8
523.843	1765.32
524.21	1773.46
524.577	1759.22
524.943	1775.49
525.31	1746.34
525.676	1725.77
526.043	1728.03
526.409	1735.04
526.776	1751.08
527.142	1742.95
527.508	1780.46
527.874	1759.67
528.241	1767.58
528.607	1768.71
528.973	1760.12
529.339	1773.68
529.705	1725.1
530.071	1753.12
530.437	1755.38
530.803	1730.75
531.169	1781.14
531.535	1781.14
531.901	1755.83
532.267	1766.68
532.632	1742.27
532.998	1734.36
533.364	1731.88
533.73	1747.24
534.095	1737.3
534.461	1765.32
534.826	1771.2
535.192	1782.5
535.557	1755.15
535.923	1747.69
536.288	1742.5
536.653	1735.49
537.019	1746.34
537.384	1747.92
537.749	1755.6
538.114	1727.13
538.479	1762.38
538.845	1717.19
539.21	1735.04
539.575	1727.81
539.94	1691.42
540.305	1727.81
540.67	1706.11
541.034	1724.42
541.399	1716.06
541.764	1715.15
542.129	1741.59
542.494	1703.4
542.858	1716.51
543.223	1699.33
543.587	1695.49
543.952	1710.63
544.316	1708.15
544.681	1693.68
545.045	1718.32
545.41	1708.37
545.774	1698.2
546.138	1677.87
546.503	1683.97
546.867	1683.97
547.231	1670.18
547.595	1662.95
547.959	1691.65
548.324	1680.8
548.688	1668.15
549.052	1663.18
549.416	1668.6
549.779	1641.48
550.143	1648.26
550.507	1662.72
550.871	1627.02
551.235	1681.93
551.599	1645.32
551.962	1645.55
552.326	1647.13
552.689	1656.4
553.053	1636.96
553.417	1653.46
553.78	1636.96
554.143	1657.53
554.507	1636.51
554.87	1654.82
555.234	1635.61
555.597	1621.37
555.96	1612.56
556.323	1605.55
556.686	1647.13
557.05	1647.36
557.413	1645.1
557.776	1623.86
558.139	1631.54
558.502	1599.9
558.865	1609.84
559.228	1629.96
559.59	1648.49
559.953	1615.72
560.316	1625.21
560.679	1626.34
561.041	1624.76
561.404	1648.26
561.767	1648.26
562.129	1613.69
562.492	1630.41
562.854	1639
563.217	1625.44
563.579	1643.52
563.941	1629.96
564.304	1637.64
564.666	1618.88
565.028	1633.35
565.39	1677.87
565.753	1639.45
566.115	1665.89
566.477	1683.97
566.839	1651.43
567.201	1636.28
567.563	1650.75
567.925	1670.41
568.287	1656.17
568.648	1681.71
569.01	1661.37
569.372	1656.85
569.734	1673.8
570.095	1681.48
570.457	1666.11
570.819	1677.87
571.18	1694.36
571.542	1670.41
571.903	1686.68
572.265	1692.1
572.626	1700.01
572.987	1713.57
573.349	1689.39
573.71	1724.42
574.071	1707.47
574.432	1724.42
574.794	1738.43
575.155	1719.9
575.516	1719.45
575.877	1747.69
576.238	1747.24
576.599	1751.99
576.96	1730.52
577.32	1754.25
577.681	1763.74
578.042	1737.98
578.403	1769.16
578.763	1788.37
579.124	1765.09
579.485	1766.45
579.845	1794.47
580.206	1744.08
580.566	1751.54
580.927	1764.64
581.287	1782.04
581.648	1752.67
582.008	1786.34
582.368	1774.59
582.728	1788.37
583.089	1773.68
583.449	1794.7
583.809	1769.61
584.169	1798.54
584.529	1777.52
584.889	1796.51
585.249	1813.46
585.609	1808.71
585.969	1801.25
586.329	1810.52
586.688	1820.23
587.048	1819.56
587.408	1801.48
587.768	1770.52
588.127	1754.25
588.487	1792.89
588.846	1792.89
589.206	1804.64
589.565	1764.64
589.925	1782.5
590.284	1789.5
590.643	1787.02
591.003	1821.36
591.362	1782.72
591.721	1790.86
592.08	1785.21
592.44	1810.52
592.799	1810.29
593.158	1814.59
593.517	1783.4
593.876	1803.96
594.235	1800.8
594.593	1814.36
594.952	1798.09
595.311	1808.71
595.67	1816.39
596.029	1795.83
596.387	1808.71
596.746	1809.39
597.104	1811.65
597.463	1770.52
597.822	1801.03
598.18	1783.63
598.538	1778.65
598.897	1838.09
599.255	1819.56
599.613	1799.44
599.972	1787.02
600.33	1809.39
600.688	1774.81
601.046	1826.79
601.404	1805.09
601.762	1789.27
602.12	1784.98
602.478	1795.83
602.836	1808.26
603.194	1776.85
603.552	1799.9
603.91	1799.22
604.268	1822.72
604.625	1800.8
604.983	1793.79
605.341	1790.4
605.698	1808.03
606.056	1785.66
606.413	1795.15
606.771	1800.57
607.128	1804.87
607.485	1793.79
607.843	1795.6
608.2	1778.2
608.557	1780.91
608.914	1804.19
609.272	1814.81
609.629	1774.36
609.986	1835.15
610.343	1820.69
610.7	1806.9
611.057	1775.72
611.414	1809.16
611.771	1798.77
612.127	1828.82
612.484	1837.18
612.841	1825.88
613.198	1800.8
613.554	1811.42
613.911	1809.61
614.267	1813.91
614.624	1829.73
614.98	1822.95
615.337	1824.08
615.693	1830.4
616.05	1794.7
616.406	1836.51
616.762	1834.92
617.118	1855.26
617.475	1829.27
617.831	1856.39
618.187	1834.02
618.543	1857.52
618.899	1820.69
619.255	1820.69
619.611	1824.08
619.967	1869.5
620.323	1846.22
620.678	1853.45
621.034	1839.44
621.39	1837.64
621.746	1871.53
622.101	1855.71
622.457	1830.63
622.812	1860.01
623.168	1864.53
623.523	1844.64
623.879	1866.34
624.234	1855.94
624.589	1850.29
624.945	1876.5
625.3	1842.15
625.655	1864.53
626.01	1870.63
626.365	1885.77
626.72	1867.01
627.075	1893.91
627.43	1874.24
627.785	1830.86
628.14	1851.42
628.495	1879.22
628.85	1861.36
629.205	1859.78
629.559	1852.55
629.914	1847.13
630.269	1861.82
630.623	1845.54
630.978	1836.96
631.332	1853.91
631.687	1852.1
632.041	1871.53
632.396	1871.76
632.75	1826.56
633.104	1870.4
633.459	1838.77
633.813	1824.53
634.167	1847.8
634.521	1853.68
634.875	1844.19
635.229	1831.08
635.583	1862.95
635.937	1817.3
636.291	1835.83
636.645	1858.65
636.999	1872.66
637.352	1831.31
637.706	1815.26
638.06	1857.3
638.413	1844.64
638.767	1809.39
639.121	1874.92
639.474	1841.93
639.828	1804.87
640.181	1856.84
640.534	1843.28
640.888	1844.64
641.241	1820.01
641.594	1816.17
641.947	1856.62
642.301	1827.24
642.654	1843.74
643.007	1849.84
643.36	1824.75
643.713	1817.52
644.066	1815.71
644.419	1804.87
644.771	1815.71
645.124	1809.61
645.477	1787.92
645.83	1799.22
646.182	1775.49
646.535	1764.87
646.888	1789.73
647.24	1800.57
647.593	1813.23
647.945	1819.56
648.298	1755.83
648.65	1782.04
649.002	1799.44
649.355	1806.45
649.707	1789.5
650.059	1786.56
650.411	1821.82
650.763	1839.9
651.115	1854.13
651.467	1831.76
651.819	1836.96
652.171	1860.69
652.523	1875.6
652.875	1817.07
653.227	1843.28
653.578	1854.13
653.93	1832.89
654.282	1813.68
654.633	1804.64
654.985	1855.49
655.337	1807.35
655.688	1834.92
656.039	1810.07
656.391	1811.87
656.742	1837.41
657.094	1817.3
657.445	1861.82
657.796	1862.27
658.147	1840.8
658.498	1858.65
658.849	1852.78
659.2	1849.39
659.551	1870.4
659.902	1838.31
660.253	1845.77
660.604	1839.44
660.955	1850.97
661.306	1871.76
661.656	1862.04
662.007	1855.04
662.358	1856.39
662.708	1867.01
663.059	1851.19
663.409	1860.69
663.76	1859.56
664.11	1832.21
664.461	1858.2
664.811	1840.35
665.161	1856.39
665.511	1878.76
665.862	1854.36
666.212	1869.27
666.562	1850.29
666.912	1854.81
667.262	1830.4
667.612	1857.52
667.962	1840.35
668.312	1850.06
668.662	1860.69
669.011	1876.28
669.361	1839.44
669.711	1827.24
670.06	1839.9
670.41	1831.76
670.76	1849.16
671.109	1867.24
671.459	1800.35
671.808	1824.08
672.157	1838.77
672.507	1840.57
672.856	1830.63
673.205	1834.25
673.554	1871.08
673.904	1823.4
674.253	1833.12
674.602	1818.65
674.951	1815.49
675.3	1809.61
675.649	1815.49
675.998	1835.15
676.346	1793.79
676.695	1834.7
677.044	1784.53
677.393	1794.25
677.741	1835.15
678.09	1793.79
678.438	1803.06
678.787	1784.53
679.135	1775.04
679.484	1775.04
679.832	1780.24
680.181	1804.19
680.529	1770.97
680.877	1793.79
681.225	1773.23
681.573	1765.32
681.922	1762.84
682.27	1767.13
682.618	1756.06
682.966	1749.95
683.314	1763.96
683.661	1766.9
684.009	1752.67
684.357	1752.44
684.705	1739.56
685.053	1730.07
685.4	1724.64
685.748	1734.36
686.095	1740.24
686.443	1714.7
686.79	1707.24
687.138	1749.5
687.485	1714.93
687.832	1714.02
688.18	1729.62
688.527	1692.1
688.874	1718.54
689.221	1719.9
689.568	1691.88
689.915	1700.92
690.262	1674.7
690.609	1671.99
690.956	1672.67
691.303	1670.86
691.65	1676.28
691.997	1682.84
692.344	1667.92
692.69	1649.17
693.037	1665.21
693.383	1656.17
693.73	1641.26
694.077	1627.47
694.423	1616.17
694.769	1632.22
695.116	1626.79
695.462	1642.39
695.808	1653.23
696.155	1648.04
696.501	1590.41
696.847	1602.84
697.193	1594.25
697.539	1615.27
697.885	1595.38
698.231	1592.22
698.577	1604.65
698.923	1606.45
699.269	1576.63
699.614	1570.75
699.96	1625.89
700.306	1586.79
700.651	1590.41
700.997	1610.3
701.342	1568.94
701.688	1573.01
702.033	1560.81
702.379	1529.85
702.724	1549.96
703.069	1537.53
703.415	1555.38
703.76	1569.62
704.105	1543.41
704.45	1553.57
704.795	1545.67
705.14	1552.9
705.485	1534.14
705.83	1517.42
706.175	1547.25
706.52	1534.14
706.865	1532.78
707.209	1535.72
707.554	1523.07
707.899	1548.15
708.243	1544.08
708.588	1534.59
708.932	1544.99
709.277	1514.71
709.621	1540.47
709.966	1531.43
710.31	1523.52
710.654	1521.94
710.998	1515.61
711.342	1508.38
711.687	1514.03
712.031	1528.49
712.375	1501.37
712.719	1541.6
713.063	1539.79
713.407	1547.25
713.75	1538.21
714.094	1517.64
714.438	1548.83
714.782	1531.88
715.125	1519.23
715.469	1540.69
715.812	1532.33
716.156	1548.15
716.499	1537.98
716.843	1550.19
717.186	1556.06
717.53	1533.01
717.873	1551.32
718.216	1545.67
718.559	1548.83
718.902	1528.26
719.246	1544.54
719.589	1550.86
719.932	1587.47
720.275	1575.95
720.617	1573.69
720.96	1568.94
721.303	1571.65
721.646	1545.67
721.989	1604.2
722.331	1582.73
722.674	1576.17
723.016	1565.55
723.359	1565.55
723.701	1607.58
724.044	1574.14
724.386	1591.54
724.729	1601.03
725.071	1587.25
725.413	1574.82
725.755	1596.29
726.097	1612.56
726.439	1608.94
726.782	1578.43
727.124	1597.42
727.465	1617.98
727.807	1611.88
728.149	1627.25
728.491	1625.66
728.833	1648.49
729.175	1642.39
729.516	1645.55
729.858	1683.74
730.199	1653.91
730.541	1668.37
730.882	1677.19
731.224	1678.77
731.565	1672.67
731.906	1689.16
732.248	1693.23
732.589	1695.27
732.93	1711.08
733.271	1696.85
733.612	1747.69
733.953	1734.81
734.294	1734.81
734.635	1704.53
734.976	1731.88
735.317	1756.73
735.658	1739.11
735.999	1748.6
736.339	1762.16
736.68	1776.39
737.021	1792.89
737.361	1761.25
737.702	1812.55
738.042	1821.14
738.383	1811.65
738.723	1812.33
739.063	1832.89
739.404	1846.45
739.744	1872.89
740.084	1859.78
740.424	1864.08
740.764	1862.95
741.104	1887.35
741.444	1900.23
741.784	1913.11
742.124	1933.23
742.464	1946.78
742.804	1942.27
743.143	1960.8
743.483	1970.51
743.823	1980
744.162	2011.42
744.502	2028.36
744.841	2012.09
745.181	2075.82
745.52	2076.95
745.86	2108.59
746.199	2120.79
746.538	2139.55
746.877	2139.1
747.216	2175.25
747.556	2157.4
747.895	2241.69
748.234	2222.71
748.573	2277.85
748.911	2309.04
749.25	2323.05
749.589	2346.32
749.928	2372.31
750.267	2404.17
750.605	2443.72
750.944	2452.08
751.283	2485.08
751.621	2511.52
751.96	2562.59
752.298	2615.92
752.636	2629.7
752.975	2641.91
753.313	2669.93
753.651	2722.81
753.989	2793.32
754.327	2774.33
754.666	2827.21
755.004	2895.01
755.342	2892.52
755.679	2966.19
756.017	2984.05
756.355	3028.11
756.693	3071.5
757.031	3114.66
757.368	3138.39
757.706	3196.02
758.044	3217.26
758.381	3256.13
758.719	3285.73
759.056	3349.46
759.394	3403.92
759.731	3385.84
760.068	3446.86
760.405	3525.95
760.743	3531.38
761.08	3569.57
761.417	3619.28
761.754	3631.49
762.091	3686.17
762.428	3715.55
762.765	3723.46
763.102	3826.51
763.438	3825.38
763.775	3825.83
764.112	3888.65
764.449	3935.66
764.785	3979.95
765.122	3956.22
765.458	4027.41
765.795	4093.62
766.131	4081.87
766.467	4141.08
766.804	4114.64
767.14	4150.12
767.476	4168.65
767.812	4185.6
768.148	4271.47
768.485	4251.36
768.821	4291.58
769.157	4319.6
769.492	4360.96
769.828	4349.66
770.164	4327.29
770.5	4416.32
770.836	4436.89
771.171	4428.98
771.507	4445.7
