Data from blue_chair_FLMS001491_00009.txt Node
Date: Wed Feb 08 10:28:56 GMT 2017
User: dcchb
Spectrometer: FLMS00149
Trigger mode: 0
Integration Time (sec): 2.000000E-2
Scans to average: 10
Electric dark correction enabled: true
Nonlinearity correction enabled: false
Boxcar width: 0
XAxis mode: Wavelengths
Number of Pixels in Spectrum: 2048
>>>>>Begin Spectral Data<<<<<
341.393	-19.05
341.776	-19.05
342.16	-19.05
342.543	-48.66
342.927	-80.29
343.31	-60.41
343.693	-67.19
344.077	-61.99
344.46	-54.31
344.843	-44.82
345.226	-46.17
345.61	-44.82
345.993	-9.11
346.376	-13.63
346.759	-13.4
347.142	31.12
347.525	54.62
347.908	56.88
348.291	68.18
348.674	93.03
349.057	112.02
349.44	118.12
349.823	129.42
350.206	153.15
350.588	180.49
350.971	202.64
351.354	195.63
351.737	211.9
352.119	221.84
352.502	244.67
352.884	265.01
353.267	262.3
353.65	254.84
354.032	264.33
354.414	286.02
354.797	295.06
355.179	300.26
355.562	285.57
355.944	300.49
356.326	295.29
356.709	306.36
357.091	298.23
357.473	332.12
357.855	312.92
358.238	307.04
358.62	304.55
359.002	298.68
359.384	320.82
359.766	313.14
360.148	323.76
360.53	310.66
360.912	301.62
361.294	315.18
361.676	297.55
362.057	313.37
362.439	296.64
362.821	279.02
363.203	286.02
363.584	308.85
363.966	287.38
364.348	297.32
364.729	289.19
365.111	312.24
365.493	285.57
365.874	305.68
366.256	291.22
366.637	298.9
367.019	280.15
367.4	278.11
367.781	279.02
368.163	286.48
368.544	288.06
368.925	267.27
369.306	283.99
369.688	287.38
370.069	286.93
370.45	280.15
370.831	277.44
371.212	269.75
371.593	293.48
371.974	286.48
372.355	278.57
372.736	276.53
373.117	283.54
373.498	260.71
373.879	272.46
374.26	274.5
374.641	303.42
375.021	278.11
375.402	284.44
375.783	277.89
376.163	297.77
376.544	271.56
376.925	281.5
377.305	300.03
377.686	281.73
378.066	289.87
378.447	298.9
378.827	292.58
379.208	279.7
379.588	277.44
379.968	309.75
380.349	296.87
380.729	312.92
381.109	294.84
381.489	310.2
381.87	297.55
382.25	296.87
382.63	288.74
383.01	292.58
383.39	292.13
383.77	311.79
384.15	287.61
384.53	276.31
384.91	298
385.29	297.32
385.67	299.58
386.049	315.63
386.429	298.45
386.809	302.97
387.189	324.89
387.568	309.3
387.948	297.55
388.328	319.92
388.707	313.59
389.087	318.79
389.466	287.83
389.846	293.93
390.225	323.99
390.605	318.34
390.984	322.86
391.363	320.37
391.743	308.4
392.122	302.29
392.501	294.16
392.881	329.41
393.26	324.67
393.639	321.95
394.018	315.63
394.397	319.02
394.776	307.04
395.155	337.77
395.534	318.79
395.913	331.22
396.292	334.38
396.671	343.88
397.05	315.18
397.429	330.32
397.808	317.66
398.186	332.8
398.565	337.77
398.944	324.67
399.323	323.54
399.701	362.41
400.08	325.8
400.458	320.6
400.837	342.52
401.215	330.54
401.594	337.77
401.972	330.54
402.351	360.37
402.729	339.58
403.107	344.78
403.486	344.78
403.864	344.1
404.242	343.65
404.62	358.56
404.999	367.15
405.377	357.21
405.755	341.16
406.133	372.8
406.511	358.34
406.889	370.77
407.267	344.1
407.645	378
408.023	360.82
408.401	350.88
408.779	378
409.156	378.22
409.534	370.77
409.912	373.25
410.29	386.13
410.667	368.28
411.045	396.76
411.422	384.78
411.8	396.08
412.178	365.57
412.555	396.08
412.933	386.59
413.31	394.04
413.687	393.14
414.065	400.14
414.442	414.61
414.819	423.65
415.197	392.91
415.574	402.86
415.951	413.25
416.328	408.05
416.705	399.92
417.082	423.42
417.46	414.16
417.837	414.38
418.214	425.91
418.591	420.94
418.967	428.62
419.344	433.36
419.721	407.15
420.098	438.56
420.475	424.33
420.852	431.1
421.228	411.67
421.605	438.79
421.982	430.88
422.358	435.17
422.735	424.55
423.111	429.52
423.488	443.76
423.864	461.84
424.241	453.7
424.617	454.38
424.994	446.7
425.37	472.46
425.746	475.17
426.123	485.34
426.499	476.08
426.875	481.27
427.251	487.37
427.627	491.44
428.003	486.47
428.379	507.49
428.756	496.64
429.132	468.17
429.507	480.59
429.883	498
430.259	507.71
430.635	502.97
431.011	501.39
431.387	520.59
431.763	528.28
432.138	519.46
432.514	533.93
432.89	518.56
433.265	528.5
433.641	544.77
434.016	552.23
434.392	541.16
434.767	533.7
435.143	561.5
435.518	589.97
435.894	591.1
436.269	570.08
436.644	570.08
437.02	594.04
437.395	592.23
437.77	591.78
438.145	624.09
438.52	597.65
438.895	646.01
439.271	655.96
439.646	630.2
440.021	654.83
440.395	652.12
440.77	624.77
441.145	639.69
441.52	656.64
441.895	652.12
442.27	671.78
442.645	646.24
443.019	681.27
443.394	660.03
443.769	684.21
444.143	677.88
444.518	679.69
444.892	703.19
445.267	683.08
445.641	721.27
446.016	713.13
446.39	714.26
446.764	699.57
447.139	714.94
447.513	739.57
447.887	732.11
448.262	728.27
448.636	730.98
449.01	746.12
449.384	741.83
449.758	775.5
450.132	771.21
450.506	775.05
450.88	761.49
451.254	758.1
451.628	752.45
452.002	794.48
452.376	754.03
452.75	804.65
453.123	803.98
453.497	802.85
453.871	810.3
454.244	827.93
454.618	804.88
454.992	818.44
455.365	810.76
455.739	845.56
456.112	832.45
456.486	833.58
456.859	841.94
457.232	869.96
457.606	865.9
457.979	869.29
458.352	864.77
458.725	863.86
459.099	893.01
459.472	906.57
459.845	883.07
460.218	892.11
460.591	897.53
460.964	911.77
461.337	908.83
461.71	925.1
462.083	944.76
462.456	942.73
462.829	957.42
463.201	954.03
463.574	962.16
463.947	961.71
464.32	975.72
464.692	972.79
465.065	956.74
465.438	980.24
465.81	1018.43
466.183	1036.51
466.555	1032.9
466.928	1009.39
467.3	1053.24
467.672	1048.26
468.045	1064.99
468.417	1035.38
468.789	1062.05
469.161	1066.34
469.534	1064.76
469.906	1096.85
470.278	1095.95
470.65	1093.23
471.022	1137.75
471.394	1098.43
471.766	1143.85
472.138	1141.37
472.51	1133.01
472.882	1130.07
473.253	1165.1
473.625	1163.74
473.997	1213
474.369	1181.59
474.74	1208.71
475.112	1200.35
475.484	1235.15
475.855	1213.46
476.227	1240.12
476.598	1265.21
476.97	1238.54
477.341	1302.49
477.713	1264.53
478.084	1312.44
478.455	1320.35
478.827	1311.99
479.198	1307.24
479.569	1342.04
479.94	1354.47
480.311	1368.03
480.682	1356.96
481.053	1396.73
481.424	1394.92
481.795	1417.75
482.166	1406.22
482.537	1423.39
482.908	1433.34
483.279	1433.56
483.65	1466.78
484.021	1489.83
484.391	1465.2
484.762	1503.84
485.133	1492.09
485.503	1475.14
485.874	1534.13
486.244	1524.18
486.615	1513.34
486.985	1520.34
487.356	1549.95
487.726	1557.85
488.097	1569.61
488.467	1563.05
488.837	1586.33
489.207	1586.1
489.578	1616.38
489.948	1618.64
490.318	1599.44
490.688	1646.44
491.058	1608.7
491.428	1639.43
491.798	1617.06
492.168	1624.29
492.538	1623.39
492.908	1655.03
493.278	1640.11
493.648	1623.84
494.017	1641.92
494.387	1674.46
494.757	1651.19
495.126	1622.26
495.496	1661.35
495.866	1667.91
496.235	1645.99
496.605	1672.65
496.974	1621.13
497.344	1650.73
497.713	1659.09
498.082	1608.25
498.452	1638.98
498.821	1641.24
499.19	1639.66
499.559	1620.9
499.928	1639.66
500.298	1641.24
500.667	1631.3
501.036	1636.95
501.405	1622.94
501.774	1642.82
502.143	1616.61
502.512	1645.08
502.88	1617.29
503.249	1605.54
503.618	1622.49
503.987	1598.98
504.356	1619.1
504.724	1603.5
505.093	1590.62
505.462	1610.96
505.83	1617.51
506.199	1619.55
506.567	1631.52
506.936	1596.95
507.304	1607.8
507.672	1568.25
508.041	1624.97
508.409	1608.7
508.777	1600.79
509.145	1566.89
509.514	1563.05
509.882	1577.06
510.25	1559.66
510.618	1576.39
510.986	1588.81
511.354	1584.29
511.722	1586.33
512.09	1585.65
512.458	1558.76
512.826	1588.14
513.193	1555.37
513.561	1545.65
513.929	1553.79
514.297	1553.33
514.664	1572.09
515.032	1530.06
515.4	1518.53
515.767	1515.37
516.135	1509.95
516.502	1513.11
516.869	1555.14
517.237	1516.5
517.604	1493.22
517.972	1498.87
518.339	1470.63
518.706	1492.55
519.073	1468.37
519.44	1461.81
519.808	1497.29
520.175	1454.35
520.542	1470.4
520.909	1474.24
521.276	1469.27
521.643	1447.57
522.009	1450.74
522.376	1481.7
522.743	1471.76
523.11	1484.41
523.477	1442.15
523.843	1439.67
524.21	1459.1
524.577	1445.77
524.943	1442.6
525.31	1440.57
525.676	1442.6
526.043	1404.41
526.409	1434.69
526.776	1468.14
527.142	1452.32
527.508	1423.85
527.874	1435.15
528.241	1454.81
528.607	1474.69
528.973	1436.28
529.339	1434.02
529.705	1429.27
530.071	1457.97
530.437	1462.72
530.803	1403.51
531.169	1457.74
531.535	1424.75
531.901	1438.08
532.267	1434.02
532.632	1436.73
532.998	1426.56
533.364	1451.19
533.73	1424.98
534.095	1422.94
534.461	1415.94
534.826	1426.11
535.192	1381.59
535.557	1423.17
535.923	1425.43
536.288	1395.82
536.653	1405.32
537.019	1417.52
537.384	1421.36
537.749	1381.36
538.114	1401.93
538.479	1384.07
538.845	1379.78
539.21	1397.18
539.575	1402.83
539.94	1390.4
540.305	1385.88
540.67	1375.03
541.034	1384.98
541.399	1373
541.764	1392.89
542.129	1391.08
542.494	1399.21
542.858	1380.91
543.223	1390.85
543.587	1360.35
543.952	1373.23
544.316	1389.95
544.681	1379.55
545.045	1356.96
545.41	1364.19
545.774	1359.44
546.138	1376.39
546.503	1363.28
546.867	1352.89
547.231	1362.83
547.595	1347.46
547.959	1336.62
548.324	1360.35
548.688	1328.03
549.052	1345.88
549.416	1342.49
549.779	1337.97
550.143	1348.37
550.507	1360.8
550.871	1351.53
551.235	1316.28
551.599	1328.26
551.962	1331.87
552.326	1342.27
552.689	1329.84
553.053	1321.48
553.417	1317.86
553.78	1314.47
554.143	1322.83
554.507	1327.8
554.87	1304.53
555.234	1335.04
555.597	1319.67
555.96	1290.29
556.323	1281.93
556.686	1330.97
557.05	1274.7
557.413	1295.04
557.776	1328.26
558.139	1306.79
558.502	1291.42
558.865	1308.37
559.228	1305.66
559.59	1282.16
559.953	1295.94
560.316	1321.25
560.679	1314.47
561.041	1298.43
561.404	1299.78
561.767	1305.21
562.129	1315.15
562.492	1318.31
562.854	1321.48
563.217	1293
563.579	1333.68
563.941	1311.31
564.304	1329.84
564.666	1341.82
565.028	1303.62
565.39	1301.59
565.753	1324.64
566.115	1327.35
566.477	1340.46
566.839	1326.45
567.201	1336.62
567.563	1328.48
567.925	1333.45
568.287	1357.41
568.648	1357.41
569.01	1301.36
569.372	1318.09
569.734	1326.67
570.095	1331.87
570.457	1336.39
570.819	1335.49
571.18	1358.99
571.542	1346.79
571.903	1391.31
572.265	1363.28
572.626	1349.05
572.987	1397.86
573.349	1365.09
573.71	1401.93
574.071	1383.17
574.432	1397.41
574.794	1390.63
575.155	1404.41
575.516	1401.7
575.877	1390.4
576.238	1395.15
576.599	1383.85
576.96	1421.36
577.32	1402.83
577.681	1420.01
578.042	1424.75
578.403	1416.16
578.763	1402.15
579.124	1419.55
579.485	1412.32
579.845	1449.61
580.206	1439.67
580.566	1480.12
580.927	1445.54
581.287	1464.3
581.648	1457.07
582.008	1443.28
582.368	1461.36
582.728	1441.25
583.089	1460.68
583.449	1466.33
583.809	1455.03
584.169	1443.28
584.529	1446.9
584.889	1469.5
585.249	1465.2
585.609	1456.61
585.969	1445.09
586.329	1496.16
586.688	1475.82
587.048	1478.08
587.408	1502.04
587.768	1484.18
588.127	1497.07
588.487	1446.22
588.846	1453.9
589.206	1460
589.565	1490.96
589.925	1485.54
590.284	1484.86
590.643	1473.34
591.003	1466.78
591.362	1493.68
591.721	1481.7
592.08	1470.85
592.44	1494.13
592.799	1494.58
593.158	1507.46
593.517	1480.79
593.876	1473.79
594.235	1475.37
594.593	1478.08
594.952	1503.17
595.311	1478.76
595.67	1494.35
596.029	1457.07
596.387	1483.51
596.746	1484.18
597.104	1486.44
597.463	1482.38
597.822	1500
598.18	1495.48
598.538	1503.62
598.897	1497.07
599.255	1467.24
599.613	1511.08
599.972	1492.77
600.33	1473.79
600.688	1484.86
601.046	1488.25
601.404	1468.59
601.762	1463.85
602.12	1469.27
602.478	1487.8
602.836	1500
603.194	1476.73
603.552	1511.3
603.91	1470.17
604.268	1492.09
604.625	1495.26
604.983	1480.12
605.341	1470.4
605.698	1453
606.056	1482.83
606.413	1494.13
606.771	1479.44
607.128	1488.48
607.485	1458.65
607.843	1483.51
608.2	1481.7
608.557	1504.52
608.914	1479.21
609.272	1477.63
609.629	1474.01
609.986	1497.29
610.343	1472.21
610.7	1509.49
611.057	1479.44
611.414	1494.58
611.771	1476.5
612.127	1471.53
612.484	1483.51
612.841	1489.61
613.198	1487.35
613.554	1496.61
613.911	1490.96
614.267	1480.79
614.624	1475.37
614.98	1510.62
615.337	1490.74
615.693	1504.97
616.05	1501.36
616.406	1482.15
616.762	1473.56
617.118	1509.04
617.475	1476.73
617.831	1508.14
618.187	1506.78
618.543	1516.95
618.899	1497.52
619.255	1507.01
619.611	1514.01
619.967	1517.86
620.323	1527.35
620.678	1510.4
621.034	1509.49
621.39	1525.31
621.746	1527.12
622.101	1508.82
622.457	1532.09
622.812	1522.83
623.168	1533
623.523	1505.65
623.879	1521.47
624.234	1518.53
624.589	1535.48
624.945	1525.31
625.3	1523.96
625.655	1509.27
626.01	1546.1
626.365	1513.11
626.72	1540.45
627.075	1513.79
627.43	1504.75
627.785	1506.78
628.14	1556.5
628.495	1528.02
628.85	1495.26
629.205	1515.6
629.559	1523.96
629.914	1526.89
630.269	1540.68
630.623	1549.04
630.978	1519.21
631.332	1527.8
631.687	1500.91
632.041	1516.73
632.396	1526.67
632.75	1545.43
633.104	1528.48
633.459	1547.46
633.813	1540.68
634.167	1537.52
634.521	1523.51
634.875	1526.44
635.229	1486.22
635.583	1520.57
635.937	1519.21
636.291	1527.8
636.645	1539.1
636.999	1515.14
637.352	1523.96
637.706	1513.11
638.06	1531.87
638.413	1523.73
638.767	1515.82
639.121	1552.2
639.474	1518.76
639.828	1502.94
640.181	1538.65
640.534	1513.79
640.888	1501.81
641.241	1490.96
641.594	1505.2
641.947	1519.89
642.301	1548.36
642.654	1552.66
643.007	1552.2
643.36	1540.91
643.713	1529.83
644.066	1558.31
644.419	1522.15
644.771	1507.69
645.124	1546.33
645.477	1497.07
645.83	1531.64
646.182	1485.77
646.535	1539.78
646.888	1513.11
647.24	1503.62
647.593	1518.31
647.945	1546.56
648.298	1508.59
648.65	1514.24
649.002	1517.86
649.355	1553.33
649.707	1524.86
650.059	1523.05
650.411	1541.58
650.763	1566.67
651.115	1557.18
651.467	1567.57
651.819	1590.62
652.171	1581.13
652.523	1581.81
652.875	1569.83
653.227	1584.75
653.578	1576.39
653.93	1561.47
654.282	1582.94
654.633	1584.52
654.985	1545.43
655.337	1597.4
655.688	1610.28
656.039	1596.72
656.391	1532.09
656.742	1606.89
657.094	1581.36
657.445	1611.86
657.796	1604.63
658.147	1627.01
658.498	1594.24
658.849	1592.88
659.2	1591.07
659.551	1610.73
659.902	1608.93
660.253	1587.46
660.604	1598.08
660.955	1631.07
661.306	1615.71
661.656	1618.19
662.007	1636.5
662.358	1635.59
662.708	1612.77
663.059	1632.88
663.409	1608.47
663.76	1618.19
664.11	1603.73
664.461	1644.41
664.811	1622.94
665.161	1629.04
665.511	1612.54
665.862	1618.42
666.212	1630.62
666.562	1618.42
666.912	1609.6
667.262	1600.57
667.612	1609.6
667.962	1625.65
668.312	1611.64
668.662	1597.63
669.011	1642.6
669.361	1630.85
669.711	1630.17
670.06	1635.14
670.41	1593.56
670.76	1610.73
671.109	1593.56
671.459	1620.68
671.808	1610.96
672.157	1624.97
672.507	1601.47
672.856	1596.27
673.205	1609.15
673.554	1607.57
673.904	1613.67
674.253	1608.93
674.602	1587.01
674.951	1591.98
675.3	1554.46
675.649	1595.14
675.998	1597.85
676.346	1593.79
676.695	1569.83
677.044	1557.63
677.393	1597.18
677.741	1584.75
678.09	1544.52
678.438	1547.91
678.787	1574.13
679.135	1588.14
679.484	1553.56
679.832	1544.07
680.181	1571.19
680.529	1552.66
680.877	1528.93
681.225	1567.12
681.573	1547.69
681.922	1559.89
682.27	1551.3
682.618	1533
682.966	1525.54
683.314	1551.98
683.661	1534.35
684.009	1534.8
684.357	1514.01
684.705	1509.49
685.053	1520.57
685.4	1493.22
685.748	1533
686.095	1508.14
686.443	1507.46
686.79	1506.1
687.138	1492.09
687.485	1464.98
687.832	1487.57
688.18	1484.64
688.527	1499.78
688.874	1495.03
689.221	1489.16
689.568	1457.74
689.915	1463.39
690.262	1467.24
690.609	1469.72
690.956	1465.43
691.303	1467.46
691.65	1457.29
691.997	1458.42
692.344	1451.19
692.69	1448.25
693.037	1420.91
693.383	1453
693.73	1424.75
694.077	1428.37
694.423	1440.12
694.769	1433.34
695.116	1443.96
695.462	1401.47
695.808	1392.66
696.155	1415.94
696.501	1400.8
696.847	1387.92
697.193	1381.59
697.539	1396.95
697.885	1419.78
698.231	1384.98
698.577	1391.76
698.923	1361.48
699.269	1370.51
699.614	1383.17
699.96	1374.81
700.306	1370.74
700.651	1383.85
700.997	1363.06
701.342	1361.25
701.688	1355.15
702.033	1382.72
702.379	1376.62
702.724	1347.92
703.069	1358.76
703.415	1341.36
703.76	1354.47
704.105	1346.56
704.45	1329.84
704.795	1350.85
705.14	1352.44
705.485	1326.22
705.83	1328.03
706.175	1323.96
706.52	1330.97
706.865	1337.3
707.209	1312.44
707.554	1334.36
707.899	1315.38
708.243	1340.23
708.588	1338.65
708.932	1342.72
709.277	1330.29
709.621	1349.27
709.966	1335.94
710.31	1336.39
710.654	1341.82
710.998	1341.36
711.342	1337.97
711.687	1344.53
712.031	1325.32
712.375	1319.67
712.719	1342.72
713.063	1340.01
713.407	1348.37
713.75	1355.83
714.094	1311.76
714.438	1358.76
714.782	1343.4
715.125	1349.27
715.469	1359.22
715.812	1353.79
716.156	1377.29
716.499	1342.04
716.843	1372.1
717.186	1346.56
717.53	1353.57
717.873	1392.66
718.216	1393.57
718.559	1368.48
718.902	1396.73
719.246	1367.13
719.589	1370.06
719.932	1359.22
720.275	1377.07
720.617	1389.05
720.96	1393.11
721.303	1404.64
721.646	1389.05
721.989	1400.12
722.331	1402.6
722.674	1443.96
723.016	1439.44
723.359	1422.26
723.701	1402.38
724.044	1420.01
724.386	1421.13
724.729	1465.65
725.071	1450.96
725.413	1441.93
725.755	1441.7
726.097	1471.08
726.439	1467.91
726.782	1451.42
727.124	1444.64
727.465	1484.18
727.807	1471.98
728.149	1457.97
728.491	1466.56
728.833	1470.63
729.175	1503.62
729.516	1521.47
729.858	1528.25
730.199	1556.72
730.541	1542.04
730.882	1550.4
731.224	1541.58
731.565	1528.02
731.906	1590.62
732.248	1571.41
732.589	1601.92
732.93	1590.4
733.271	1586.78
733.612	1604.18
733.953	1608.7
734.294	1639.89
734.635	1614.58
734.976	1643.73
735.317	1678.76
735.658	1643.5
735.999	1684.86
736.339	1687.12
736.68	1691.64
737.021	1685.08
737.361	1685.53
737.702	1719.43
738.042	1763.72
738.383	1740.45
738.723	1750.17
739.063	1782.03
739.404	1772.09
739.744	1810.05
740.084	1830.16
740.424	1850.95
740.764	1845.76
741.104	1877.39
741.444	1884.4
741.784	1902.93
742.124	1915.81
742.464	1944.51
742.804	1976.37
743.143	1961.91
743.483	1988.13
743.823	2051.17
744.162	2029.48
744.502	2061.57
744.841	2074.68
745.181	2111.74
745.52	2128.69
745.86	2175.47
746.199	2138.18
746.538	2188.57
746.877	2252.53
747.216	2285.29
747.556	2292.98
747.895	2343.6
748.234	2351.96
748.573	2394.22
748.911	2382.24
749.25	2486.42
749.589	2499.75
749.928	2533.2
750.267	2587.21
750.605	2578.84
750.944	2657.71
751.283	2668.56
751.621	2766.64
751.96	2755.79
752.298	2787.65
752.636	2845.96
752.975	2932.96
753.313	2950.81
753.651	3006.63
753.989	3063.13
754.327	3087.08
754.666	3115.55
755.004	3190.81
755.342	3210.47
755.679	3330.24
756.017	3328.2
756.355	3383.12
756.693	3449.56
757.031	3488.43
757.368	3519.84
757.706	3576.33
758.044	3639.16
758.381	3690.91
758.719	3758.93
759.056	3796.21
759.394	3871.92
759.731	3830.11
760.068	3976.1
760.405	4014.29
760.743	4038.24
761.08	4080.5
761.417	4145.36
761.754	4179.93
762.091	4280.49
762.428	4293.83
762.765	4321.62
763.102	4400.72
763.438	4435.97
763.775	4505.12
764.112	4522.75
764.449	4576.76
764.785	4640.94
765.122	4677.09
765.458	4719.58
765.795	4743.99
766.131	4829.63
766.467	4843.87
766.804	4887.71
767.14	4880.93
767.476	4949.86
767.812	4993.7
768.148	5009.29
768.485	5070.98
768.821	5105.33
769.157	5160.25
769.492	5189.17
769.828	5217.65
770.164	5227.59
770.5	5286.12
770.836	5292.67
771.171	5278.43
771.507	5353.91
