Data from blue_chair_FLMS001491_00086.txt Node
Date: Wed Feb 08 10:31:55 GMT 2017
User: dcchb
Spectrometer: FLMS00149
Trigger mode: 0
Integration Time (sec): 2.000000E-2
Scans to average: 10
Electric dark correction enabled: true
Nonlinearity correction enabled: false
Boxcar width: 0
XAxis mode: Wavelengths
Number of Pixels in Spectrum: 2048
>>>>>Begin Spectral Data<<<<<
341.393	-24.73
341.776	-24.73
342.16	-24.73
342.543	-70.38
342.927	-66.99
343.31	-55.69
343.693	-84.39
344.077	-55.01
344.46	-66.76
344.843	-50.04
345.226	-39.42
345.61	-33.32
345.993	-12.53
346.376	-10.95
346.759	9.62
347.142	17.98
347.525	42.16
347.908	53.46
348.291	81.48
348.674	91.65
349.057	111.76
349.44	121.03
349.823	144.53
350.206	172.78
350.588	156.73
350.971	194.92
351.354	229.05
351.737	190.63
352.119	221.14
352.502	222.72
352.884	258.43
353.267	242.38
353.65	250.29
354.032	285.32
354.414	288.93
354.797	297.52
355.179	286.22
355.562	299.55
355.944	311.76
356.326	318.31
356.709	309.95
357.091	326.22
357.473	327.35
357.855	335.26
358.238	309.72
358.62	328.71
359.002	335.03
359.384	324.86
359.766	300.46
360.148	314.7
360.53	327.8
360.912	327.35
361.294	299.33
361.676	297.07
362.057	311.53
362.439	305.43
362.821	323.73
363.203	319.44
363.584	293
363.966	300.46
364.348	299.55
364.729	287.13
365.111	279.44
365.493	295.71
365.874	283.06
366.256	285.77
366.637	286
367.019	286.22
367.4	275.6
367.781	300.46
368.163	271.98
368.544	277.63
368.925	285.54
369.306	271.98
369.688	280.35
370.069	278.54
370.45	269.5
370.831	287.35
371.212	293
371.593	287.8
371.974	297.29
372.355	268.82
372.736	280.35
373.117	269.05
373.498	301.36
373.879	291.42
374.26	287.13
374.641	276.73
375.021	272.44
375.402	286.67
375.783	290.06
376.163	258.65
376.544	290.97
376.925	278.31
377.305	290.29
377.686	295.71
378.066	302.49
378.447	309.5
378.827	302.27
379.208	310.85
379.588	311.53
379.968	292.32
380.349	288.93
380.729	300.46
381.109	305.88
381.489	297.75
381.87	293.9
382.25	300.01
382.63	307.46
383.01	321.25
383.39	296.16
383.77	289.39
384.15	319.89
384.53	309.05
384.91	301.36
385.29	303.85
385.67	299.78
386.049	297.75
386.429	329.38
386.809	307.69
387.189	308.59
387.568	321.25
387.948	309.5
388.328	312.89
388.707	318.99
389.087	303.17
389.466	324.19
389.846	323.51
390.225	309.5
390.605	303.4
390.984	337.97
391.363	322.6
391.743	311.76
392.122	323.28
392.501	297.07
392.881	311.31
393.26	333.9
393.639	328.48
394.018	339.78
394.397	324.64
394.776	329.84
395.155	339.78
395.534	337.75
395.913	338.65
396.292	327.8
396.671	342.94
397.05	324.19
397.429	359.89
397.808	335.49
398.186	348.14
398.565	334.58
398.944	339.1
399.323	337.75
399.701	325.99
400.08	365.99
400.458	326.22
400.837	335.26
401.215	330.97
401.594	360.57
401.972	347.46
402.351	340.91
402.729	365.99
403.107	364.86
403.486	358.08
403.864	350.4
404.242	348.82
404.62	366.45
404.999	355.15
405.377	363.51
405.755	367.58
406.133	373.22
406.511	369.38
406.889	365.77
407.267	386.56
407.645	383.85
408.023	374.35
408.401	373.22
408.779	368.7
409.156	383.62
409.534	378.2
409.912	395.14
410.29	393.34
410.667	409.61
411.045	391.98
411.422	402.15
411.8	393.34
412.178	436.95
412.555	385.88
412.933	401.25
413.31	421.13
413.687	406.22
414.065	441.47
414.442	424.07
414.819	423.62
415.197	413.68
415.574	403.96
415.951	429.49
416.328	418.65
416.705	448.7
417.082	435.14
417.46	425.65
417.837	434.92
418.214	441.92
418.591	427.01
418.967	454.13
419.344	434.92
419.721	461.81
420.098	453.45
420.475	435.14
420.852	437.63
421.228	457.74
421.605	488.7
421.982	460.68
422.358	485.09
422.735	478.53
423.111	488.93
423.488	486.22
423.864	480.34
424.241	497.29
424.617	509.04
424.994	498.19
425.37	489.83
425.746	470.4
426.123	507.01
426.499	514.92
426.875	509.94
427.251	511.53
427.627	524.63
428.003	518.53
428.379	527.34
428.756	540.9
429.132	518.76
429.507	543.16
429.883	558.08
430.259	539.32
430.635	532.77
431.011	551.3
431.387	569.83
431.763	563.5
432.138	574.12
432.514	582.48
432.89	560.34
433.265	587.91
433.641	608.25
434.016	589.72
434.392	598.3
434.767	610.51
435.143	620
435.518	620.68
435.894	626.33
436.269	668.58
436.644	637.4
437.02	655.93
437.395	639.88
437.77	659.54
438.145	668.13
438.52	674.23
438.895	703.84
439.271	717.85
439.646	705.42
440.021	726.89
440.395	714.46
440.77	708.81
441.145	708.36
441.52	723.5
441.895	729.6
442.27	758.53
442.645	727.79
443.019	768.47
443.394	729.6
443.769	746.55
444.143	761.69
444.518	781.35
444.892	764.4
445.267	793.55
445.641	775.93
446.016	809.15
446.39	774.8
446.764	797.85
447.139	806.43
447.513	818.64
447.887	794.68
448.262	815.92
448.636	819.77
449.01	822.48
449.384	829.94
449.758	842.59
450.132	854.34
450.506	860.67
450.88	847.34
451.254	860.67
451.628	855.7
452.002	858.64
452.376	872.87
452.75	894.79
453.123	877.62
453.497	878.52
453.871	897.28
454.244	910.84
454.618	926.88
454.992	937.73
455.365	928.46
455.739	958.75
456.112	963.72
456.486	968.24
456.859	958.52
457.232	971.63
457.606	991.74
457.979	999.2
458.352	1007.78
458.725	1018.41
459.099	986.54
459.472	1007.11
459.845	1031.51
460.218	1030.16
460.591	1051.4
460.964	1045.3
461.337	1072.19
461.71	1068.35
462.083	1109.02
462.456	1092.3
462.829	1063.15
463.201	1092.3
463.574	1100.66
463.947	1092.75
464.32	1133.43
464.692	1128.23
465.065	1134.33
465.438	1150.15
465.81	1153.54
466.183	1190.6
466.555	1198.74
466.928	1174.33
467.3	1176.14
467.672	1202.58
468.045	1195.58
468.417	1204.39
468.789	1217.72
469.161	1220.66
469.534	1259.3
469.906	1262.69
470.278	1270.6
470.65	1252.75
471.022	1281.22
471.394	1298.17
471.766	1295.23
472.138	1330.49
472.51	1312.63
472.882	1352.41
473.253	1355.12
473.625	1401.67
473.997	1398.96
474.369	1380.2
474.74	1417.72
475.112	1394.89
475.484	1441.45
475.855	1444.83
476.227	1452.74
476.598	1489.58
476.97	1464.72
477.341	1497.71
477.713	1546.53
478.084	1505.85
478.455	1568.22
478.827	1547.88
479.198	1582.01
479.569	1610.48
479.94	1605.96
480.311	1635.79
480.682	1640.31
481.053	1674.43
481.424	1677.6
481.795	1685.96
482.166	1704.04
482.537	1744.04
482.908	1732.28
483.279	1758.27
483.65	1774.32
484.021	1783.58
484.391	1788.1
484.762	1771.15
485.133	1775.45
485.503	1790.14
485.874	1805.73
486.244	1836.46
486.615	1856.35
486.985	1852.28
487.356	1851.15
487.726	1877.37
488.097	1880.98
488.467	1872.17
488.837	1913.75
489.207	1943.35
489.578	1944.26
489.948	1958.49
490.318	1969.57
490.688	1959.85
491.058	1971.83
491.428	1972.5
491.798	1985.16
492.168	2011.6
492.538	2015.89
492.908	2006.85
493.278	1977.48
493.648	2019.28
494.017	1987.65
494.387	2022.67
494.757	2031.94
495.126	2013.63
495.496	2036.46
495.866	2028.32
496.235	2036.91
496.605	2038.27
496.974	1989.91
497.344	2006.85
497.713	2038.72
498.082	2050.69
498.452	2064.71
498.821	2017.93
499.19	2021.54
499.559	2031.03
499.928	2061.99
500.298	2021.77
500.667	2039.85
501.036	2028.1
501.405	2041.88
501.774	2010.24
502.143	2023.8
502.512	2038.04
502.88	2038.04
503.249	2005.72
503.618	2049.56
503.987	2024.03
504.356	2024.71
504.724	2035.33
505.093	2018.15
505.462	2008.44
505.83	2023.58
506.199	1990.36
506.567	2024.93
506.936	2040.75
507.304	2011.15
507.672	1990.36
508.041	2019.28
508.409	2010.24
508.777	1973.63
509.145	2029
509.514	2039.17
509.882	1985.39
510.25	1974.09
510.618	1982.22
510.986	1992.62
511.354	2034.42
511.722	2017.02
512.09	1996.01
512.458	1980.19
512.826	1984.03
513.193	1987.87
513.561	1953.52
513.929	1985.16
514.297	1970.02
514.664	1966.86
515.032	1976.12
515.4	1961.21
515.767	1998.94
516.135	1953.3
516.502	1914.2
516.869	1953.07
517.237	1906.29
517.604	1944.93
517.972	1944.93
518.339	1954.2
518.706	1939.96
519.073	1917.36
519.44	1904.03
519.808	1891.15
520.175	1918.49
520.542	1895.67
520.909	1883.92
521.276	1885.28
521.643	1901.55
522.009	1878.27
522.376	1912.17
522.743	1923.47
523.11	1907.42
523.477	1937.48
523.843	1891.6
524.21	1876.91
524.577	1878.5
524.943	1923.01
525.31	1909.68
525.676	1898.38
526.043	1879.4
526.409	1901.55
526.776	1901.55
527.142	1874.43
527.508	1892.96
527.874	1914.65
528.241	1889.57
528.607	1901.32
528.973	1916.46
529.339	1897.25
529.705	1915.56
530.071	1905.84
530.437	1919.85
530.803	1894.99
531.169	1909
531.535	1904.71
531.901	1894.99
532.267	1901.32
532.632	1899.06
532.998	1925.73
533.364	1899.51
533.73	1878.04
534.095	1907.65
534.461	1905.16
534.826	1911.49
535.192	1897.03
535.557	1879.85
535.923	1874.88
536.288	1888.21
536.653	1911.26
537.019	1867.2
537.384	1915.56
537.749	1868.33
538.114	1891.38
538.479	1892.96
538.845	1880.98
539.21	1872.17
539.575	1895.9
539.94	1876.24
540.305	1912.39
540.67	1881.89
541.034	1871.72
541.399	1899.74
541.764	1847.99
542.129	1882.56
542.494	1867.87
542.858	1884.37
543.223	1866.97
543.587	1857.71
543.952	1877.59
544.316	1843.92
544.681	1859.29
545.045	1832.85
545.41	1877.37
545.774	1856.35
546.138	1853.41
546.503	1851.83
546.867	1863.58
547.231	1872.39
547.595	1838.95
547.959	1829.01
548.324	1850.47
548.688	1847.76
549.052	1849.12
549.416	1861.32
549.779	1843.69
550.143	1834.66
550.507	1856.12
550.871	1872.85
551.235	1822.68
551.599	1863.35
551.962	1845.05
552.326	1856.8
552.689	1866.52
553.053	1854.09
553.417	1816.58
553.78	1808.22
554.143	1800.98
554.507	1835.33
554.87	1836.91
555.234	1807.54
555.597	1828.1
555.96	1843.47
556.323	1810.47
556.686	1790.14
557.05	1836.69
557.413	1826.07
557.776	1807.99
558.139	1826.52
558.502	1841.66
558.865	1802.79
559.228	1827.2
559.59	1833.75
559.953	1809.57
560.316	1836.69
560.679	1837.37
561.041	1812.06
561.404	1842.34
561.767	1846.86
562.129	1843.02
562.492	1848.89
562.854	1802.79
563.217	1826.29
563.579	1836.91
563.941	1808.22
564.304	1862
564.666	1815.67
565.028	1842.79
565.39	1843.92
565.753	1856.58
566.115	1833.53
566.477	1849.34
566.839	1839.85
567.201	1890.02
567.563	1860.19
567.925	1869.91
568.287	1900.19
568.648	1882.56
569.01	1902.68
569.372	1903.13
569.734	1873.07
570.095	1905.39
570.457	1898.16
570.819	1907.2
571.18	1908.33
571.542	1932.05
571.903	1930.02
572.265	1918.27
572.626	1931.83
572.987	1938.83
573.349	1974.31
573.71	1965.95
574.071	1996.68
574.432	1945.39
574.794	1971.15
575.155	1965.27
575.516	1970.7
575.877	1964.14
576.238	2015.22
576.599	1999.85
576.96	2015.67
577.32	2004.82
577.681	1974.76
578.042	2029
578.403	2006.4
578.763	2009.79
579.124	2049.11
579.485	2043.92
579.845	2058.6
580.206	2055.21
580.566	2073.07
580.927	2040.07
581.287	2059.73
581.648	2068.55
582.008	2107.19
582.368	2075.55
582.728	2065.38
583.089	2057.7
583.449	2085.5
583.809	2093.41
584.169	2073.52
584.529	2070.81
584.889	2102.22
585.249	2112.16
585.609	2061.32
585.969	2140.86
586.329	2085.72
586.688	2092.95
587.048	2111.03
587.408	2092.28
587.768	2109
588.127	2100.18
588.487	2080.75
588.846	2116.23
589.206	2118.49
589.565	2153.29
589.925	2106.51
590.284	2107.19
590.643	2125.27
591.003	2103.35
591.362	2139.28
591.721	2107.19
592.08	2107.64
592.44	2102.9
592.799	2136.34
593.158	2130.01
593.517	2108.09
593.876	2149.9
594.235	2130.01
594.593	2151.48
594.952	2098.6
595.311	2091.6
595.67	2139.51
596.029	2114.42
596.387	2136.79
596.746	2126.62
597.104	2130.92
597.463	2127.75
597.822	2148.09
598.18	2112.61
598.538	2111.71
598.897	2097.25
599.255	2105.83
599.613	2124.37
599.972	2134.99
600.33	2120.52
600.688	2140.41
601.046	2131.82
601.404	2102.9
601.762	2118.04
602.12	2146.96
602.478	2123.46
602.836	2125.04
603.194	2136.12
603.552	2103.35
603.91	2123.01
604.268	2132.95
604.625	2109.22
604.983	2135.89
605.341	2074.2
605.698	2124.59
606.056	2135.44
606.413	2097.02
606.771	2123.24
607.128	2104.03
607.485	2140.64
607.843	2107.87
608.2	2111.94
608.557	2142.22
608.914	2104.48
609.272	2159.17
609.629	2122.33
609.986	2136.34
610.343	2139.05
610.7	2133.18
611.057	2131.14
611.414	2124.59
611.771	2112.39
612.127	2150.13
612.484	2172.73
612.841	2149.45
613.198	2154.65
613.554	2150.13
613.911	2110.35
614.267	2144.03
614.624	2160.52
614.98	2163.46
615.337	2151.71
615.693	2149.68
616.05	2153.97
616.406	2177.02
616.762	2164.82
617.118	2149
617.475	2167.3
617.831	2109.68
618.187	2156.68
618.543	2141.54
618.899	2199.62
619.255	2153.29
619.611	2143.8
619.967	2166.85
620.323	2169.79
620.678	2154.65
621.034	2163.23
621.39	2151.93
621.746	2153.97
622.101	2182.44
622.457	2139.73
622.812	2161.2
623.168	2138.83
623.523	2160.97
623.879	2192.61
624.234	2152.84
624.589	2158.49
624.945	2178.6
625.3	2190.58
625.655	2168.66
626.01	2161.43
626.365	2181.31
626.72	2160.52
627.075	2182.89
627.43	2157.36
627.785	2172.5
628.14	2165.72
628.495	2186.74
628.85	2189
629.205	2132.73
629.559	2189.22
629.914	2156.23
630.269	2167.3
630.623	2159.62
630.978	2143.12
631.332	2173.18
631.687	2154.87
632.041	2160.97
632.396	2220.86
632.75	2153.74
633.104	2167.08
633.459	2136.79
633.813	2176.34
634.167	2146.29
634.521	2163.69
634.875	2163.91
635.229	2174.08
635.583	2166.17
635.937	2198.49
636.291	2181.31
636.645	2171.6
636.999	2156.91
637.352	2160.75
637.706	2164.82
638.06	2162.56
638.413	2150.35
638.767	2169.11
639.121	2205.27
639.474	2150.35
639.828	2183.35
640.181	2186.06
640.534	2163.46
640.888	2183.8
641.241	2131.14
641.594	2169.56
641.947	2160.52
642.301	2173.86
642.654	2179.28
643.007	2174.76
643.36	2162.1
643.713	2178.37
644.066	2159.62
644.419	2205.27
644.771	2152.84
645.124	2120.07
645.477	2138.83
645.83	2131.82
646.182	2150.58
646.535	2113.74
646.888	2138.6
647.24	2143.8
647.593	2156.68
647.945	2151.71
648.298	2141.09
648.65	2153.29
649.002	2136.79
649.355	2134.08
649.707	2168.43
650.059	2156.68
650.411	2145.83
650.763	2145.38
651.115	2157.81
651.467	2198.04
651.819	2217.24
652.171	2220.41
652.523	2207.75
652.875	2195.1
653.227	2212.95
653.578	2191.03
653.93	2219.5
654.282	2213.63
654.633	2214.76
654.985	2226.96
655.337	2226.06
655.688	2237.81
656.039	2225.15
656.391	2200.97
656.742	2213.4
657.094	2217.24
657.445	2253.4
657.796	2231.03
658.147	2230.12
658.498	2233.74
658.849	2294.98
659.2	2273.74
659.551	2240.07
659.902	2229
660.253	2271.93
660.604	2234.64
660.955	2234.87
661.306	2223.8
661.656	2274.87
662.007	2231.71
662.358	2254.31
662.708	2223.57
663.059	2247.07
663.409	2232.84
663.76	2245.94
664.11	2293.17
664.461	2287.52
664.811	2257.02
665.161	2246.85
665.511	2264.93
665.862	2285.04
666.212	2285.94
666.562	2258.37
666.912	2263.8
667.262	2270.35
667.612	2255.44
667.962	2300.63
668.312	2256.79
668.662	2278.94
669.011	2255.21
669.361	2237.81
669.711	2259.5
670.06	2268.32
670.41	2246.17
670.76	2261.76
671.109	2264.7
671.459	2256.11
671.808	2236.45
672.157	2216.11
672.507	2242.1
672.856	2240.75
673.205	2240.07
673.554	2206.62
673.904	2179.73
674.253	2235.77
674.602	2206.62
674.951	2203.23
675.3	2193.74
675.649	2176.12
675.998	2190.35
676.346	2196.68
676.695	2205.49
677.044	2166.4
677.393	2193.06
677.741	2175.44
678.09	2165.72
678.438	2193.52
678.787	2146.51
679.135	2191.26
679.484	2151.03
679.832	2204.14
680.181	2162.78
680.529	2158.94
680.877	2125.72
681.225	2142.67
681.573	2170.47
681.922	2138.6
682.27	2150.13
682.618	2143.8
682.966	2141.99
683.314	2155.78
683.661	2153.06
684.009	2124.14
684.357	2118.04
684.705	2075.55
685.053	2117.13
685.4	2083.01
685.748	2074.42
686.095	2080.98
686.443	2062.9
686.79	2063.58
687.138	2053.41
687.485	2037.81
687.832	2072.39
688.18	2076.68
688.527	2085.72
688.874	2100.64
689.221	2075.78
689.568	2040.98
689.915	2043.24
690.262	2034.88
690.609	2023.8
690.956	2010.7
691.303	2018.83
691.65	1999.85
691.997	2012.96
692.344	1981.77
692.69	1986.29
693.037	1988.1
693.383	1960.08
693.73	1978.83
694.077	1975.44
694.423	1970.7
694.769	1942.22
695.116	1946.52
695.462	1971.37
695.808	1937.48
696.155	1951.26
696.501	1894.54
696.847	1926.86
697.193	1897.03
697.539	1898.38
697.885	1880.53
698.231	1919.62
698.577	1907.42
698.923	1929.79
699.269	1869.91
699.614	1879.4
699.96	1870.36
700.306	1879.85
700.651	1892.51
700.997	1881.66
701.342	1905.84
701.688	1874.43
702.033	1859.74
702.379	1889.34
702.724	1830.14
703.069	1854.77
703.415	1861.55
703.76	1876.01
704.105	1828.33
704.45	1833.53
704.795	1838.72
705.14	1836.24
705.485	1798.72
705.83	1823.81
706.175	1824.26
706.52	1831.04
706.865	1804.83
707.209	1843.24
707.554	1820.87
707.899	1812.06
708.243	1830.59
708.588	1823.36
708.932	1793.75
709.277	1779.97
709.621	1805.05
709.966	1823.13
710.31	1801.21
710.654	1824.71
710.998	1820.42
711.342	1814.99
711.687	1801.44
712.031	1813.86
712.375	1783.36
712.719	1813.64
713.063	1802.11
713.407	1831.04
713.75	1821.77
714.094	1825.84
714.438	1805.73
714.782	1828.78
715.125	1848.89
715.469	1841.43
715.812	1818.38
716.156	1811.83
716.499	1833.98
716.843	1852.73
717.186	1848.89
717.53	1826.97
717.873	1831.49
718.216	1869.23
718.559	1881.66
718.902	1828.1
719.246	1827.2
719.589	1848.89
719.932	1863.13
720.275	1852.73
720.617	1872.62
720.96	1858.38
721.303	1904.71
721.646	1902.68
721.989	1879.85
722.331	1883.24
722.674	1897.03
723.016	1921.43
723.359	1904.26
723.701	1909.23
724.044	1920.75
724.386	1920.08
724.729	1954.88
725.071	1930.25
725.413	1927.31
725.755	1934.54
726.097	1942.67
726.439	1918.04
726.782	1995.1
727.124	1979.96
727.465	1973.18
727.807	1992.62
728.149	1985.39
728.491	2004.37
728.833	1993.75
729.175	2011.6
729.516	2005.72
729.858	2040.98
730.199	2048.66
730.541	2071.94
730.882	2064.93
731.224	2039.85
731.565	2057.25
731.906	2061.54
732.248	2071.94
732.589	2069.68
732.93	2082.78
733.271	2096.34
733.612	2135.89
733.953	2118.72
734.294	2131.6
734.635	2125.04
734.976	2165.04
735.317	2169.34
735.658	2174.08
735.999	2217.92
736.339	2213.18
736.68	2236.45
737.021	2236
737.361	2252.05
737.702	2263.12
738.042	2253.85
738.383	2285.72
738.723	2282.33
739.063	2328.88
739.404	2324.81
739.744	2312.38
740.084	2365.04
740.424	2385.6
740.764	2401.87
741.104	2414.3
741.444	2457.69
741.784	2461.98
742.124	2497.24
742.464	2506.5
742.804	2509.21
743.143	2545.82
743.483	2574.97
743.823	2643.67
744.162	2616.56
744.502	2662.2
744.841	2713.73
745.181	2690.68
745.52	2724.8
745.86	2794.4
746.199	2809.32
746.538	2835.76
746.877	2840.96
747.216	2920.5
747.556	2880.96
747.895	2975.64
748.234	2990.78
748.573	3057.67
748.911	3074.17
749.25	3099.25
749.589	3179.93
749.928	3178.35
750.267	3282.53
750.605	3325.46
750.944	3381.51
751.283	3390.55
751.621	3465.12
751.96	3470.32
752.298	3551.22
752.636	3586.93
752.975	3640.94
753.313	3679.8
753.651	3771.55
753.989	3790.99
754.327	3871.21
754.666	3928.61
755.004	3957.54
755.342	4061.04
755.679	4077.53
756.017	4151.43
756.355	4210.64
756.693	4282.05
757.031	4358.2
757.368	4381.71
757.706	4400.69
758.044	4490.4
758.381	4557.97
758.719	4637.29
759.056	4713.22
759.394	4764.52
759.731	4761.36
760.068	4859.89
760.405	4899.21
760.743	4968.81
761.08	5076.38
761.417	5040.45
761.754	5165.87
762.091	5202.02
762.428	5209.26
762.765	5281.34
763.102	5357.95
763.438	5392.98
763.775	5409.25
764.112	5454.67
764.449	5522.47
764.785	5578.96
765.122	5630.04
765.458	5658.51
765.795	5736.47
766.131	5758.39
766.467	5802.91
766.804	5863.93
767.14	5842.01
767.476	5949.58
767.812	5968.33
768.148	5973.76
768.485	6007.65
768.821	6013.75
769.157	6030.7
769.492	6131.04
769.828	6190.92
770.164	6169.23
770.5	6207.87
770.836	6221.66
771.171	6321.77
