Data from blue_clamp_base_FLMS001491_00056.txt Node
Date: Wed Feb 08 15:16:13 GMT 2017
User: dcchb
Spectrometer: FLMS00149
Trigger mode: 0
Integration Time (sec): 2.000000E-2
Scans to average: 10
Electric dark correction enabled: true
Nonlinearity correction enabled: false
Boxcar width: 0
XAxis mode: Wavelengths
Number of Pixels in Spectrum: 2048
>>>>>Begin Spectral Data<<<<<
341.393	-17.32
341.776	-17.32
342.16	-17.32
342.543	-67.26
342.927	-49.18
343.31	-74.94
343.693	-75.17
344.077	-55.73
344.46	-44.89
344.843	-44.21
345.226	-55.06
345.61	-16.19
345.993	-12.34
346.376	-9.63
346.759	-7.6
347.142	26.98
347.525	55.9
347.908	50.48
348.291	57.71
348.674	90.7
349.057	113.98
349.44	119.4
349.823	143.58
350.206	177.48
350.588	193.75
350.971	181.1
351.354	208.44
351.737	217.93
352.119	250.7
352.502	249.34
352.884	259.74
353.267	291.38
353.65	275.11
354.032	292.73
354.414	286.86
354.797	291.83
355.179	305.16
355.562	302
355.944	314.2
356.326	327.08
356.709	329.57
357.091	316.46
357.473	337.93
357.855	325.27
358.238	332.73
358.62	322.11
359.002	321.66
359.384	336.8
359.766	343.35
360.148	328.89
360.53	335.9
360.912	313.52
361.294	335.22
361.676	325.05
362.057	318.72
362.439	342.22
362.821	320.08
363.203	314.2
363.584	311.71
363.966	313.52
364.348	307.2
364.729	313.07
365.111	299.74
365.493	342.67
365.874	303.81
366.256	290.47
366.637	306.07
367.019	300.19
367.4	311.49
367.781	328.66
368.163	298.38
368.544	312.84
368.925	302.9
369.306	298.83
369.688	292.05
370.069	300.19
370.45	285.95
370.831	303.58
371.212	307.87
371.593	313.75
371.974	295.44
372.355	323.92
372.736	301.32
373.117	320.53
373.498	313.52
373.879	318.04
374.26	301.77
374.641	299.51
375.021	299.74
375.402	307.87
375.783	315.33
376.163	302.45
376.544	315.1
376.925	323.69
377.305	325.95
377.686	332.73
378.066	325.95
378.447	328.66
378.827	327.08
379.208	323.01
379.588	331.83
379.968	306.74
380.349	336.8
380.729	312.17
381.109	335.22
381.489	332.51
381.87	316.01
382.25	328.66
382.63	351.49
383.01	331.38
383.39	336.57
383.77	337.93
384.15	336.8
384.53	330.02
384.91	328.21
385.29	344.26
385.67	333.18
386.049	359.85
386.429	351.71
386.809	359.85
387.189	360.08
387.568	359.17
387.948	364.37
388.328	342.67
388.707	350.13
389.087	372.73
389.466	344.48
389.846	361.88
390.225	366.85
390.605	384.03
390.984	375.22
391.363	382.45
391.743	403.46
392.122	397.36
392.501	386.97
392.881	416.12
393.26	379.51
393.639	394.42
394.018	416.34
394.397	392.84
394.776	410.24
395.155	411.37
395.534	402.11
395.913	406.63
396.292	425.38
396.671	433.75
397.05	426.29
397.429	429.23
397.808	414.99
398.186	436.23
398.565	429.9
398.944	439.62
399.323	455.89
399.701	465.38
400.08	471.48
400.458	450.24
400.837	460.64
401.215	486.4
401.594	475.33
401.972	460.86
402.351	486.17
402.729	490.69
403.107	483.24
403.486	519.39
403.864	513.74
404.242	506.29
404.62	487.3
404.999	539.73
405.377	530.92
405.755	552.16
406.133	516.46
406.511	559.62
406.889	543.57
407.267	582.44
407.645	563.46
408.023	587.41
408.401	580.63
408.779	577.47
409.156	578.83
409.534	580.41
409.912	594.65
410.29	608.66
410.667	623.57
411.045	627.86
411.422	620.41
411.8	626.28
412.178	663.12
412.555	661.31
412.933	645.04
413.31	663.8
413.687	685.49
414.065	657.92
414.442	682.78
414.819	714.42
415.197	706.05
415.574	715.55
415.951	740.18
416.328	721.87
416.705	753.51
417.082	743.12
417.46	756.68
417.837	766.84
418.214	772.04
418.591	772.49
418.967	801.19
419.344	779.5
419.721	792.38
420.098	783.79
420.475	786.96
420.852	798.03
421.228	841.42
421.605	832.38
421.982	856.79
422.358	856.79
422.735	872.38
423.111	844.36
423.488	865.37
423.864	868.54
424.241	897.69
424.617	904.92
424.994	885.94
425.37	923.22
425.746	894.07
426.123	950.34
426.499	946.5
426.875	968.65
427.251	949.66
427.627	990.12
428.003	1011.58
428.379	1039.83
428.756	1005.93
429.132	1044.8
429.507	1046.16
429.883	1072.37
430.259	1085.71
430.635	1093.39
431.011	1127.51
431.387	1107.63
431.763	1134.07
432.138	1149.21
432.514	1164.8
432.89	1154.18
433.265	1174.07
433.641	1212.48
434.016	1228.08
434.392	1225.59
434.767	1264.91
435.143	1253.39
435.518	1267.62
435.894	1300.16
436.269	1308.52
436.644	1339.48
437.02	1334.74
437.395	1380.61
437.77	1381.29
438.145	1406.6
438.52	1392.36
438.895	1429.43
439.271	1415.64
439.646	1445.24
440.021	1459.03
440.395	1471.23
440.77	1479.59
441.145	1494.96
441.52	1535.86
441.895	1557.78
442.27	1551
442.645	1560.27
443.019	1600.04
443.394	1578.8
443.769	1581.51
444.143	1581.06
444.518	1622.19
444.892	1618.57
445.267	1662.64
445.641	1658.12
446.016	1681.17
446.39	1681.85
446.764	1682.75
447.139	1737.67
447.513	1717.55
447.887	1715.75
448.262	1708.29
448.636	1727.5
449.01	1743.32
449.384	1792.81
449.758	1806.59
450.132	1827.83
450.506	1840.94
450.88	1859.02
451.254	1871.45
451.628	1882.3
452.002	1887.94
452.376	1901.96
452.75	1945.8
453.123	1969.3
453.497	1967.72
453.871	2016.08
454.244	2016.53
454.618	2070.76
454.992	2110.54
455.365	2066.02
455.739	2145.57
456.112	2153.7
456.486	2177.65
456.859	2144.21
457.232	2235.05
457.606	2226.92
457.979	2259.01
458.352	2304.2
458.725	2297.2
459.099	2313.7
459.472	2354.15
459.845	2393.02
460.218	2416.29
460.591	2421.94
460.964	2447.25
461.337	2511.66
461.71	2544.42
462.083	2554.37
462.456	2567.02
462.829	2574.93
463.201	2607.02
463.574	2631.2
463.947	2658.77
464.32	2719.79
464.692	2709.17
465.065	2723.18
465.438	2732.67
465.81	2795.04
466.183	2817.19
466.555	2924.3
466.928	2904.64
467.3	2905.77
467.672	2925.88
468.045	2989.38
468.417	3034.58
468.789	3008.37
469.161	3072.09
469.534	3105.99
469.906	3183.73
470.278	3213.56
470.65	3246.33
471.022	3254.01
471.394	3356.61
471.766	3349.6
472.138	3407.23
472.51	3457.39
472.882	3472.76
473.253	3520.22
473.625	3590.27
473.997	3631.18
474.369	3642.47
474.74	3664.17
475.112	3719.99
475.484	3749.14
475.855	3869.59
476.227	3852.86
476.598	3943.03
476.97	3938.74
477.341	4006.76
477.713	4073.65
478.084	4102.58
478.455	4187.55
478.827	4249.69
479.198	4342.8
479.569	4317.49
479.94	4433.19
480.311	4423.02
480.682	4505.73
481.053	4602.68
481.424	4632.73
481.795	4700.53
482.166	4754.54
482.537	4779.85
482.908	4896.91
483.279	4888.32
483.65	4939.62
484.021	5039.73
484.391	5099.16
484.762	5127.63
485.133	5154.75
485.503	5236.78
485.874	5269.55
486.244	5357.46
486.615	5370.34
486.985	5419.83
487.356	5521.97
487.726	5542.31
488.097	5572.82
488.467	5587.96
488.837	5697.34
489.207	5756.77
489.578	5807.39
489.948	5793.83
490.318	5872.47
490.688	5878.12
491.058	5934.62
491.428	6022.53
491.798	6046.25
492.168	6115.63
492.538	6159.7
492.908	6206.93
493.278	6204.89
493.648	6249.19
494.017	6308.62
494.387	6316.08
494.757	6293.48
495.126	6368.05
495.496	6400.82
495.866	6400.14
496.235	6448.95
496.605	6504.77
496.974	6470.42
497.344	6546.35
497.713	6544.32
498.082	6549.74
498.452	6620.48
498.821	6565.56
499.19	6640.59
499.559	6660.7
499.928	6671.1
500.298	6688.5
500.667	6750.87
501.036	6769.85
501.405	6780.7
501.774	6781.83
502.143	6818.44
502.512	6795.84
502.88	6866.34
503.249	6834.03
503.618	6894.59
503.987	6861.37
504.356	6916.06
504.724	6893.01
505.093	6926.68
505.462	6933.01
505.83	6957.87
506.199	7012.56
506.567	7026.79
506.936	7045.32
507.304	7082.38
507.672	7094.59
508.041	7103.85
508.409	7167.81
508.777	7240.8
509.145	7194.7
509.514	7217.52
509.882	7234.02
510.25	7221.36
510.618	7306.79
510.986	7213.91
511.354	7289.16
511.722	7255.71
512.09	7343.17
512.458	7278.76
512.826	7359.21
513.193	7431.98
513.561	7424.75
513.929	7424.3
514.297	7521.69
514.664	7481.24
515.032	7497.51
515.4	7511.53
515.767	7541.58
516.135	7515.14
516.502	7500.45
516.869	7622.26
517.237	7605.76
517.604	7584.97
517.972	7660.9
518.339	7667.68
518.706	7642.14
519.073	7723.5
519.44	7763.5
519.808	7745.87
520.175	7706.55
520.542	7772.99
520.909	7780.22
521.276	7775.47
521.643	7830.39
522.009	7794.68
522.376	7879.88
522.743	7938.41
523.11	8025.18
523.477	7969.37
523.843	8052.08
524.21	8087.1
524.577	8086.43
524.943	8140.66
525.31	8165.97
525.676	8222.24
526.043	8219.76
526.409	8262.92
526.776	8291.62
527.142	8338.62
527.508	8370.03
527.874	8355.8
528.241	8420.88
528.607	8384.5
528.973	8539.97
529.339	8438.51
529.705	8497.49
530.071	8596.02
530.437	8591.05
530.803	8665.62
531.169	8686.86
531.535	8573.42
531.901	8718.27
532.267	8711.27
532.632	8728.89
532.998	8750.59
533.364	8792.85
533.73	8733.19
534.095	8783.58
534.461	8863.81
534.826	8870.13
535.192	8889.79
535.557	8933.18
535.923	8946.29
536.288	9013.18
536.653	9064.71
537.019	8925.27
537.384	8952.62
537.749	9047.98
538.114	9065.61
538.479	9083.91
538.845	9089.11
539.21	9076.46
539.575	9140.64
539.94	9144.93
540.305	9206.62
540.67	9215.66
541.034	9221.76
541.399	9267.86
541.764	9228.09
542.129	9310.12
542.494	9267.19
542.858	9305.6
543.223	9301.54
543.587	9367.3
543.952	9236.23
544.316	9340.4
544.681	9361.19
545.045	9359.61
545.41	9381.53
545.774	9444.81
546.138	9446.84
546.503	9403.91
546.867	9400.52
547.231	9438.48
547.595	9398.03
547.959	9429.22
548.324	9497.24
548.688	9555.09
549.052	9543.79
549.416	9522.32
549.779	9556.22
550.143	9564.35
550.507	9540.4
550.871	9573.84
551.235	9546.95
551.599	9640.28
551.962	9642.09
552.326	9657.23
552.689	9744.24
553.053	9665.37
553.417	9666.27
553.78	9784.23
554.143	9647.74
554.507	9812.48
554.87	9786.04
555.234	9818.36
555.597	9702.43
555.96	9821.97
556.323	9860.16
556.686	9753.27
557.05	9821.97
557.413	9875.76
557.776	9909.65
558.139	9893.84
558.502	9885.02
558.865	9908.52
559.228	9935.42
559.59	9965.02
559.953	10002.53
560.316	10085.24
560.679	10051.8
561.041	10012.7
561.404	10125.92
561.767	10141.51
562.129	10100.16
562.492	10164.11
562.854	10145.35
563.217	10160.95
563.579	10259.02
563.941	10228.29
564.304	10251.34
564.666	10323.2
565.028	10238.01
565.39	10348.97
565.753	10365.01
566.115	10420.15
566.477	10393.26
566.839	10414.95
567.201	10550.77
567.563	10531.79
567.925	10633.03
568.287	10568.62
568.648	10678.22
569.01	10616.53
569.372	10679.58
569.734	10640.48
570.095	10699.24
570.457	10724.1
570.819	10813.59
571.18	10777.88
571.542	10815.62
571.903	10834.83
572.265	10858.56
572.626	10867.6
572.987	10933.81
573.349	10895.62
573.71	10906.24
574.071	10996.86
574.432	10990.53
574.794	11116.4
575.155	11039.79
575.516	11053.58
575.877	11162.96
576.238	11129.96
576.599	11164.54
576.96	11217.64
577.32	11204.99
577.681	11251.09
578.042	11317.3
578.403	11295.83
578.763	11266.68
579.124	11356.62
579.485	11349.62
579.845	11484.98
580.206	11403.85
580.566	11388.26
580.927	11344.42
581.287	11517.52
581.648	11440.01
582.008	11515.94
582.368	11451.08
582.728	11474.13
583.089	11519.33
583.449	11526.79
583.809	11507.58
584.169	11579.67
584.529	11518.2
584.889	11544.64
585.249	11569.05
585.609	11515.94
585.969	11551.19
586.329	11572.66
586.688	11598.2
587.048	11524.3
587.408	11555.04
587.768	11511.19
588.127	11554.81
588.487	11610.85
588.846	11693.79
589.206	11571.53
589.565	11557.07
589.925	11581.02
590.284	11625.09
590.643	11618.99
591.003	11685.43
591.362	11616.28
591.721	11720.91
592.08	11712.09
592.44	11769.27
592.799	11736.73
593.158	11647.01
593.517	11714.13
593.876	11695.82
594.235	11759.32
594.593	11678.42
594.952	11757.74
595.311	11700.57
595.67	11812.88
596.029	11846.33
596.387	11823.28
596.746	11767.46
597.104	11807.68
597.463	11747.12
597.822	11880.22
598.18	11861.69
598.538	11848.36
598.897	11905.76
599.255	11748.7
599.613	11977.85
599.972	11851.98
600.33	11905.99
600.688	11840.68
601.046	11868.7
601.404	11879.09
601.762	11939.88
602.12	11967.91
602.478	11955.48
602.836	11952.76
603.194	11837.06
603.552	11898.3
603.91	11866.44
604.268	11956.15
604.625	11877.06
604.983	11949.83
605.341	11912.31
605.698	11979.66
606.056	11929.94
606.413	11940.56
606.771	12019.43
607.128	12005.19
607.485	11940.79
607.843	11997.51
608.2	12054.91
608.557	12097.17
608.914	12035.02
609.272	12101.24
609.629	12026.21
609.986	12106.21
610.343	12024.18
610.7	12178.52
611.057	12130.61
611.414	12104.85
611.771	12120.9
612.127	12162.7
612.484	12232.53
612.841	12240.44
613.198	12162.48
613.554	12206.32
613.911	12237.05
614.267	12264.85
614.624	12288.12
614.98	12315.47
615.337	12264.85
615.693	12235.02
616.05	12197.73
616.406	12444.5
616.762	12327.9
617.118	12418.52
617.475	12392.53
617.831	12368.8
618.187	12349.82
618.543	12439.08
618.899	12573.77
619.255	12456.03
619.611	12461.45
619.967	12505.52
620.323	12421.23
620.678	12493.54
621.034	12440.21
621.39	12545.74
621.746	12492.19
622.101	12634.1
622.457	12589.58
622.812	12486.76
623.168	12633.88
623.523	12632.75
623.879	12692.86
624.234	12579.42
624.589	12683.82
624.945	12606.08
625.3	12619.41
625.655	12674.78
626.01	12714.78
626.365	12761.33
626.72	12720.88
627.075	12720.65
627.43	12668
627.785	12647.89
628.14	12813.31
628.495	12732.41
628.85	12772.4
629.205	12764.72
629.559	12840.88
629.914	12774.89
630.269	12778.05
630.623	12830.03
630.978	12770.14
631.332	12889.01
631.687	12901.89
632.041	12846.98
632.396	12825.06
632.75	12886.07
633.104	12922.91
633.459	12853.98
633.813	12865.96
634.167	12868.45
634.521	12862.57
634.875	12896.02
635.229	12869.58
635.583	12905.73
635.937	12899.63
636.291	12903.02
636.645	12843.81
636.999	12938.28
637.352	12984.6
637.706	12933.76
638.06	13007.43
638.413	12971.95
638.767	12933.3
639.121	13005.62
639.474	12922.68
639.828	13004.94
640.181	13058.5
640.534	13039.74
640.888	12968.33
641.241	12929.01
641.594	13024.15
641.947	13067.54
642.301	13140.98
642.654	13114.09
643.007	13146.18
643.36	13124.49
643.713	13046.52
644.066	13145.05
644.419	13089.01
644.771	13131.26
645.124	13105.5
645.477	13075.9
645.83	12961.55
646.182	12915
646.535	12864.83
646.888	12939.41
647.24	12829.13
647.593	12942.34
647.945	12839.07
648.298	12846.3
648.65	12824.15
649.002	12869.12
649.355	13009.23
649.707	12982.57
650.059	13069.57
650.411	13267.53
650.763	13297.81
651.115	13437.25
651.467	13369.9
651.819	13416.46
652.171	13468.88
652.523	13423.23
652.875	13406.06
653.227	13423.46
653.578	13541.2
653.93	13486.96
654.282	13487.19
654.633	13444.7
654.985	13548.66
655.337	13554.3
655.688	13497.13
656.039	13597.47
656.391	13480.63
656.742	13543.01
657.094	13571.48
657.445	13560.18
657.796	13654.19
658.147	13534.87
658.498	13607.64
658.849	13619.39
659.2	13682.66
659.551	13640.18
659.902	13647.18
660.253	13575.32
660.604	13735.32
660.955	13677.69
661.306	13684.7
661.656	13669.33
662.007	13748.42
662.358	13646.96
662.708	13688.54
663.059	13741.42
663.409	13692.83
663.76	13812.6
664.11	13731.25
664.461	13720.18
664.811	13712.04
665.161	13759.72
665.511	13810.8
665.862	13715.43
666.212	13780.51
666.562	13778.25
666.912	13707.29
667.262	13808.54
667.612	13740.97
667.962	13783.9
668.312	13728.31
668.662	13821.42
669.011	13684.24
669.361	13778.25
669.711	13724.24
670.06	13625.72
670.41	13627.98
670.76	13623.91
671.109	13641.53
671.459	13592.27
671.808	13576
672.157	13586.39
672.507	13467.08
672.856	13451.48
673.205	13438.6
673.554	13488.32
673.904	13462.33
674.253	13432.95
674.602	13360.64
674.951	13161.32
675.3	13028.22
675.649	13303.92
675.998	13326.51
676.346	13263.46
676.695	13294.88
677.044	13196.35
677.393	13242.67
677.741	13237.02
678.09	13213.07
678.438	13172.17
678.787	13179.4
679.135	13182.11
679.484	13042.91
679.832	13086.29
680.181	13019.4
680.529	13006.97
680.877	12937.15
681.225	12971.5
681.573	12934.43
681.922	12940.54
682.27	12849.69
682.618	12844.94
682.966	12743.03
683.314	12788.68
683.661	12783.25
684.009	12712.74
684.357	12660.99
684.705	12631.62
685.053	12674.55
685.4	12710.26
685.748	12530.38
686.095	12557.49
686.443	12537.38
686.79	12446.09
687.138	12510.04
687.485	12536.7
687.832	12450.83
688.18	12474.56
688.527	12422.36
688.874	12403.37
689.221	12301.46
689.568	12377.39
689.915	12350.27
690.262	12384.84
690.609	12276.37
690.956	12219.88
691.303	12202.02
691.65	12266.88
691.997	12225.53
692.344	12080.9
692.69	12183.04
693.037	12070.73
693.383	12025.53
693.73	12110.5
694.077	12008.13
694.423	12041.12
694.769	12049.49
695.116	12032.54
695.462	11941.24
695.808	11982.82
696.155	11977.17
696.501	11928.81
696.847	11879.09
697.193	11979.2
697.539	11939.43
697.885	11915.03
698.231	11783.96
698.577	11824.63
698.923	11807.01
699.269	11803.16
699.614	11727.91
699.96	11771.07
700.306	11780.79
700.651	11821.92
700.997	11754.58
701.342	11748.25
701.688	11643.39
702.033	11661.93
702.379	11725.43
702.724	11644.07
703.069	11733.11
703.415	11618.54
703.76	11707.57
704.105	11662.38
704.45	11597.29
704.795	11512.78
705.14	11570.63
705.485	11541.25
705.83	11456.96
706.175	11496.28
706.52	11475.94
706.865	11401.59
707.209	11420.8
707.554	11455.83
707.899	11535.83
708.243	11459.22
708.588	11473.91
708.932	11370.63
709.277	11360.24
709.621	11444.76
709.966	11358.2
710.31	11444.08
710.654	11285.89
710.998	11327.47
711.342	11412.89
711.687	11315.72
712.031	11330.86
712.375	11306.45
712.719	11357.53
713.063	11295.61
713.407	11440.01
713.75	11331.99
714.094	11393.46
714.438	11276.4
714.782	11347.13
715.125	11267.36
715.469	11357.07
715.812	11306.45
716.156	11242.73
716.499	11279.11
716.843	11259.9
717.186	11239.79
717.53	11366.34
717.873	11317.98
718.216	11251.54
718.559	11259
718.902	11287.47
719.246	11191.2
719.589	11091.09
719.932	11174.71
720.275	11200.47
720.617	11151.43
720.96	11162.05
721.303	11188.27
721.646	11178.77
721.989	11188.94
722.331	11225.33
722.674	11151.88
723.016	11146.23
723.359	11142.84
723.701	11220.35
724.044	11110.53
724.386	11124.76
724.729	11151.2
725.071	11163.18
725.413	11192.33
725.755	11066.91
726.097	11049.06
726.439	11070.75
726.782	11082.96
727.124	11176.97
727.465	11158.44
727.807	11107.36
728.149	11103.75
728.491	11155.05
728.833	11138.32
729.175	11124.09
729.516	11076.18
729.858	11156.4
730.199	11191.43
730.541	11161.15
730.882	11167.93
731.224	11153.01
731.565	11136.97
731.906	11207.93
732.248	11202.05
732.589	11159.34
732.93	11175.16
733.271	11223.52
733.612	11270.97
733.953	11259
734.294	11242.05
734.635	11239.11
734.976	11297.41
735.317	11235.5
735.658	11303.29
735.999	11315.72
736.339	11345.1
736.68	11371.09
737.021	11372.67
737.361	11332.22
737.702	11421.25
738.042	11378.77
738.383	11423.29
738.723	11442.95
739.063	11431.42
739.404	11487.01
739.744	11514.13
740.084	11531.76
740.424	11605.88
740.764	11488.37
741.104	11503.96
741.444	11517.75
741.784	11555.94
742.124	11675.03
742.464	11623.28
742.804	11679.55
743.143	11691.98
743.483	11746.89
743.823	11666.9
744.162	11667.12
744.502	11733.56
744.841	11747.35
745.181	11803.62
745.52	11825.54
745.86	11874.35
746.199	11907.12
746.538	11882.48
746.877	12043.16
747.216	12029.82
747.556	12002.48
747.895	12121.8
748.234	12096.94
748.573	12234.11
748.911	12172.42
749.25	12260.78
749.589	12221.01
749.928	12289.71
750.267	12260.33
750.605	12428.01
750.944	12405.86
751.283	12348.69
751.621	12432.3
751.96	12383.71
752.298	12496.03
752.636	12579.19
752.975	12562.24
753.313	12566.99
753.651	12757.26
753.989	12619.87
754.327	12690.6
754.666	12773.31
755.004	12730.82
755.342	12806.08
755.679	12865.06
756.017	12790.03
756.355	12936.24
756.693	12764.72
757.031	12992.29
757.368	12904.38
757.706	12921.33
