Data from blue_chair_FLMS001491_00030.txt Node
Date: Wed Feb 08 10:30:05 GMT 2017
User: dcchb
Spectrometer: FLMS00149
Trigger mode: 0
Integration Time (sec): 2.000000E-2
Scans to average: 10
Electric dark correction enabled: true
Nonlinearity correction enabled: false
Boxcar width: 0
XAxis mode: Wavelengths
Number of Pixels in Spectrum: 2048
>>>>>Begin Spectral Data<<<<<
341.393	-25.99
341.776	-25.99
342.16	-25.99
342.543	-47.68
342.927	-66.21
343.31	-57.17
343.693	-60.56
344.077	-77.06
344.46	-60.34
344.843	-88.13
345.226	-40.68
345.61	-27.8
345.993	-11.98
346.376	-16.5
346.759	13.78
347.142	35.48
347.525	49.72
347.908	72.99
348.291	91.52
348.674	80
349.057	96.72
349.44	119.32
349.823	153.89
350.206	161.35
350.588	170.84
350.971	202.25
351.354	206.77
351.737	193.89
352.119	227.34
352.502	247.45
352.884	253.33
353.267	236.6
353.65	235.02
354.032	285.42
354.414	285.19
354.797	285.64
355.179	284.96
355.562	313.89
355.944	292.87
356.326	319.77
356.709	304.4
357.091	298.52
357.473	317.73
357.855	313.21
358.238	323.61
358.62	320.67
359.002	322.93
359.384	314.34
359.766	316.38
360.148	311.18
360.53	295.59
360.912	303.49
361.294	322.25
361.676	324.06
362.057	311.86
362.439	288.58
362.821	298.3
363.203	303.49
363.584	308.92
363.966	287
364.348	312.08
364.729	323.38
365.111	293.55
365.493	294.68
365.874	276.6
366.256	300.56
366.637	287.9
367.019	271.63
367.4	279.77
367.781	291.97
368.163	276.6
368.544	294
368.925	301.91
369.306	286.55
369.688	280.22
370.069	286.32
370.45	303.72
370.831	270.73
371.212	300.78
371.593	292.42
371.974	280.44
372.355	289.48
372.736	294
373.117	287.68
373.498	305.98
373.879	280.67
374.26	286.09
374.641	281.57
375.021	285.87
375.402	274.57
375.783	307.11
376.163	289.94
376.544	285.87
376.925	295.13
377.305	295.36
377.686	296.72
378.066	309.14
378.447	287.45
378.827	295.81
379.208	305.75
379.588	296.26
379.968	308.47
380.349	313.66
380.729	293.1
381.109	317.73
381.489	308.01
381.87	316.38
382.25	313.66
382.63	309.14
383.01	312.08
383.39	335.36
383.77	311.86
384.15	323.16
384.53	315.7
384.91	312.08
385.29	311.4
385.67	326.55
386.049	292.2
386.429	329.71
386.809	315.47
387.189	308.01
387.568	325.87
387.948	330.84
388.328	323.83
388.707	332.19
389.087	311.18
389.466	316.38
389.846	306.88
390.225	338.07
390.605	336.94
390.984	297.85
391.363	343.49
391.743	326.55
392.122	340.56
392.501	348.92
392.881	341.69
393.26	331.74
393.639	336.94
394.018	336.49
394.397	340.56
394.776	333.1
395.155	343.95
395.534	330.61
395.913	358.86
396.292	362.7
396.671	355.47
397.05	349.6
397.429	357.96
397.808	357.05
398.186	339.2
398.565	348.47
398.944	354.79
399.323	373.55
399.701	361.35
400.08	376.26
400.458	372.42
400.837	357.73
401.215	351.18
401.594	372.42
401.972	366.54
402.351	365.64
402.729	387.79
403.107	379.65
403.486	383.72
403.864	403.38
404.242	389.82
404.62	375.13
404.999	403.38
405.377	389.14
405.755	388.69
406.133	400.89
406.511	403.38
406.889	398.86
407.267	419.2
407.645	405.64
408.023	423.49
408.401	410.84
408.779	432.08
409.156	414.23
409.534	434.34
409.912	428.24
410.29	451.06
410.667	451.29
411.045	443.15
411.422	443.15
411.8	464.85
412.178	440.67
412.555	455.13
412.933	476.6
413.31	459.42
413.687	469.59
414.065	463.94
414.442	479.54
414.819	466.88
415.197	487.22
415.574	482.7
415.951	487.44
416.328	494.45
416.705	495.81
417.082	482.7
417.46	485.86
417.837	504.17
418.214	495.81
418.591	504.85
418.967	520.66
419.344	517.27
419.721	517.05
420.098	536.26
420.475	509.37
420.852	561.34
421.228	529.48
421.605	539.65
421.982	557.05
422.358	540.32
422.735	549.59
423.111	538.97
423.488	558.18
423.864	536.71
424.241	555.01
424.617	568.35
424.994	576.48
425.37	600.21
425.746	576.48
426.123	589.36
426.499	605.86
426.875	622.58
427.251	610.61
427.627	605.18
428.003	634.33
428.379	611.51
428.756	643.6
429.132	652.86
429.507	642.02
429.883	651.96
430.259	635.01
430.635	667.33
431.011	659.19
431.387	677.72
431.763	661.68
432.138	706.87
432.514	670.72
432.89	700.55
433.265	702.13
433.641	718.4
434.016	731.51
434.392	723.6
434.767	763.37
435.143	792.97
435.518	756.82
435.894	758.4
436.269	791.62
436.644	797.04
437.02	805.63
437.395	796.59
437.77	810.83
438.145	814.44
438.52	844.72
438.895	862.12
439.271	846.76
439.646	889.47
440.021	868.68
440.395	872.29
440.77	872.75
441.145	868.45
441.52	898.96
441.895	907.55
442.27	914.33
442.645	913.87
443.019	930.15
443.394	937.6
443.769	954.55
444.143	934.89
444.518	968.34
444.892	961.1
445.267	988
445.641	985.06
446.016	976.25
446.39	1000.2
446.764	1023.25
447.139	1007.88
447.513	1012.85
447.887	1004.95
448.262	989.8
448.636	1021.44
449.01	1059.63
449.384	1042.23
449.758	1068.67
450.132	1056.02
450.506	1066.64
450.88	1083.14
451.254	1084.94
451.628	1076.13
452.002	1112.51
452.376	1100.08
452.75	1139.63
453.123	1116.35
453.497	1136.69
453.871	1121.55
454.244	1140.31
454.618	1151.83
454.992	1201.78
455.365	1203.81
455.739	1224.6
456.112	1219.85
456.486	1215.56
456.859	1224.15
457.232	1260.76
457.606	1232.28
457.979	1273.19
458.352	1285.62
458.725	1275.67
459.099	1294.66
459.472	1334.88
459.845	1311.38
460.218	1346.18
460.591	1352.28
460.964	1351.83
461.337	1392.05
461.71	1386.4
462.083	1401.32
462.456	1400.87
462.829	1409.23
463.201	1406.52
463.574	1447.65
463.947	1463.69
464.32	1466.4
464.692	1478.61
465.065	1493.52
465.438	1504.14
465.81	1503.46
466.183	1548.43
466.555	1554.54
466.928	1545.5
467.3	1569.22
467.672	1596.57
468.045	1619.17
468.417	1618.26
468.789	1607.19
469.161	1598.15
469.534	1654.65
469.906	1689.45
470.278	1656.91
470.65	1684.02
471.022	1713.4
471.394	1754.08
471.766	1801.53
472.138	1779.39
472.51	1810.12
472.882	1820.97
473.253	1829.78
473.625	1822.32
473.997	1879.95
474.369	1871.59
474.74	1892.38
475.112	1898.03
475.484	1986.61
475.855	1959.5
476.227	1967.18
476.598	2025.71
476.97	2028.87
477.341	2050.57
477.713	2087.63
478.084	2071.58
478.455	2133.96
478.827	2098.7
479.198	2185.93
479.569	2149.32
479.94	2236.55
480.311	2223.44
480.682	2269.54
481.053	2288.08
481.424	2310
481.795	2317.91
482.166	2355.19
482.537	2356.1
482.908	2414.17
483.279	2401.97
483.65	2424.79
484.021	2477.22
484.391	2475.64
484.762	2474.51
485.133	2498.92
485.503	2510.67
485.874	2565.58
486.244	2563.1
486.615	2606.49
486.985	2621.85
487.356	2617.11
487.726	2639.7
488.097	2677.22
488.467	2671.79
488.837	2694.84
489.207	2705.69
489.578	2748.85
489.948	2751.79
490.318	2729.87
490.688	2723.32
491.058	2741.85
491.428	2793.15
491.798	2814.62
492.168	2811.68
492.538	2794.28
492.908	2827.72
493.278	2862.07
493.648	2839.7
494.017	2877.66
494.387	2869.76
494.757	2882.41
495.126	2876.31
495.496	2851.45
495.866	2894.39
496.235	2906.59
496.605	2892.35
496.974	2930.32
497.344	2909.08
497.713	2921.96
498.082	2919.02
498.452	2929.19
498.821	2947.27
499.19	2897.78
499.559	2956.08
499.928	2910.88
500.298	2917.44
500.667	2947.27
501.036	2934.39
501.405	2916.08
501.774	2912.92
502.143	2880.38
502.512	2916.31
502.88	2945.46
503.249	2916.31
503.618	2929.19
503.987	2968.51
504.356	2934.39
504.724	2907.49
505.093	2904.78
505.462	2918.34
505.83	2889.87
506.199	2888.74
506.567	2935.52
506.936	2941.62
507.304	2942.52
507.672	2933.26
508.041	2935.97
508.409	2898.91
508.777	2915.63
509.145	2913.14
509.514	2892.35
509.882	2893.26
510.25	2921.05
510.618	2902.97
510.986	2884.22
511.354	2949.53
511.722	2896.2
512.09	2902.75
512.458	2890.55
512.826	2872.92
513.193	2895.07
513.561	2875.86
513.929	2860.72
514.297	2913.37
514.664	2884.22
515.032	2849.19
515.4	2861.62
515.767	2858
516.135	2898.45
516.502	2866.82
516.869	2898.68
517.237	2849.19
517.604	2813.49
517.972	2867.72
518.339	2853.26
518.706	2815.75
519.073	2818.23
519.44	2799.25
519.808	2855.29
520.175	2851.22
520.542	2847.83
520.909	2815.75
521.276	2782.98
521.643	2838.34
522.009	2805.58
522.376	2822.98
522.743	2787.72
523.11	2832.02
523.477	2843.77
523.843	2815.07
524.21	2819.13
524.577	2832.92
524.943	2809.19
525.31	2810.1
525.676	2806.03
526.043	2785.01
526.409	2798.8
526.776	2832.24
527.142	2841.51
527.508	2815.75
527.874	2855.52
528.241	2784.33
528.607	2804.45
528.973	2834.73
529.339	2853.48
529.705	2848.06
530.071	2828.4
530.437	2851.9
530.803	2848.06
531.169	2836.99
531.535	2850.77
531.901	2884.44
532.267	2820.26
532.632	2836.76
532.998	2826.82
533.364	2888.29
533.73	2840.6
534.095	2869.98
534.461	2856.2
534.826	2875.18
535.192	2862.52
535.557	2871.34
535.923	2858.23
536.288	2862.75
536.653	2873.37
537.019	2845.35
537.384	2860.26
537.749	2891.68
538.114	2912.69
538.479	2852.81
538.845	2863.88
539.21	2871.11
539.575	2845.57
539.94	2851.9
540.305	2862.98
540.67	2862.52
541.034	2869.08
541.399	2860.94
541.764	2847.83
542.129	2865.01
542.494	2932.13
542.858	2867.27
543.223	2833.37
543.587	2837.89
543.952	2841.51
544.316	2841.06
544.681	2818
545.045	2851
545.41	2856.87
545.774	2856.42
546.138	2853.94
546.503	2838.34
546.867	2821.62
547.231	2829.53
547.595	2840.83
547.959	2845.12
548.324	2829.08
548.688	2840.6
549.052	2829.98
549.416	2818.46
549.779	2831.56
550.143	2833.6
550.507	2847.83
550.871	2847.61
551.235	2783.43
551.599	2813.49
551.962	2845.35
552.326	2802.41
552.689	2840.83
553.053	2751.79
553.417	2804.67
553.78	2814.62
554.143	2836.54
554.507	2773.94
554.87	2769.87
555.234	2808.74
555.597	2804.9
555.96	2781.62
556.323	2798.34
556.686	2802.19
557.05	2799.93
557.413	2786.37
557.776	2806.48
558.139	2833.15
558.502	2789.31
558.865	2780.49
559.228	2837.21
559.59	2856.65
559.953	2805.58
560.316	2831.34
560.679	2831.11
561.041	2826.82
561.404	2789.76
561.767	2851.22
562.129	2814.84
562.492	2838.12
562.854	2876.99
563.217	2818.46
563.579	2868.17
563.941	2886.03
564.304	2843.54
564.666	2849.42
565.028	2834.73
565.39	2867.27
565.753	2880.83
566.115	2898.45
566.477	2890.77
566.839	2907.04
567.201	2888.29
567.563	2917.66
567.925	2918.79
568.287	2928.96
568.648	2940.94
569.01	2964.67
569.372	2933.48
569.734	2925.57
570.095	2968.51
570.457	2966.02
570.819	2917.21
571.18	2962.41
571.542	2961.28
571.903	2951.56
572.265	2982.97
572.626	2998.79
572.987	2999.24
573.349	2980.26
573.71	3018.23
574.071	3053.25
574.432	3007.15
574.794	3047.38
575.155	3065.68
575.516	3056.19
575.877	3081.27
576.238	3088.05
576.599	3061.61
576.96	3109.52
577.32	3096.64
577.681	3054.16
578.042	3127.15
578.403	3097.09
578.763	3111.78
579.124	3158.79
579.485	3138.45
579.845	3115.17
580.206	3114.49
580.566	3147.26
580.927	3147.04
581.287	3185.23
581.648	3107.49
582.008	3145.23
582.368	3145.68
582.728	3236.98
583.089	3182.74
583.449	3165.11
583.809	3184.78
584.169	3158.79
584.529	3176.19
584.889	3215.28
585.249	3182.97
585.609	3227.94
585.969	3238.56
586.329	3190.2
586.688	3232.91
587.048	3197.88
587.408	3246.92
587.768	3201.72
588.127	3232.68
588.487	3219.8
588.846	3267.71
589.206	3197.66
589.565	3227.71
589.925	3256.19
590.284	3213.93
590.643	3216.64
591.003	3179.8
591.362	3272.46
591.721	3256.86
592.08	3238.11
592.44	3240.14
592.799	3210.31
593.158	3244.21
593.517	3214.38
593.876	3202.18
594.235	3230.42
594.593	3246.24
594.952	3218.22
595.311	3241.04
595.67	3274.26
596.029	3224.1
596.387	3253.47
596.746	3239.01
597.104	3255.96
597.463	3209.86
597.822	3217.54
598.18	3216.86
598.538	3251.44
598.897	3247.6
599.255	3214.38
599.613	3237.2
599.972	3239.46
600.33	3279.01
600.688	3243.08
601.046	3229.29
601.404	3258.9
601.762	3239.91
602.12	3255.96
602.478	3271.33
602.836	3264.55
603.194	3279.01
603.552	3261.61
603.91	3254.38
604.268	3297.99
604.625	3230.88
604.983	3277.65
605.341	3284.89
605.698	3289.86
606.056	3255.96
606.413	3260.25
606.771	3268.16
607.128	3255.06
607.485	3273.13
607.843	3236.3
608.2	3276.07
608.557	3242.17
608.914	3243.76
609.272	3297.09
609.629	3250.31
609.986	3301.83
610.343	3211.22
610.7	3308.84
611.057	3243.08
611.414	3263.19
611.771	3275.39
612.127	3323.08
612.484	3291.89
612.841	3299.8
613.198	3294.6
613.554	3335.05
613.911	3291.89
614.267	3335.96
614.624	3277.43
614.98	3314.04
615.337	3321.95
615.693	3300.25
616.05	3278.56
616.406	3315.17
616.762	3341.83
617.118	3308.84
617.475	3316.3
617.831	3320.14
618.187	3339.35
618.543	3322.85
618.899	3346.13
619.255	3352.45
619.611	3328.5
619.967	3352.91
620.323	3339.57
620.678	3350.65
621.034	3319.01
621.39	3353.13
621.746	3321.49
622.101	3406.92
622.457	3312.91
622.812	3352.91
623.168	3337.54
623.523	3365.34
623.879	3349.06
624.234	3321.72
624.589	3380.93
624.945	3349.74
625.3	3386.58
625.655	3393.13
626.01	3373.47
626.365	3318.33
626.72	3355.84
627.075	3404.88
627.43	3372.57
627.785	3371.44
628.14	3366.69
628.495	3351.55
628.85	3387.71
629.205	3342.06
629.559	3349.06
629.914	3334.15
630.269	3363.3
630.623	3367.6
630.978	3363.08
631.332	3387.26
631.687	3390.19
632.041	3378.67
632.396	3354.49
632.75	3357.2
633.104	3367.6
633.459	3367.37
633.813	3363.53
634.167	3374.6
634.521	3367.6
634.875	3402.4
635.229	3353.81
635.583	3373.92
635.937	3410.98
636.291	3376.63
636.645	3352.45
636.999	3370.76
637.352	3362.62
637.706	3372.57
638.06	3349.29
638.413	3361.95
638.767	3361.95
639.121	3406.24
639.474	3380.02
639.828	3337.77
640.181	3345
640.534	3343.41
640.888	3423.64
641.241	3348.61
641.594	3350.19
641.947	3376.18
642.301	3334.15
642.654	3372.79
643.007	3383.64
643.36	3403.98
643.713	3343.87
644.066	3424.09
644.419	3376.63
644.771	3331.66
645.124	3328.5
645.477	3332.79
645.83	3322.4
646.182	3320.14
646.535	3285.79
646.888	3328.5
647.24	3262.51
647.593	3296.64
647.945	3292.12
648.298	3295.05
648.65	3293.25
649.002	3326.24
649.355	3316.75
649.707	3294.15
650.059	3333.02
650.411	3380.02
650.763	3359.46
651.115	3441.72
651.467	3413.47
651.819	3418.67
652.171	3447.14
652.523	3456.86
652.875	3438.1
653.227	3473.13
653.578	3476.07
653.93	3437.65
654.282	3417.09
654.633	3401.94
654.985	3448.5
655.337	3434.26
655.688	3417.76
656.039	3455.05
656.391	3459.8
656.742	3462.51
657.094	3470.42
657.445	3460.47
657.796	3523.3
658.147	3438.78
658.498	3479.68
658.849	3502.73
659.2	3479
659.551	3467.71
659.902	3484.43
660.253	3521.94
660.604	3476.74
660.955	3457.99
661.306	3470.64
661.656	3493.02
662.007	3513.35
662.358	3510.19
662.708	3536.4
663.059	3541.83
663.409	3491.66
663.76	3560.58
664.11	3524.88
664.461	3502.05
664.811	3549.06
665.161	3548.83
665.511	3531.66
665.862	3532.34
666.212	3532.56
666.562	3543.41
666.912	3545.9
667.262	3514.03
667.612	3531.21
667.962	3510.64
668.312	3498.89
668.662	3527.59
669.011	3516.29
669.361	3528.72
669.711	3519.46
670.06	3525.33
670.41	3535.05
670.76	3490.76
671.109	3517.42
671.459	3481.49
671.808	3496.86
672.157	3462.73
672.507	3527.14
672.856	3468.61
673.205	3421.83
673.554	3530.98
673.904	3503.41
674.253	3466.8
674.602	3441.49
674.951	3416.63
675.3	3412.57
675.649	3418.89
675.998	3477.42
676.346	3479
676.695	3431.77
677.044	3414.83
677.393	3394.94
677.741	3409.4
678.09	3374.6
678.438	3416.86
678.787	3412.34
679.135	3371.66
679.484	3358.56
679.832	3367.37
680.181	3345.67
680.529	3373.02
680.877	3336.86
681.225	3329.63
681.573	3349.74
681.922	3386.13
682.27	3313.13
682.618	3329.86
682.966	3341.16
683.314	3331.66
683.661	3325.56
684.009	3269.74
684.357	3274.49
684.705	3249.63
685.053	3260.71
685.4	3260.03
685.748	3243.98
686.095	3238.78
686.443	3230.65
686.79	3201.72
687.138	3252.12
687.485	3228.84
687.832	3175.06
688.18	3175.74
688.527	3174.61
688.874	3181.84
689.221	3171.89
689.568	3153.59
689.915	3128.51
690.262	3154.04
690.609	3128.96
690.956	3121.5
691.303	3114.95
691.65	3062.29
691.997	3105
692.344	3058.22
692.69	3087.15
693.037	3060.48
693.383	3047.6
693.73	3052.12
694.077	3038.34
694.423	3038.56
694.769	3030.88
695.116	3020.71
695.462	3046.47
695.808	2999.47
696.155	3041.95
696.501	2978.23
696.847	2991.11
697.193	2946.36
697.539	2981.39
697.885	2931.9
698.231	2913.37
698.577	2930.54
698.923	2928.28
699.269	2923.31
699.614	2908.85
699.96	2865.91
700.306	2908.17
700.651	2892.13
700.997	2904.33
701.342	2880.38
701.688	2861.17
702.033	2847.16
702.379	2853.03
702.724	2826.82
703.069	2870.43
703.415	2806.25
703.76	2795.18
704.105	2825.46
704.45	2833.82
704.795	2786.82
705.14	2797.44
705.485	2778.01
705.83	2818.68
706.175	2812.13
706.52	2758.12
706.865	2784.79
707.209	2773.94
707.554	2768.51
707.899	2791.34
708.243	2776.65
708.588	2792.02
708.932	2780.04
709.277	2808.51
709.621	2749.31
709.966	2763.32
710.31	2762.64
710.654	2743.88
710.998	2807.61
711.342	2775.29
711.687	2738.46
712.031	2765.8
712.375	2719.48
712.719	2761.74
713.063	2761.51
713.407	2748.85
713.75	2767.84
714.094	2772.13
714.438	2778.91
714.782	2785.46
715.125	2787.05
715.469	2811.23
715.812	2781.17
716.156	2765.35
716.499	2796.08
716.843	2789.53
717.186	2814.39
717.53	2813.71
717.873	2790.89
718.216	2808.74
718.559	2815.97
718.902	2772.58
719.246	2790.21
719.589	2796.31
719.932	2812.13
720.275	2841.06
720.617	2851.45
720.96	2857.55
721.303	2813.49
721.646	2822.52
721.989	2809.42
722.331	2837.67
722.674	2898.23
723.016	2894.39
723.359	2891.68
723.701	2880.15
724.044	2861.39
724.386	2873.6
724.729	2917.44
725.071	2878.34
725.413	2939.81
725.755	2916.53
726.097	2894.16
726.439	2941.39
726.782	2926.7
727.124	2935.97
727.465	2939.13
727.807	2949.07
728.149	2964.67
728.491	3000.6
728.833	3009.41
729.175	2960.6
729.516	2972.13
729.858	3033.59
730.199	3063.87
730.541	3021.16
730.882	3070.2
731.224	3066.36
731.565	3076.76
731.906	3043.31
732.248	3126.25
732.589	3138.9
732.93	3093.7
733.271	3093.93
733.612	3143.19
733.953	3168.28
734.294	3193.14
734.635	3175.06
734.976	3205.57
735.317	3219.8
735.658	3272.23
735.999	3269.29
736.339	3292.12
736.68	3313.13
737.021	3288.73
737.361	3322.85
737.702	3367.6
738.042	3368.95
738.383	3365.56
738.723	3440.81
739.063	3443.75
739.404	3481.04
739.744	3471.1
740.084	3493.69
740.424	3505.9
740.764	3545.22
741.104	3553.35
741.444	3569.85
741.784	3637.87
742.124	3654.14
742.464	3690.3
742.804	3715.38
743.143	3785.89
743.483	3771.88
743.823	3801.26
744.162	3851.2
744.502	3851.42
744.841	3881.71
745.181	3975.49
745.52	3982.27
745.86	4033.79
746.199	4047.58
746.538	4145.43
746.877	4197.4
747.216	4225.2
747.556	4261.13
747.895	4336.38
748.234	4335.48
748.573	4364.41
748.911	4476.27
749.25	4519.43
749.589	4571.86
749.928	4641.69
750.267	4673.78
750.605	4725.75
750.944	4775.47
751.283	4883.71
751.621	4930.94
751.96	4967.78
752.298	5059.98
752.636	5142.24
752.975	5112.63
753.313	5243.25
753.651	5356.24
753.989	5381.33
754.327	5486.18
754.666	5505.17
755.004	5621.32
755.342	5674.88
755.679	5720.3
756.017	5820.41
756.355	5888.66
756.693	6017.24
757.031	6051.14
757.368	6118.48
757.706	6216.79
758.044	6228.08
758.381	6326.39
758.719	6413.39
759.056	6494.52
759.394	6535.87
759.731	6571.8
760.068	6694.06
760.405	6797.11
760.743	6757.34
761.08	6888.86
761.417	6943.09
761.754	7128.4
762.091	7144.67
762.428	7206.36
762.765	7215.18
763.102	7336.53
763.438	7368.85
763.775	7409.3
764.112	7403.87
764.449	7518.9
764.785	7638.67
765.122	7557.77
765.458	7657.2
765.795	7688.16
766.131	7799.79
766.467	7809.51
766.804	7858.78
767.14	7967.25
767.476	7971.32
767.812	8030.3
768.148	8082.95
768.485	8094.93
768.821	8206.11
769.157	8192.1
769.492	8310.97
769.828	8261.03
770.164	8286.11
770.5	8279.1
