Data from blue_chair_FLMS001491_00078.txt Node
Date: Wed Feb 08 10:31:45 GMT 2017
User: dcchb
Spectrometer: FLMS00149
Trigger mode: 0
Integration Time (sec): 2.000000E-2
Scans to average: 10
Electric dark correction enabled: true
Nonlinearity correction enabled: false
Boxcar width: 0
XAxis mode: Wavelengths
Number of Pixels in Spectrum: 2048
>>>>>Begin Spectral Data<<<<<
341.393	-9.31
341.776	-9.31
342.16	-9.31
342.543	-89.76
342.927	-91.11
343.31	-76.65
343.693	-78.68
344.077	-68.06
344.46	-59.93
344.843	-42.75
345.226	-51.34
345.61	-29.19
345.993	-17.67
346.376	13.74
346.759	9
347.142	24.14
347.525	45.61
347.908	49.67
348.291	81.31
348.674	94.87
349.057	105.94
349.44	121.08
349.823	136
350.206	161.99
350.588	168.09
350.971	195.43
351.354	209.9
351.737	225.94
352.119	206.51
352.502	240.18
352.884	245.15
353.267	246.73
353.65	272.27
354.032	276.79
354.414	262.55
354.797	299.38
355.179	279.72
355.562	280.18
355.944	281.53
356.326	304.81
356.709	308.65
357.091	303.45
357.473	318.14
357.855	299.84
358.238	297.58
358.62	307.52
359.002	310.23
359.384	308.2
359.766	321.53
360.148	310.68
360.53	301.42
360.912	271.81
361.294	292.38
361.676	285.37
362.057	301.64
362.439	293.96
362.821	306.62
363.203	286.73
363.584	314.98
363.966	299.38
364.348	298.71
364.729	293.74
365.111	288.54
365.493	268.43
365.874	286.96
366.256	266.17
366.637	276.33
367.019	282.89
367.4	297.12
367.781	259.84
368.163	272.27
368.544	284.47
368.925	282.66
369.306	296.67
369.688	277.46
370.069	263.91
370.45	288.99
370.831	305.49
371.212	284.92
371.593	273.17
371.974	257.58
372.355	277.69
372.736	278.37
373.117	293.06
373.498	291.25
373.879	269.1
374.26	273.62
374.641	286.96
375.021	272.49
375.402	287.18
375.783	268.43
376.163	274.3
376.544	272.04
376.925	301.19
377.305	265.71
377.686	293.51
378.066	295.09
378.447	266.17
378.827	281.31
379.208	292.15
379.588	273.85
379.968	285.37
380.349	305.71
380.729	288.54
381.109	308.65
381.489	314.98
381.87	302.1
382.25	301.42
382.63	308.42
383.01	287.86
383.39	315.43
383.77	284.92
384.15	284.92
384.53	303
384.91	300.06
385.29	288.76
385.67	284.02
386.049	311.36
386.429	307.75
386.809	288.09
387.189	307.07
387.568	301.87
387.948	290.8
388.328	314.3
388.707	307.07
389.087	295.09
389.466	286.5
389.846	299.16
390.225	304.81
390.605	302.1
390.984	295.09
391.363	305.94
391.743	291.25
392.122	326.95
392.501	322.21
392.881	308.65
393.26	290.12
393.639	315.88
394.018	315.2
394.397	310.68
394.776	305.26
395.155	327.86
395.534	313.62
395.913	306.16
396.292	292.15
396.671	338.25
397.05	301.87
397.429	314.07
397.808	328.08
398.186	326.28
398.565	314.07
398.944	328.08
399.323	328.31
399.701	325.82
400.08	314.3
400.458	320.4
400.837	331.47
401.215	305.49
401.594	328.08
401.972	332.38
402.351	338.03
402.729	322.66
403.107	316.79
403.486	316.56
403.864	332.15
404.242	338.71
404.62	342.32
404.999	334.86
405.377	330.8
405.755	344.36
406.133	343.45
406.511	329.21
406.889	346.84
407.267	343.68
407.645	358.82
408.023	333.28
408.401	361.53
408.779	371.02
409.156	353.39
409.534	334.86
409.912	354.98
410.29	369.89
410.667	354.07
411.045	386.16
411.422	378.25
411.8	367.41
412.178	381.64
412.555	367.86
412.933	349.55
413.31	387.52
413.687	385.03
414.065	372.83
414.442	364.02
414.819	389.1
415.197	378.7
415.574	388.65
415.951	361.98
416.328	371.25
416.705	373.28
417.082	387.52
417.46	410.34
417.837	379.83
418.214	388.65
418.591	385.94
418.967	385.48
419.344	407.4
419.721	385.48
420.098	398.59
420.475	406.95
420.852	392.49
421.228	386.39
421.605	407.86
421.982	421.87
422.358	383.68
422.735	421.87
423.111	420.06
423.488	433.62
423.864	414.86
424.241	438.59
424.617	412.15
424.994	410.12
425.37	439.72
425.746	428.42
426.123	432.49
426.499	427.07
426.875	414.64
427.251	438.82
427.627	422.55
428.003	449.44
428.379	450.79
428.756	444.47
429.132	444.69
429.507	477.01
429.883	449.89
430.259	454.86
430.635	463
431.011	469.78
431.387	467.97
431.763	461.41
432.138	474.07
432.514	465.71
432.89	485.82
433.265	484.92
433.641	472.71
434.016	516.33
434.392	517.01
434.767	499.61
435.143	500.74
435.518	510
435.894	517.68
436.269	514.52
436.644	505.26
437.02	506.16
437.395	516.1
437.77	544.8
438.145	533.5
438.52	536.89
438.895	548.42
439.271	550.68
439.646	565.59
440.021	567.17
440.395	559.49
440.77	561.98
441.145	580.06
441.52	601.3
441.895	586.16
442.27	600.17
442.645	592.26
443.019	612.82
443.394	589.32
443.769	621.86
444.143	596.78
444.518	612.37
444.892	597.91
445.267	619.15
445.641	631.81
446.016	600.17
446.39	596.55
446.764	613.5
447.139	628.42
447.513	625.7
447.887	649.88
448.262	633.61
448.636	624.12
449.01	627.51
449.384	666.61
449.758	657.57
450.132	670.67
450.506	653.5
450.88	654.63
451.254	666.83
451.628	669.09
452.002	686.49
452.376	681.52
452.75	688.08
453.123	683.1
453.497	662.09
453.871	690.79
454.244	683.56
454.618	658.25
454.992	701.86
455.365	683.33
455.739	726.27
456.112	733.05
456.486	713.61
456.859	718.58
457.232	726.27
457.606	724.23
457.979	759.94
458.352	761.52
458.725	761.75
459.099	733.05
459.472	766.94
459.845	742.09
460.218	782.31
460.591	790.9
460.964	778.92
461.337	788.19
461.71	797
462.083	783.44
462.456	797.45
462.829	797.68
463.201	788.64
463.574	785.47
463.947	778.69
464.32	805.59
464.692	829.99
465.065	831.8
465.438	850.78
465.81	827.96
466.183	860.5
466.555	858.47
466.928	865.7
467.3	859.6
467.672	852.59
468.045	871.8
468.417	875.64
468.789	880.16
469.161	886.71
469.534	892.36
469.906	911.57
470.278	908.18
470.65	913.38
471.022	923.78
471.394	949.99
471.766	940.5
472.138	916.77
472.51	934.62
472.882	954.96
473.253	950.89
473.625	945.7
473.997	959.93
474.369	955.86
474.74	1001.29
475.112	1001.06
475.484	999.48
475.855	1016.2
476.227	1003.77
476.598	1039.93
476.97	1013.04
477.341	1016.65
477.713	1062.75
478.084	1037.22
478.455	1076.09
478.827	1092.81
479.198	1120.15
479.569	1086.48
479.94	1113.83
480.311	1118.57
480.682	1153.15
481.053	1138.23
481.424	1159.7
481.795	1151.11
482.166	1152.24
482.537	1172.58
482.908	1163.54
483.279	1197.44
483.65	1209.87
484.021	1215.97
484.391	1227.72
484.762	1222.07
485.133	1236.31
485.503	1240.6
485.874	1222.07
486.244	1279.92
486.615	1249.19
486.985	1225.24
487.356	1284.44
487.726	1270.66
488.097	1273.6
488.467	1251
488.837	1320.6
489.207	1312.24
489.578	1287.38
489.948	1324.67
490.318	1311.34
490.688	1313.82
491.058	1335.06
491.428	1318.12
491.798	1334.61
492.168	1320.83
492.538	1323.09
492.908	1342.07
493.278	1352.01
493.648	1343.2
494.017	1367.38
494.387	1372.12
494.757	1338.45
495.126	1360.6
495.496	1371.45
495.866	1363.99
496.235	1371.45
496.605	1375.97
496.974	1345.91
497.344	1377.1
497.713	1368.96
498.082	1368.74
498.452	1399.47
498.821	1378
499.19	1380.94
499.559	1353.82
499.928	1364.67
500.298	1371.67
500.667	1383.2
501.036	1348.62
501.405	1369.64
501.774	1373.48
502.143	1355.63
502.512	1358.57
502.88	1359.47
503.249	1352.92
503.618	1358.57
503.987	1348.17
504.356	1364.22
504.724	1347.04
505.093	1375.06
505.462	1333.26
505.83	1354.05
506.199	1368.51
506.567	1371.22
506.936	1335.74
507.304	1375.97
507.672	1332.58
508.041	1329.19
508.409	1338.68
508.777	1335.29
509.145	1355.85
509.514	1300.71
509.882	1362.63
510.25	1310.66
510.618	1348.62
510.986	1346.59
511.354	1337.1
511.722	1350.66
512.09	1358.79
512.458	1311.79
512.826	1326.48
513.193	1312.01
513.561	1336.87
513.929	1288.51
514.297	1334.16
514.664	1337.1
515.032	1304.78
515.4	1308.4
515.767	1307.49
516.135	1299.81
516.502	1291.22
516.869	1292.8
517.237	1294.16
517.604	1323.99
517.972	1288.06
518.339	1271.11
518.706	1281.96
519.073	1272.69
519.44	1306.59
519.808	1307.49
520.175	1265.69
520.542	1284.67
520.909	1297.1
521.276	1271.79
521.643	1286.25
522.009	1277.44
522.376	1275.18
522.743	1280.38
523.11	1277.44
523.477	1293.26
523.843	1276.76
524.21	1261.17
524.577	1253.48
524.943	1267.27
525.31	1286.25
525.676	1268.62
526.043	1242.86
526.409	1299.58
526.776	1282.41
527.142	1246.7
527.508	1254.16
527.874	1268.17
528.241	1266.37
528.607	1251.9
528.973	1285.12
529.339	1227.95
529.705	1279.47
530.071	1253.26
530.437	1258.23
530.803	1258
531.169	1244.44
531.535	1259.81
531.901	1231.79
532.267	1251.22
532.632	1265.24
532.998	1264.33
533.364	1243.77
533.73	1261.39
534.095	1237.21
534.461	1238.8
534.826	1260.49
535.192	1289.87
535.557	1254.61
535.923	1216.2
536.288	1248.29
536.653	1272.47
537.019	1227.95
537.384	1241.73
537.749	1227.27
538.114	1246.03
538.479	1271.11
538.845	1237.44
539.21	1236.99
539.575	1221.17
539.94	1215.07
540.305	1239.02
540.67	1224.56
541.034	1229.53
541.399	1245.12
541.764	1223.43
542.129	1222.3
542.494	1212.81
542.858	1214.16
543.223	1208.51
543.587	1225.01
543.952	1240.38
544.316	1217.33
544.681	1213.49
545.045	1213.26
545.41	1214.39
545.774	1210.1
546.138	1178.91
546.503	1227.72
546.867	1190.89
547.231	1215.52
547.595	1209.87
547.959	1207.16
548.324	1194.95
548.688	1192.69
549.052	1209.19
549.416	1190.89
549.779	1201.28
550.143	1214.16
550.507	1189.98
550.871	1190.89
551.235	1189.08
551.599	1180.72
551.962	1174.39
552.326	1177.33
552.689	1143.43
553.053	1182.07
553.417	1157.89
553.78	1190.89
554.143	1192.02
554.507	1172.36
554.87	1169.64
555.234	1187.95
555.597	1163.32
555.96	1164.9
556.323	1153.83
556.686	1169.42
557.05	1172.81
557.413	1173.49
557.776	1167.61
558.139	1169.87
558.502	1148.63
558.865	1161.73
559.228	1175.97
559.59	1179.59
559.953	1180.49
560.316	1177.1
560.679	1167.84
561.041	1157.22
561.404	1190.21
561.767	1168.51
562.129	1173.94
562.492	1185.24
562.854	1176.2
563.217	1178.01
563.579	1180.27
563.941	1172.36
564.304	1181.4
564.666	1182.3
565.028	1174.16
565.39	1203.54
565.753	1184.79
566.115	1202.19
566.477	1199.25
566.839	1182.53
567.201	1205.35
567.563	1166.93
567.925	1207.61
568.287	1213.94
568.648	1192.02
569.01	1190.43
569.372	1205.58
569.734	1228.4
570.095	1225.46
570.457	1227.72
570.819	1215.07
571.18	1229.98
571.542	1227.27
571.903	1201.28
572.265	1205.35
572.626	1210.32
572.987	1214.16
573.349	1246.7
573.71	1224.78
574.071	1257.1
574.432	1245.12
574.794	1269.3
575.155	1250.77
575.516	1252.35
575.877	1254.61
576.238	1248.51
576.599	1251.45
576.96	1279.7
577.32	1253.71
577.681	1274.95
578.042	1276.31
578.403	1268.4
578.763	1290.32
579.124	1298.68
579.485	1285.57
579.845	1321.5
580.206	1274.05
580.566	1302.07
580.927	1291.68
581.287	1292.58
581.648	1294.16
582.008	1297.32
582.368	1302.97
582.728	1289.87
583.089	1309.98
583.449	1303.65
583.809	1285.8
584.169	1310.88
584.529	1315.4
584.889	1272.24
585.249	1285.8
585.609	1295.97
585.969	1302.07
586.329	1315.18
586.688	1329.41
587.048	1326.02
587.408	1284.22
587.768	1333.93
588.127	1304.33
588.487	1321.05
588.846	1341.62
589.206	1281.96
589.565	1303.88
589.925	1321.96
590.284	1322.18
590.643	1306.59
591.003	1325.8
591.362	1307.95
591.721	1315.86
592.08	1314.95
592.44	1330.32
592.799	1307.27
593.158	1300.26
593.517	1326.25
593.876	1320.37
594.235	1306.36
594.593	1336.19
594.952	1319.92
595.311	1331.9
595.67	1296.87
596.029	1333.03
596.387	1323.76
596.746	1314.05
597.104	1318.79
597.463	1310.43
597.822	1307.04
598.18	1325.8
598.538	1324.44
598.897	1335.52
599.255	1331.9
599.613	1340.04
599.972	1334.84
600.33	1329.64
600.688	1305.01
601.046	1312.47
601.404	1297.32
601.762	1317.66
602.12	1303.43
602.478	1304.1
602.836	1299.13
603.194	1334.61
603.552	1284.67
603.91	1280.15
604.268	1290.09
604.625	1293.71
604.983	1340.94
605.341	1278.12
605.698	1296.19
606.056	1307.95
606.413	1287.83
606.771	1296.42
607.128	1331
607.485	1333.26
607.843	1332.8
608.2	1305.01
608.557	1318.79
608.914	1340.04
609.272	1322.86
609.629	1342.52
609.986	1330.77
610.343	1342.07
610.7	1347.04
611.057	1310.88
611.414	1343.88
611.771	1344.78
612.127	1356.31
612.484	1317.21
612.841	1344.1
613.198	1328.74
613.554	1318.79
613.911	1350.2
614.267	1307.49
614.624	1321.96
614.98	1324.44
615.337	1325.57
615.693	1345.01
616.05	1344.1
616.406	1330.77
616.762	1348.4
617.118	1356.76
617.475	1360.83
617.831	1314.27
618.187	1354.5
618.543	1367.38
618.899	1333.03
619.255	1323.99
619.611	1341.17
619.967	1341.84
620.323	1333.03
620.678	1331.45
621.034	1370.54
621.39	1345.46
621.746	1335.06
622.101	1332.58
622.457	1350.2
622.812	1342.97
623.168	1348.4
623.523	1337.1
623.879	1332.8
624.234	1335.97
624.589	1347.72
624.945	1357.89
625.3	1342.3
625.655	1374.38
626.01	1345.68
626.365	1345.01
626.72	1368.06
627.075	1342.75
627.43	1342.52
627.785	1345.01
628.14	1355.63
628.495	1369.41
628.85	1346.81
629.205	1358.57
629.559	1364.22
629.914	1354.72
630.269	1340.49
630.623	1335.97
630.978	1352.92
631.332	1329.87
631.687	1351.33
632.041	1324.22
632.396	1370.32
632.75	1363.54
633.104	1322.18
633.459	1347.49
633.813	1361.5
634.167	1356.08
634.521	1351.11
634.875	1334.61
635.229	1348.17
635.583	1380.49
635.937	1351.79
636.291	1348.62
636.645	1351.56
636.999	1348.17
637.352	1323.76
637.706	1333.26
638.06	1367.38
638.413	1329.19
638.767	1345.23
639.121	1359.02
639.474	1331.67
639.828	1354.5
640.181	1350.43
640.534	1372.8
640.888	1342.3
641.241	1329.19
641.594	1387.04
641.947	1346.59
642.301	1358.79
642.654	1326.02
643.007	1343.65
643.36	1373.71
643.713	1375.97
644.066	1329.87
644.419	1354.27
644.771	1351.11
645.124	1334.39
645.477	1345.01
645.83	1339.13
646.182	1351.11
646.535	1321.05
646.888	1362.18
647.24	1332.8
647.593	1349.53
647.945	1341.17
648.298	1300.49
648.65	1349.75
649.002	1338.45
649.355	1323.76
649.707	1368.06
650.059	1345.91
650.411	1368.74
650.763	1365.35
651.115	1383.2
651.467	1375.29
651.819	1368.06
652.171	1385.91
652.523	1369.64
652.875	1374.16
653.227	1368.06
653.578	1402.86
653.93	1405.8
654.282	1373.71
654.633	1365.57
654.985	1402.41
655.337	1366.02
655.688	1376.64
656.039	1378.9
656.391	1378
656.742	1372.35
657.094	1383.88
657.445	1372.12
657.796	1401.5
658.147	1422.29
658.498	1393.59
658.849	1386.59
659.2	1418.23
659.551	1379.58
659.902	1409.86
660.253	1425
660.604	1410.99
660.955	1414.16
661.306	1405.12
661.656	1415.29
662.007	1414.16
662.358	1424.55
662.708	1429.07
663.059	1394.95
663.409	1414.61
663.76	1412.12
664.11	1432.69
664.461	1422.75
664.811	1404.44
665.161	1402.63
665.511	1392.01
665.862	1406.7
666.212	1415.06
666.562	1413.03
666.912	1420.71
667.262	1379.58
667.612	1401.95
667.962	1419.36
668.312	1420.94
668.662	1418.23
669.011	1412.12
669.361	1398.79
669.711	1393.59
670.06	1432.46
670.41	1409.19
670.76	1404.67
671.109	1398.11
671.459	1411.45
671.808	1371.67
672.157	1402.63
672.507	1387.27
672.856	1398.79
673.205	1387.27
673.554	1375.06
673.904	1389.75
674.253	1378.45
674.602	1375.51
674.951	1368.96
675.3	1396.08
675.649	1362.41
675.998	1363.99
676.346	1385.91
676.695	1401.73
677.044	1344.33
677.393	1378
677.741	1364.67
678.09	1370.54
678.438	1359.92
678.787	1358.79
679.135	1379.58
679.484	1352.92
679.832	1363.31
680.181	1358.57
680.529	1355.18
680.877	1371.45
681.225	1328.06
681.573	1371.9
681.922	1383.42
682.27	1359.24
682.618	1351.56
682.966	1343.88
683.314	1349.3
683.661	1313.14
684.009	1287.61
684.357	1330.32
684.705	1345.46
685.053	1341.84
685.4	1315.86
685.748	1331.67
686.095	1305.91
686.443	1321.73
686.79	1299.58
687.138	1301.62
687.485	1313.14
687.832	1300.26
688.18	1305.01
688.527	1293.26
688.874	1298
689.221	1297.32
689.568	1285.35
689.915	1282.86
690.262	1289.19
690.609	1283.09
690.956	1287.83
691.303	1281.51
691.65	1271.34
691.997	1270.66
692.344	1274.95
692.69	1261.62
693.037	1265.69
693.383	1250.55
693.73	1237.44
694.077	1267.04
694.423	1266.14
694.769	1270.88
695.116	1265.24
695.462	1244.22
695.808	1265.01
696.155	1219.13
696.501	1212.36
696.847	1211.9
697.193	1228.4
697.539	1215.29
697.885	1216.87
698.231	1217.78
698.577	1233.6
698.923	1267.04
699.269	1222.3
699.614	1192.47
699.96	1176.88
700.306	1215.29
700.651	1215.97
700.997	1207.84
701.342	1207.61
701.688	1202.86
702.033	1180.04
702.379	1243.09
702.724	1174.84
703.069	1220.72
703.415	1188.85
703.76	1183.43
704.105	1195.86
704.45	1182.75
704.795	1199.02
705.14	1205.8
705.485	1212.81
705.83	1190.89
706.175	1161.06
706.52	1163.09
706.865	1154.96
707.209	1173.94
707.554	1200.83
707.899	1203.09
708.243	1177.55
708.588	1181.85
708.932	1183.43
709.277	1177.55
709.621	1174.62
709.966	1175.07
710.31	1186.14
710.654	1205.58
710.998	1173.03
711.342	1154.96
711.687	1168.06
712.031	1175.07
712.375	1183.2
712.719	1174.39
713.063	1196.76
713.407	1203.77
713.75	1179.81
714.094	1198.8
714.438	1182.75
714.782	1199.93
715.125	1216.65
715.469	1217.55
715.812	1196.08
716.156	1194.28
716.499	1216.65
716.843	1222.3
717.186	1210.55
717.53	1175.52
717.873	1217.33
718.216	1210.32
718.559	1222.98
718.902	1194.28
719.246	1225.46
719.589	1193.15
719.932	1193.15
720.275	1255.74
720.617	1251.68
720.96	1213.03
721.303	1227.72
721.646	1238.34
721.989	1239.25
722.331	1254.61
722.674	1229.76
723.016	1245.8
723.359	1233.82
723.701	1236.54
724.044	1262.52
724.386	1260.72
724.729	1270.66
725.071	1276.99
725.413	1277.44
725.755	1257.33
726.097	1273.82
726.439	1286.93
726.782	1298.45
727.124	1309.53
727.465	1283.09
727.807	1271.11
728.149	1323.31
728.491	1310.43
728.833	1299.58
729.175	1310.66
729.516	1300.49
729.858	1312.92
730.199	1341.62
730.541	1348.17
730.882	1307.27
731.224	1345.23
731.565	1332.13
731.906	1363.54
732.248	1354.5
732.589	1366.02
732.93	1375.51
733.271	1384.78
733.612	1345.23
733.953	1382.29
734.294	1407.15
734.635	1408.51
734.976	1387.49
735.317	1391.56
735.658	1447.6
735.999	1415.06
736.339	1441.5
736.68	1436.98
737.021	1496.64
737.361	1495.51
737.702	1492.35
738.042	1481.05
738.383	1505.91
738.723	1512.91
739.063	1519.01
739.404	1534.38
739.744	1560.14
740.084	1544.1
740.424	1570.54
740.764	1594.72
741.104	1587.94
741.444	1596.07
741.784	1618.45
742.124	1636.75
742.464	1635.17
742.804	1664.09
743.143	1675.39
743.483	1683.3
743.823	1700.25
744.162	1722.85
744.502	1755.39
744.841	1757.2
745.181	1771.66
745.52	1812.34
745.86	1822.51
746.199	1838.1
746.538	1870.87
746.877	1887.59
747.216	1901.38
747.556	1909.51
747.895	1913.35
748.234	1981.37
748.573	1962.17
748.911	2005.33
749.25	2002.16
749.589	2072.45
749.928	2090.3
750.267	2156.51
750.605	2170.3
750.944	2149.51
751.283	2202.16
751.621	2270.86
751.96	2276.96
752.298	2318.77
752.636	2387.47
752.975	2391.53
753.313	2413.91
753.651	2463.4
753.989	2516.05
754.327	2539.78
754.666	2591.3
755.004	2632.2
755.342	2677.18
755.679	2720.56
756.017	2728.47
756.355	2794.46
756.693	2853.89
757.031	2871.97
757.368	2914.91
757.706	2956.26
758.044	2983.83
758.381	3024.28
758.719	3088.01
759.056	3122.14
759.394	3179.76
759.731	3193.32
760.068	3265.63
760.405	3297.05
760.743	3326.88
761.08	3384.95
761.417	3399.64
761.754	3469.7
762.091	3539.53
762.428	3580.65
762.765	3596.02
763.102	3623.14
763.438	3710.37
763.775	3726.87
764.112	3763.25
764.449	3812.74
764.785	3857.03
765.122	3888.67
765.458	3887.77
765.795	3925.5
766.131	4009.8
766.467	4000.08
766.804	4056.57
767.14	4079.62
767.476	4089.79
767.812	4118.72
768.148	4198.27
768.485	4208.43
768.821	4214.31
769.157	4208.89
769.492	4261.31
769.828	4295.89
770.164	4320.3
770.5	4328.21
770.836	4398.71
771.171	4378.15
771.507	4429.9
771.842	4456.34
772.178	4419.05
772.513	4492.95
