Data from blue_chair_FLMS001491_00001.txt Node
Date: Wed Feb 08 10:28:54 GMT 2017
User: dcchb
Spectrometer: FLMS00149
Trigger mode: 0
Integration Time (sec): 2.000000E-2
Scans to average: 10
Electric dark correction enabled: true
Nonlinearity correction enabled: false
Boxcar width: 0
XAxis mode: Wavelengths
Number of Pixels in Spectrum: 2048
>>>>>Begin Spectral Data<<<<<
341.393	-24.52
341.776	-24.52
342.16	-24.52
342.543	-43.05
342.927	-63.61
343.31	-62.03
343.693	-65.65
344.077	-61.58
344.46	-74.69
344.843	-51.41
345.226	-33.33
345.61	-26.33
345.993	-19.55
346.376	-1.02
346.759	23.16
347.142	20.23
347.525	17.51
347.908	60.68
348.291	70.62
348.674	93.22
349.057	110.17
349.44	119.88
349.823	127.12
350.206	166.21
350.588	180.67
350.971	179.09
351.354	198.53
351.737	222.03
352.119	204.85
352.502	235.81
352.884	262.25
353.267	261.58
353.65	269.71
354.032	257.73
354.414	285.53
354.797	305.42
355.179	296.83
355.562	292.99
355.944	295.25
356.326	294.34
356.709	326.21
357.091	316.26
357.473	323.04
357.855	312.87
358.238	325.08
358.62	334.12
359.002	312.65
359.384	308.81
359.766	309.03
360.148	318.52
360.53	313.78
360.912	321.23
361.294	324.62
361.676	310.84
362.057	297.51
362.439	297.96
362.821	316.94
363.203	305.19
363.584	325.75
363.966	304.06
364.348	297.73
364.729	319.43
365.111	291.4
365.493	281.01
365.874	294.12
366.256	281.46
366.637	299.99
367.019	296.38
367.4	281.91
367.781	277.17
368.163	295.92
368.544	279.88
368.925	301.57
369.306	283.5
369.688	308.58
370.069	278.75
370.45	285.53
370.831	302.48
371.212	288.24
371.593	278.52
371.974	286.43
372.355	286.43
372.736	281.01
373.117	274.91
373.498	285.76
373.879	279.43
374.26	273.1
374.641	267.22
375.021	279.88
375.402	307
375.783	285.3
376.163	273.33
376.544	286.66
376.925	286.89
377.305	288.02
377.686	267
378.066	302.7
378.447	307.68
378.827	292.76
379.208	286.43
379.588	303.83
379.968	298.18
380.349	277.85
380.729	278.98
381.109	279.65
381.489	303.61
381.87	290.5
382.25	292.31
382.63	299.77
383.01	299.31
383.39	298.41
383.77	314.68
384.15	291.18
384.53	292.76
384.91	292.53
385.29	291.86
385.67	302.25
386.049	304.51
386.429	306.09
386.809	299.99
387.189	295.25
387.568	316.94
387.948	313.55
388.328	311.97
388.707	310.61
389.087	321.46
389.466	293.89
389.846	323.27
390.225	324.85
390.605	320.1
390.984	318.07
391.363	313.1
391.743	320.33
392.122	322.82
392.501	321.46
392.881	325.3
393.26	313.33
393.639	329.82
394.018	317.39
394.397	314.91
394.776	323.95
395.155	337.28
395.534	340.67
395.913	330.05
396.292	313.78
396.671	340.44
397.05	321.91
397.429	331.18
397.808	326.43
398.186	361.23
398.565	333.44
398.944	348.13
399.323	323.49
399.701	338.18
400.08	344.28
400.458	340.67
400.837	346.09
401.215	353.1
401.594	353.55
401.972	357.84
402.351	324.85
402.729	339.77
403.107	362.14
403.486	341.8
403.864	343.15
404.242	345.64
404.62	336.83
404.999	349.71
405.377	339.09
405.755	365.98
406.133	361.23
406.511	353.1
406.889	356.26
407.267	363.49
407.645	366.43
408.023	370.95
408.401	377.73
408.779	393.77
409.156	383.61
409.534	367.33
409.912	391.74
410.29	387.45
410.667	361.46
411.045	385.87
411.422	366.88
411.8	403.04
412.178	392.65
412.555	409.82
412.933	396.94
413.31	401.68
413.687	407.11
414.065	400.33
414.442	400.33
414.819	419.54
415.197	429.71
415.574	412.76
415.951	416.6
416.328	416.15
416.705	430.61
417.082	422.02
417.46	429.93
417.837	415.02
418.214	414.79
418.591	443.27
418.967	430.84
419.344	425.86
419.721	423.83
420.098	431.29
420.475	422.7
420.852	420.44
421.228	430.61
421.605	472.42
421.982	426.77
422.358	434.68
422.735	433.55
423.111	444.62
423.488	447.11
423.864	460.44
424.241	472.19
424.617	469.25
424.994	473.55
425.37	512.19
425.746	464.96
426.123	459.54
426.499	493.21
426.875	474
427.251	490.04
427.627	469.03
428.003	482.81
428.379	510.83
428.756	500.89
429.132	499.76
429.507	516.48
429.883	490.04
430.259	500.44
430.635	484.62
431.011	484.17
431.387	514.22
431.763	532.75
432.138	517.39
432.514	546.54
432.89	513.55
433.265	558.29
433.641	533.66
434.016	530.95
434.392	567.33
434.767	581.34
435.143	575.01
435.518	584.28
435.894	563.49
436.269	580.21
436.644	605.29
437.02	581.57
437.395	572.53
437.77	595.58
438.145	579.08
438.52	631.28
438.895	626.31
439.271	613.88
439.646	631.28
440.021	639.42
440.395	649.81
440.77	665.63
441.145	634.45
441.52	660.66
441.895	650.72
442.27	662.47
442.645	673.99
443.019	691.39
443.394	665.63
443.769	706.31
444.143	679.64
444.518	706.31
444.892	678.29
445.267	693.88
445.641	702.92
446.016	723.94
446.39	734.78
446.764	693.88
447.139	725.52
447.513	735.46
447.887	722.35
448.262	729.13
448.636	699.53
449.01	741.79
449.384	763.48
449.758	735.01
450.132	757.16
450.506	778.4
450.88	774.56
451.254	756.7
451.628	760.32
452.002	786.31
452.376	805.97
452.75	770.26
453.123	790.6
453.497	807.1
453.871	800.77
454.244	804.61
454.618	808
454.992	831.73
455.365	812.07
455.739	865.85
456.112	846.19
456.486	834.44
456.859	849.58
457.232	837.15
457.606	876.47
457.979	868.56
458.352	873.76
458.725	886.42
459.099	900.2
459.472	892.29
459.845	894.55
460.218	919.41
460.591	903.14
460.964	893.2
461.337	936.81
461.71	935.91
462.083	943.59
462.456	932.97
462.829	955.12
463.201	973.42
463.574	942.24
463.947	956.47
464.32	961.44
464.692	982.01
465.065	966.87
465.438	982.23
465.81	1005.28
466.183	1012.52
466.555	1030.14
466.928	1006.64
467.3	1036.92
467.672	1041.89
468.045	1051.84
468.417	1054.32
468.789	1037.83
469.161	1087.54
469.534	1090.48
469.906	1123.02
470.278	1097.71
470.65	1107.2
471.022	1118.5
471.394	1137.26
471.766	1148.33
472.138	1130.03
472.51	1137.03
472.882	1145.39
473.253	1182.91
473.625	1192.4
473.997	1192.17
474.369	1179.29
474.74	1209.57
475.112	1209.12
475.484	1218.16
475.855	1223.13
476.227	1233.98
476.598	1268.55
476.97	1252.06
477.341	1268.33
477.713	1285.5
478.084	1283.02
478.455	1320.98
478.827	1336.12
479.198	1336.58
479.569	1363.92
479.94	1379.06
480.311	1366.18
480.682	1391.49
481.053	1394.65
481.424	1418.83
481.795	1443.01
482.166	1429.91
482.537	1413.86
482.908	1448.66
483.279	1442.56
483.65	1487.53
484.021	1493.41
484.391	1495.67
484.762	1494.54
485.133	1480.3
485.503	1506.97
485.874	1516.23
486.244	1527.08
486.615	1520.3
486.985	1524.14
487.356	1543.35
487.726	1568.89
488.097	1556.23
488.467	1535.21
488.837	1570.24
489.207	1567.3
489.578	1590.81
489.948	1644.82
490.318	1604.14
490.688	1587.42
491.058	1625.61
491.428	1639.84
491.798	1629.45
492.168	1656.57
492.538	1635.55
492.908	1626.06
493.278	1658.37
493.648	1637.13
494.017	1652.05
494.387	1642.78
494.757	1677.13
495.126	1647.75
495.496	1667.87
495.866	1654.08
496.235	1648.43
496.605	1629.9
496.974	1639.84
497.344	1636.91
497.713	1652.95
498.082	1626.28
498.452	1654.98
498.821	1641.88
499.19	1658.15
499.559	1649.79
499.928	1660.18
500.298	1641.43
500.667	1631.03
501.036	1641.43
501.405	1638.94
501.774	1631.93
502.143	1629.22
502.512	1653.18
502.88	1631.03
503.249	1615.66
503.618	1655.89
503.987	1602.78
504.356	1626.96
504.724	1601.43
505.093	1587.64
505.462	1641.43
505.83	1605.95
506.199	1611.37
506.567	1567.98
506.936	1616.12
507.304	1588.09
507.672	1583.57
508.041	1589
508.409	1588.77
508.777	1589.45
509.145	1574.99
509.514	1551.94
509.882	1569.34
510.25	1559.85
510.618	1573.18
510.986	1563.01
511.354	1614.99
511.722	1561.65
512.09	1563.24
512.458	1556.23
512.826	1570.47
513.193	1550.58
513.561	1540.86
513.929	1543.58
514.297	1568.21
514.664	1500.86
515.032	1504.93
515.4	1538.38
515.767	1533.86
516.135	1513.29
516.502	1507.19
516.869	1502.9
517.237	1491.6
517.604	1477.81
517.972	1518.49
518.339	1476.01
518.706	1453.63
519.073	1468.1
519.44	1485.72
519.808	1461.09
520.175	1477.81
520.542	1483.01
520.909	1486.85
521.276	1472.16
521.643	1448.66
522.009	1487.31
522.376	1439.62
522.743	1456.12
523.11	1456.57
523.477	1465.84
523.843	1472.16
524.21	1419.96
524.577	1463.58
524.943	1428.1
525.31	1432.84
525.676	1447.76
526.043	1449.34
526.409	1464.71
526.776	1464.26
527.142	1411.38
527.508	1441.66
527.874	1460.64
528.241	1449.79
528.607	1455.89
528.973	1445.95
529.339	1441.66
529.705	1442.33
530.071	1465.39
530.437	1428.32
530.803	1452.5
531.169	1429.23
531.535	1419.28
531.901	1422.22
532.267	1405.73
532.632	1425.61
532.998	1428.1
533.364	1429.91
533.73	1441.88
534.095	1435.56
534.461	1407.31
534.826	1411.83
535.192	1453.18
535.557	1417.93
535.923	1402.11
536.288	1441.43
536.653	1414.54
537.019	1407.31
537.384	1394.43
537.749	1399.4
538.114	1405.73
538.479	1400.98
538.845	1417.25
539.21	1391.71
539.575	1371.38
539.94	1408.89
540.305	1417.48
540.67	1398.95
541.034	1396.23
541.399	1385.16
541.764	1406.63
542.129	1399.62
542.494	1373.64
542.858	1391.49
543.223	1374.09
543.587	1372.05
543.952	1385.61
544.316	1380.42
544.681	1373.41
545.045	1372.05
545.41	1372.28
545.774	1337.25
546.138	1358.04
546.503	1353.98
546.867	1329.57
547.231	1360.53
547.595	1365.73
547.959	1363.92
548.324	1360.53
548.688	1333.41
549.052	1360.98
549.416	1335.9
549.779	1327.99
550.143	1333.64
550.507	1339.06
550.871	1347.2
551.235	1345.39
551.599	1315.56
551.962	1328.89
552.326	1336.58
552.689	1314.43
553.053	1329.34
553.417	1326.18
553.78	1320.76
554.143	1295.9
554.507	1327.31
554.87	1307.2
555.234	1311.94
555.597	1332.51
555.96	1325.28
556.323	1284.6
556.686	1318.27
557.05	1289.34
557.413	1331.83
557.776	1333.41
558.139	1293.41
558.502	1301.77
558.865	1308.33
559.228	1290.47
559.59	1327.08
559.953	1304.71
560.316	1302.9
560.679	1297.03
561.041	1317.14
561.404	1320.76
561.767	1270.14
562.129	1332.96
562.492	1312.85
562.854	1305.84
563.217	1294.32
563.579	1319.17
563.941	1303.58
564.304	1298.38
564.666	1324.15
565.028	1325.95
565.39	1344.48
565.753	1336.35
566.115	1309.91
566.477	1336.8
566.839	1328.21
567.201	1335.9
567.563	1322.56
567.925	1346.07
568.287	1335.45
568.648	1327.76
569.01	1355.33
569.372	1363.47
569.734	1321.89
570.095	1360.53
570.457	1358.5
570.819	1345.16
571.18	1322.34
571.542	1393.97
571.903	1360.08
572.265	1384.48
572.626	1375.44
572.987	1373.41
573.349	1389.91
573.71	1391.71
574.071	1354.88
574.432	1384.48
574.794	1384.03
575.155	1357.59
575.516	1392.84
575.877	1389.68
576.238	1386.74
576.599	1421.32
576.96	1381.09
577.32	1392.17
577.681	1411.6
578.042	1415.89
578.403	1421.54
578.763	1442.11
579.124	1397.82
579.485	1436.23
579.845	1455.89
580.206	1406.86
580.566	1437.82
580.927	1443.92
581.287	1430.58
581.648	1467.65
582.008	1426.52
582.368	1478.94
582.728	1444.59
583.089	1455.44
583.449	1444.37
583.809	1453.41
584.169	1448.89
584.529	1450.92
584.889	1467.65
585.249	1434.2
585.609	1458.38
585.969	1463.13
586.329	1474.42
586.688	1506.74
587.048	1484.37
587.408	1460.19
587.768	1463.35
588.127	1478.49
588.487	1484.14
588.846	1487.76
589.206	1482.79
589.565	1483.92
589.925	1487.31
590.284	1503.8
590.643	1477.14
591.003	1473.97
591.362	1501.32
591.721	1437.14
592.08	1476.91
592.44	1484.59
592.799	1478.27
593.158	1486.85
593.517	1487.31
593.876	1473.07
594.235	1459.06
594.593	1484.37
594.952	1509.23
595.311	1514.42
595.67	1472.16
596.029	1465.39
596.387	1475.78
596.746	1464.93
597.104	1461.09
597.463	1456.57
597.822	1462.22
598.18	1480.07
598.538	1477.59
598.897	1492.73
599.255	1478.27
599.613	1482.33
599.972	1469.68
600.33	1504.25
600.688	1473.97
601.046	1483.01
601.404	1516.91
601.762	1471.49
602.12	1484.59
602.478	1495.89
602.836	1485.72
603.194	1461.09
603.552	1490.24
603.91	1490.7
604.268	1445.27
604.625	1470.36
604.983	1466.52
605.341	1471.94
605.698	1459.06
606.056	1480.75
606.413	1465.16
606.771	1481.43
607.128	1487.53
607.485	1486.4
607.843	1495.67
608.2	1500.41
608.557	1480.07
608.914	1475.1
609.272	1478.04
609.629	1494.09
609.986	1497.7
610.343	1498.6
610.7	1507.64
611.057	1478.04
611.414	1509.9
611.771	1499.73
612.127	1475.33
612.484	1509.23
612.841	1485.05
613.198	1465.84
613.554	1506.51
613.911	1474.65
614.267	1503.35
614.624	1477.36
614.98	1514.2
615.337	1516.46
615.693	1510.81
616.05	1513.97
616.406	1500.19
616.762	1503.58
617.118	1457.93
617.475	1518.27
617.831	1503.8
618.187	1475.55
618.543	1481.66
618.899	1520.3
619.255	1511.03
619.611	1495.44
619.967	1459.96
620.323	1508.55
620.678	1503.58
621.034	1501.99
621.39	1524.59
621.746	1494.76
622.101	1508.77
622.457	1509.45
622.812	1515.33
623.168	1493.41
623.523	1531.82
623.879	1524.82
624.234	1506.06
624.589	1501.99
624.945	1519.17
625.3	1549
625.655	1544.25
626.01	1515.55
626.365	1507.87
626.72	1542.45
627.075	1546.96
627.43	1529.34
627.785	1508.1
628.14	1515.33
628.495	1543.58
628.85	1511.49
629.205	1501.77
629.559	1539.28
629.914	1523.24
630.269	1558.26
630.623	1525.27
630.978	1558.94
631.332	1528.43
631.687	1510.13
632.041	1512.39
632.396	1514.65
632.75	1545.16
633.104	1525.95
633.459	1543.8
633.813	1536.34
634.167	1541.32
634.521	1522.78
634.875	1523.01
635.229	1510.81
635.583	1501.99
635.937	1526.4
636.291	1541.09
636.645	1539.73
636.999	1555.78
637.352	1530.24
637.706	1527.3
638.06	1515.55
638.413	1538.6
638.767	1507.87
639.121	1539.96
639.474	1513.97
639.828	1520.52
640.181	1532.05
640.534	1528.89
640.888	1525.04
641.241	1526.17
641.594	1531.15
641.947	1525.5
642.301	1543.35
642.654	1532.95
643.007	1539.73
643.36	1538.15
643.713	1532.95
644.066	1529.11
644.419	1539.73
644.771	1527.76
645.124	1503.8
645.477	1523.01
645.83	1509.23
646.182	1522.11
646.535	1501.54
646.888	1534.08
647.24	1516.23
647.593	1517.81
647.945	1547.42
648.298	1515.1
648.65	1507.42
649.002	1527.3
649.355	1525.5
649.707	1515.55
650.059	1547.19
650.411	1558.04
650.763	1573.63
651.115	1549.22
651.467	1582.44
651.819	1579.96
652.171	1589.9
652.523	1542.9
652.875	1560.3
653.227	1546.74
653.578	1564.37
653.93	1587.64
654.282	1552.84
654.633	1562.56
654.985	1552.16
655.337	1587.87
655.688	1605.27
656.039	1581.31
656.391	1550.35
656.742	1574.08
657.094	1594.65
657.445	1605.49
657.796	1592.84
658.147	1600.97
658.498	1580.41
658.849	1620.18
659.2	1607.3
659.551	1581.54
659.902	1612.73
660.253	1614.31
660.604	1619.28
660.955	1593.52
661.306	1619.73
661.656	1646.85
662.007	1613.86
662.358	1605.95
662.708	1620.64
663.059	1642.33
663.409	1612.05
663.76	1645.04
664.11	1619.05
664.461	1643.91
664.811	1605.27
665.161	1609.56
665.511	1635.55
665.862	1608.21
666.212	1634.19
666.562	1625.16
666.912	1610.01
667.262	1644.59
667.612	1635.1
667.962	1623.35
668.312	1635.55
668.662	1636.45
669.011	1646.17
669.361	1634.42
669.711	1634.42
670.06	1599.84
670.41	1613.18
670.76	1631.26
671.109	1628.77
671.459	1646.17
671.808	1652.27
672.157	1610.69
672.507	1630.8
672.856	1610.47
673.205	1585.83
673.554	1592.16
673.904	1588.55
674.253	1624.48
674.602	1612.27
674.951	1577.92
675.3	1583.35
675.649	1610.24
675.998	1598.72
676.346	1604.59
676.695	1600.3
677.044	1591.71
677.393	1575.89
677.741	1580.41
678.09	1573.4
678.438	1570.24
678.787	1556.68
679.135	1590.58
679.484	1540.64
679.832	1548.55
680.181	1562.56
680.529	1563.24
680.877	1553.52
681.225	1564.59
681.573	1552.84
681.922	1561.88
682.27	1560.98
682.618	1513.52
682.966	1516.01
683.314	1529.79
683.661	1512.39
684.009	1540.86
684.357	1541.77
684.705	1529.34
685.053	1504.03
685.4	1514.65
685.748	1497.7
686.095	1509.9
686.443	1489.11
686.79	1463.13
687.138	1519.4
687.485	1507.87
687.832	1511.94
688.18	1491.6
688.527	1510.13
688.874	1470.13
689.221	1487.53
689.568	1469.68
689.915	1502.45
690.262	1462.67
690.609	1441.21
690.956	1476.23
691.303	1445.72
691.65	1440.98
691.997	1447.53
692.344	1452.5
692.69	1444.37
693.037	1438.72
693.383	1433.75
693.73	1465.39
694.077	1432.62
694.423	1419.06
694.769	1423.35
695.116	1419.96
695.462	1413.86
695.808	1443.92
696.155	1375.44
696.501	1398.72
696.847	1413.86
697.193	1363.92
697.539	1380.19
697.885	1365.95
698.231	1383.13
698.577	1344.71
698.923	1368.89
699.269	1386.52
699.614	1370.25
699.96	1352.85
700.306	1355.33
700.651	1364.82
700.997	1347.65
701.342	1355.78
701.688	1368.89
702.033	1364.37
702.379	1355.11
702.724	1367.31
703.069	1361.21
703.415	1322.79
703.76	1314.65
704.105	1361.66
704.45	1349.91
704.795	1340.87
705.14	1341.55
705.485	1342.9
705.83	1335.9
706.175	1332.73
706.52	1341.77
706.865	1313.3
707.209	1324.6
707.554	1320.08
707.899	1354.2
708.243	1360.08
708.588	1322.34
708.932	1335.67
709.277	1336.12
709.621	1334.32
709.966	1348.55
710.31	1358.5
710.654	1325.73
710.998	1353.07
711.342	1327.76
711.687	1330.25
712.031	1344.26
712.375	1340.19
712.719	1343.58
713.063	1326.41
713.407	1326.18
713.75	1343.58
714.094	1345.39
714.438	1344.26
714.782	1345.61
715.125	1356.01
715.469	1349
715.812	1372.05
716.156	1341.09
716.499	1376.35
716.843	1380.87
717.186	1357.14
717.53	1379.74
717.873	1372.51
718.216	1376.35
718.559	1359.63
718.902	1382.68
719.246	1372.73
719.589	1384.26
719.932	1354.43
720.275	1383.35
720.617	1386.52
720.96	1418.38
721.303	1412.96
721.646	1405.73
721.989	1413.86
722.331	1413.18
722.674	1402.34
723.016	1427.65
723.359	1432.62
723.701	1418.38
724.044	1443.92
724.386	1439.4
724.729	1422.22
725.071	1443.92
725.413	1487.76
725.755	1451.6
726.097	1453.86
726.439	1443.92
726.782	1449.11
727.124	1463.8
727.465	1476.46
727.807	1485.05
728.149	1516.01
728.491	1479.62
728.833	1527.98
729.175	1514.88
729.516	1525.95
729.858	1523.91
730.199	1537.93
730.541	1534.31
730.882	1547.19
731.224	1546.51
731.565	1549
731.906	1568.43
732.248	1585.38
732.589	1586.06
732.93	1572.95
733.271	1603.23
733.612	1650.69
733.953	1633.06
734.294	1607.53
734.635	1652.95
734.976	1653.4
735.317	1644.59
735.658	1688.88
735.999	1675.1
736.339	1668.77
736.68	1668.09
737.021	1673.97
737.361	1720.75
737.702	1745.15
738.042	1708.32
738.383	1720.97
738.723	1784.92
739.063	1800.97
739.404	1791.7
739.744	1812.04
740.084	1828.77
740.424	1827.41
740.764	1856.11
741.104	1889.78
741.444	1898.82
741.784	1890.91
742.124	1938.59
742.464	1927.75
742.804	1949.89
743.143	1979.5
743.483	2020.85
743.823	2026.05
744.162	2021.75
744.502	2035.54
744.841	2059.72
745.181	2105.14
745.52	2158.25
745.86	2134.97
746.199	2196.21
746.538	2202.54
746.877	2248.42
747.216	2276.21
747.556	2300.84
747.895	2357.57
748.234	2360.5
748.573	2403.21
748.911	2454.74
749.25	2463.33
749.589	2471.46
749.928	2520.27
750.267	2553.49
750.605	2604.11
750.944	2616.09
751.283	2684.11
751.621	2751
751.96	2777.67
752.298	2802.53
752.636	2882.52
752.975	2909.64
753.313	2948.51
753.651	3003.2
753.989	3007.94
754.327	3093.82
754.666	3101.05
755.004	3195.28
755.342	3219.69
755.679	3304.66
756.017	3300.14
756.355	3382.62
756.693	3428.95
757.031	3464.43
757.368	3542.62
757.706	3592.11
758.044	3663.97
758.381	3684.99
758.719	3726.12
759.056	3816.51
759.394	3870.07
759.731	3897.41
760.068	3946.68
760.405	3995.04
760.743	4048.82
761.08	4139.21
761.417	4146.67
761.754	4248.36
762.091	4241.58
762.428	4312.99
762.765	4355.03
763.102	4384.4
763.438	4434.8
763.775	4474.35
764.112	4508.47
764.449	4586.89
764.785	4588.92
765.122	4636.83
765.458	4706.66
765.795	4758.41
766.131	4798.86
766.467	4837.73
766.804	4895.13
767.14	4917.05
767.476	4973.09
767.812	4988.68
768.148	5052.18
768.485	5067.1
768.821	5113.88
769.157	5124.72
769.492	5149.13
769.828	5259.64
770.164	5235.23
770.5	5266.87
770.836	5283.82
771.171	5292.18
