Data from blue_shiny_book_FLMS001491_00065.txt Node
Date: Wed Feb 08 15:27:22 GMT 2017
User: dcchb
Spectrometer: FLMS00149
Trigger mode: 0
Integration Time (sec): 2.000000E-2
Scans to average: 10
Electric dark correction enabled: true
Nonlinearity correction enabled: false
Boxcar width: 0
XAxis mode: Wavelengths
Number of Pixels in Spectrum: 2048
>>>>>Begin Spectral Data<<<<<
341.393	-12.51
341.776	-12.51
342.16	-12.51
342.543	-59.07
342.927	-52.51
343.31	-82.34
343.693	-80.08
344.077	-55.22
344.46	-83.25
344.843	-54.55
345.226	-47.77
345.61	-32.17
345.993	-31.5
346.376	15.06
346.759	19.8
347.142	33.36
347.525	58.44
347.908	59.8
348.291	81.27
348.674	95.51
349.057	103.64
349.44	109.29
349.823	146.58
350.206	170.53
350.588	199.01
350.971	211.66
351.354	232
351.737	240.81
352.119	265.67
352.502	266.8
352.884	251.43
353.267	309.06
353.65	295.95
354.032	278.1
354.414	339.57
354.797	321.04
355.179	326.91
355.562	319.91
355.944	315.61
356.326	326.23
356.709	348.15
357.091	338.21
357.473	343.64
357.855	354.48
358.238	372.11
358.62	357.19
359.002	366.46
359.384	362.62
359.766	347.25
360.148	358.78
360.53	355.61
360.912	343.64
361.294	346.12
361.676	340.02
362.057	348.83
362.439	363.97
362.821	364.2
363.203	337.08
363.584	361.71
363.966	338.44
364.348	334.14
364.729	336.63
365.111	350.19
365.493	322.39
365.874	327.59
366.256	339.12
366.637	325.1
367.019	336.86
367.4	338.44
367.781	339.57
368.163	335.5
368.544	298.89
368.925	342.51
369.306	334.6
369.688	323.75
370.069	345.22
370.45	359.68
370.831	325.33
371.212	321.26
371.593	338.21
371.974	325.56
372.355	341.83
372.736	352.9
373.117	341.15
373.498	338.66
373.879	361.71
374.26	366.69
374.641	342.51
375.021	344.54
375.402	356.06
375.783	353.35
376.163	362.62
376.544	376.18
376.925	357.42
377.305	374.59
377.686	371.66
378.066	360.36
378.447	381.6
378.827	381.37
379.208	379.11
379.588	393.35
379.968	383.18
380.349	392.22
380.729	388.61
381.109	411.66
381.489	404.88
381.87	394.71
382.25	390.41
382.63	397.19
383.01	380.02
383.39	422.28
383.77	411.66
384.15	420.02
384.53	429.06
384.91	413.46
385.29	410.07
385.67	441.49
386.049	424.08
386.429	428.83
386.809	437.42
387.189	432.9
387.568	434.71
387.948	440.36
388.328	450.3
388.707	457.98
389.087	463.63
389.466	468.83
389.846	479.22
390.225	467.25
390.605	465.67
390.984	458.43
391.363	483.52
391.743	507.47
392.122	510.86
392.501	484.87
392.881	522.16
393.26	516.74
393.639	514.03
394.018	553.57
394.397	543.63
394.776	515.16
395.155	544.31
395.534	537.3
395.913	538.43
396.292	559.9
396.671	554.02
397.05	560.35
397.429	552.22
397.808	557.41
398.186	564.19
398.565	580.01
398.944	592.67
399.323	603.06
399.701	593.57
400.08	587.02
400.458	613.01
400.837	591.76
401.215	634.02
401.594	641.48
401.972	639.45
402.351	657.53
402.729	642.16
403.107	661.14
403.486	675.6
403.864	676.28
404.242	684.19
404.62	696.85
404.999	707.92
405.377	695.04
405.755	690.29
406.133	719.9
406.511	722.61
406.889	733.46
407.267	741.36
407.645	776.62
408.023	769.39
408.401	787.69
408.779	784.3
409.156	818.2
409.534	814.13
409.912	821.81
410.29	864.07
410.667	860.68
411.045	857.75
411.422	881.93
411.8	874.24
412.178	902.49
412.555	910.85
412.933	945.2
413.31	952.88
413.687	963.73
414.065	971.64
414.442	1016.39
414.819	974.58
415.197	983.39
415.574	1031.75
415.951	1039.89
416.328	1048.93
416.705	1063.39
417.082	1052.32
417.46	1079.43
417.837	1090.96
418.214	1086.67
418.591	1112.65
418.967	1123.28
419.344	1142.03
419.721	1142.94
420.098	1155.82
420.475	1169.38
420.852	1198.3
421.228	1185.65
421.605	1236.94
421.982	1262.48
422.358	1251.41
422.735	1279.88
423.111	1274.23
423.488	1278.75
423.864	1308.13
424.241	1316.94
424.617	1350.16
424.994	1346.09
425.37	1374.34
425.746	1389.71
426.123	1394
426.499	1424.28
426.875	1434.91
427.251	1453.44
427.627	1475.58
428.003	1514.68
428.379	1528.69
428.756	1569.14
429.132	1571.4
429.507	1595.13
429.883	1644.17
430.259	1640.32
430.635	1677.61
431.011	1669.7
431.387	1752.86
431.763	1773.88
432.138	1790.15
432.514	1769.81
432.89	1778.17
433.265	1801.68
433.641	1864.95
434.016	1909.92
434.392	1926.42
434.767	1946.98
435.143	1997.83
435.518	1986.3
435.894	2053.19
436.269	2107.43
436.644	2130.93
437.02	2095.45
437.395	2131.84
437.77	2126.64
438.145	2182.68
438.52	2212.29
438.895	2282.79
439.271	2265.62
439.646	2300.19
440.021	2336.8
440.395	2356.01
440.77	2326.63
441.145	2379.06
441.52	2436.01
441.895	2446.86
442.27	2469.91
442.645	2442.11
443.019	2490.7
443.394	2490.7
443.769	2557.59
444.143	2512.62
444.518	2582.45
444.892	2591.26
445.267	2620.86
445.641	2642.78
446.016	2670.58
446.39	2725.04
446.764	2763.91
447.139	2726.17
447.513	2761.88
447.887	2740.63
448.262	2768.2
448.636	2791.93
449.01	2826.06
449.384	2874.87
449.758	2912.16
450.132	3011.14
450.506	2953.74
450.88	3015.88
451.254	3019.72
451.628	3062.66
452.002	3145.6
452.376	3118.03
452.75	3174.3
453.123	3179.94
453.497	3217.91
453.871	3214.75
454.244	3315.99
454.618	3336.32
454.992	3376.78
455.365	3416.55
455.739	3534.29
456.112	3591.69
456.486	3620.39
456.859	3635.07
457.232	3720.27
457.606	3706.71
457.979	3777.22
458.352	3849.31
458.725	3859.7
459.099	3917.55
459.472	3995.06
459.845	3957.55
460.218	4094.95
460.591	4099.69
460.964	4146.02
461.337	4248.62
461.71	4383.75
462.083	4364.55
462.456	4425.79
462.829	4423.98
463.201	4519.12
463.574	4542.17
463.947	4588.5
464.32	4713.01
464.692	4748.49
465.065	4754.82
465.438	4876.62
465.81	4915.72
466.183	5033.91
466.555	5095.83
466.928	5169.95
467.3	5179.89
467.672	5267.12
468.045	5421.69
468.417	5389.15
468.789	5466.89
469.161	5533.56
469.534	5644.29
469.906	5738.07
470.278	5781.46
470.65	5819.65
471.022	5971.51
471.394	6032.98
471.766	6090.15
472.138	6192.52
472.51	6359.3
472.882	6483.36
473.253	6592.96
473.625	6639.97
473.997	6794.09
474.369	6784.37
474.74	6922.45
475.112	7056
475.484	7172.83
475.855	7226.62
476.227	7347.74
476.598	7567.4
476.97	7597.23
477.341	7752.48
477.713	7945.47
478.084	7994.51
478.455	8162.86
478.827	8369.64
479.198	8607.15
479.569	8660.48
479.94	8811.89
480.311	8907.03
480.682	9122.61
481.053	9204.42
481.424	9453
481.795	9498.65
482.166	9670.17
482.537	9731.18
482.908	10039.65
483.279	10151.06
483.65	10349.02
484.021	10548.56
484.391	10739.52
484.762	10877.6
485.133	10991.94
485.503	11254.31
485.874	11351.48
486.244	11490.01
486.615	11677.57
486.985	11818.36
487.356	12084.12
487.726	12140.39
488.097	12453.37
488.467	12507.61
488.837	12725.91
489.207	12874.6
489.578	13133.36
489.948	13202.05
490.318	13415.61
490.688	13595.04
491.058	13725.43
491.428	13964.97
491.798	14167.9
492.168	14410.61
492.538	14407.9
492.908	14620.1
493.278	14875.23
493.648	14885.63
494.017	15146.18
494.387	15240.87
494.757	15411.04
495.126	15624.59
495.496	15701.65
495.866	15778.71
496.235	15988.87
496.605	16081.53
496.974	16345.7
497.344	16417.34
497.713	16607.84
498.082	16630.89
498.452	16862.52
498.821	16895.29
499.19	17018
499.559	17226.58
499.928	17420.47
500.298	17468.61
500.667	17633.58
501.036	17687.13
501.405	17905.21
501.774	18020.01
502.143	18174.58
502.512	18342.26
502.88	18519.65
503.249	18571.18
503.618	18711.74
503.987	18742.02
504.356	18824.96
504.724	18983.37
505.093	19089.13
505.462	19130.94
505.83	19188.56
506.199	19523.7
506.567	19636.69
506.936	19703.13
507.304	19965.04
507.672	20132.72
508.041	20203
508.409	20323.67
508.777	20551.24
509.145	20676.66
509.514	20823.55
509.882	20864.23
510.25	20999.59
510.618	21265.57
510.986	21188.96
511.354	21493.14
511.722	21664.88
512.09	21764.99
512.458	21816.29
512.826	22056.96
513.193	22149.62
513.561	22291.08
513.929	22467.8
514.297	22648.36
514.664	22764.29
515.032	22905.98
515.4	23198.85
515.767	23282.47
516.135	23575.57
516.502	23401.33
516.869	23802.91
517.237	23943.01
517.604	23782.11
517.972	24104.14
518.339	24284.02
518.706	24280.18
519.073	24473.4
519.44	24673.39
519.808	25026.6
520.175	24879.26
520.542	25402.86
520.909	25504.33
521.276	25608.96
521.643	25869.52
522.009	26085.78
522.376	26333.23
522.743	26390.86
523.11	26671.3
523.477	26957.17
523.843	27104.74
524.21	27290.95
524.577	27568.68
524.943	27577.04
525.31	27643.26
525.676	27919.63
526.043	28084.6
526.409	28287.08
526.776	28584.7
527.142	28711.25
527.508	28980.4
527.874	29247.06
528.241	29397.79
528.607	29495.86
528.973	29873.71
529.339	29842.29
529.705	30218.78
530.071	30367.48
530.437	30506.68
530.803	30757.98
531.169	31009.27
531.535	30990.74
531.901	31016.05
532.267	31101.7
532.632	31462.82
532.998	31406.77
533.364	31637.05
533.73	31654.68
534.095	31821.23
534.461	32128.34
534.826	32205.62
535.192	32448.78
535.557	32814.65
535.923	32844.25
536.288	33051.02
536.653	33060.29
537.019	33079.27
537.384	33393.84
537.749	33587.28
538.114	33506.83
538.479	33394.97
538.845	33750.21
539.21	33562.65
539.575	33742.98
539.94	33810.78
540.305	34020.26
540.67	33800.61
541.034	34071.34
541.399	34126.02
541.764	34259.81
542.129	34430.42
542.494	34472.91
542.858	34747.7
543.223	35009.16
543.587	35140.69
543.952	35088.48
544.316	35327.35
544.681	35325.54
545.045	35620.45
545.41	35839.42
545.774	35724.85
546.138	35802.59
546.503	35783.83
546.867	35800.1
547.231	35965.98
547.595	35903.83
547.959	36041.23
548.324	36028.35
548.688	36119.19
549.052	36154.44
549.416	36323.25
549.779	36313.76
550.143	36427.88
550.507	36652.51
550.871	36723.47
551.235	36854.09
551.599	37229.22
551.962	37331.59
552.326	37411.59
552.689	37760.5
553.053	37593.28
553.417	37595.54
553.78	38162.53
554.143	37710.34
554.507	38009.09
554.87	37856.55
555.234	38416.08
555.597	38069.87
555.96	38106.03
556.323	38171.79
556.686	38195.97
557.05	38557.09
557.413	38443.2
557.776	38520.03
558.139	38888.16
558.502	39028.04
558.865	39172.22
559.228	39434.13
559.59	39570.17
559.953	39641.81
560.316	40132.65
560.679	40157.05
561.041	40478.62
561.404	40753.42
561.767	40861.67
562.129	40750.71
562.492	41099.63
562.854	40851.5
563.217	40825.96
563.579	40881.1
563.941	41100.53
564.304	41120.64
564.666	41352.73
565.028	41330.13
565.39	41358.83
565.753	41562.89
566.115	41834.75
566.477	41868.42
566.839	42142.31
567.201	42418.91
567.563	42524.45
567.925	42822.07
568.287	42995.85
568.648	43108.84
569.01	43532.78
569.372	43640.8
569.734	43359
570.095	43855.71
570.457	43871.98
570.819	43804.87
571.18	43830.18
571.542	44074.69
571.903	44131.41
572.265	44105.65
572.626	44067.01
572.987	43956.95
573.349	44195.59
573.71	44214.57
574.071	44404.62
574.432	44519.87
574.794	44672.86
575.155	44671.74
575.516	44648.23
575.877	44897.04
576.238	45094.32
576.599	45330.47
576.96	45302.68
577.32	45547.42
577.681	45859.05
578.042	45964.36
578.403	45989.21
578.763	46150.57
579.124	46050.23
579.485	46092.71
579.845	46201.64
580.206	46171.36
580.566	46120.06
580.927	46015.65
581.287	46196.44
581.648	45995.99
582.008	46176.33
582.368	45939.95
582.728	46078.48
583.089	46004.36
583.449	46099.27
583.809	46035.99
584.169	46103.34
584.529	46304.69
584.889	46451.58
585.249	46361.63
585.609	46367.06
585.969	46665.58
586.329	46571.35
586.688	46825.58
587.048	46627.16
587.408	46837.78
587.768	46994.61
588.127	46906.48
588.487	46802.75
588.846	47033.25
589.206	46878.23
589.565	46751.68
589.925	46994.84
590.284	46591.23
590.643	46706.94
591.003	46656.77
591.362	46689.76
591.721	46563.44
592.08	46483.89
592.44	46550.56
592.799	46671.23
593.158	46511.23
593.517	46624
593.876	46710.1
594.235	46730.21
594.593	46871.9
594.952	46976.08
595.311	46919.81
595.67	47110.31
596.029	47419.46
596.387	47524.99
596.746	47602.73
597.104	47378.56
597.463	47397.77
597.822	47649.51
598.18	47451.55
598.538	47488.61
598.897	47571.32
599.255	47155.96
599.613	47666.01
599.972	47284.1
600.33	47331.33
600.688	47145.34
601.046	47249.29
601.404	47425.56
601.762	47141.5
602.12	47337.43
602.478	47343.3
602.836	47426.92
603.194	47389.4
603.552	47389.4
603.91	47287.49
604.268	47622.39
604.625	47563.41
604.983	47745.1
605.341	47594.6
605.698	47945.77
606.056	47874.36
606.413	48038.65
606.771	48251.08
607.128	48203.17
607.485	48047.01
607.843	48233.68
608.2	48509.15
608.557	48413.78
608.914	48275.48
609.272	48409.04
609.629	48374.24
609.986	48343.28
610.343	48143.06
610.7	48331.3
611.057	48217.63
611.414	48076.62
611.771	48137.41
612.127	48345.76
612.484	48179.21
612.841	48320
613.198	48298.31
613.554	48355.03
613.911	48585.53
614.267	48616.49
614.624	48733.55
614.98	48909.36
615.337	49158.4
615.693	49072.07
616.05	49080.88
616.406	49189.13
616.762	49228.45
617.118	49466.19
617.475	49373.08
617.831	49408.56
618.187	49433.19
618.543	49404.94
618.899	49637.25
619.255	49496.24
619.611	49399.07
619.967	49303.93
620.323	49371.5
620.678	49137.38
621.034	49109.36
621.39	49159.07
621.746	48955.01
622.101	49400.42
622.457	48992.07
622.812	49110.94
623.168	49168.11
623.523	49163.59
623.879	49309.35
624.234	48965.63
624.589	49213.76
624.945	49469.35
625.3	49485.85
625.655	49283.59
626.01	49500.76
626.365	49524.04
626.72	49561.78
627.075	49620.76
627.43	49751.15
627.785	49720.64
628.14	49790.47
628.495	49916.57
628.85	49757.7
629.205	49474.09
629.559	49719.29
629.914	49401.78
630.269	49596.35
630.623	49335.34
630.978	49209.69
631.332	49359.52
631.687	49287.88
632.041	49067.78
632.396	49032.52
632.75	48825.98
633.104	48935.35
633.459	48688.8
633.813	48691.06
634.167	48589.37
634.521	48768.35
634.875	48595.25
635.229	48734.91
635.583	48540.11
635.937	48619.2
636.291	48670.5
636.645	48670.05
636.999	48635.7
637.352	48844.28
637.706	48683.38
638.06	48959.98
638.413	48778.75
638.767	48722.48
639.121	48616.72
639.474	48380.34
639.828	48629.82
640.181	48594.34
640.534	48442.26
640.888	48341.02
641.241	48111.64
641.594	48134.24
641.947	48252.21
642.301	48088.37
642.654	48035.94
643.007	48037.3
643.36	47784.2
643.713	47745.78
644.066	47748.72
644.419	47692.22
644.771	47560.7
645.124	47355.05
645.477	47314.83
645.83	47130.88
646.182	46783.54
646.535	46264.01
646.888	46278.92
647.24	45987.86
647.593	46291.35
647.945	46113.51
648.298	46026.05
648.65	46037.8
649.002	45937.46
649.355	46251.35
649.707	46339.49
650.059	46829.87
650.411	47362.74
650.763	47338.33
651.115	47620.58
651.467	47421.72
651.819	47451.32
652.171	47349.63
652.523	47268.73
652.875	47066.02
653.227	46933.6
653.578	47196.64
653.93	47076.19
654.282	46873.94
654.633	46630.33
654.985	46621.51
655.337	46588.07
655.688	46471.69
656.039	46617.9
656.391	46288.19
656.742	46423.55
657.094	46372.93
657.445	46526.15
657.796	46383.33
658.147	46398.02
658.498	46305.36
658.849	46483.21
659.2	46393.27
659.551	46406.6
659.902	46555.08
660.253	46655.86
660.604	46739.48
660.955	46445.7
661.306	46768.86
661.656	46541.06
662.007	46820.15
662.358	46793.94
662.708	46779.02
663.059	46786.93
663.409	46490.67
663.76	46743.32
664.11	46508.52
664.461	46511.23
664.811	46464
665.161	46349.88
665.511	46283.22
665.862	46278.92
666.212	46401.86
666.562	46238.02
666.912	46245.93
667.262	46108.31
667.612	46087.07
667.962	46201.86
668.312	45856.79
668.662	45991.7
669.011	45976.79
669.361	45776.11
669.711	45724.81
670.06	45855.43
670.41	45623.12
670.76	45753.74
671.109	45840.29
671.459	45766.17
671.808	45726.4
672.157	45797.58
672.507	45576.34
672.856	45670.8
673.205	45702.22
673.554	45998.71
673.904	45961.87
674.253	46127.74
674.602	45923.45
674.951	45374.54
675.3	45273.53
675.649	46051.59
675.998	45845.94
676.346	45816.79
676.695	45826.28
677.044	45575.67
677.393	45507.87
677.741	45393.52
678.09	45290.02
678.438	45236.92
678.787	44991.73
679.135	44946.53
679.484	44619.31
679.832	44604.39
680.181	44494.79
680.529	44692.3
680.877	44337.96
681.225	44342.25
681.573	44531.4
681.922	44232.88
682.27	44251.86
682.618	44113.56
682.966	44011.19
683.314	44090.51
683.661	44066.33
684.009	43826.79
684.357	43945.88
684.705	43885.99
685.053	43887.12
685.4	43847.35
685.748	43730.97
686.095	43815.71
686.443	43729.61
686.79	43685.77
687.138	43857.29
687.485	43914.92
687.832	43740.23
688.18	43678.77
688.527	43461.37
688.874	43471.77
689.221	43282.62
689.568	43097.99
689.915	42942.29
690.262	42980.48
690.609	42805.12
690.956	42621.39
691.303	42555.63
691.65	42269.76
691.997	42267.96
692.344	41877.91
692.69	41880.85
693.037	41772.6
693.383	41406.51
693.73	41444.02
694.077	41026.63
694.423	41128.1
694.769	40939.18
695.116	40680.2
695.462	40559.75
695.808	40632.29
696.155	40700.77
696.501	40419.87
696.847	40411.51
697.193	40203.38
697.539	40362.7
697.885	40111.4
698.231	39961.12
698.577	40126.54
698.923	40188.92
699.269	40022.82
699.614	39783.05
699.96	39832.99
700.306	39865.08
700.651	39753.22
700.997	39680
701.342	39606.11
701.688	39433
702.033	39399.33
702.379	39404.3
702.724	39364.3
703.069	39334.93
703.415	38837.54
703.76	38825.56
704.105	38673.7
704.45	38449.53
704.795	38248.85
705.14	38134.51
705.485	37906.04
705.83	37812.48
706.175	37751.69
706.52	37566.84
706.865	37275.77
707.209	37161.65
707.554	37183.57
707.899	36955.55
708.243	36804.6
708.588	36789.91
708.932	36422.23
709.277	36549.01
709.621	36597.6
709.966	36324.38
710.31	36485.96
710.654	36189.7
710.998	36374.33
711.342	36565.96
711.687	36390.6
712.031	36236.7
712.375	36296.59
712.719	36389.69
713.063	36195.12
713.407	36360.54
713.75	36151.51
714.094	36276.93
714.438	36262.46
714.782	36351.05
715.125	36201.68
715.469	36305.85
715.812	36074.22
716.156	35865.41
716.499	35952.19
716.843	35778.86
717.186	35454.35
717.53	35365.77
717.873	35497.29
718.216	35302.49
718.559	35168.26
718.902	34845.78
719.246	35005.55
719.589	34981.14
719.932	34758.1
720.275	34632
720.617	34561.94
720.96	34524.21
721.303	34465.22
721.646	34377.09
721.989	34143.88
722.331	34307.26
722.674	34074.05
723.016	34029.08
723.359	34003.09
723.701	33874.5
724.044	33838.12
724.386	33779.37
724.729	33960.6
725.071	33829.08
725.413	33853.26
725.755	33930.55
726.097	33935.07
726.439	33806.94
726.782	33792.25
727.124	33994.73
727.465	33878.57
727.807	34006.7
728.149	33807.39
728.491	33846.26
728.833	34007.83
729.175	33919.25
729.516	33888.29
729.858	33939.36
730.199	34132.8
730.541	34004.22
730.882	33837.9
731.224	34091.22
731.565	33697.56
731.906	33702.31
732.248	33599.48
732.589	33554.06
732.93	33387.06
733.271	33379.38
733.612	33415.08
733.953	33312.49
734.294	33187.07
734.635	33135.09
734.976	33097.8
735.317	32913.85
735.658	32884.02
735.999	32824.81
736.339	32686.06
736.68	32865.94
737.021	32797.47
737.361	32622.33
737.702	32642.22
738.042	32662.11
738.383	32578.95
738.723	32552.51
739.063	32586.63
739.404	32545.73
739.744	32634.31
740.084	32592.96
740.424	32711.37
740.764	32588.66
741.104	32843.8
741.444	32692.16
741.784	32724.93
742.124	32871.82
742.464	33048.31
742.804	32919.28
743.143	32960.86
743.483	33044.24
743.823	32825.04
744.162	33059.61
744.502	33097.8
744.841	33027.07
745.181	33227.29
745.52	32999.27
745.86	33144.13
746.199	33048.54
746.538	33033.85
746.877	33240.17
747.216	33213.73
747.556	33104.36
747.895	32987.52
748.234	32859.84
748.573	32713.41
748.911	32658.49
749.25	32795.44
749.589	32736.91
749.928	32621.66
750.267	32743.69
750.605	32474.32
750.944	32698.94
751.283	32526.97
751.621	32672.95
751.96	32444.26
752.298	32409.23
752.636	32576.91
752.975	32492.39
753.313	32261.44
753.651	32530.59
