Data from blue_shiny_book_FLMS001491_00013.txt Node
Date: Wed Feb 08 15:26:36 GMT 2017
User: dcchb
Spectrometer: FLMS00149
Trigger mode: 0
Integration Time (sec): 2.000000E-2
Scans to average: 10
Electric dark correction enabled: true
Nonlinearity correction enabled: false
Boxcar width: 0
XAxis mode: Wavelengths
Number of Pixels in Spectrum: 2048
>>>>>Begin Spectral Data<<<<<
341.393	-49.02
341.776	-49.02
342.16	-49.02
342.543	-67.78
342.927	-62.81
343.31	-84.05
343.693	-56.93
344.077	-52.64
344.46	-50.83
344.843	-43.6
345.226	-45.18
345.61	-31.85
345.993	-20.1
346.376	-22.13
346.759	15.83
347.142	28.94
347.525	50.63
347.908	46.11
348.291	78.2
348.674	72.1
349.057	115.49
349.44	99.22
349.823	131.76
350.206	176.51
350.588	183.29
350.971	234.58
351.354	236.62
351.737	254.24
352.119	253.79
352.502	264.87
352.884	286.56
353.267	280.23
353.65	305.99
354.032	326.11
354.414	315.71
354.797	340.12
355.179	340.34
355.562	343.96
355.944	344.64
356.326	340.57
356.709	348.71
357.091	343.51
357.473	347.58
357.855	368.37
358.238	380.8
358.62	361.36
359.002	366.78
359.384	354.36
359.766	347.35
360.148	361.81
360.53	343.06
360.912	336.28
361.294	357.97
361.676	355.26
362.057	355.03
362.439	357.97
362.821	323.62
363.203	336.28
363.584	364.75
363.966	343.96
364.348	345.54
364.729	345.77
365.111	357.97
365.493	346.67
365.874	362.94
366.256	348.48
366.637	348.03
367.019	348.48
367.4	345.32
367.781	351.64
368.163	370.85
368.544	360.91
368.925	356.84
369.306	343.06
369.688	359.33
370.069	346.9
370.45	324.53
370.831	343.73
371.212	334.24
371.593	362.04
371.974	356.39
372.355	345.54
372.736	356.16
373.117	345.54
373.498	360.46
373.879	376.95
374.26	378.54
374.641	354.58
375.021	347.35
375.402	356.84
375.783	381.25
376.163	406.11
376.544	404.98
376.925	401.36
377.305	400
377.686	382.83
378.066	395.94
378.447	386.22
378.827	395.26
379.208	410.85
379.588	381.25
379.968	412.88
380.349	419.66
380.729	410.62
381.109	430.06
381.489	417.86
381.87	435.48
382.25	434.58
382.63	410.17
383.01	430.96
383.39	437.06
383.77	437.74
384.15	458.08
384.53	436.84
384.91	420.34
385.29	454.69
385.67	468.25
386.049	474.35
386.429	459.44
386.809	467.35
387.189	486.33
387.568	482.04
387.948	495.59
388.328	486.56
388.707	498.53
389.087	503.28
389.466	496.95
389.846	504.63
390.225	523.16
390.605	518.64
390.984	538.08
391.363	536.72
391.743	546.89
392.122	552.09
392.501	550.73
392.881	560.45
393.26	575.82
393.639	571.75
394.018	571.75
394.397	578.08
394.776	561.81
395.155	584.63
395.534	588.02
395.913	595.93
396.292	607.91
396.671	589.38
397.05	612.43
397.429	613.11
397.808	636.16
398.186	611.98
398.565	627.12
398.944	634.35
399.323	660.56
399.701	681.8
400.08	676.15
400.458	665.99
400.837	694.01
401.215	694.01
401.594	715.02
401.972	701.92
402.351	727.45
402.729	731.07
403.107	722.48
403.486	736.27
403.864	745.08
404.242	743.05
404.62	760.22
404.999	770.39
405.377	783.72
405.755	776.49
406.133	794.57
406.511	811.07
406.889	823.72
407.267	822.82
407.645	829.37
408.023	852.65
408.401	862.36
408.779	882.93
409.156	876.15
409.534	908.46
409.912	911.63
410.29	969.48
410.667	952.98
411.045	991.63
411.422	972.19
411.8	1011.06
412.178	981.46
412.555	999.31
412.933	1040.21
413.31	1052.87
413.687	1084.05
414.065	1100.78
414.442	1110.04
414.819	1101.45
415.197	1141.23
415.574	1152.53
415.951	1154.79
416.328	1156.82
416.705	1182.81
417.082	1196.82
417.46	1194.78
417.837	1227.33
418.214	1256.03
418.591	1222.13
418.967	1250.6
419.344	1274.33
419.721	1305.52
420.098	1320.21
420.475	1335.57
420.852	1310.49
421.228	1354.55
421.605	1363.82
421.982	1350.04
422.358	1409.02
422.735	1449.92
423.111	1414.67
423.488	1448.56
423.864	1479.52
424.241	1495.34
424.617	1490.6
424.994	1521.56
425.37	1533.31
425.746	1553.65
426.123	1569.69
426.499	1592.97
426.875	1591.38
427.251	1679.07
427.627	1689.46
428.003	1740.08
428.379	1713.64
428.756	1750.02
429.132	1743.92
429.507	1773.75
429.883	1826.86
430.259	1865.28
430.635	1852.17
431.011	1874.32
431.387	1926.97
431.763	1956.57
432.138	1985.5
432.514	2025.72
432.89	2044.93
433.265	2088.77
433.641	2100.52
434.016	2128.77
434.392	2179.84
434.767	2192.72
435.143	2189.34
435.518	2232.95
435.894	2266.62
436.269	2310.24
436.644	2329.44
437.02	2390.69
437.395	2379.61
437.77	2435.43
438.145	2450.8
438.52	2490.8
438.895	2545.94
439.271	2497.8
439.646	2588.42
440.021	2628.87
440.395	2651.92
440.77	2611.47
441.145	2637.68
441.52	2733.5
441.895	2716.78
442.27	2749.32
442.645	2759.72
443.019	2856.21
443.394	2804.69
443.769	2847.85
444.143	2831.13
444.518	2885.36
444.892	2868.19
445.267	2876.32
445.641	2928.75
446.016	2917.9
446.39	2998.13
446.764	3027.51
447.139	3053.95
447.513	3131.01
447.887	3100.27
448.262	3161.06
448.636	3136.88
449.01	3189.31
449.384	3228.4
449.758	3229.76
450.132	3296.88
450.506	3296.88
450.88	3295.07
451.254	3321.51
451.628	3401.51
452.002	3413.94
452.376	3500.04
452.75	3492.8
453.123	3537.32
453.497	3644.44
453.871	3649.41
454.244	3756.07
454.618	3751.33
454.992	3765.34
455.365	3822.51
455.739	3874.94
456.112	3917.43
456.486	3974.82
456.859	4008.72
457.232	4125.33
457.606	4099.57
457.979	4172.56
458.352	4301.14
458.725	4323.06
459.099	4374.59
459.472	4514.25
459.845	4506.11
460.218	4536.17
460.591	4566.45
460.964	4653.23
461.337	4720.12
461.71	4752.88
462.083	4850.96
462.456	4899.09
462.829	4959.43
463.201	5039.43
463.574	5054.57
463.947	5183.61
464.32	5291.63
464.692	5299.54
465.065	5365.52
465.438	5468.12
465.81	5490.27
466.183	5606.65
466.555	5678.73
466.928	5727.77
467.3	5743.37
467.672	5802.8
468.045	5980.2
468.417	6004.38
468.789	6031.04
469.161	6181.09
469.534	6313.29
469.906	6444.59
470.278	6440.97
470.65	6555.1
471.022	6683
471.394	6773.85
471.766	6866.5
472.138	6891.81
472.51	7076.21
472.882	7233.95
473.253	7274.85
473.625	7452.47
473.997	7620.38
474.369	7730.43
474.74	7777.21
475.112	7878.68
475.484	8097.88
475.855	8211.32
476.227	8215.39
476.598	8483.41
476.97	8536.06
477.341	8725.21
477.713	8839.1
478.084	8928.37
478.455	9166.1
478.827	9301.69
479.198	9577.16
479.569	9623.72
479.94	9877.49
480.311	10010.37
480.682	10238.61
481.053	10475.9
481.424	10639.28
481.795	10649.23
482.166	10895.32
482.537	10999.27
482.908	11265.71
483.279	11371.47
483.65	11570.11
484.021	11827.05
484.391	11951.11
484.762	12078.57
485.133	12199.47
485.503	12462.74
485.874	12726.69
486.244	12817.98
486.615	13168.48
486.985	13378.19
487.356	13527.34
487.726	13585.65
488.097	14008.91
488.467	13915.13
488.837	14363.03
489.207	14356.92
489.578	14675.79
489.948	14774.31
490.318	15048.88
490.688	15151.71
491.058	15361.19
491.428	15610.9
491.798	15761.18
492.168	16178.35
492.538	16189.42
492.908	16368.17
493.278	16667.37
493.648	16655.62
494.017	16930.87
494.387	16998.89
494.757	17184.65
495.126	17380.35
495.496	17478.88
495.866	17613.34
496.235	17843.16
496.605	17972.2
496.974	18085.64
497.344	18347.33
497.713	18437.72
498.082	18672.74
498.452	18867.09
498.821	19051.04
499.19	19101.88
499.559	19258.26
499.928	19364.02
500.298	19502.1
500.667	19629.55
501.036	19689.67
501.405	19941.41
501.774	19970.11
502.143	20191.8
502.512	20201.06
502.88	20532.36
503.249	20537.78
503.618	20698.9
503.987	20860.93
504.356	21045.11
504.724	21171.89
505.093	21310.41
505.462	21497.3
505.83	21732.55
506.199	21803.96
506.567	22089.15
506.936	22062.03
507.304	22187.91
507.672	22273.78
508.041	22512.87
508.409	22498.86
508.777	22720.77
509.145	22878.51
509.514	22993.53
509.882	23230.14
510.25	23180.65
510.618	23492.28
510.986	23702.67
511.354	23971.81
511.722	24306.27
512.09	24405.47
512.458	24407.51
512.826	24706.71
513.193	24794.84
513.561	24892.47
513.929	25054.72
514.297	25151.22
514.664	25308.73
515.032	25417.42
515.4	25618.32
515.767	25697.87
516.135	25887.7
516.502	25922.27
516.869	26484.97
517.237	26527.9
517.604	26466.66
517.972	27014.67
518.339	27189.81
518.706	27280.65
519.073	27503.92
519.44	27768.32
519.808	28115.66
520.175	28073.63
520.542	28483.11
520.909	28502.99
521.276	28562.43
521.643	28639.04
522.009	28776.88
522.376	29126.48
522.743	29232.01
523.11	29533.25
523.477	29692.34
523.843	29919.91
524.21	30398.31
524.577	30582.26
524.943	30846.21
525.31	31019.31
525.676	31403.48
526.043	31608.9
526.409	31917.37
526.776	32206.85
527.142	32343.57
527.508	32643
527.874	32704.69
528.241	32908.98
528.607	32911.24
528.973	33082.31
529.339	33013.84
529.705	33376.09
530.071	33559.13
530.437	33642.75
530.803	33961.83
531.169	34222.39
531.535	34362.27
531.901	34471.65
532.267	34829.15
532.632	35185.76
532.998	35490.15
533.364	35718.17
533.73	35789.58
534.095	36147.76
534.461	36150.25
534.826	36378.72
535.192	36433.41
535.557	36544.14
535.923	36526.96
536.288	36546.17
536.653	36589.33
537.019	36548.66
537.384	36698.48
537.749	36866.39
538.114	37069.1
538.479	37135.31
538.845	37342.99
539.21	37412.82
539.575	37750.21
539.94	37898
540.305	38314.03
540.67	38241.49
541.034	38631.31
541.399	38830.41
541.764	38841.25
542.129	38926.67
542.494	39226.33
542.858	39280.79
543.223	39148.14
543.587	39278.98
543.952	39162.15
544.316	39260.9
544.681	39202.37
545.045	39285.08
545.41	39492.08
545.774	39500.67
546.138	39589.03
546.503	39738.63
546.867	39830.38
547.231	40208.22
547.595	40247.09
547.959	40564.15
548.324	40675.78
548.688	40855.66
549.052	41273.51
549.416	41265.82
549.779	41384.91
550.143	41416.78
550.507	41660.16
550.871	41695.64
551.235	41547.62
551.599	41701.06
551.962	41717.79
552.326	41829.42
552.689	41686.15
553.053	41708.52
553.417	41894.05
553.78	42258.56
554.143	42104.67
554.507	42287.26
554.87	42505.11
555.234	42884.99
555.597	42726.35
555.96	43172.66
556.323	43381.47
556.686	43561.81
557.05	43819.43
557.413	44059.42
557.776	44236.82
558.139	44517.49
558.502	44437.26
558.865	44601.33
559.228	44696.24
559.59	44783.47
559.953	44752.96
560.316	44930.36
560.679	44884.48
561.041	44976.01
561.404	45138.04
561.767	45349.33
562.129	45100.3
562.492	45614.86
562.854	45695.99
563.217	45589.32
563.579	45994.74
563.941	46247.61
564.304	46472.46
564.666	46787.48
565.028	46944.99
565.39	47180.92
565.753	47511.08
566.115	47672.88
566.477	47737.29
566.839	47864.07
567.201	48092.31
567.563	48027.9
567.925	48236.49
568.287	48325.75
568.648	48125.3
569.01	48273.1
569.372	48295.24
569.734	48124.4
570.095	48249.37
570.457	48404.39
570.819	48465.41
571.18	48511.96
571.542	48698.39
571.903	48781.56
572.265	49137.93
572.626	49348.55
572.987	49399.62
573.349	49757.35
573.71	49920.28
574.071	50126.15
574.432	50249.31
574.794	50479.36
575.155	50395.75
575.516	50223.55
575.877	50492.02
576.238	50513.04
576.599	50630.55
576.96	50529.53
577.32	50552.36
577.681	50689.98
578.042	50629.19
578.403	50585.8
578.763	50499.93
579.124	50670.09
579.485	50684.33
579.845	50852.01
580.206	50697.21
580.566	50764.33
580.927	50747.61
581.287	50965.45
581.648	51019.01
582.008	51256.52
582.368	51345.56
582.728	51468.27
583.089	51492.45
583.449	51479.56
583.809	51694.7
584.169	51677.75
584.529	51603.18
584.889	51915.71
585.249	51676.62
585.609	51466.23
585.969	51740.12
586.329	51534.25
586.688	51548.04
587.048	51483.41
587.408	51333.58
587.768	51324.99
588.127	51222.85
588.487	51230.08
588.846	51437.53
589.206	51181.04
589.565	51291.32
589.925	51328.61
590.284	51326.35
590.643	51444.31
591.003	51493.12
591.362	51615.38
591.721	51653.57
592.08	51792.32
592.44	51795.26
592.799	51866.45
593.158	51906.9
593.517	51854.7
593.876	52046.56
594.235	51975.37
594.593	52068.02
594.952	52047.69
595.311	51883.17
595.67	51937.63
596.029	52068.25
596.387	51937.86
596.746	51921.13
597.104	51805.21
597.463	51690.86
597.822	51866.9
598.18	51749.16
598.538	51766.79
598.897	51866
599.255	51609.96
599.613	52064.41
599.972	51771.53
600.33	51995.26
600.688	51959.55
601.046	52160.9
601.404	52284.74
601.762	52216.04
602.12	52512.98
602.478	52527.22
602.836	52597.5
603.194	52486.09
603.552	52649.03
603.91	52432.99
604.268	52674.11
604.625	52522.02
604.983	52595.47
605.341	52359.32
605.698	52507.79
606.056	52522.7
606.413	52518.18
606.771	52618.97
607.128	52442.7
607.485	52331.29
607.843	52415.13
608.2	52644.96
608.557	52736.93
608.914	52447.45
609.272	52682.47
609.629	52652.19
609.986	52776.25
610.343	52646.77
610.7	52842.69
611.057	52895.8
611.414	52906.19
611.771	52964.72
612.127	53169.46
612.484	53218.73
612.841	53263.7
613.198	53270.93
613.554	53397.93
613.911	53399.06
614.267	53391.15
614.624	53477.25
614.98	53528.78
615.337	53600.41
615.693	53481.32
616.05	53418.72
616.406	53618.04
616.762	53443.13
617.118	53394.99
617.475	53328.78
617.831	53399.29
618.187	53455.56
618.543	53397.93
618.899	53520.87
619.255	53476.35
619.611	53406.75
619.967	53595.89
620.323	53564.26
620.678	53460.76
621.034	53475.22
621.39	53544.82
621.746	53451.72
622.101	53758.37
622.457	53700.75
622.812	53776.91
623.168	53838.37
623.523	53832.95
623.879	53960.63
624.234	53793.63
624.589	53930.8
624.945	54021.64
625.3	54080.63
625.655	53953.62
626.01	54132.15
626.365	53912.04
626.72	53970.35
627.075	53862.33
627.43	53860.29
627.785	53711.37
628.14	53736.45
628.495	53651.48
628.85	53588.89
629.205	53503.47
629.559	53664.37
629.914	53541.21
630.269	53459.17
630.623	53340.53
630.978	53397.71
631.332	53457.14
631.687	53545.72
632.041	53519.28
632.396	53482.9
632.75	53468.21
633.104	53465.95
633.459	53425.5
633.813	53456.69
634.167	53493.07
634.521	53435.67
634.875	53372.85
635.229	53405.62
635.583	53350.7
635.937	53462.11
636.291	53431.6
636.645	53396.35
636.999	53326.52
637.352	53390.7
637.706	53250.59
638.06	53318.16
638.413	53165.17
638.767	53065.74
639.121	53102.35
639.474	52768.57
639.828	52751.4
640.181	52775.35
640.534	52662.13
640.888	52535.81
641.241	52378.07
641.594	52468.69
641.947	52433.66
642.301	52430.73
642.654	52525.19
643.007	52396.83
643.36	52431.4
643.713	52372.87
644.066	52448.35
644.419	52210.84
644.771	52344.17
645.124	52154.57
645.477	52240
645.83	52060.11
646.182	51786
646.535	51519.79
646.888	51567.47
647.24	51304.43
647.593	51512.33
647.945	51380.36
648.298	51299.91
648.65	51067.82
649.002	51218.78
649.355	51237.76
649.707	51263.52
650.059	51440.92
650.411	51794.58
650.763	51924.98
651.115	52086.78
651.467	51802.27
651.819	51720.01
652.171	51642.72
652.523	51591.43
652.875	51527.92
653.227	51428.27
653.578	51665.55
653.93	51614.93
654.282	51341.49
654.633	51178.56
654.985	51235.73
655.337	51352.34
655.688	51399.57
656.039	51473.69
656.391	51151.21
656.742	51396.63
657.094	51330.19
657.445	51654.48
657.796	51693.12
658.147	51716.85
658.498	51602.73
658.849	51720.46
659.2	51582.61
659.551	51574.25
659.902	51770.4
660.253	51620.8
660.604	51786.9
660.955	51495.61
661.306	51693.34
661.656	51569.28
662.007	51475.04
662.358	51471.2
662.708	51358.89
663.059	51364.31
663.409	51030.31
663.76	51329.29
664.11	51155.96
664.461	51109.63
664.811	50969.07
665.161	50852.46
665.511	50939.47
665.862	50904.89
666.212	50940.14
666.562	50960.03
666.912	50969.3
667.262	50835.97
667.612	50899.01
667.962	51049.97
668.312	50998.9
668.662	51160.93
669.011	51044.55
669.361	51096.52
669.711	51134.94
670.06	51063.08
670.41	51116.41
670.76	51156.41
671.109	51216.75
671.459	51119.12
671.808	51067.82
672.157	51217.2
672.507	51018.11
672.856	51074.38
673.205	51072.12
673.554	51139.69
673.904	50965.68
674.253	51148.5
674.602	50938.34
674.951	50369.31
675.3	50109.21
675.649	50546.48
675.998	50372.93
676.346	50351.68
676.695	50273.27
677.044	50117.79
677.393	50168.19
677.741	50050.45
678.09	49995.76
678.438	49741.08
678.787	49901.3
679.135	49847.52
679.484	49633.29
679.832	49806.39
680.181	49689.1
680.529	49829.66
680.877	49692.94
681.225	49682.55
681.573	49939.49
681.922	49846.16
682.27	49819.27
682.618	49913.28
682.966	49881.19
683.314	49902.2
683.661	49670.8
684.009	49740.18
684.357	49623.12
684.705	49643.91
685.053	49744.47
685.4	49726.39
685.748	49536.11
686.095	49431.71
686.443	49346.74
686.79	49210.25
687.138	49217.7
687.485	49151.94
687.832	48885.96
688.18	48932.51
688.527	48557.61
688.874	48417.72
689.221	48431.96
689.568	48174.34
689.915	48044.85
690.262	47803.28
690.609	47747.46
690.956	47535.94
691.303	47535.94
691.65	47318.32
691.997	47273.35
692.344	46889.63
692.69	46905.45
693.037	46908.61
693.383	46587.26
693.73	46841.95
694.077	46699.13
694.423	46783.19
694.769	46575.96
695.116	46634.49
695.462	46554.72
695.808	46555.85
696.155	46770.54
696.501	46484.89
696.847	46531.22
697.193	46333.94
697.539	46263.88
697.885	46164.45
698.231	46128.97
698.577	46024.79
698.923	46090.1
699.269	45798.58
699.614	45492.83
699.96	45320.18
700.306	45440.18
700.651	45228.88
700.997	44921.09
701.342	44619.41
701.688	44493.76
702.033	44369.47
702.379	44278.17
702.724	44121.57
703.069	44206.76
703.415	43620.56
703.76	43535.82
704.105	43314.13
704.45	43148.71
704.795	42910.75
705.14	42865.55
705.485	42667.37
705.83	42658.33
706.175	42719.12
706.52	42633.47
706.865	42537.43
707.209	42537.43
707.554	42451.78
707.899	42463.3
708.243	42359.8
708.588	42325.45
708.932	42183.54
709.277	42222.63
709.621	42247.49
709.966	42120.26
710.31	42425.11
710.654	41996.42
710.998	42160.94
711.342	42185.8
711.687	42011.79
712.031	41858.57
712.375	41746.49
712.719	41815.86
713.063	41653.38
713.407	41743.55
713.75	41485.7
714.094	41435.99
714.438	41361.19
714.782	41172.49
715.125	41171.13
715.469	40981.31
715.812	40788.32
716.156	40351.95
716.499	40410.48
716.843	40403.47
717.186	40088.9
717.53	40221.56
717.873	40003.71
718.216	39678.07
718.559	39733.88
718.902	39501.35
719.246	39607.79
719.589	39541.35
719.932	39380.45
720.275	39330.05
720.617	39390.84
720.96	39300.68
721.303	39375.7
721.646	39463.16
721.989	39213.67
722.331	39263.39
722.674	39251.64
723.016	39347.23
723.359	39441.01
723.701	39533.44
724.044	39328.02
724.386	39136.16
724.729	39491.18
725.071	39243.05
725.413	39288.92
725.755	39359.66
726.097	39274.69
726.439	39198.08
726.782	39142.94
727.124	39195.14
727.465	38964.87
727.807	38944.53
728.149	38761.71
728.491	38732.1
728.833	38764.42
729.175	38546.12
729.516	38559.45
729.858	38363.3
730.199	38437.65
730.541	38241.27
730.882	38250.99
731.224	38272.45
731.565	38008.96
731.906	37952.46
732.248	37958.34
732.589	37698.23
732.93	37537.78
733.271	37585.69
733.612	37677.44
733.953	37606.48
734.294	37442.19
734.635	37394.51
734.976	37521.06
735.317	37406.26
735.658	37395.87
735.999	37448.75
736.339	37522.64
736.68	37625.92
737.021	37498.01
737.361	37388.41
737.702	37686.03
738.042	37559.93
738.383	37613.94
738.723	37655.52
739.063	37596.54
739.404	37726.48
739.744	37683.32
740.084	37622.53
740.424	37832.69
740.764	37745.01
741.104	37949.52
741.444	37658.01
741.784	37608.06
742.124	37845.57
742.464	37601.06
742.804	37818.68
743.143	37587.5
743.483	37565.35
743.823	37359.48
744.162	37496.2
744.502	37475.86
744.841	37139.6
745.181	37338.92
745.52	37044.24
745.86	37186.16
746.199	36997.46
746.538	37083.56
746.877	37161.75
747.216	37197.23
747.556	37045.37
747.895	36946.16
748.234	36765.15
748.573	36855.99
748.911	36741.65
749.25	36748.65
749.589	36632.95
749.928	36712.5
750.267	36714.75
750.605	36846.28
750.944	36637.92
751.283	36735.09
751.621	36809.67
751.96	36589.11
752.298	36874.52
752.636	36918.59
