Data from blue_chair_FLMS001491_00074.txt Node
Date: Wed Feb 08 10:31:44 GMT 2017
User: dcchb
Spectrometer: FLMS00149
Trigger mode: 0
Integration Time (sec): 2.000000E-2
Scans to average: 10
Electric dark correction enabled: true
Nonlinearity correction enabled: false
Boxcar width: 0
XAxis mode: Wavelengths
Number of Pixels in Spectrum: 2048
>>>>>Begin Spectral Data<<<<<
341.393	-5.8
341.776	-5.8
342.16	-5.8
342.543	-34.96
342.927	-58.68
343.31	-56.88
343.693	-71.34
344.077	-63.43
344.46	-63.2
344.843	-69.31
345.226	-39.93
345.61	-35.86
345.993	-6.26
346.376	4.36
346.759	23.35
347.142	30.8
347.525	42.56
347.908	63.35
348.291	62.22
348.674	79.84
349.057	99.73
349.44	126.17
349.823	130.91
350.206	168.65
350.588	168.43
350.971	172.95
351.354	198.71
351.737	226.96
352.119	246.62
352.502	255.21
352.884	247.3
353.267	260.18
353.65	278.48
354.032	270.57
354.414	284.13
354.797	283
355.179	274.41
355.562	303.79
355.944	310.34
356.326	323
356.709	323
357.091	293.62
357.473	311.25
357.855	313.06
358.238	315.09
358.62	318.48
359.002	296.33
359.384	309.67
359.766	327.52
360.148	299.95
360.53	301.98
360.912	303.34
361.294	331.36
361.676	334.07
362.057	315.32
362.439	311.7
362.821	305.6
363.203	308.76
363.584	309.44
363.966	312.6
364.348	307.18
364.729	295.88
365.111	309.89
365.493	308.31
365.874	301.08
366.256	290.23
366.637	300.85
367.019	303.34
367.4	279.39
367.781	294.75
368.163	287.52
368.544	292.04
368.925	281.19
369.306	301.76
369.688	297.69
370.069	279.39
370.45	305.37
370.831	284.58
371.212	252.27
371.593	277.8
371.974	283.9
372.355	283.68
372.736	271.93
373.117	297.01
373.498	294.3
373.879	289.1
374.26	284.58
374.641	300.85
375.021	276.45
375.402	292.04
375.783	307.41
376.163	285.94
376.544	293.4
376.925	290.68
377.305	284.81
377.686	297.24
378.066	285.49
378.447	276.67
378.827	296.56
379.208	286.62
379.588	287.52
379.968	296.56
380.349	284.13
380.729	289.1
381.109	303.79
381.489	301.98
381.87	304.02
382.25	307.86
382.63	308.54
383.01	317.12
383.39	296.11
383.77	313.96
384.15	299.5
384.53	282.1
384.91	309.22
385.29	304.24
385.67	312.6
386.049	286.39
386.429	304.47
386.809	299.72
387.189	309.44
387.568	295.88
387.948	279.84
388.328	310.12
388.707	308.99
389.087	310.34
389.466	291.14
389.846	320.29
390.225	301.53
390.605	315.09
390.984	317.58
391.363	304.24
391.743	301.08
392.122	323.23
392.501	298.82
392.881	314.64
393.26	311.25
393.639	324.36
394.018	294.53
394.397	330.68
394.776	318.48
395.155	304.47
395.534	325.03
395.913	345.82
396.292	323.23
396.671	311.25
397.05	322.77
397.429	316.67
397.808	332.27
398.186	320.51
398.565	306.28
398.944	334.98
399.323	319.61
399.701	337.69
400.08	331.81
400.458	334.3
400.837	354.41
401.215	334.98
401.594	318.48
401.972	351.93
402.351	362.77
402.729	345.37
403.107	354.86
403.486	348.08
403.864	349.67
404.242	326.62
404.62	352.83
404.999	348.76
405.377	335.88
405.755	372.26
406.133	348.76
406.511	359.38
406.889	363
407.267	344.47
407.645	356.22
408.023	341.98
408.401	363
408.779	349.21
409.156	356.22
409.534	366.16
409.912	374.75
410.29	364.58
410.667	368.65
411.045	379.5
411.422	367.74
411.8	381.76
412.178	374.07
412.555	370.46
412.933	391.7
413.31	376.11
413.687	381.3
414.065	372.04
414.442	398.25
414.819	382.89
415.197	394.86
415.574	390.79
415.951	380.63
416.328	388.99
416.705	405.03
417.082	383.56
417.46	361.87
417.837	369.33
418.214	400.29
418.591	381.3
418.967	398.48
419.344	389.44
419.721	402.32
420.098	407.74
420.475	387.41
420.852	411.36
421.228	405.94
421.605	397.57
421.982	429.44
422.358	428.31
422.735	420.4
423.111	431.92
423.488	418.82
423.864	444.13
424.241	419.49
424.617	424.92
424.994	409.33
425.37	426.05
425.746	444.35
426.123	435.77
426.499	437.12
426.875	446.61
427.251	450.91
427.627	438.48
428.003	454.07
428.379	468.08
428.756	478.48
429.132	458.36
429.507	463.34
429.883	446.39
430.259	457.46
430.635	471.7
431.011	472.6
431.387	473.05
431.763	478.7
432.138	468.98
432.514	487.97
432.89	480.28
433.265	493.62
433.641	496.1
434.016	488.19
434.392	516.89
434.767	521.86
435.143	495.88
435.518	485.71
435.894	530.23
436.269	527.74
436.644	541.53
437.02	533.62
437.395	545.37
437.77	552.15
438.145	542.43
438.52	569.1
438.895	565.71
439.271	550.56
439.646	571.58
440.021	569.77
440.395	572.71
440.77	593.95
441.145	600.51
441.52	582.43
441.895	578.13
442.27	600.96
442.645	598.7
443.019	606.16
443.394	626.49
443.769	617
444.143	609.09
444.518	615.42
444.892	618.59
445.267	615.87
445.641	635.99
446.016	628.98
446.39	631.24
446.764	639.83
447.139	642.31
447.513	656.78
447.887	636.66
448.262	640.51
448.636	647.29
449.01	645.7
449.384	678.02
449.758	662.88
450.132	659.94
450.506	652.26
450.88	674.86
451.254	660.39
451.628	647.51
452.002	680.96
452.376	690
452.75	703.1
453.123	680.96
453.497	704.68
453.871	705.36
454.244	723.67
454.618	679.83
454.992	695.42
455.365	701.75
455.739	713.05
456.112	743.1
456.486	753.05
456.859	747.17
457.232	732.25
457.606	743.55
457.979	756.89
458.352	762.31
458.725	747.62
459.099	778.13
459.472	750.79
459.845	760.05
460.218	776.77
460.591	805.25
460.964	774.74
461.337	786.49
461.71	781.29
462.083	798.69
462.456	789.88
462.829	792.37
463.201	776.1
463.574	798.47
463.947	832.82
464.32	834.17
464.692	843.66
465.065	821.07
465.438	850.22
465.81	868.3
466.183	865.81
466.555	877.11
466.928	876.43
467.3	875.53
467.672	880.73
468.045	885.25
468.417	880.5
468.789	912.81
469.161	887.05
469.534	910.1
469.906	899.48
470.278	913.94
470.65	910.56
471.022	944.45
471.394	958.69
471.766	969.54
472.138	946.26
472.51	956.2
472.882	963.21
473.253	977.67
473.625	962.53
473.997	990.1
474.369	990.33
474.74	982.42
475.112	1013.83
475.484	1006.82
475.855	1012.02
476.227	1025.81
476.598	1036.43
476.97	1032.81
477.341	1032.36
477.713	1065.13
478.084	1073.71
478.455	1098.57
478.827	1106.03
479.198	1108.97
479.569	1108.29
479.94	1090.44
480.311	1137.22
480.682	1147.39
481.053	1142.19
481.424	1182.19
481.795	1158.01
482.166	1193.49
482.537	1144.45
482.908	1195.07
483.279	1181.28
483.65	1190.32
484.021	1202.07
484.391	1222.86
484.762	1226.48
485.133	1221.28
485.503	1245.46
485.874	1268.51
486.244	1246.82
486.615	1255.4
486.985	1237.33
487.356	1305.35
487.726	1269.42
488.097	1280.26
488.467	1302.41
488.837	1300.15
489.207	1303.31
489.578	1309.64
489.948	1334.5
490.318	1336.31
490.688	1329.98
491.058	1356.87
491.428	1335.63
491.798	1374.27
492.168	1352.13
492.538	1357.78
492.908	1356.87
493.278	1372.01
493.648	1374.05
494.017	1367.27
494.387	1381.05
494.757	1362.75
495.126	1374.05
495.496	1372.01
495.866	1383.99
496.235	1361.84
496.605	1357.55
496.974	1392.58
497.344	1387.15
497.713	1363.2
498.082	1364.1
498.452	1362.29
498.821	1366.81
499.19	1372.01
499.559	1389.19
499.928	1371.33
500.298	1372.46
500.667	1387.6
501.036	1364.78
501.405	1349.19
501.774	1388.06
502.143	1368.62
502.512	1365.01
502.88	1379.92
503.249	1374.05
503.618	1358.23
503.987	1350.09
504.356	1374.5
504.724	1398.45
505.093	1363.2
505.462	1332.01
505.83	1360.26
506.199	1356.42
506.567	1386.7
506.936	1361.84
507.304	1357.55
507.672	1378.79
508.041	1372.69
508.409	1366.36
508.777	1372.01
509.145	1373.37
509.514	1363.42
509.882	1347.38
510.25	1341.73
510.618	1331.56
510.986	1343.31
511.354	1349.19
511.722	1349.19
512.09	1369.98
512.458	1334.72
512.826	1333.82
513.193	1327.95
513.561	1313.03
513.929	1316.87
514.297	1347.38
514.664	1330.66
515.032	1329.08
515.4	1332.24
515.767	1336.31
516.135	1318.45
516.502	1312.35
516.869	1309.87
517.237	1316.42
517.604	1284.78
517.972	1306.93
518.339	1293.14
518.706	1293.37
519.073	1301.28
519.44	1296.53
519.808	1292.69
520.175	1285.01
520.542	1285.91
520.909	1283.2
521.276	1246.59
521.643	1302.18
522.009	1299.7
522.376	1271.45
522.743	1269.64
523.11	1268.74
523.477	1280.71
523.843	1267.61
524.21	1316.87
524.577	1292.24
524.943	1259.92
525.31	1262.64
525.676	1285.46
526.043	1286.59
526.409	1242.75
526.776	1283.2
527.142	1252.69
527.508	1290.21
527.874	1267.61
528.241	1266.93
528.607	1280.71
528.973	1280.49
529.339	1296.31
529.705	1261.96
530.071	1276.2
530.437	1242.07
530.803	1280.94
531.169	1265.8
531.535	1256.76
531.901	1257.21
532.267	1242.75
532.632	1269.42
532.998	1256.53
533.364	1256.53
533.73	1230.32
534.095	1255.18
534.461	1269.19
534.826	1236.65
535.192	1246.14
535.557	1241.17
535.923	1230.09
536.288	1240.49
536.653	1263.77
537.019	1279.36
537.384	1226.25
537.749	1231.45
538.114	1241.85
538.479	1212.24
538.845	1254.27
539.21	1228.06
539.575	1226.48
539.94	1209.76
540.305	1210.43
540.67	1224.45
541.034	1244.56
541.399	1221.51
541.764	1228.74
542.129	1234.84
542.494	1254.73
542.858	1259.25
543.223	1250.66
543.587	1228.96
543.952	1235.97
544.316	1245.46
544.681	1232.58
545.045	1245.69
545.41	1208.4
545.774	1215.18
546.138	1206.37
546.503	1228.96
546.867	1212.02
547.231	1201.62
547.595	1189.42
547.959	1194.84
548.324	1213.15
548.688	1225.12
549.052	1200.49
549.416	1177.67
549.779	1183.09
550.143	1194.39
550.507	1175.41
550.871	1218.34
551.235	1182.86
551.599	1172.47
551.962	1172.24
552.326	1175.41
552.689	1161.62
553.053	1174.5
553.417	1193.26
553.78	1193.03
554.143	1200.49
554.507	1205.69
554.87	1162.53
555.234	1182.64
555.597	1165.46
555.96	1191
556.323	1182.19
556.686	1167.5
557.05	1183.09
557.413	1180.83
557.776	1171.57
558.139	1167.72
558.502	1201.85
558.865	1153.94
559.228	1170.89
559.59	1183.54
559.953	1166.59
560.316	1185.35
560.679	1180.15
561.041	1148.97
561.404	1178.57
561.767	1182.64
562.129	1201.17
562.492	1188.06
562.854	1190.77
563.217	1181.28
563.579	1203.2
563.941	1178.8
564.304	1181.51
564.666	1194.84
565.028	1188.51
565.39	1211.79
565.753	1185.12
566.115	1203.65
566.477	1201.17
566.839	1184.22
567.201	1203.65
567.563	1198.01
567.925	1196.42
568.287	1181.51
568.648	1176.76
569.01	1201.39
569.372	1206.82
569.734	1198.91
570.095	1234.16
570.457	1211.79
570.819	1221.73
571.18	1222.64
571.542	1210.21
571.903	1222.41
572.265	1245.01
572.626	1220.15
572.987	1240.04
573.349	1238
573.71	1241.85
574.071	1223.77
574.432	1251.34
574.794	1274.61
575.155	1275.07
575.516	1274.61
575.877	1267.38
576.238	1281.84
576.599	1281.39
576.96	1237.55
577.32	1283.2
577.681	1271.45
578.042	1290.66
578.403	1277.33
578.763	1273.03
579.124	1274.39
579.485	1281.62
579.845	1263.54
580.206	1302.41
580.566	1320.26
580.927	1297.21
581.287	1292.92
581.648	1283.65
582.008	1313.93
582.368	1299.25
582.728	1317.78
583.089	1322.3
583.449	1328.62
583.809	1292.24
584.169	1284.1
584.529	1311.67
584.889	1301.28
585.249	1317.1
585.609	1349.19
585.969	1330.88
586.329	1281.39
586.688	1348.06
587.048	1310.32
587.408	1325.46
587.768	1314.39
588.127	1359.13
588.487	1345.8
588.846	1327.72
589.206	1344.67
589.565	1307.61
589.925	1320.26
590.284	1336.98
590.643	1317.32
591.003	1309.19
591.362	1327.04
591.721	1331.79
592.08	1326.36
592.44	1331.34
592.799	1325.23
593.158	1331.56
593.517	1313.48
593.876	1323.2
594.235	1347.38
594.593	1306.48
594.952	1317.32
595.311	1291.56
595.67	1312.35
596.029	1312.58
596.387	1329.75
596.746	1309.19
597.104	1317.1
597.463	1305.57
597.822	1337.21
598.18	1327.49
598.538	1345.35
598.897	1316.42
599.255	1323.88
599.613	1322.07
599.972	1333.37
600.33	1373.37
600.688	1313.26
601.046	1325.01
601.404	1318.23
601.762	1306.93
602.12	1312.58
602.478	1330.43
602.836	1328.4
603.194	1325.91
603.552	1355.06
603.91	1318.68
604.268	1324.56
604.625	1326.59
604.983	1334.27
605.341	1319.58
605.698	1325.23
606.056	1332.46
606.413	1289.08
606.771	1319.81
607.128	1322.52
607.485	1316.87
607.843	1343.54
608.2	1356.19
608.557	1337.21
608.914	1323.65
609.272	1320.71
609.629	1331.56
609.986	1325.01
610.343	1331.56
610.7	1360.26
611.057	1320.04
611.414	1356.65
611.771	1329.08
612.127	1343.31
612.484	1327.49
612.841	1324.56
613.198	1346.02
613.554	1333.82
613.911	1345.12
614.267	1351.67
614.624	1328.4
614.98	1355.97
615.337	1340.83
615.693	1346.25
616.05	1315.06
616.406	1377.21
616.762	1327.04
617.118	1337.66
617.475	1331.79
617.831	1325.23
618.187	1322.52
618.543	1351.22
618.899	1343.76
619.255	1325.46
619.611	1351.45
619.967	1357.55
620.323	1353.03
620.678	1353.71
621.034	1372.24
621.39	1357.78
621.746	1340.83
622.101	1372.01
622.457	1335.18
622.812	1342.41
623.168	1353.26
623.523	1347.61
623.879	1352.58
624.234	1357.1
624.589	1366.59
624.945	1360.49
625.3	1361.16
625.655	1334.27
626.01	1360.71
626.365	1351
626.72	1354.61
627.075	1356.19
627.43	1351.22
627.785	1340.83
628.14	1329.75
628.495	1362.29
628.85	1327.72
629.205	1327.27
629.559	1377.89
629.914	1331.79
630.269	1359.13
630.623	1341.73
630.978	1360.71
631.332	1397.77
631.687	1368.4
632.041	1344.44
632.396	1374.5
632.75	1350.77
633.104	1359.58
633.459	1357.1
633.813	1354.39
634.167	1358.45
634.521	1364.55
634.875	1343.76
635.229	1367.04
635.583	1359.81
635.937	1374.27
636.291	1335.85
636.645	1350.09
636.999	1350.32
637.352	1367.49
637.706	1371.79
638.06	1376.98
638.413	1339.7
638.767	1369.07
639.121	1380.15
639.474	1376.31
639.828	1347.83
640.181	1358.45
640.534	1361.39
640.888	1363.88
641.241	1391.45
641.594	1351.45
641.947	1375.18
642.301	1382.86
642.654	1367.04
643.007	1367.27
643.36	1340.83
643.713	1368.4
644.066	1352.35
644.419	1349.41
644.771	1350.54
645.124	1331.56
645.477	1351.9
645.83	1333.82
646.182	1356.19
646.535	1331.11
646.888	1357.32
647.24	1342.41
647.593	1384.44
647.945	1365.91
648.298	1323.43
648.65	1326.36
649.002	1345.12
649.355	1354.61
649.707	1363.65
650.059	1350.54
650.411	1375.18
650.763	1409.07
651.115	1360.49
651.467	1373.59
651.819	1383.99
652.171	1375.4
652.523	1409.53
652.875	1393.48
653.227	1360.71
653.578	1384.44
653.93	1401.39
654.282	1404.78
654.633	1381.73
654.985	1409.53
655.337	1412.01
655.688	1397.1
656.039	1405.68
656.391	1428.51
656.742	1396.64
657.094	1389.41
657.445	1405.01
657.796	1415.17
658.147	1418.11
658.498	1393.25
658.849	1404.33
659.2	1386.02
659.551	1431.67
659.902	1401.16
660.253	1415.85
660.604	1414.27
660.955	1419.47
661.306	1408.17
661.656	1426.25
662.007	1413.14
662.358	1423.76
662.708	1398.45
663.059	1416.53
663.409	1424.67
663.76	1410.43
664.11	1421.28
664.461	1405.68
664.811	1406.14
665.161	1434.61
665.511	1398.9
665.862	1417.66
666.212	1443.65
666.562	1407.49
666.912	1406.59
667.262	1415.17
667.612	1465.34
667.962	1409.75
668.312	1397.32
668.662	1422.18
669.011	1435.06
669.361	1406.81
669.711	1407.49
670.06	1388.28
670.41	1407.27
670.76	1397.32
671.109	1397.1
671.459	1407.27
671.808	1392.35
672.157	1425.57
672.507	1402.75
672.856	1374.72
673.205	1418.79
673.554	1403.2
673.904	1373.59
674.253	1403.88
674.602	1389.19
674.951	1398.9
675.3	1391.67
675.649	1387.15
675.998	1384.22
676.346	1399.58
676.695	1383.09
677.044	1389.41
677.393	1378.79
677.741	1378.79
678.09	1377.21
678.438	1372.46
678.787	1373.82
679.135	1352.8
679.484	1361.84
679.832	1370.43
680.181	1358.68
680.529	1369.98
680.877	1360.94
681.225	1351
681.573	1379.7
681.922	1362.29
682.27	1348.74
682.618	1333.82
682.966	1361.39
683.314	1317.78
683.661	1327.27
684.009	1360.26
684.357	1336.08
684.705	1326.82
685.053	1335.63
685.4	1329.08
685.748	1319.81
686.095	1333.37
686.443	1350.54
686.79	1333.37
687.138	1333.14
687.485	1316.42
687.832	1336.53
688.18	1324.78
688.527	1304.44
688.874	1304.9
689.221	1314.16
689.568	1280.04
689.915	1268.74
690.262	1273.48
690.609	1305.8
690.956	1269.42
691.303	1268.51
691.65	1285.23
691.997	1288.85
692.344	1295.86
692.69	1269.42
693.037	1273.48
693.383	1258.12
693.73	1257.44
694.077	1278.91
694.423	1249.3
694.769	1253.15
695.116	1270.32
695.462	1244.78
695.808	1263.99
696.155	1255.86
696.501	1219.93
696.847	1210.66
697.193	1225.35
697.539	1233.48
697.885	1233.94
698.231	1222.64
698.577	1225.58
698.923	1200.49
699.269	1199.81
699.614	1212.24
699.96	1234.61
700.306	1224.45
700.651	1206.37
700.997	1230.55
701.342	1203.43
701.688	1204.56
702.033	1224.67
702.379	1210.66
702.724	1183.32
703.069	1218.12
703.415	1189.19
703.76	1187.38
704.105	1203.65
704.45	1200.04
704.795	1209.3
705.14	1191
705.485	1180.83
705.83	1210.89
706.175	1200.27
706.52	1195.07
706.865	1202.98
707.209	1181.28
707.554	1207.04
707.899	1161.4
708.243	1200.04
708.588	1153.94
708.932	1216.54
709.277	1198.68
709.621	1175.63
709.966	1185.12
710.31	1192.81
710.654	1143.32
710.998	1188.51
711.342	1158.91
711.687	1207.27
712.031	1178.8
712.375	1191.23
712.719	1202.3
713.063	1207.04
713.407	1187.16
713.75	1204.78
714.094	1202.98
714.438	1205.69
714.782	1221.73
715.125	1218.34
715.469	1206.37
715.812	1201.17
716.156	1193.03
716.499	1204.56
716.843	1206.82
717.186	1208.17
717.53	1220.15
717.873	1201.39
718.216	1208.4
718.559	1219.7
718.902	1206.37
719.246	1229.19
719.589	1233.71
719.932	1210.21
720.275	1226.71
720.617	1231
720.96	1214.5
721.303	1253.6
721.646	1248.85
721.989	1262.86
722.331	1266.7
722.674	1250.21
723.016	1262.18
723.359	1263.09
723.701	1265.12
724.044	1247.04
724.386	1282.07
724.729	1292.92
725.071	1274.39
725.413	1272.35
725.755	1282.07
726.097	1287.27
726.439	1278.68
726.782	1288.62
727.124	1308.96
727.465	1295.63
727.807	1288.4
728.149	1339.7
728.491	1302.86
728.833	1329.08
729.175	1338.57
729.516	1347.83
729.858	1328.4
730.199	1355.97
730.541	1335.4
730.882	1361.84
731.224	1358.23
731.565	1364.78
731.906	1394.38
732.248	1358.9
732.589	1397.77
732.93	1397.32
733.271	1379.92
733.612	1357.55
733.953	1401.62
734.294	1414.04
734.635	1386.25
734.976	1427.15
735.317	1422.18
735.658	1458.56
735.999	1459.47
736.339	1430.09
736.68	1496.75
737.021	1470.99
737.361	1501.73
737.702	1482.29
738.042	1494.95
738.383	1526.81
738.723	1516.87
739.063	1515.51
739.404	1551.22
739.744	1583.98
740.084	1560.71
740.424	1597.54
740.764	1610.2
741.104	1600.48
741.444	1609.75
741.784	1635.51
742.124	1645
742.464	1624.21
742.804	1670.54
743.143	1691.33
743.483	1666.24
743.823	1737.2
744.162	1741.72
744.502	1737.2
744.841	1757.54
745.181	1790.76
745.52	1791.21
745.86	1829.4
746.199	1826.24
746.538	1861.94
746.877	1870.76
747.216	1883.18
747.556	1934.93
747.895	1948.72
748.234	1978.78
748.573	2000.02
748.911	2024.88
749.25	2037.98
749.589	2084.31
749.928	2097.64
750.267	2133.57
750.605	2177.41
750.944	2235.94
751.283	2211.76
751.621	2284.08
751.96	2338.99
752.298	2353
752.636	2397.52
752.975	2416.05
753.313	2457.86
753.651	2465.32
753.989	2505.54
754.327	2587.35
754.666	2590.28
755.004	2651.07
755.342	2661.02
755.679	2698.53
756.017	2784.63
756.355	2787.57
756.693	2860.11
757.031	2896.94
757.368	2954.12
757.706	2965.19
758.044	3000.22
758.381	3079.31
758.719	3096.49
759.056	3129.93
759.394	3174.68
759.731	3204.73
760.068	3267.33
760.405	3328.57
760.743	3349.14
761.08	3439.98
761.417	3430.94
761.754	3509.81
762.091	3521.56
762.428	3575.12
762.765	3659.18
763.102	3659.86
763.438	3716.81
763.775	3752.74
764.112	3756.13
764.449	3832.51
764.785	3865.05
765.122	3854.21
765.458	3932.4
765.795	3964.71
766.131	3991.6
766.467	4062.34
766.804	4075.44
767.14	4057.14
767.476	4128.32
767.812	4141.2
768.148	4164.25
768.485	4186.63
768.821	4222.11
769.157	4302.56
769.492	4293.07
769.828	4322.22
770.164	4302.1
770.5	4359.28
770.836	4385.72
771.171	4403.57
771.507	4481.31
771.842	4415.32
772.178	4460.74
