Data from blue_surface_keyboard_FLMS001491_061.txt Node
Date: Tue Feb 07 11:13:28 GMT 2017
User: dcchb
Spectrometer: FLMS00149
Trigger mode: 0
Integration Time (sec): 2.000000E-2
Scans to average: 10
Electric dark correction enabled: true
Nonlinearity correction enabled: false
Boxcar width: 0
XAxis mode: Wavelengths
Number of Pixels in Spectrum: 2048
>>>>>Begin Spectral Data<<<<<
341.393	-3.09
341.776	-3.09
342.16	-3.09
342.543	-52.58
342.927	-67.5
343.31	-75.41
343.693	-69.08
344.077	-60.94
344.46	-69.53
344.843	-64.79
345.226	-52.81
345.61	-26.14
345.993	-10.55
346.376	-13.26
346.759	17.92
347.142	36.68
347.525	34.87
347.908	63.12
348.291	84.81
348.674	85.04
349.057	120.07
349.44	138.6
349.823	159.39
350.206	176.79
350.588	147.86
350.971	202.1
351.354	205.26
351.737	221.08
352.119	226.96
352.502	245.94
352.884	252.49
353.267	270.8
353.65	281.42
354.032	279.61
354.414	304.92
354.797	295.66
355.179	305.15
355.562	288.42
355.944	304.7
356.326	329.33
356.709	309.67
357.091	323.9
357.473	309.44
357.855	308.99
358.238	313.73
358.62	302.44
359.002	326.84
359.384	323.68
359.766	313.51
360.148	317.58
360.53	332.04
360.912	324.81
361.294	303.34
361.676	304.47
362.057	316.9
362.439	296.79
362.821	298.37
363.203	306.05
363.584	290.68
363.966	316.9
364.348	299.5
364.729	304.7
365.111	302.21
365.493	275.32
365.874	287.29
366.256	285.26
366.637	301.53
367.019	288.42
367.4	287.97
367.781	293.62
368.163	283.9
368.544	298.37
368.925	278.48
369.306	297.24
369.688	296.11
370.069	287.75
370.45	284.81
370.831	278.03
371.212	271.7
371.593	295.43
371.974	287.52
372.355	307.63
372.736	283
373.117	296.33
373.498	279.39
373.879	278.03
374.26	288.88
374.641	299.27
375.021	308.09
375.402	290.23
375.783	289.1
376.163	301.08
376.544	295.43
376.925	301.31
377.305	301.53
377.686	290.23
378.066	286.39
378.447	294.75
378.827	309.67
379.208	302.21
379.588	279.84
379.968	273.06
380.349	327.97
380.729	309.22
381.109	306.05
381.489	307.41
381.87	300.63
382.25	303.57
382.63	293.85
383.01	297.24
383.39	293.4
383.77	324.81
384.15	317.35
384.53	302.44
384.91	305.15
385.29	302.66
385.67	311.7
386.049	333.62
386.429	306.28
386.809	337.46
387.189	321.19
387.568	304.02
387.948	304.47
388.328	315.77
388.707	323.45
389.087	312.15
389.466	347.41
389.846	306.96
390.225	310.34
390.605	334.53
390.984	313.06
391.363	296.11
391.743	330.01
392.122	315.54
392.501	327.75
392.881	319.84
393.26	336.78
393.639	316.9
394.018	325.49
394.397	328.88
394.776	320.29
395.155	340.17
395.534	326.84
395.913	318.93
396.292	337.01
396.671	339.72
397.05	341.08
397.429	318.48
397.808	346.95
398.186	320.51
398.565	312.15
398.944	352.15
399.323	343.56
399.701	334.53
400.08	327.07
400.458	333.17
400.837	351.02
401.215	351.7
401.594	348.31
401.972	341.98
402.351	351.25
402.729	362.09
403.107	354.41
403.486	328.65
403.864	355.77
404.242	361.42
404.62	340.17
404.999	338.14
405.377	358.25
405.755	350.57
406.133	355.99
406.511	352.6
406.889	375.88
407.267	346.28
407.645	353.73
408.023	372.49
408.401	361.19
408.779	359.61
409.156	340.85
409.534	374.75
409.912	379.72
410.29	376.33
410.667	379.04
411.045	371.13
411.422	348.08
411.8	378.59
412.178	395.31
412.555	375.65
412.933	365.71
413.31	382.66
413.687	382.66
414.065	392.15
414.442	402.32
414.819	388.31
415.197	391.7
415.574	371.59
415.951	385.6
416.328	373.85
416.705	384.02
417.082	395.31
417.46	394.41
417.837	407.52
418.214	375.2
418.591	404.13
418.967	388.31
419.344	396.67
419.721	398.7
420.098	412.94
420.475	398.25
420.852	398.48
421.228	416.33
421.605	409.78
421.982	431.25
422.358	400.96
422.735	414.52
423.111	414.97
423.488	420.62
423.864	402.09
424.241	407.07
424.617	406.39
424.994	436.22
425.37	413.62
425.746	410.91
426.123	425.14
426.499	438.03
426.875	434.86
427.251	421.75
427.627	432.6
428.003	453.17
428.379	452.04
428.756	435.31
429.132	449.78
429.507	427.63
429.883	446.61
430.259	452.49
430.635	449.1
431.011	464.24
431.387	452.26
431.763	454.3
432.138	465.6
432.514	453.39
432.89	473.28
433.265	468.31
433.641	464.69
434.016	464.92
434.392	489.55
434.767	477.12
435.143	479.38
435.518	486.39
435.894	492.49
436.269	469.66
436.644	490.68
437.02	489.32
437.395	499.49
437.77	494.29
438.145	493.84
438.52	507.4
438.895	495.88
439.271	488.87
439.646	520.28
440.021	513.5
440.395	513.28
440.77	506.72
441.145	530.45
441.52	518.7
441.895	526.84
442.27	536.55
442.645	532.71
443.019	545.59
443.394	516.89
443.769	529.1
444.143	526.84
444.518	533.39
444.892	534.29
445.267	553.5
445.641	536.33
446.016	535.88
446.39	540.4
446.764	541.07
447.139	538.81
447.513	556.67
447.887	561.86
448.262	561.64
448.636	535.42
449.01	551.69
449.384	565.48
449.758	543.56
450.132	574.97
450.506	574.97
450.88	588.76
451.254	570.45
451.628	572.71
452.002	567.51
452.376	582.65
452.75	575.87
453.123	583.56
453.497	597.34
453.871	579.49
454.244	607.96
454.618	608.64
454.992	607.06
455.365	593.05
455.739	615.42
456.112	606.38
456.486	635.99
456.859	616.33
457.232	610.22
457.606	625.59
457.979	619.04
458.352	656.32
458.725	624.91
459.099	644.35
459.472	659.71
459.845	650.22
460.218	671.47
460.591	643.9
460.964	647.96
461.337	619.72
461.71	644.57
462.083	674.18
462.456	672.82
462.829	678.7
463.201	675.08
463.574	686.83
463.947	663.33
464.32	730.9
464.692	716.66
465.065	724.35
465.438	719.6
465.81	732.93
466.183	722.99
466.555	729.77
466.928	735.87
467.3	720.73
467.672	738.58
468.045	770.45
468.417	741.97
468.789	757.34
469.161	727.96
469.534	754.4
469.906	773.38
470.278	768.64
470.65	787.85
471.022	781.07
471.394	801.18
471.766	793.04
472.138	815.19
472.51	793.27
472.882	810.22
473.253	814.29
473.625	829.2
473.997	835.08
474.369	845.92
474.74	871.91
475.112	852.03
475.484	855.42
475.855	904.45
476.227	897.22
476.598	899.26
476.97	889.54
477.341	906.49
477.713	924.34
478.084	937.45
478.455	932.7
478.827	944
479.198	958.46
479.569	973.38
479.94	973.15
480.311	995.75
480.682	977.67
481.053	1020.38
481.424	1003.21
481.795	1020.61
482.166	1028.52
482.537	1020.38
482.908	1039.59
483.279	1063.55
483.65	1056.54
484.021	1089.53
484.391	1066.48
484.762	1111.23
485.133	1111.23
485.503	1135.41
485.874	1113.71
486.244	1120.27
486.615	1128.4
486.985	1122.3
487.356	1157.1
487.726	1153.26
488.097	1152.13
488.467	1183.32
488.837	1177.89
489.207	1205.46
489.578	1223.54
489.948	1230.09
490.318	1207.95
490.688	1221.06
491.058	1233.26
491.428	1259.7
491.798	1216.08
492.168	1274.61
492.538	1252.02
492.908	1255.4
493.278	1300.15
493.648	1296.76
494.017	1252.92
494.387	1287.49
494.757	1309.87
495.126	1308.28
495.496	1332.01
495.866	1313.71
496.235	1334.05
496.605	1324.56
496.974	1324.78
497.344	1354.84
497.713	1341.28
498.082	1355.97
498.452	1354.16
498.821	1353.71
499.19	1344.89
499.559	1363.65
499.928	1369.3
500.298	1361.39
500.667	1354.84
501.036	1352.13
501.405	1387.15
501.774	1386.02
502.143	1390.32
502.512	1377.89
502.88	1410.43
503.249	1381.28
503.618	1395.74
503.987	1384.89
504.356	1423.54
504.724	1418.34
505.093	1402.97
505.462	1420.37
505.83	1409.98
506.199	1421.28
506.567	1406.14
506.936	1391.22
507.304	1412.46
507.672	1445.68
508.041	1444.1
508.409	1431.9
508.777	1430.09
509.145	1465.12
509.514	1418.56
509.882	1433.93
510.25	1445.46
510.618	1440.48
510.986	1470.99
511.354	1446.59
511.722	1486.59
512.09	1478.45
512.458	1455.4
512.826	1488.62
513.193	1486.81
513.561	1453.37
513.929	1496.08
514.297	1462.18
514.664	1474.83
515.032	1496.08
515.4	1495.62
515.767	1487.04
516.135	1515.29
516.502	1468.73
516.869	1501.05
517.237	1513.7
517.604	1515.96
517.972	1496.53
518.339	1517.77
518.706	1506.47
519.073	1528.84
519.44	1514.16
519.808	1527.04
520.175	1546.7
520.542	1545.79
520.909	1520.03
521.276	1553.02
521.643	1522.74
522.009	1527.71
522.376	1561.61
522.743	1536.75
523.11	1551.89
523.477	1546.47
523.843	1560.93
524.21	1529.97
524.577	1570.65
524.943	1567.26
525.31	1585.11
525.676	1575.62
526.043	1597.09
526.409	1593.02
526.776	1588.96
527.142	1572.91
527.508	1577.66
527.874	1586.92
528.241	1635.28
528.607	1620.59
528.973	1616.3
529.339	1612.01
529.705	1594.83
530.071	1638.67
530.437	1613.36
530.803	1643.19
531.169	1639.35
531.535	1651.55
531.901	1620.82
532.267	1644.77
532.632	1624.43
532.998	1640.93
533.364	1625.11
533.73	1657.2
534.095	1645.45
534.461	1636.64
534.826	1659.69
535.192	1651.1
535.557	1679.35
535.923	1647.48
536.288	1668.95
536.653	1636.86
537.019	1636.86
537.384	1670.08
537.749	1650.87
538.114	1648.39
538.479	1621.04
538.845	1674.38
539.21	1641.16
539.575	1655.17
539.94	1643.87
540.305	1653.13
540.67	1646.36
541.034	1661.95
541.399	1666.02
541.764	1664.66
542.129	1649.52
542.494	1630.76
542.858	1682.29
543.223	1657.43
543.587	1652.46
543.952	1668.05
544.316	1678.22
544.681	1644.55
545.045	1671.44
545.41	1650.65
545.774	1704.21
546.138	1668.73
546.503	1652
546.867	1653.13
547.231	1685.22
547.595	1682.29
547.959	1680.48
548.324	1687.71
548.688	1667.82
549.052	1687.48
549.416	1678.22
549.779	1698.11
550.143	1688.16
550.507	1706.92
550.871	1661.27
551.235	1675.05
551.599	1687.48
551.962	1673.7
552.326	1710.53
552.689	1671.89
553.053	1689.07
553.417	1677.09
553.78	1700.59
554.143	1693.81
554.507	1709.63
554.87	1712.34
555.234	1715.28
555.597	1698.78
555.96	1720.25
556.323	1711.66
556.686	1701.95
557.05	1695.39
557.413	1710.53
557.776	1682.06
558.139	1710.76
558.502	1744.21
558.865	1726.13
559.228	1712.79
559.59	1720.93
559.953	1739.23
560.316	1741.95
560.679	1702.62
561.041	1735.84
561.404	1706.01
561.767	1765.45
562.129	1734.26
562.492	1757.54
562.854	1730.42
563.217	1747.82
563.579	1764.32
563.941	1755.05
564.304	1753.92
564.666	1768.84
565.028	1754.83
565.39	1772.23
565.753	1757.09
566.115	1789.63
566.477	1741.49
566.839	1761.83
567.201	1802.51
567.563	1816.07
567.925	1783.75
568.287	1775.84
568.648	1769.52
569.01	1808.84
569.372	1793.47
569.734	1800.93
570.095	1815.62
570.457	1790.08
570.819	1792.11
571.18	1760.7
571.542	1807.25
571.903	1812.9
572.265	1807.48
572.626	1819.01
572.987	1834.15
573.349	1822.4
573.71	1830.3
574.071	1844.77
574.432	1831.66
574.794	1845.45
575.155	1835.95
575.516	1842.06
575.877	1835.95
576.238	1846.58
576.599	1864.65
576.96	1821.49
577.32	1856.97
577.681	1818.78
578.042	1824.43
578.403	1840.93
578.763	1864.43
579.124	1855.84
579.485	1844.77
579.845	1854.71
580.206	1830.98
580.566	1842.51
580.927	1871.89
581.287	1861.49
581.648	1859.23
582.008	1883.41
582.368	1874.37
582.728	1849.06
583.089	1873.47
583.449	1874.6
583.809	1851.55
584.169	1849.51
584.529	1862.39
584.889	1852.9
585.249	1899.46
585.609	1888.83
585.969	1879.8
586.329	1840.47
586.688	1901.72
587.048	1861.72
587.408	1859
587.768	1857.2
588.127	1856.52
588.487	1847.48
588.846	1885.44
589.206	1863.52
589.565	1862.85
589.925	1874.82
590.284	1884.77
590.643	1892.9
591.003	1870.98
591.362	1902.85
591.721	1882.06
592.08	1939.23
592.44	1904.43
592.799	1888.61
593.158	1878.44
593.517	1916.4
593.876	1906.46
594.235	1872.56
594.593	1884.77
594.952	1911.21
595.311	1899.91
595.67	1920.47
596.029	1899.23
596.387	1922.28
596.746	1904.65
597.104	1907.37
597.463	1905.78
597.822	1892.45
598.18	1899
598.538	1882.51
598.897	1929.06
599.255	1904.43
599.613	1904.43
599.972	1899.46
600.33	1926.35
600.688	1900.13
601.046	1926.8
601.404	1931.77
601.762	1931.77
602.12	1920.7
602.478	1925.22
602.836	1938.55
603.194	1934.03
603.552	1931.55
603.91	1925.44
604.268	1939
604.625	1941.94
604.983	1965.89
605.341	1950.3
605.698	1983.07
606.056	1978.78
606.413	1929.51
606.771	1957.76
607.128	1942.84
607.485	1961.6
607.843	1975.16
608.2	1971.09
608.557	1977.42
608.914	1969.28
609.272	1990.3
609.629	1963.18
609.986	2009.51
610.343	1990.98
610.7	2010.19
611.057	1992.79
611.414	2002.5
611.771	2006.57
612.127	2010.19
612.484	2001.6
612.841	2009.51
613.198	2002.96
613.554	2002.05
613.911	2026.23
614.267	2030.98
614.624	2027.36
614.98	2017.19
615.337	2012.45
615.693	2028.49
616.05	2033.46
616.406	2048.6
616.762	2035.5
617.118	2038.44
617.475	2036.18
617.831	2025.55
618.187	2033.92
618.543	2039.57
618.899	2073.01
619.255	2074.14
619.611	2049.96
619.967	2070.98
620.323	2056.74
620.678	2043.41
621.034	2067.59
621.39	2090.64
621.746	2061.71
622.101	2075.72
622.457	2069.85
622.812	2087.93
623.168	2098.77
623.523	2078.21
623.879	2110.52
624.234	2093.8
624.589	2124.76
624.945	2093.8
625.3	2106.68
625.655	2084.76
626.01	2080.24
626.365	2087.7
626.72	2101.03
627.075	2138.09
627.43	2088.38
627.785	2120.69
628.14	2138.32
628.495	2125.66
628.85	2118.88
629.205	2139
629.559	2148.26
629.914	2118.66
630.269	2141.26
630.623	2120.92
630.978	2114.59
631.332	2111.65
631.687	2154.36
632.041	2178.77
632.396	2129.96
632.75	2142.16
633.104	2160.01
633.459	2137.42
633.813	2186
634.167	2157.53
634.521	2151.2
634.875	2164.76
635.229	2143.29
635.583	2183.97
635.937	2210.63
636.291	2189.84
636.645	2188.26
636.999	2199.79
637.352	2167.92
637.706	2183.52
638.06	2228.49
638.413	2236.85
638.767	2218.54
639.121	2231.88
639.474	2220.35
639.828	2225.77
640.181	2234.14
640.534	2224.42
640.888	2216.06
641.241	2254.47
641.594	2260.12
641.947	2275.27
642.301	2264.87
642.654	2296.73
643.007	2306.45
643.36	2275.27
643.713	2292.44
644.066	2324.76
644.419	2317.75
644.771	2267.81
645.124	2296.06
645.477	2310.07
645.83	2307.81
646.182	2287.47
646.535	2277.52
646.888	2287.02
647.24	2262.61
647.593	2343.74
647.945	2288.15
648.298	2311.2
648.65	2333.12
649.002	2354.13
649.355	2379.44
649.707	2346.9
650.059	2338.77
650.411	2397.52
650.763	2423.28
651.115	2477.97
651.467	2458.31
651.819	2494.92
652.171	2482.04
652.523	2497.63
652.875	2480.01
653.227	2462.15
653.578	2495.37
653.93	2529.04
654.282	2515.03
654.633	2521.36
654.985	2567.91
655.337	2556.39
655.688	2576.73
656.039	2545.09
656.391	2586.67
656.742	2614.92
657.094	2595.93
657.445	2619.21
657.796	2629.83
658.147	2672.77
658.498	2647.91
658.849	2642.49
659.2	2644.52
659.551	2680.68
659.902	2683.62
660.253	2710.73
660.604	2738.76
660.955	2704.86
661.306	2727.91
661.656	2745.76
662.007	2765.87
662.358	2772.88
662.708	2794.8
663.059	2818.53
663.409	2813.1
663.76	2813.56
664.11	2870.73
664.461	2901.69
664.811	2899.88
665.161	2885.19
665.511	2877.51
665.862	2901.01
666.212	2927
666.562	2957.51
666.912	2947.79
667.262	2969.03
667.612	2990.05
667.962	2979.43
668.312	3004.74
668.662	2977.85
669.011	3044.28
669.361	3003.83
669.711	3046.09
670.06	3084.28
670.41	3080.67
670.76	3074.79
671.109	3118.86
671.459	3094.68
671.808	3119.54
672.157	3154.56
672.507	3160.44
672.856	3153.21
673.205	3193.21
673.554	3188.24
673.904	3193.21
674.253	3246.31
674.602	3215.81
674.951	3197.95
675.3	3225.52
675.649	3266.2
675.998	3242.25
676.346	3282.92
676.695	3327.89
677.044	3286.54
677.393	3328.12
677.741	3344.16
678.09	3362.02
678.438	3333.77
678.787	3350.04
679.135	3387.33
679.484	3356.14
679.832	3434.33
680.181	3388.91
680.529	3419.19
680.877	3448.57
681.225	3407.89
681.573	3447.21
681.922	3450.83
682.27	3467.32
682.618	3490.6
682.966	3501.67
683.314	3486.53
683.661	3506.65
684.009	3492.63
684.357	3492.41
684.705	3514.33
685.053	3533.31
685.4	3573.54
685.748	3571.73
686.095	3541.22
686.443	3587.09
686.79	3587.55
687.138	3591.39
687.485	3643.36
687.832	3576.47
688.18	3623.93
688.527	3590.03
688.874	3644.95
689.221	3657.15
689.568	3610.6
689.915	3617.15
690.262	3644.95
690.609	3618.96
690.956	3675
691.303	3659.64
691.65	3690.14
691.997	3675.23
692.344	3653.08
692.69	3680.65
693.037	3670.93
693.383	3626.87
693.73	3675.91
694.077	3681.56
694.423	3646.75
694.769	3668.9
695.116	3698.96
695.462	3698.5
695.808	3669.8
696.155	3660.77
696.501	3657.38
696.847	3693.53
697.193	3695.79
697.539	3693.08
697.885	3650.37
698.231	3682.69
698.577	3655.34
698.923	3680.43
699.269	3694.89
699.614	3663.7
699.96	3696.24
700.306	3699.18
700.651	3643.36
700.997	3655.79
701.342	3656.92
701.688	3655.12
702.033	3623.25
702.379	3625.74
702.724	3650.14
703.069	3655.57
703.415	3601.11
703.76	3659.18
704.105	3605.17
704.45	3632.97
704.795	3601.33
705.14	3625.06
705.485	3581.9
705.83	3593.87
706.175	3609.02
706.52	3583.25
706.865	3572.18
707.209	3565.17
707.554	3554.1
707.899	3615.79
708.243	3538.28
708.588	3584.61
708.932	3549.36
709.277	3561.33
709.621	3579.41
709.966	3559.53
710.31	3583.03
710.654	3476.59
710.998	3533.54
711.342	3585.74
711.687	3554.33
712.031	3558.85
712.375	3554.55
712.719	3550.49
713.063	3530.6
713.407	3564.72
713.75	3536.7
714.094	3505.29
714.438	3543.71
714.782	3567.21
715.125	3536.7
715.469	3512.75
715.812	3540.32
716.156	3538.51
716.499	3508.45
716.843	3541.45
717.186	3542.12
717.53	3545.74
717.873	3554.1
718.216	3531.73
718.559	3535.34
718.902	3478.17
719.246	3500.32
719.589	3536.47
719.932	3494.44
720.275	3549.36
720.617	3493.31
720.96	3539.41
721.303	3547.55
721.646	3534.21
721.989	3495.57
722.331	3528.57
722.674	3507.32
723.016	3523.14
723.359	3516.36
723.701	3514.78
724.044	3519.07
724.386	3505.97
724.729	3528.79
725.071	3510.03
725.413	3508.9
725.755	3529.7
726.097	3521.11
726.439	3518.4
726.782	3510.03
727.124	3524.95
727.465	3522.92
727.807	3539.86
728.149	3515.01
728.491	3523.59
728.833	3514.78
729.175	3524.05
729.516	3520.2
729.858	3531.5
730.199	3549.81
730.541	3571.28
730.882	3556.36
731.224	3557.49
731.565	3543.71
731.906	3517.04
732.248	3554.1
732.589	3582.58
732.93	3539.41
733.271	3528.34
733.612	3576.93
733.953	3544.16
734.294	3590.03
734.635	3594.1
734.976	3598.85
735.317	3535.12
735.658	3589.35
735.999	3564.27
736.339	3572.86
736.68	3614.66
737.021	3586.42
737.361	3607.89
737.702	3665.28
738.042	3584.84
738.383	3640.43
738.723	3642.23
739.063	3639.07
739.404	3641.33
739.744	3633.87
740.084	3620.99
740.424	3658.73
740.764	3686.53
741.104	3727.43
741.444	3699.86
741.784	3721.55
742.124	3657.15
742.464	3728.11
742.804	3710.71
743.143	3741.89
743.483	3737.83
743.823	3762.23
744.162	3752.51
744.502	3759.29
744.841	3785.73
745.181	3783.7
745.52	3770.37
745.86	3833.42
746.199	3832.51
746.538	3865.51
746.877	3826.64
747.216	3844.49
747.556	3902.57
747.895	3869.8
748.234	3904.15
748.573	3926.3
748.911	3915.67
749.25	3938.5
749.589	3954.32
749.928	3967.88
750.267	4028.21
750.605	4010.81
750.944	3994.99
751.283	4011.04
751.621	4086.74
751.96	4061.43
752.298	4088.32
752.636	4149.34
752.975	4124.26
753.313	4184.82
753.651	4219.39
753.989	4166.29
754.327	4208.55
754.666	4202.9
755.004	4279.96
755.342	4263.46
755.679	4289
756.017	4278.38
756.355	4313.63
756.693	4362.22
757.031	4378.49
757.368	4339.39
757.706	4340.3
758.044	4394.76
758.381	4408.77
758.719	4420.52
759.056	4442.21
759.394	4510.01
759.731	4471.14
760.068	4475.89
760.405	4493.74
760.743	4547.3
761.08	4547.07
761.417	4496
761.754	4537.8
762.091	4553.17
762.428	4568.54
762.765	4531.93
763.102	4608.31
763.438	4593.85
763.775	4555.66
764.112	4617.12
764.449	4615.99
764.785	4585.49
765.122	4547.75
765.458	4673.17
765.795	4649.89
766.131	4652.15
766.467	4677.69
766.804	4614.86
767.14	4638.37
767.476	4676.11
767.812	4679.95
768.148	4611.47
768.485	4687.4
768.821	4610.34
769.157	4632.94
769.492	4635.43
769.828	4634.98
770.164	4643.79
770.5	4576
770.836	4660.06
771.171	4577.58
771.507	4610.12
771.842	4609.44
772.178	4603.11
