Data from blue_chair_FLMS001491_00065.txt Node
Date: Wed Feb 08 10:31:33 GMT 2017
User: dcchb
Spectrometer: FLMS00149
Trigger mode: 0
Integration Time (sec): 2.000000E-2
Scans to average: 10
Electric dark correction enabled: true
Nonlinearity correction enabled: false
Boxcar width: 0
XAxis mode: Wavelengths
Number of Pixels in Spectrum: 2048
>>>>>Begin Spectral Data<<<<<
341.393	-16.31
341.776	-16.31
342.16	-16.31
342.543	-66.03
342.927	-69.42
343.31	-62.41
343.693	-83.2
344.077	-72.58
344.46	-58.12
344.843	-58.57
345.226	-59.02
345.61	-21.28
345.993	-20.38
346.376	10.8
346.759	17.13
347.142	18.49
347.525	45.83
347.908	73.18
348.291	71.82
348.674	85.38
349.057	112.95
349.44	112.95
349.823	139.16
350.206	129.67
350.588	171.48
350.971	211.25
351.354	193.17
351.737	229.78
352.119	253.28
352.502	239.73
352.884	252.61
353.267	257.58
353.65	256.9
354.032	272.04
354.414	269.78
354.797	283.79
355.179	283.11
355.562	294.87
355.944	310.46
356.326	288.09
356.709	307.97
357.091	304.13
357.473	338.71
357.855	317.92
358.238	299.38
358.62	298.03
359.002	304.13
359.384	321.76
359.766	313.62
360.148	320.63
360.53	301.19
360.912	319.27
361.294	289.67
361.676	318.59
362.057	311.14
362.439	303
362.821	311.59
363.203	282.44
363.584	291.93
363.966	302.77
364.348	284.47
364.729	293.06
365.111	281.76
365.493	283.57
365.874	294.87
366.256	291.25
366.637	277.46
367.019	287.63
367.4	288.31
367.781	263.45
368.163	282.89
368.544	275.66
368.925	289.22
369.306	289.22
369.688	279.72
370.069	285.6
370.45	299.84
370.831	284.24
371.212	280.63
371.593	266.17
371.974	281.08
372.355	281.53
372.736	277.46
373.117	275.2
373.498	286.05
373.879	298.48
374.26	291.7
374.641	274.53
375.021	298.71
375.402	301.19
375.783	287.41
376.163	279.05
376.544	300.51
376.925	279.05
377.305	300.29
377.686	257.35
378.066	283.57
378.447	292.15
378.827	274.75
379.208	306.62
379.588	273.17
379.968	281.98
380.349	317.46
380.729	294.87
381.109	287.18
381.489	318.82
381.87	268.2
382.25	298.25
382.63	290.57
383.01	282.89
383.39	286.96
383.77	297.58
384.15	289.67
384.53	308.2
384.91	288.31
385.29	293.28
385.67	304.36
386.049	308.65
386.429	310.68
386.809	314.3
387.189	317.24
387.568	283.57
387.948	297.12
388.328	298.03
388.707	304.36
389.087	298.03
389.466	336.22
389.846	300.29
390.225	312.94
390.605	314.07
390.984	328.08
391.363	323.11
391.743	302.55
392.122	316.33
392.501	312.04
392.881	331.02
393.26	328.08
393.639	327.41
394.018	303.68
394.397	339.16
394.776	320.4
395.155	340.06
395.534	318.82
395.913	347.75
396.292	340.97
396.671	351.13
397.05	345.49
397.429	307.97
397.808	330.34
398.186	339.16
398.565	326.5
398.944	330.12
399.323	326.28
399.701	353.85
400.08	339.38
400.458	335.54
400.837	340.29
401.215	335.09
401.594	347.29
401.972	338.71
402.351	352.04
402.729	352.49
403.107	325.37
403.486	355.2
403.864	372.6
404.242	347.52
404.62	359.04
404.999	343.9
405.377	372.15
405.755	355.43
406.133	355.88
406.511	374.86
406.889	372.6
407.267	366.05
407.645	372.83
408.023	381.87
408.401	371.47
408.779	375.54
409.156	383.45
409.534	368.31
409.912	384.35
410.29	394.07
410.667	411.7
411.045	391.81
411.422	396.33
411.8	398.37
412.178	389.1
412.555	402.88
412.933	391.36
413.31	410.79
413.687	414.41
414.065	407.4
414.442	401.3
414.819	411.02
415.197	402.43
415.574	416.67
415.951	403.11
416.328	404.92
416.705	407.86
417.082	401.53
417.46	411.25
417.837	451.25
418.214	423.9
418.591	429.78
418.967	418.7
419.344	435.2
419.721	415.09
420.098	440.17
420.475	434.07
420.852	433.84
421.228	469.1
421.605	452.6
421.982	445.6
422.358	468.65
422.735	460.28
423.111	452.38
423.488	459.83
423.864	486.05
424.241	482.2
424.617	493.5
424.994	492.15
425.37	496.67
425.746	514.97
426.123	504.13
426.499	488.53
426.875	499.15
427.251	499.61
427.627	520.4
428.003	524.69
428.379	524.69
428.756	532.82
429.132	535.08
429.507	524.01
429.883	537.57
430.259	518.59
430.635	537.12
431.011	542.54
431.387	552.49
431.763	573.05
432.138	544.8
432.514	559.26
432.89	588.42
433.265	564.91
433.641	580.96
434.016	592.03
434.392	607.4
434.767	601.3
435.143	614.4
435.518	636.1
435.894	623.67
436.269	623.67
436.644	627.74
437.02	621.86
437.395	624.35
437.77	640.39
438.145	649.88
438.52	653.95
438.895	687.17
439.271	665.48
439.646	683.56
440.021	714.52
440.395	708.41
440.77	690.79
441.145	716.55
441.52	698.24
441.895	737.79
442.27	733.72
442.645	723.33
443.019	745.47
443.394	756.55
443.769	734.4
444.143	720.84
444.518	759.26
444.892	766.04
445.267	792.03
445.641	780.5
446.016	767.17
446.39	771.69
446.764	792.71
447.139	779.15
447.513	786.38
447.887	797.68
448.262	790.9
448.636	800.16
449.01	822.76
449.384	840.16
449.758	812.14
450.132	814.17
450.506	810.11
450.88	845.59
451.254	850.33
451.628	830.67
452.002	859.14
452.376	872.25
452.75	867.96
453.123	869.77
453.497	900.72
453.871	880.61
454.244	887.17
454.618	905.47
454.992	879.26
455.365	896.21
455.739	935.07
456.112	948.86
456.486	958.8
456.859	924.68
457.232	962.64
457.606	946.15
457.979	965.36
458.352	978.24
458.725	987.05
459.099	1001.29
459.472	1000.84
459.845	1012.81
460.218	1017.11
460.591	995.64
460.964	1005.58
461.337	1021.4
461.71	1057.78
462.083	1039.25
462.456	1054.39
462.829	1057.1
463.201	1044.22
463.574	1084.9
463.947	1095.52
464.32	1118.35
464.692	1096.43
465.065	1106.6
465.438	1104.11
465.81	1144.56
466.183	1142.3
466.555	1166.03
466.928	1177.33
467.3	1140.72
467.672	1168.97
468.045	1177.55
468.417	1191.56
468.789	1205.8
469.161	1207.84
469.534	1220.72
469.906	1257.78
470.278	1240.15
470.65	1235.86
471.022	1236.54
471.394	1286.48
471.766	1267.72
472.138	1295.06
472.51	1319.47
472.882	1326.02
473.253	1348.62
473.625	1350.43
473.997	1377.55
474.369	1366.93
474.74	1352.92
475.112	1400.6
475.484	1406.93
475.855	1431.33
476.227	1420.49
476.598	1500.03
476.97	1448.06
477.341	1498.9
477.713	1448.96
478.084	1506.58
478.455	1520.37
478.827	1547.94
479.198	1528.73
479.569	1560.14
479.94	1584.55
480.311	1588.16
480.682	1613.25
481.053	1634.49
481.424	1630.2
481.795	1668.61
482.166	1661.16
482.537	1667.71
482.908	1683.53
483.279	1680.14
483.65	1704.77
484.021	1721.49
484.391	1721.72
484.762	1729.86
485.133	1742.51
485.503	1746.35
485.874	1782.28
486.244	1769.4
486.615	1746.35
486.985	1808.5
487.356	1850.08
487.726	1875.84
488.097	1870.42
488.467	1820.47
488.837	1877.87
489.207	1872
489.578	1873.58
489.948	1889.17
490.318	1898.89
490.688	1886.69
491.058	1914.71
491.428	1887.14
491.798	1918.78
492.168	1919.68
492.538	1920.59
492.908	1957.87
493.278	1964.2
493.648	1943.86
494.017	1951.77
494.387	1965.56
494.757	1982.96
495.126	1979.79
495.496	1957.42
495.866	1978.21
496.235	1956.74
496.605	1959.23
496.974	1960.58
497.344	1929.85
497.713	1942.96
498.082	1953.13
498.452	2003.52
498.821	1962.62
499.19	1959.23
499.559	1944.99
499.928	1985.22
500.298	1945.44
500.667	1965.78
501.036	1956.97
501.405	1963.75
501.774	1938.89
502.143	1991.32
502.512	1960.81
502.88	1965.1
503.249	1973.92
503.618	1962.17
503.987	1956.52
504.356	1968.04
504.724	1949.06
505.093	1952.22
505.462	1933.47
505.83	1926.46
506.199	1925.78
506.567	1962.62
506.936	1916.29
507.304	1924.43
507.672	1926.23
508.041	1935.95
508.409	1931.21
508.777	1942.28
509.145	1909.51
509.514	1918.55
509.882	1914.03
510.25	1878.1
510.618	1923.52
510.986	1896.63
511.354	1885.11
511.722	1903.86
512.09	1896.18
512.458	1912.45
512.826	1893.92
513.193	1885.56
513.561	1891.89
513.929	1898.89
514.297	1889.17
514.664	1898.21
515.032	1851.66
515.4	1875.84
515.767	1911.77
516.135	1881.04
516.502	1850.98
516.869	1880.59
517.237	1859.34
517.604	1825.22
517.972	1837.2
518.339	1799.23
518.706	1852.79
519.073	1839.91
519.44	1855.28
519.808	1816.86
520.175	1806.69
520.542	1816.41
520.909	1835.16
521.276	1807.37
521.643	1833.13
522.009	1790.87
522.376	1822.06
522.743	1808.95
523.11	1799.23
523.477	1800.59
523.843	1778.67
524.21	1799.46
524.577	1789.97
524.943	1812.57
525.31	1787.71
525.676	1822.51
526.043	1806.24
526.409	1790.42
526.776	1808.5
527.142	1826.58
527.508	1783.19
527.874	1792.9
528.241	1814.15
528.607	1778.67
528.973	1798.78
529.339	1805.11
529.705	1794.03
530.071	1821.6
530.437	1777.09
530.803	1774.37
531.169	1795.62
531.535	1820.93
531.901	1817.99
532.267	1789.29
532.632	1787.48
532.998	1778.22
533.364	1799.01
533.73	1823.86
534.095	1820.7
534.461	1811.66
534.826	1794.03
535.192	1809.85
535.557	1784.54
535.923	1820.47
536.288	1781.15
536.653	1777.31
537.019	1785
537.384	1768.27
537.749	1793.58
538.114	1819.12
538.479	1768.72
538.845	1802.85
539.21	1782.96
539.575	1773.7
539.94	1769.85
540.305	1767.37
540.67	1775.5
541.034	1760.14
541.399	1777.09
541.764	1735.05
542.129	1768.72
542.494	1754.71
542.858	1779.12
543.223	1794.49
543.587	1772.79
543.952	1742.74
544.316	1744.54
544.681	1753.81
545.045	1755.39
545.41	1735.96
545.774	1746.58
546.138	1758.1
546.503	1733.47
546.867	1754.94
547.231	1723.08
547.595	1733.02
547.959	1744.77
548.324	1744.54
548.688	1736.64
549.052	1739.12
549.416	1716.97
549.779	1725.11
550.143	1716.75
550.507	1736.41
550.871	1688.5
551.235	1727.6
551.599	1710.87
551.962	1727.37
552.326	1716.97
552.689	1716.3
553.053	1705.45
553.417	1715.84
553.78	1707.71
554.143	1709.52
554.507	1703.42
554.87	1729.18
555.234	1697.99
555.597	1688.27
555.96	1704.77
556.323	1725.56
556.686	1713.58
557.05	1695.28
557.413	1694.6
557.776	1674.94
558.139	1710.65
558.502	1667.94
558.865	1721.27
559.228	1706.35
559.59	1679.01
559.953	1711.78
560.316	1698.44
560.679	1711.33
561.041	1711.1
561.404	1716.97
561.767	1711.78
562.129	1676.07
562.492	1712
562.854	1693.02
563.217	1699.8
563.579	1737.31
563.941	1724.43
564.304	1693.25
564.666	1719.01
565.028	1758.78
565.39	1713.81
565.753	1726.01
566.115	1746.13
566.477	1737.09
566.839	1704.32
567.201	1769.85
567.563	1746.8
567.925	1758.78
568.287	1772.11
568.648	1754.49
569.01	1765.79
569.372	1776.86
569.734	1770.53
570.095	1770.31
570.457	1775.5
570.819	1774.37
571.18	1786.13
571.542	1816.63
571.903	1801.49
572.265	1796.97
572.626	1771.21
572.987	1808.5
573.349	1814.6
573.71	1813.24
574.071	1795.39
574.432	1834.49
574.794	1836.52
575.155	1842.17
575.516	1825.45
575.877	1828.16
576.238	1851.89
576.599	1846.01
576.96	1847.59
577.32	1840.36
577.681	1818.21
578.042	1873.13
578.403	1862.73
578.763	1872.45
579.124	1868.61
579.485	1884.43
579.845	1901.15
580.206	1867.71
580.566	1869.29
580.927	1899.12
581.287	1917.42
581.648	1895.73
582.008	1924.65
582.368	1904.31
582.728	1913.13
583.089	1895.95
583.449	1902.51
583.809	1918.1
584.169	1953.35
584.529	1913.13
584.889	1951.77
585.249	1935.27
585.609	1930.3
585.969	1955.61
586.329	1933.92
586.688	1938.66
587.048	1932.79
587.408	1930.08
587.768	1904.54
588.127	1930.53
588.487	1945.22
588.846	1942.05
589.206	1917.87
589.565	1932.56
589.925	1965.56
590.284	1925.1
590.643	1949.28
591.003	1949.74
591.362	1944.99
591.721	1928.72
592.08	1954.03
592.44	1948.38
592.799	1952
593.158	1967.59
593.517	1959.91
593.876	1943.86
594.235	1933.69
594.593	1961.04
594.952	1944.31
595.311	1946.57
595.67	1924.43
596.029	1926.46
596.387	1954.26
596.746	1979.79
597.104	1917.87
597.463	1951.77
597.822	1952.67
598.18	1932.79
598.538	1935.95
598.897	1935.5
599.255	1931.88
599.613	1934.37
599.972	1968.72
600.33	1964.2
600.688	1968.72
601.046	1979.79
601.404	1952.45
601.762	1940.92
602.12	1961.26
602.478	1962.39
602.836	1981.6
603.194	1953.8
603.552	1946.35
603.91	1902.28
604.268	1945.9
604.625	1973.69
604.983	1955.39
605.341	1965.1
605.698	1935.5
606.056	1941.83
606.413	1955.84
606.771	1939.12
607.128	1968.04
607.485	1937.08
607.843	1968.27
608.2	1952.9
608.557	1976.63
608.914	1941.15
609.272	1969.4
609.629	1969.17
609.986	1939.57
610.343	1966.69
610.7	1959.45
611.057	1953.35
611.414	1960.58
611.771	1977.76
612.127	1943.86
612.484	1976.4
612.841	1967.82
613.198	1982.73
613.554	1991.32
613.911	1979.34
614.267	1984.99
614.624	1981.6
614.98	1960.81
615.337	1980.47
615.693	1961.49
616.05	2006.68
616.406	1990.41
616.762	1982.5
617.118	1991.32
617.475	1991.77
617.831	1994.03
618.187	1980.7
618.543	2013.01
618.899	2036.51
619.255	1979.57
619.611	1974.14
619.967	1987.93
620.323	2011.88
620.678	2001.03
621.034	1977.53
621.39	2017.76
621.746	1991.32
622.101	2013.24
622.457	2001.26
622.812	1976.18
623.168	2006.46
623.523	1999.45
623.879	2000.81
624.234	1978.44
624.589	2031.54
624.945	1987.93
625.3	2053.91
625.655	1998.55
626.01	1989.06
626.365	2012.33
626.72	1994.71
627.075	1997.19
627.43	2038.1
627.785	1985.44
628.14	2026.12
628.495	2028.83
628.85	1995.61
629.205	2021.83
629.559	2012.11
629.914	2009.17
630.269	2001.71
630.623	2019.79
630.978	2011.88
631.332	2020.47
631.687	2041.03
632.041	2021.37
632.396	2046.23
632.75	2032.9
633.104	2029.51
633.459	2006.01
633.813	1999
634.167	1996.06
634.521	2009.85
634.875	2032.22
635.229	1992.9
635.583	2022.05
635.937	2020.02
636.291	1984.99
636.645	2032.9
636.999	2032.9
637.352	1992
637.706	1989.28
638.06	2020.24
638.413	2022.28
638.767	2012.79
639.121	2002.16
639.474	2026.35
639.828	1995.16
640.181	2006.01
640.534	1996.52
640.888	2026.35
641.241	2014.14
641.594	1996.52
641.947	1990.64
642.301	2029.28
642.654	2059.11
643.007	2020.47
643.36	2034.03
643.713	2029.96
644.066	2034.71
644.419	2034.48
644.771	2038.77
645.124	1988.15
645.477	1982.73
645.83	2010.98
646.182	1995.16
646.535	1976.63
646.888	2004.2
647.24	1953.58
647.593	2018.66
647.945	1997.19
648.298	1986.57
648.65	2000.13
649.002	1975.72
649.355	2027.25
649.707	2015.95
650.059	2017.08
650.411	2066.8
650.763	1998.32
651.115	2053.69
651.467	2062.28
651.819	2060.47
652.171	2045.33
652.523	2074.93
652.875	2053.91
653.227	2060.92
653.578	2060.02
653.93	2055.04
654.282	2054.59
654.633	2048.49
654.985	2085.1
655.337	2084.2
655.688	2102.5
656.039	2084.65
656.391	2076.06
656.742	2047.36
657.094	2081.94
657.445	2142.5
657.796	2075.38
658.147	2093.91
658.498	2085.55
658.849	2099.56
659.2	2101.37
659.551	2080.35
659.902	2119.22
660.253	2106.79
660.604	2117.42
660.955	2102.5
661.306	2110.41
661.656	2097.53
662.007	2134.36
662.358	2123.74
662.708	2118.32
663.059	2103.41
663.409	2101.15
663.76	2141.14
664.11	2104.99
664.461	2131.65
664.811	2123.07
665.161	2114.93
665.511	2151.99
665.862	2149.05
666.212	2105.44
666.562	2119.68
666.912	2125.55
667.262	2130.52
667.612	2121.03
667.962	2126.23
668.312	2114.03
668.662	2145.66
669.011	2109.96
669.361	2113.12
669.711	2118.32
670.06	2104.76
670.41	2117.64
670.76	2122.84
671.109	2124.42
671.459	2118.32
671.808	2130.52
672.157	2133.69
672.507	2088.72
672.856	2084.2
673.205	2146.57
673.554	2134.59
673.904	2116.74
674.253	2110.64
674.602	2073.8
674.951	2083.52
675.3	2062.05
675.649	2104.31
675.998	2080.35
676.346	2085.33
676.695	2074.71
677.044	2065.21
677.393	2071.32
677.741	2076.29
678.09	2055.27
678.438	2058.89
678.787	2070.86
679.135	2053.24
679.484	2046.68
679.832	2046.46
680.181	2017.08
680.529	2050.07
680.877	2061.37
681.225	2033.35
681.573	2071.54
681.922	2045.1
682.27	2010.75
682.618	1999
682.966	2028.38
683.314	2041.03
683.661	2026.35
684.009	2010.3
684.357	1977.76
684.705	1978.21
685.053	1960.81
685.4	1970.98
685.748	1959
686.095	1961.94
686.443	1960.36
686.79	1970.98
687.138	2012.33
687.485	1984.76
687.832	1936.86
688.18	1932.11
688.527	1934.6
688.874	1944.99
689.221	1943.86
689.568	1942.28
689.915	1898.44
690.262	1941.6
690.609	1921.04
690.956	1889.4
691.303	1930.75
691.65	1902.51
691.997	1883.52
692.344	1893.24
692.69	1888.72
693.037	1885.33
693.383	1858.89
693.73	1876.97
694.077	1874.26
694.423	1864.77
694.769	1878.33
695.116	1851.43
695.462	1850.3
695.808	1845.78
696.155	1841.49
696.501	1869.51
696.847	1829.74
697.193	1817.08
697.539	1836.07
697.885	1804.88
698.231	1811.21
698.577	1775.96
698.923	1796.75
699.269	1781.38
699.614	1798.1
699.96	1779.12
700.306	1792.45
700.651	1771.89
700.997	1789.52
701.342	1788.16
701.688	1798.33
702.033	1755.17
702.379	1759.23
702.724	1733.25
703.069	1758.78
703.415	1729.4
703.76	1748.84
704.105	1763.08
704.45	1758.56
704.795	1760.59
705.14	1729.4
705.485	1752.45
705.83	1722.17
706.175	1739.35
706.52	1748.84
706.865	1751.55
707.209	1740.25
707.554	1748.84
707.899	1735.51
708.243	1716.3
708.588	1705.45
708.932	1734.15
709.277	1725.11
709.621	1722.62
709.966	1708.16
710.31	1719.46
710.654	1694.6
710.998	1710.42
711.342	1700.7
711.687	1723.3
712.031	1705.22
712.375	1718.1
712.719	1724.66
713.063	1713.36
713.407	1758.78
713.75	1729.86
714.094	1706.35
714.438	1729.86
714.782	1712.68
715.125	1728.05
715.469	1729.63
715.812	1744.32
716.156	1705
716.499	1721.72
716.843	1718.78
717.186	1736.64
717.53	1778.44
717.873	1777.09
718.216	1744.32
718.559	1772.34
718.902	1775.28
719.246	1771.21
719.589	1792
719.932	1781.15
720.275	1785
720.617	1769.18
720.96	1755.62
721.303	1809.63
721.646	1797.42
721.989	1784.09
722.331	1804.43
722.674	1758.78
723.016	1806.01
723.359	1794.94
723.701	1802.17
724.044	1810.98
724.386	1820.02
724.729	1805.33
725.071	1860.7
725.413	1841.49
725.755	1823.41
726.097	1817.76
726.439	1848.72
726.782	1856.18
727.124	1876.52
727.465	1865.45
727.807	1877.42
728.149	1878.33
728.491	1863.86
728.833	1890.08
729.175	1861.6
729.516	1887.59
729.858	1904.99
730.199	1955.61
730.541	1915.39
730.882	1946.8
731.224	1930.98
731.565	1956.74
731.906	1952.45
732.248	1991.09
732.589	1960.81
732.93	1989.06
733.271	2014.59
733.612	2002.84
733.953	1986.57
734.294	2029.73
734.635	2045.33
734.976	2025.89
735.317	2047.59
735.658	2084.65
735.999	2091.65
736.339	2102.28
736.68	2106.79
737.021	2102.5
737.361	2148.38
737.702	2117.64
738.042	2144.53
738.383	2150.41
738.723	2211.88
739.063	2211.88
739.404	2204.65
739.744	2244.64
740.084	2208.49
740.424	2262.72
740.764	2281.25
741.104	2270.41
741.444	2296.85
741.784	2314.02
742.124	2354.02
742.464	2326
742.804	2396.73
743.143	2403.28
743.483	2432.44
743.823	2448.03
744.162	2474.24
744.502	2481.47
744.841	2531.19
745.181	2564.64
745.52	2571.42
745.86	2579.78
746.199	2624.52
746.538	2660
746.877	2696.16
747.216	2756.04
747.556	2759.66
747.895	2800.34
748.234	2827.23
748.573	2851.18
748.911	2937.73
749.25	2935.02
749.589	2946.09
749.928	3018.64
750.267	3079.42
750.605	3096.15
750.944	3143.83
751.283	3180.89
751.621	3255.69
751.96	3255.47
752.298	3318.51
752.636	3367.78
752.975	3431.51
753.313	3456.14
753.651	3513.09
753.989	3539.98
754.327	3642.8
754.666	3679.18
755.004	3714.21
755.342	3763.93
755.679	3822.23
756.017	3861.1
756.355	3956.24
756.693	4036.46
757.031	4056.57
757.368	4112.62
757.706	4197.36
758.044	4171.83
758.381	4253.63
758.719	4282.33
759.056	4391.48
759.394	4426.73
759.731	4492.95
760.068	4561.42
760.405	4600.51
760.743	4660.17
761.08	4700.4
761.417	4795.99
761.754	4792.83
762.091	4830.11
762.428	4939.49
762.765	4943.33
763.102	5061.07
763.438	5053.61
763.775	5131.57
764.112	5162.08
764.449	5194.85
764.785	5247.5
765.122	5262.87
765.458	5327.5
765.795	5370.44
766.131	5435.07
766.467	5463.54
766.804	5496.54
767.14	5582.41
767.476	5596.42
767.812	5637.78
768.148	5704.89
768.485	5739.02
768.821	5752.12
769.157	5753.48
769.492	5871.22
769.828	5866.47
770.164	5910.54
770.5	5921.38
770.836	5941.04
771.171	5962.29
771.507	5992.12
