Data from blue_clamp_base_FLMS001491_00006.txt Node
Date: Wed Feb 08 15:15:28 GMT 2017
User: dcchb
Spectrometer: FLMS00149
Trigger mode: 0
Integration Time (sec): 2.000000E-2
Scans to average: 10
Electric dark correction enabled: true
Nonlinearity correction enabled: false
Boxcar width: 0
XAxis mode: Wavelengths
Number of Pixels in Spectrum: 2048
>>>>>Begin Spectral Data<<<<<
341.393	-6.4
341.776	-6.4
342.16	-6.4
342.543	-48.2
342.927	-63.12
343.31	-70.13
343.693	-65.15
344.077	-62.89
344.46	-62.22
344.843	-64.7
345.226	-44.36
345.61	-21.76
345.993	-4.36
346.376	-3.23
346.759	0.61
347.142	26.14
347.525	54.62
347.908	62.3
348.291	68.18
348.674	86.03
349.057	100.94
349.44	139.59
349.823	132.36
350.206	182.98
350.588	208.51
350.971	216.87
351.354	209.19
351.737	227.49
352.119	230.88
352.502	257.55
352.884	266.59
353.267	274.05
353.65	290.77
354.032	301.39
354.414	300.03
354.797	300.71
355.179	328.06
355.562	316.76
355.944	327.38
356.326	345.23
356.709	335.51
357.091	343.88
357.473	343.42
357.855	345.46
358.238	325.34
358.62	328.06
359.002	348.39
359.384	325.12
359.766	338.68
360.148	347.26
360.53	345.01
360.912	336.87
361.294	318.57
361.676	324.89
362.057	351.56
362.439	328.28
362.821	315.4
363.203	326.93
363.584	326.93
363.966	346.36
364.348	328.73
364.729	311.56
365.111	318.57
365.493	316.76
365.874	325.12
366.256	325.12
366.637	318.79
367.019	304.33
367.4	314.5
367.781	314.95
368.163	312.24
368.544	295.97
368.925	298
369.306	324.67
369.688	305.46
370.069	297.32
370.45	318.11
370.831	300.94
371.212	317.89
371.593	312.24
371.974	301.62
372.355	332.58
372.736	302.97
373.117	323.76
373.498	325.8
373.879	302.75
374.26	305.68
374.641	295.97
375.021	306.81
375.402	326.02
375.783	311.79
376.163	336.19
376.544	334.84
376.925	337.77
377.305	313.14
377.686	328.06
378.066	327.38
378.447	332.58
378.827	331.67
379.208	315.63
379.588	325.34
379.968	321.05
380.349	325.34
380.729	318.57
381.109	319.92
381.489	334.16
381.87	344.55
382.25	337.1
382.63	338.23
383.01	319.69
383.39	340.94
383.77	341.84
384.15	313.82
384.53	362.18
384.91	370.54
385.29	346.13
385.67	364.89
386.049	341.39
386.429	350.88
386.809	379.81
387.189	356.3
387.568	364.89
387.948	352.24
388.328	366.47
388.707	365.57
389.087	361.73
389.466	383.65
389.846	371.45
390.225	380.48
390.605	389.75
390.984	368.51
391.363	379.35
391.743	389.98
392.122	395.63
392.501	390.65
392.881	401.95
393.26	421.61
393.639	408.96
394.018	410.99
394.397	417.09
394.776	419.81
395.155	409.64
395.534	426.36
395.913	430.43
396.292	435.85
396.671	429.3
397.05	436.53
397.429	428.62
397.808	415.51
398.186	433.14
398.565	438.34
398.944	419.81
399.323	467.71
399.701	443.76
400.08	445.57
400.458	460.71
400.837	475.17
401.215	473.59
401.594	481.27
401.972	469.07
402.351	464.78
402.729	483.76
403.107	475.62
403.486	505.45
403.864	498
404.242	503.87
404.62	506.36
404.999	530.08
405.377	523.31
405.755	509.97
406.133	531.89
406.511	525.57
406.889	539.12
407.267	525.11
407.645	540.03
408.023	580.48
408.401	548.84
408.779	570.31
409.156	580.71
409.534	564.66
409.912	555.4
410.29	614.15
410.667	588.39
411.045	615.96
411.422	616.41
411.8	633.36
412.178	634.94
412.555	644.88
412.933	633.36
413.31	649.18
413.687	667.71
414.065	645.11
414.442	674.04
414.819	668.61
415.197	694.15
415.574	683.53
415.951	669.06
416.328	709.06
416.705	716.75
417.082	707.93
417.46	709.52
417.837	716.97
418.214	719.68
418.591	749.06
418.967	759.23
419.344	751.77
419.721	776.63
420.098	762.85
420.475	766.24
420.852	760.81
421.228	760.36
421.605	806.24
421.982	799.91
422.358	795.16
422.735	823.64
423.111	791.1
423.488	810.3
423.864	827.25
424.241	839
424.617	840.81
424.994	863.18
425.37	878.32
425.746	831.77
426.123	839.68
426.499	931.66
426.875	888.04
427.251	907.93
427.627	932.56
428.003	916.29
428.379	953.35
428.756	937.53
429.132	948.83
429.507	977.53
429.883	982.5
430.259	974.37
430.635	998.1
431.011	1024.99
431.387	1026.8
431.763	1073.8
432.138	1078.09
432.514	1083.06
432.89	1089.62
433.265	1092.33
433.641	1119.22
434.016	1140.92
434.392	1138.66
434.767	1186.56
435.143	1172.78
435.518	1193.34
435.894	1197.86
436.269	1208.03
436.644	1242.38
437.02	1228.6
437.395	1251.65
437.77	1286.22
438.145	1310.18
438.52	1285.77
438.895	1288.94
439.271	1272.44
439.646	1326.22
440.021	1362.15
440.395	1348.14
440.77	1335.49
441.145	1387.69
441.52	1406.9
441.895	1378.65
442.27	1414.13
442.645	1418.65
443.019	1440.12
443.394	1425.88
443.769	1452.32
444.143	1481.7
444.518	1453.22
444.892	1479.21
445.267	1475.82
445.641	1503.17
446.016	1519.21
446.39	1542.94
446.764	1527.12
447.139	1551.3
447.513	1561.47
447.887	1566.44
448.262	1582.03
448.636	1602.6
449.01	1623.84
449.384	1641.02
449.758	1618.64
450.132	1685.31
450.506	1670.85
450.88	1683.27
451.254	1688.25
451.628	1694.57
452.002	1730.96
452.376	1685.53
452.75	1760.34
453.123	1749.94
453.497	1821.58
453.871	1807.79
454.244	1816.38
454.618	1850.73
454.992	1886.21
455.365	1898.86
455.739	1907
456.112	1936.83
456.486	1976.6
456.859	1969.37
457.232	2028.58
457.606	1995.81
457.979	2014.34
458.352	2056.15
458.725	2110.83
459.099	2092.76
459.472	2136.37
459.845	2163.94
460.218	2206.43
460.591	2165.07
460.964	2190.15
461.337	2233.77
461.71	2242.81
462.083	2310.6
462.456	2310.6
462.829	2304.95
463.201	2361.9
463.574	2354.22
463.947	2377.72
464.32	2467.44
464.692	2461.56
465.065	2460.66
465.438	2490.03
465.81	2515.12
466.183	2553.99
466.555	2560.09
466.928	2610.93
467.3	2570.71
467.672	2638.5
468.045	2733.42
468.417	2679.18
468.789	2716.69
469.161	2725.06
469.534	2744.72
469.906	2833.98
470.278	2826.07
470.65	2885.96
471.022	2902.9
471.394	2945.84
471.766	2942.22
472.138	2974.99
472.51	3034.88
472.882	3102.22
473.253	3140.64
473.625	3144.93
473.997	3225.61
474.369	3222.9
474.74	3247.53
475.112	3279.62
475.484	3351.48
475.855	3387.86
476.227	3447.75
476.598	3480.29
476.97	3516
477.341	3596.67
477.713	3635.31
478.084	3632.38
478.455	3720.96
478.827	3753.05
479.198	3835.31
479.569	3857.23
479.94	3904.01
480.311	3927.51
480.682	4032.59
481.053	4075.53
481.424	4148.97
481.795	4170.67
482.166	4197.11
482.537	4279.82
482.908	4344
483.279	4339.7
483.65	4391.68
484.021	4471.68
484.391	4477.33
484.762	4514.39
485.133	4573.82
485.503	4608.62
485.874	4663.99
486.244	4670.09
486.615	4744.89
486.985	4803.42
487.356	4875.96
487.726	4917.77
488.097	4937.43
488.467	4975.39
488.837	5094.71
489.207	5106.69
489.578	5149.4
489.948	5106.69
490.318	5223.52
490.688	5242.28
491.058	5322.73
491.428	5296.06
491.798	5375.16
492.168	5464.19
492.538	5447.02
492.908	5482.72
493.278	5488.82
493.648	5462.84
494.017	5563.4
494.387	5588.26
494.757	5637.3
495.126	5635.94
495.496	5656.73
495.866	5646.79
496.235	5743.96
496.605	5777.63
496.974	5727.24
497.344	5804.52
497.713	5790.74
498.082	5830.28
498.452	5845.65
498.821	5824.86
499.19	5866.22
499.559	5941.47
499.928	5927.68
500.298	5925.88
500.667	5989.6
501.036	5946.67
501.405	5999.32
501.774	5965.65
502.143	6033.22
502.512	6030.28
502.88	6071.86
503.249	6114.57
503.618	6068.47
503.987	6074.12
504.356	6100.33
504.724	6160.67
505.093	6130.16
505.462	6128.36
505.83	6199.77
506.199	6266.21
506.567	6226.88
506.936	6218.07
507.304	6298.97
507.672	6273.89
508.041	6276.83
508.409	6384.17
508.777	6339.2
509.145	6402.7
509.514	6376.71
509.882	6355.69
510.25	6428.69
510.618	6395.24
510.986	6393.21
511.354	6492.19
511.722	6519.53
512.09	6606.54
512.458	6569.25
512.826	6569.93
513.193	6577.16
513.561	6588.46
513.929	6547.1
514.297	6673.88
514.664	6662.13
515.032	6673.2
515.4	6725.18
515.767	6691.5
516.135	6703.71
516.502	6665.52
516.869	6793.88
517.237	6755.91
517.604	6777.15
517.972	6824.61
518.339	6792.97
518.706	6859.64
519.073	6848.79
519.44	6827.32
519.808	6952.74
520.175	6924.27
520.542	7001.33
520.909	6937.15
521.276	6978.05
521.643	7041.55
522.009	7037.94
522.376	7063.02
522.743	7048.11
523.11	7083.81
523.477	7145.5
523.843	7185.96
524.21	7230.93
524.577	7298.49
524.943	7252.62
525.31	7315.9
525.676	7397.93
526.043	7350.92
526.409	7381.66
526.776	7478.15
527.142	7507.53
527.508	7474.31
527.874	7514.53
528.241	7550.24
528.607	7520.86
528.973	7538.71
529.339	7628.88
529.705	7684.93
530.071	7696.22
530.437	7699.39
530.803	7711.82
531.169	7720.4
531.535	7728.99
531.901	7748.2
532.267	7768.76
532.632	7786.84
532.998	7815.32
533.364	7878.37
533.73	7847.63
534.095	7931.02
534.461	7933.73
534.826	7982.09
535.192	7956.78
535.557	8027.97
535.923	7981.19
536.288	8054.41
536.653	8055.99
537.019	8114.97
537.384	8091.69
537.749	8122.88
538.114	8114.07
538.479	8181.18
538.845	8219.83
539.21	8205.82
539.575	8185.93
539.94	8204.91
540.305	8248.98
540.67	8229.54
541.034	8238.36
541.399	8296.21
541.764	8321.52
542.129	8246.27
542.494	8320.61
542.858	8363.1
543.223	8315.87
543.587	8435.41
543.952	8379.14
544.316	8393.16
544.681	8408.97
545.045	8549.54
545.41	8524
545.774	8543.66
546.138	8474.51
546.503	8591.57
546.867	8528.07
547.231	8581.62
547.595	8589.08
547.959	8565.35
548.324	8623.43
548.688	8575.98
549.052	8676.54
549.416	8675.86
549.779	8665.01
550.143	8679.93
550.507	8761.96
550.871	8706.82
551.235	8717.21
551.599	8757.89
551.962	8761.28
552.326	8780.04
552.689	8808.74
553.053	8800.38
553.417	8833.6
553.78	8809.42
554.143	8846.48
554.507	8846.7
554.87	8929.86
555.234	8928.28
555.597	8864.33
555.96	8886.02
556.323	8941.62
556.686	8895.74
557.05	8971.67
557.413	9015.96
557.776	9025.91
558.139	9061.39
558.502	9057.32
558.865	9033.82
559.228	9167.6
559.59	9156.98
559.953	9128.73
560.316	9173.7
560.679	9102.06
561.041	9167.15
561.404	9278.78
561.767	9323.98
562.129	9246.92
562.492	9377.99
562.854	9343.86
563.217	9368.5
563.579	9347.71
563.941	9430.87
564.304	9446.01
564.666	9442.84
565.028	9481.26
565.39	9464.99
565.753	9580.92
566.115	9568.49
566.477	9563.07
566.839	9522.39
567.201	9651.43
567.563	9649.85
567.925	9744.53
568.287	9721.26
568.648	9761.48
569.01	9790.63
569.372	9856.85
569.734	9762.16
570.095	9877.18
570.457	9903.4
570.819	9897.75
571.18	9859.78
571.542	10034.24
571.903	10030.4
572.265	9958.54
572.626	10062.04
572.987	10077.86
573.349	10075.82
573.71	10165.09
574.071	10094.35
574.432	10173.9
574.794	10229.72
575.155	10203.95
575.516	10234.91
575.877	10242.37
576.238	10290.73
576.599	10296.83
576.96	10326.66
577.32	10312.65
577.681	10292.54
578.042	10381.13
578.403	10376.83
578.763	10410.73
579.124	10476.49
579.485	10477.39
579.845	10532.08
580.206	10491.86
580.566	10537.05
580.927	10493.44
581.287	10526.21
581.648	10469.94
582.008	10626.99
582.368	10582.48
582.728	10627.67
583.089	10582.25
583.449	10584.74
583.809	10660.67
584.169	10568.01
584.529	10589.26
584.889	10669.48
585.249	10667.67
585.609	10564.17
585.969	10604.85
586.329	10674.22
586.688	10716.48
587.048	10721.23
587.408	10686.65
587.768	10655.92
588.127	10706.31
588.487	10685.07
588.846	10724.62
589.206	10664.28
589.565	10706.09
589.925	10745.86
590.284	10702.47
590.643	10719.42
591.003	10741.12
591.362	10810.72
591.721	10791.74
592.08	10716.03
592.44	10851.4
592.799	10782.92
593.158	10787.89
593.517	10740.44
593.876	10727.56
594.235	10784.28
594.593	10803.04
594.952	10828.57
595.311	10735.01
595.67	10868.12
596.029	10883.03
596.387	10869.25
596.746	10914.22
597.104	10858.17
597.463	10803.26
597.822	10939.53
598.18	10859.76
598.538	10886.87
598.897	10944.73
599.255	10844.84
599.613	10979.3
599.972	10905.86
600.33	10954.44
600.688	10880.55
601.046	10905.18
601.404	10928
601.762	11004.39
602.12	11013.2
602.478	10995.35
602.836	11013.88
603.194	10968.45
603.552	10993.76
603.91	10942.01
604.268	10938.62
604.625	10951.28
604.983	11066.53
605.341	10901.11
605.698	10972.52
606.056	11011.17
606.413	11085.06
606.771	11073.08
607.128	11113.54
607.485	11030.15
607.843	11052.07
608.2	11060.43
608.557	11157.6
608.914	11103.37
609.272	11136.36
609.629	11138.85
609.986	11150.6
610.343	11140.65
610.7	11199.41
611.057	11228.33
611.414	11163.93
611.771	11189.01
612.127	11159.64
612.484	11244.61
612.841	11243.48
613.198	11284.38
613.554	11240.54
613.911	11283.25
614.267	11266.75
614.624	11262.01
614.98	11349.24
615.337	11381.33
615.693	11358.73
616.05	11334.77
616.406	11434.88
616.762	11338.84
617.118	11401.89
617.475	11398.05
617.831	11420.65
618.187	11460.87
618.543	11438.5
618.899	11503.13
619.255	11484.83
619.611	11479.18
619.967	11537.03
620.323	11489.8
620.678	11486.63
621.034	11512.17
621.39	11542
621.746	11527.54
622.101	11659.96
622.457	11527.76
622.812	11612.51
623.168	11576.57
623.523	11631.49
623.879	11573.64
624.234	11564.82
624.589	11590.81
624.945	11660.64
625.3	11623.13
625.655	11642.79
626.01	11643.01
626.365	11591.49
626.72	11643.01
627.075	11645.95
627.43	11648.21
627.785	11711.49
628.14	11707.87
628.495	11715.33
628.85	11736.34
629.205	11693.63
629.559	11736.12
629.914	11716.91
630.269	11738.38
630.623	11719.17
630.978	11764.59
631.332	11825.16
631.687	11828.54
632.041	11822.67
632.396	11828.54
632.75	11808.88
633.104	11872.84
633.459	11773.86
633.813	11833.52
634.167	11828.54
634.521	11843.23
634.875	11906.96
635.229	11923.23
635.583	11798.04
635.937	11894.53
636.291	11915.55
636.645	11890.46
636.999	11836.91
637.352	11984.92
637.706	11855.21
638.06	11883.23
638.413	11901.99
638.767	11802.1
639.121	11905.83
639.474	11853.4
639.828	11909.67
640.181	11977.47
640.534	11876.68
640.888	11925.72
641.241	11937.02
641.594	11917.81
641.947	11943.34
642.301	11923.68
642.654	11997.35
643.007	12016.34
643.36	12065.37
643.713	12015.43
644.066	12120.06
644.419	12044.36
644.771	11996
645.124	11930.92
645.477	11933.85
645.83	11821.09
646.182	11842.78
646.535	11760.52
646.888	11828.54
647.24	11840.97
647.593	11796
647.945	11847.75
648.298	11773.18
648.65	11759.17
649.002	11876.68
649.355	11895.89
649.707	11935.66
650.059	11958.49
650.411	12109.67
650.763	12161.42
651.115	12314.63
651.467	12223.11
651.819	12249.55
652.171	12310.11
652.523	12313.96
652.875	12308.76
653.227	12221.08
653.578	12368.19
653.93	12299.04
654.282	12341.3
654.633	12287.52
654.985	12355.99
655.337	12363.45
655.688	12445.25
656.039	12422.43
656.391	12363.9
656.742	12450
657.094	12395.54
657.445	12484.12
657.796	12451.81
658.147	12437.34
658.498	12413.16
658.849	12438.25
659.2	12491.13
659.551	12458.58
659.902	12434.63
660.253	12471.24
660.604	12596.43
660.955	12445.48
661.306	12498.36
661.656	12485.93
662.007	12478.02
662.358	12525.25
662.708	12498.36
663.059	12622.2
663.409	12506.95
663.76	12563.89
664.11	12541.75
664.461	12576.32
664.811	12508.08
665.161	12534.97
665.511	12574.74
665.862	12477.79
666.212	12554.4
666.562	12548.98
666.912	12525.93
667.262	12499.94
667.612	12516.44
667.962	12548.07
668.312	12450.45
668.662	12582.42
669.011	12379.94
669.361	12532.93
669.711	12462.65
670.06	12422.65
670.41	12387.85
670.76	12358.7
671.109	12377.46
671.459	12402.54
671.808	12261.98
672.157	12400.51
672.507	12282.54
672.856	12202.77
673.205	12322.32
673.554	12301.75
673.904	12312.6
674.253	12276.44
674.602	12235.99
674.951	12108.99
675.3	12002.55
675.649	12228.08
675.998	12087.75
676.346	12173.85
676.695	12108.76
677.044	12068.76
677.393	12034.19
677.741	12065.15
678.09	11995.77
678.438	12005.26
678.787	12041.87
679.135	12009.56
679.484	11870.58
679.832	11910.8
680.181	11837.81
680.529	11866.96
680.877	11847.53
681.225	11791.26
681.573	11854.31
681.922	11800.75
682.27	11768.21
682.618	11721.2
682.966	11652.28
683.314	11711.71
683.661	11703.8
684.009	11627.42
684.357	11570.02
684.705	11581.77
685.053	11515.33
685.4	11511.94
685.748	11520.08
686.095	11513.98
686.443	11497.03
686.79	11431.04
687.138	11481.89
687.485	11510.81
687.832	11359.4
688.18	11441.66
688.527	11400.53
688.874	11359.86
689.221	11279.41
689.568	11338.84
689.915	11270.37
690.262	11292.74
690.609	11304.04
690.956	11247.32
691.303	11191.95
691.65	11199.86
691.997	11204.15
692.344	11107.21
692.69	11188.56
693.037	11192.86
693.383	11071.73
693.73	11129.81
694.077	11032.18
694.423	11042.58
694.769	11047.1
695.116	11030.15
695.462	10969.58
695.808	10984.73
696.155	11041.22
696.501	10960.32
696.847	10972.52
697.193	10895.46
697.539	10893.43
697.885	10922.58
698.231	10833.32
698.577	10890.26
698.923	10816.14
699.269	10785.63
699.614	10763.94
699.96	10725.07
700.306	10739.76
700.651	10754.22
700.997	10642.36
701.342	10712.19
701.688	10645.07
702.033	10656.82
702.379	10647.56
702.724	10692.98
703.069	10704.73
703.415	10607.33
703.76	10602.14
704.105	10614.34
704.45	10628.58
704.795	10530.73
705.14	10474.91
705.485	10492.31
705.83	10493.66
706.175	10518.75
706.52	10518.97
706.865	10513.1
707.209	10555.58
707.554	10442.59
707.899	10514.46
708.243	10487.34
708.588	10448.24
708.932	10294.57
709.277	10427.68
709.621	10388.58
709.966	10302.71
710.31	10367.34
710.654	10313.1
710.998	10327.57
711.342	10355.14
711.687	10354.69
712.031	10317.17
712.375	10375.48
712.719	10309.71
713.063	10323.27
713.407	10393.1
713.75	10294.12
714.094	10342.03
714.438	10355.14
714.782	10268.59
715.125	10273.78
715.469	10333.89
715.812	10195.59
716.156	10242.37
716.499	10282.6
716.843	10328.47
717.186	10173.45
717.53	10262.94
717.873	10245.08
718.216	10222.26
718.559	10214.58
718.902	10141.81
719.246	10207.34
719.589	10223.62
719.932	10161.7
720.275	10258.19
720.617	10184.52
720.96	10196.95
721.303	10169.61
721.646	10116.73
721.989	10110.17
722.331	10172.77
722.674	10185.65
723.016	10187.01
723.359	10170.51
723.701	10162.83
724.044	10191.75
724.386	10125.99
724.729	10129.38
725.071	10136.61
725.413	10142.49
725.755	10195.14
726.097	10108.36
726.439	10051.64
726.782	10126.44
727.124	10121.47
727.465	10129.61
727.807	10104.07
728.149	10029.5
728.491	10109.27
728.833	10158.98
729.175	10111.98
729.516	10099.78
729.858	10116.95
730.199	10150.17
730.541	10098.87
730.882	10129.61
731.224	10160.57
731.565	10100
731.906	10160.11
732.248	10222.26
732.589	10114.69
732.93	10127.57
733.271	10198.08
733.612	10161.92
733.953	10241.69
734.294	10194.69
734.635	10172.09
734.976	10253.22
735.317	10180.9
735.658	10249.15
735.999	10280.11
736.339	10340
736.68	10379.77
737.021	10332.54
737.361	10243.5
737.702	10311.52
738.042	10359.66
738.383	10353.78
738.723	10347.45
739.063	10372.09
739.404	10386.55
739.744	10419.09
740.084	10415.02
740.424	10423.84
740.764	10440.78
741.104	10458.41
741.444	10505.87
741.784	10518.07
742.124	10504.06
742.464	10556.49
742.804	10578.63
743.143	10544.74
743.483	10513.1
743.823	10586.09
744.162	10564.85
744.502	10644.4
744.841	10666.32
745.181	10761.45
745.52	10696.37
745.86	10734.79
746.199	10769.36
746.538	10759.87
746.877	10866.08
747.216	10814.11
747.556	10812.98
747.895	10912.18
748.234	10856.82
748.573	10841.9
748.911	10953.77
749.25	10968.45
749.589	10995.57
749.928	11038.06
750.267	11133.42
750.605	11087.32
750.944	11117.6
751.283	11123.7
751.621	11149.92
751.96	11193.76
752.298	11199.18
752.636	11185.4
752.975	11229.69
753.313	11236.7
753.651	11377.26
753.989	11305.85
754.327	11341.1
754.666	11314.21
755.004	11424.71
755.342	11391.04
755.679	11435.56
756.017	11478.72
756.355	11513.98
756.693	11498.61
757.031	11503.13
757.368	11509.68
757.706	11527.99
758.044	11609.79
758.381	11613.41
758.719	11607.76
