Data from blue_chair_FLMS001491_00063.txt Node
Date: Wed Feb 08 10:31:33 GMT 2017
User: dcchb
Spectrometer: FLMS00149
Trigger mode: 0
Integration Time (sec): 2.000000E-2
Scans to average: 10
Electric dark correction enabled: true
Nonlinearity correction enabled: false
Boxcar width: 0
XAxis mode: Wavelengths
Number of Pixels in Spectrum: 2048
>>>>>Begin Spectral Data<<<<<
341.393	-16.81
341.776	-16.81
342.16	-16.81
342.543	-83.47
342.927	-58.84
343.31	-71.5
343.693	-61.78
344.077	-50.03
344.46	-53.87
344.843	-31.95
345.226	-57.71
345.61	-36.24
345.993	-16.81
346.376	0.37
346.759	2.63
347.142	12.34
347.525	35.62
347.908	50.99
348.291	76.07
348.674	92.12
349.057	109.74
349.44	97.31
349.823	142.74
350.206	146.35
350.588	157.88
350.971	192.23
351.354	193.58
351.737	210.98
352.119	240.36
352.502	227.93
352.884	246.69
353.267	260.25
353.65	251.66
354.032	276.07
354.414	279
354.797	280.81
355.179	302.28
355.562	292.56
355.944	298.21
356.326	310.42
356.709	333.01
357.091	308.16
357.473	318.1
357.855	314.03
358.238	322.62
358.62	322.17
359.002	320.81
359.384	327.36
359.766	315.61
360.148	298.89
360.53	302.51
360.912	307.25
361.294	314.94
361.676	297.76
362.057	298.44
362.439	284.65
362.821	289.4
363.203	283.52
363.584	307.7
363.966	293.69
364.348	276.74
364.729	291.43
365.111	297.99
365.493	292.79
365.874	267.48
366.256	277.87
366.637	316.29
367.019	272.9
367.4	265.22
367.781	300.25
368.163	293.01
368.544	297.53
368.925	304.99
369.306	280.36
369.688	284.88
370.069	283.07
370.45	288.5
370.831	279.23
371.212	297.08
371.593	292.79
371.974	280.13
372.355	290.76
372.736	287.82
373.117	285.56
373.498	299.34
373.879	301.6
374.26	296.4
374.641	302.96
375.021	290.53
375.402	275.61
375.783	278.78
376.163	278.1
376.544	300.7
376.925	282.62
377.305	296.18
377.686	290.08
378.066	272.45
378.447	288.95
378.827	304.99
379.208	291.21
379.588	296.4
379.968	276.29
380.349	304.54
380.729	292.79
381.109	306.8
381.489	294.6
381.87	286.01
382.25	286.24
382.63	290.98
383.01	300.92
383.39	302.51
383.77	303.64
384.15	289.4
384.53	295.73
384.91	307.93
385.29	341.83
385.67	309.96
386.049	306.12
386.429	304.31
386.809	288.72
387.189	298.21
387.568	318.32
387.948	332.34
388.328	293.47
388.707	299.79
389.087	308.61
389.466	327.36
389.846	323.52
390.225	314.48
390.605	314.71
390.984	309.51
391.363	313.13
391.743	315.84
392.122	318.1
392.501	316.97
392.881	314.94
393.26	325.1
393.639	297.76
394.018	336.86
394.397	320.81
394.776	313.13
395.155	313.13
395.534	325.1
395.913	314.03
396.292	328.27
396.671	344.09
397.05	335.73
397.429	323.75
397.808	317.2
398.186	345.89
398.565	342.05
398.944	332.56
399.323	330.75
399.701	337.99
400.08	354.48
400.458	331.21
400.837	329.17
401.215	339.34
401.594	335.95
401.972	324.65
402.351	355.39
402.729	377.53
403.107	351.54
403.486	344.54
403.864	376.63
404.242	349.28
404.62	362.62
404.999	352.9
405.377	379.57
405.755	372.79
406.133	357.65
406.511	370.3
406.889	367.59
407.267	401.26
407.645	384.76
408.023	393.13
408.401	387.93
408.779	389.51
409.156	394.71
409.534	388.38
409.912	394.71
410.29	397.19
410.667	392
411.045	370.08
411.422	401.49
411.8	428.38
412.178	411.2
412.555	404.42
412.933	402.16
413.31	411.88
413.687	425.21
414.065	431.77
414.442	429.51
414.819	414.14
415.197	406.01
415.574	426.34
415.951	426.12
416.328	423.63
416.705	415.95
417.082	420.47
417.46	429.96
417.837	453.69
418.214	426.8
418.591	424.08
418.967	450.52
419.344	442.62
419.721	441.71
420.098	453.91
420.475	448.72
420.852	453.91
421.228	440.13
421.605	453.91
421.982	469.06
422.358	474.71
422.735	471.32
423.111	475.61
423.488	495.27
423.864	476.29
424.241	480.13
424.617	463.18
424.994	487.59
425.37	468.83
425.746	492.56
426.123	499.56
426.499	487.59
426.875	491.65
427.251	531.88
427.627	497.08
428.003	539.56
428.379	533.01
428.756	525.78
429.132	524.65
429.507	512.22
429.883	541.14
430.259	562.84
430.635	562.84
431.011	551.54
431.387	553.8
431.763	560.13
432.138	566.68
432.514	559
432.89	584.76
433.265	592.44
433.641	599.67
434.016	580.24
434.392	596.28
434.767	620.69
435.143	607.36
435.518	616.62
435.894	624.53
436.269	644.42
436.644	623.85
437.02	649.62
437.395	653.91
437.77	667.92
438.145	652.55
438.52	669.95
438.895	667.92
439.271	683.29
439.646	697.3
440.021	695.04
440.395	705.21
440.77	698.88
441.145	694.81
441.52	723.51
441.895	739.33
442.27	715.83
442.645	730.07
443.019	712.44
443.394	753.34
443.769	748.82
444.143	779.78
444.518	771.42
444.892	759.67
445.267	791.53
445.641	765.09
446.016	788.37
446.39	806
446.764	778.43
447.139	793.57
447.513	819.33
447.887	767.13
448.262	810.74
448.636	790.63
449.01	809.61
449.384	816.39
449.758	824.98
450.132	819.1
450.506	838.09
450.88	846.22
451.254	843.06
451.628	854.58
452.002	873.79
452.376	878.08
452.75	867.69
453.123	896.16
453.497	882.6
453.871	893
454.244	897.74
454.618	905.65
454.992	916.73
455.365	896.39
455.739	923.51
456.112	918.76
456.486	942.72
456.859	948.36
457.232	958.08
457.606	933
457.979	970.29
458.352	982.04
458.725	986.56
459.099	995.14
459.472	991.53
459.845	1022.04
460.218	1043.96
460.591	1019.32
460.964	1027.68
461.337	1045.54
461.71	1040.79
462.083	1097.29
462.456	1052.77
462.829	1063.39
463.201	1060.9
463.574	1068.36
463.947	1074.46
464.32	1098.87
464.692	1128.7
465.065	1126.21
465.438	1114.91
465.81	1165.31
466.183	1149.49
466.555	1181.81
466.928	1158.98
467.3	1151.52
467.672	1182.71
468.045	1206.44
468.417	1185.42
468.789	1215.02
469.161	1206.89
469.534	1219.54
469.906	1250.28
470.278	1234.69
470.65	1236.04
471.022	1285.31
471.394	1272.88
471.766	1303.16
472.138	1305.87
472.51	1327.79
472.882	1289.15
473.253	1326.21
473.625	1355.13
473.997	1366.66
474.369	1367.79
474.74	1366.66
475.112	1392.87
475.484	1437.39
475.855	1419.54
476.227	1445.3
476.598	1462.93
476.97	1466.77
477.341	1471.06
477.713	1537.73
478.084	1492.76
478.455	1491.18
478.827	1557.61
479.198	1548.12
479.569	1556.71
479.94	1573.43
480.311	1589.25
480.682	1584.73
481.053	1659.08
481.424	1646.88
481.795	1628.57
482.166	1698.18
482.537	1698.4
482.908	1722.13
483.279	1710.15
483.65	1698.4
484.021	1754.45
484.391	1736.82
484.762	1766.87
485.133	1760.55
485.503	1785.18
485.874	1776.37
486.244	1803.94
486.615	1828.34
486.985	1831.28
487.356	1824.27
487.726	1822.24
488.097	1866.98
488.467	1875.12
488.837	1866.08
489.207	1908.34
489.578	1921.9
489.948	1907.66
490.318	1913.31
490.688	1894.55
491.058	1910.83
491.428	1915.57
491.798	1939.75
492.168	1970.26
492.538	1951.5
492.908	1937.72
493.278	1960.32
493.648	1974.1
494.017	1971.39
494.387	1949.69
494.757	1998.28
495.126	1968.9
495.496	1969.58
495.866	1991.05
496.235	2002.12
496.605	1940.43
496.974	1973.2
497.344	1984.27
497.713	1967.55
498.082	1999.41
498.452	2000.31
498.821	1977.04
499.19	2010.71
499.559	2003.48
499.928	1981.78
500.298	1962.58
500.667	1967.55
501.036	1970.71
501.405	1978.17
501.774	1997.6
502.143	1974.33
502.512	1994.21
502.88	1953.54
503.249	1958.96
503.618	1965.06
503.987	1936.14
504.356	1936.36
504.724	1956.25
505.093	1951.73
505.462	1958.96
505.83	1933.42
506.199	1956.02
506.567	1936.36
506.936	1934.33
507.304	1942.46
507.672	1930.71
508.041	1925.51
508.409	1952.63
508.777	1927.32
509.145	1945.85
509.514	1949.02
509.882	1966.64
510.25	1933.88
510.618	1897.94
510.986	1920.99
511.354	1923.03
511.722	1929.58
512.09	1952.18
512.458	1909.02
512.826	1911.96
513.193	1915.12
513.561	1903.14
513.929	1895.23
514.297	1902.01
514.664	1896.81
515.032	1888.68
515.4	1903.14
515.767	1884.84
516.135	1898.4
516.502	1844.61
516.869	1854.56
517.237	1863.37
517.604	1831.73
517.972	1857.04
518.339	1878.51
518.706	1830.38
519.073	1860.21
519.44	1857.49
519.808	1815.46
520.175	1846.19
520.542	1838.06
520.909	1822.24
521.276	1818.17
521.643	1792.41
522.009	1801
522.376	1835.8
522.743	1847.55
523.11	1807.55
523.477	1843.26
523.843	1843.71
524.21	1817.04
524.577	1840.54
524.943	1825.86
525.31	1786.76
525.676	1806.65
526.043	1778.17
526.409	1786.76
526.776	1806.42
527.142	1812.3
527.508	1807.55
527.874	1831.73
528.241	1806.42
528.607	1784.28
528.973	1838.96
529.339	1808.23
529.705	1801.9
530.071	1799.19
530.437	1786.99
530.803	1825.86
531.169	1782.24
531.535	1793.54
531.901	1834.67
532.267	1800.09
532.632	1808.68
532.998	1793.54
533.364	1793.31
533.73	1807.33
534.095	1826.53
534.461	1791.96
534.826	1827.44
535.192	1795.8
535.557	1796.03
535.923	1807.78
536.288	1786.99
536.653	1801.22
537.019	1787.89
537.384	1797.38
537.749	1802.81
538.114	1780.21
538.479	1784.28
538.845	1824.95
539.21	1775.46
539.575	1767.33
539.94	1795.8
540.305	1785.41
540.67	1766.42
541.034	1782.92
541.399	1786.08
541.764	1761.68
542.129	1779.76
542.494	1792.86
542.858	1776.82
543.223	1763.48
543.587	1808.68
543.952	1771.85
544.316	1761
544.681	1766.42
545.045	1759.42
545.41	1756.71
545.774	1737.95
546.138	1762.13
546.503	1719.19
546.867	1758.51
547.231	1737.04
547.595	1745.18
547.959	1765.07
548.324	1753.99
548.688	1735.46
549.052	1733.88
549.416	1736.14
549.779	1732.98
550.143	1729.59
550.507	1733.65
550.871	1728.01
551.235	1730.49
551.599	1687.1
551.962	1694.33
552.326	1726.65
552.689	1720.77
553.053	1699.53
553.417	1707.21
553.78	1715.12
554.143	1702.02
554.507	1700.21
554.87	1680.1
555.234	1715.8
555.597	1716.71
555.96	1730.72
556.323	1708.57
556.686	1736.59
557.05	1712.86
557.413	1719.42
557.776	1698.18
558.139	1704.5
558.502	1737.04
558.865	1700.21
559.228	1697.5
559.59	1702.47
559.953	1692.75
560.316	1732.98
560.679	1694.56
561.041	1737.5
561.404	1735.46
561.767	1746.99
562.129	1695.01
562.492	1715.8
562.854	1720.32
563.217	1713.09
563.579	1704.05
563.941	1710.6
564.304	1709.25
564.666	1720.1
565.028	1724.84
565.39	1732.3
565.753	1745.86
566.115	1722.13
566.477	1743.6
566.839	1752.86
567.201	1776.82
567.563	1749.25
567.925	1757.84
568.287	1776.37
568.648	1716.71
569.01	1765.29
569.372	1788.57
569.734	1792.41
570.095	1789.7
570.457	1795.35
570.819	1799.19
571.18	1811.39
571.542	1810.49
571.903	1809.81
572.265	1819.3
572.626	1804.84
572.987	1816.14
573.349	1803.26
573.71	1821.79
574.071	1828.12
574.432	1798.29
574.794	1827.44
575.155	1850.71
575.516	1840.09
575.877	1867.89
576.238	1853.88
576.599	1865.18
576.96	1850.49
577.32	1861.11
577.681	1867.21
578.042	1868.34
578.403	1885.06
578.763	1881
579.124	1909.92
579.485	1878.06
579.845	1891.62
580.206	1906.08
580.566	1887.1
580.927	1878.74
581.287	1899.3
581.648	1891.62
582.008	1901.11
582.368	1906.76
582.728	1912.41
583.089	1895.01
583.449	1904.27
583.809	1912.41
584.169	1918.96
584.529	1918.28
584.889	1939.07
585.249	1919.41
585.609	1954.44
585.969	1947.66
586.329	1959.19
586.688	1908.79
587.048	1935.23
587.408	1943.14
587.768	1966.64
588.127	1949.47
588.487	1943.37
588.846	1970.26
589.206	1930.26
589.565	1968.23
589.925	1953.99
590.284	1947.21
590.643	1957.83
591.003	1945.4
591.362	1978.85
591.721	1954.21
592.08	1960.54
592.44	1959.19
592.799	1942.46
593.158	1943.37
593.517	1944.72
593.876	1955.57
594.235	1942.92
594.593	1958.28
594.952	1933.2
595.311	1964.84
595.67	1953.31
596.029	1997.38
596.387	1966.64
596.746	1984.95
597.104	1953.54
597.463	1915.8
597.822	1932.52
598.18	1938.17
598.538	1937.49
598.897	1966.42
599.255	1928.9
599.613	1956.47
599.972	1953.54
600.33	1940.88
600.688	1938.4
601.046	1944.72
601.404	1937.49
601.762	1960.54
602.12	1960.99
602.478	1956.93
602.836	1956.25
603.194	1957.15
603.552	1922.12
603.91	1961.45
604.268	1973.65
604.625	1950.15
604.983	1956.47
605.341	1961.22
605.698	1955.57
606.056	1926.64
606.413	1955.12
606.771	1977.72
607.128	1944.95
607.485	1930.71
607.843	1958.96
608.2	1952.63
608.557	1964.61
608.914	1944.95
609.272	1993.76
609.629	1975
609.986	1957.83
610.343	1954.21
610.7	2000.54
611.057	1986.98
611.414	1993.08
611.771	1988.79
612.127	1963.03
612.484	1948.34
612.841	2018.39
613.198	2001.44
613.554	1992.63
613.911	1980.43
614.267	2000.54
614.624	1994.44
614.98	1991.05
615.337	1993.99
615.693	1991.05
616.05	1971.84
616.406	2022.01
616.762	2020.65
617.118	1976.36
617.475	1975
617.831	1991.5
618.187	1958.06
618.543	1998.73
618.899	1995.57
619.255	1999.41
619.611	1998.05
619.967	2026.98
620.323	2024.27
620.678	2030.82
621.034	2034.21
621.39	2001.67
621.746	2008.9
622.101	2025.17
622.457	2005.29
622.812	2021.78
623.168	2015
623.523	2017.72
623.879	2008.22
624.234	2041.9
624.589	2031.73
624.945	2011.16
625.3	2029.69
625.655	1993.31
626.01	2014.55
626.365	2013.2
626.72	2008
627.075	2040.31
627.43	2038.96
627.785	2007.77
628.14	2046.42
628.495	2021.78
628.85	2026.08
629.205	2016.13
629.559	2016.81
629.914	1994.89
630.269	2031.95
630.623	2046.19
630.978	2037.15
631.332	2027.21
631.687	2035.12
632.041	2018.62
632.396	2046.87
632.75	2048.9
633.104	2021.56
633.459	2029.69
633.813	2033.53
634.167	2047.09
634.521	2044.38
634.875	2009.81
635.229	2011.16
635.583	2027.21
635.937	1977.04
636.291	2027.43
636.645	2047.09
636.999	2030.6
637.352	2020.2
637.706	2021.11
638.06	2001.22
638.413	2021.11
638.767	2008.68
639.121	2038.51
639.474	2022.23
639.828	2026.98
640.181	2036.7
640.534	2030.82
640.888	2034.89
641.241	2026.08
641.594	2007.09
641.947	2025.85
642.301	2021.78
642.654	2025.4
643.007	2041.22
643.36	2046.87
643.713	2034.89
644.066	2053.19
644.419	2018.39
644.771	2011.39
645.124	2003.48
645.477	1995.12
645.83	2014.78
646.182	2001.22
646.535	2011.39
646.888	2003.25
647.24	1998.28
647.593	2018.17
647.945	1990.37
648.298	2002.57
648.65	2011.84
649.002	2021.33
649.355	2006.87
649.707	2010.26
650.059	2024.49
650.411	2057.49
650.763	2044.61
651.115	2057.04
651.467	2022.01
651.819	2071.95
652.171	2056.36
652.523	2092.06
652.875	2075.34
653.227	2069.24
653.578	2070.14
653.93	2062.23
654.282	2061.78
654.633	2093.19
654.985	2095
655.337	2088.45
655.688	2097.71
656.039	2106.3
656.391	2088.45
656.742	2104.94
657.094	2093.19
657.445	2086.87
657.796	2115.57
658.147	2103.36
658.498	2131.38
658.849	2140.88
659.2	2109.46
659.551	2128.9
659.902	2127.99
660.253	2144.94
660.604	2125.74
660.955	2127.54
661.306	2126.64
661.656	2115.11
662.007	2138.84
662.358	2111.5
662.708	2133.87
663.059	2151.27
663.409	2135.45
663.76	2140.88
664.11	2151.72
664.461	2142.23
664.811	2124.15
665.161	2127.99
665.511	2109.46
665.862	2122.57
666.212	2175.9
666.562	2169.35
666.912	2131.16
667.262	2126.19
667.612	2143.36
667.962	2132.97
668.312	2120.99
668.662	2130.03
669.011	2179.52
669.361	2095.45
669.711	2121.44
670.06	2128.9
670.41	2100.42
670.76	2106.3
671.109	2128.67
671.459	2128.9
671.808	2131.84
672.157	2128.22
672.507	2134.55
672.856	2085.96
673.205	2095.91
673.554	2097.26
673.904	2095.23
674.253	2110.37
674.602	2106.07
674.951	2059.07
675.3	2088.22
675.649	2068.11
675.998	2090.93
676.346	2092.74
676.695	2084.83
677.044	2084.15
677.393	2090.26
677.741	2078.5
678.09	2081.22
678.438	2079.18
678.787	2085.06
679.135	2071.27
679.484	2061.1
679.832	2055.45
680.181	2039.41
680.529	2076.47
680.877	2027.66
681.225	2021.33
681.573	2064.72
681.922	2033.76
682.27	2024.49
682.618	2001.22
682.966	2023.82
683.314	2048.22
683.661	2015.91
684.009	2010.71
684.357	2022.91
684.705	2008.9
685.053	2000.99
685.4	1973.65
685.748	1991.95
686.095	1949.02
686.443	1995.57
686.79	1951.95
687.138	1975.91
687.485	1987.89
687.832	1963.48
688.18	1937.49
688.527	1964.84
688.874	1942.01
689.221	1923.93
689.568	1940.43
689.915	1909.92
690.262	1936.36
690.609	1921.67
690.956	1913.76
691.303	1931.84
691.65	1890.04
691.997	1892.29
692.344	1883.03
692.69	1898.4
693.037	1899.53
693.383	1888.91
693.73	1864.27
694.077	1865.4
694.423	1865.85
694.769	1822.47
695.116	1875.12
695.462	1878.06
695.808	1855.69
696.155	1852.97
696.501	1815.69
696.847	1854.78
697.193	1774.33
697.539	1831.73
697.885	1816.59
698.231	1807.1
698.577	1776.82
698.923	1809.59
699.269	1817.27
699.614	1797.61
699.96	1805.07
700.306	1771.85
700.651	1812.75
700.997	1784.73
701.342	1773.2
701.688	1786.31
702.033	1797.83
702.379	1766.87
702.724	1757.84
703.069	1766.2
703.415	1744.28
703.76	1728.23
704.105	1743.15
704.45	1753.54
704.795	1728.68
705.14	1757.38
705.485	1742.02
705.83	1746.54
706.175	1746.99
706.52	1747.89
706.865	1768.68
707.209	1754.9
707.554	1750.38
707.899	1741.11
708.243	1714.45
708.588	1734.11
708.932	1742.24
709.277	1726.65
709.621	1719.64
709.966	1721
710.31	1716.48
710.654	1697.95
710.998	1713.32
711.342	1751.96
711.687	1731.4
712.031	1706.76
712.375	1717.84
712.719	1725.29
713.063	1730.72
713.407	1716.71
713.75	1742.69
714.094	1745.86
714.438	1718.74
714.782	1759.64
715.125	1741.56
715.469	1711.51
715.812	1784.95
716.156	1746.76
716.499	1745.63
716.843	1716.48
717.186	1746.31
717.53	1738.63
717.873	1768.68
718.216	1787.44
718.559	1780.21
718.902	1761.9
719.246	1772.98
719.589	1767.33
719.932	1755.58
720.275	1765.52
720.617	1763.03
720.96	1786.76
721.303	1795.8
721.646	1801.68
721.989	1784.95
722.331	1796.7
722.674	1820.66
723.016	1824.05
723.359	1809.13
723.701	1802.13
724.044	1824.27
724.386	1831.05
724.729	1835.8
725.071	1825.63
725.413	1835.57
725.755	1865.18
726.097	1802.81
726.439	1838.06
726.782	1876.02
727.124	1879.87
727.465	1883.71
727.807	1858.62
728.149	1913.31
728.491	1887.32
728.833	1888.68
729.175	1889.81
729.516	1885.06
729.858	1915.35
730.199	1912.63
730.541	1924.61
730.882	1917.38
731.224	1951.05
731.565	1953.54
731.906	1958.06
732.248	1993.31
732.589	1970.94
732.93	1971.39
733.271	2017.49
733.612	1990.15
733.953	2017.26
734.294	2026.53
734.635	2030.37
734.976	2067.66
735.317	2088.67
735.658	2073.53
735.999	2099.75
736.339	2080.54
736.68	2080.76
737.021	2113.76
737.361	2131.38
737.702	2129.35
738.042	2130.71
738.383	2145.62
738.723	2177.03
739.063	2199.63
739.404	2220.42
739.744	2212.96
740.084	2202.57
740.424	2278.95
740.764	2292.51
741.104	2301.1
741.444	2297.48
741.784	2346.52
742.124	2329.8
742.464	2362.11
742.804	2379.74
743.143	2391.49
743.483	2433.3
743.823	2427.42
744.162	2471.71
744.502	2525.95
744.841	2518.95
745.181	2542
745.52	2590.81
745.86	2609.79
746.199	2656.34
746.538	2667.19
746.877	2769.33
747.216	2763.46
747.556	2746.28
747.895	2783.34
748.234	2860.41
748.573	2873.96
748.911	2892.04
749.25	2941.08
749.589	3004.36
749.928	3052.94
750.267	3048.2
750.605	3091.59
750.944	3136.78
751.283	3190.11
751.621	3257
751.96	3263.11
752.298	3320.73
752.636	3384.01
752.975	3474.85
753.313	3485.93
753.651	3561.4
753.989	3589.43
754.327	3601.63
754.666	3673.04
755.004	3751.23
755.342	3771.57
755.679	3844.11
756.017	3874.39
756.355	3967.49
756.693	3982.86
757.031	4097.66
757.368	4097.89
757.706	4147.15
758.044	4218.56
758.381	4262.18
758.719	4352.34
759.056	4435.05
759.394	4424.43
759.731	4452.68
760.068	4543.52
760.405	4606.12
760.743	4641.38
761.08	4749.85
761.417	4783.29
761.754	4864.42
762.091	4943.06
762.428	4925.44
762.765	4929.05
763.102	5024.64
763.438	5059.44
763.775	5141.25
764.112	5160.46
764.449	5225.54
764.785	5268.7
765.122	5334.69
765.458	5364.97
765.795	5438.64
766.131	5445.2
766.467	5470.05
766.804	5483.16
767.14	5552.76
767.476	5654
767.812	5667.11
768.148	5711.18
768.485	5757.73
768.821	5722.25
769.157	5815.58
769.492	5868.91
769.828	5865.75
770.164	5924.28
770.5	5906.43
770.836	5992.75
771.171	5968.8
771.507	5933.54
