Data from blue_clamp_base_FLMS001491_00090.txt Node
Date: Wed Feb 08 15:16:39 GMT 2017
User: dcchb
Spectrometer: FLMS00149
Trigger mode: 0
Integration Time (sec): 2.000000E-2
Scans to average: 10
Electric dark correction enabled: true
Nonlinearity correction enabled: false
Boxcar width: 0
XAxis mode: Wavelengths
Number of Pixels in Spectrum: 2048
>>>>>Begin Spectral Data<<<<<
341.393	-32.26
341.776	-32.26
342.16	-32.26
342.543	-64.35
342.927	-78.36
343.31	-58.02
343.693	-79.49
344.077	-79.26
344.46	-65.7
344.843	-53.95
345.226	-45.59
345.61	-16.21
345.993	-17.57
346.376	-3.11
346.759	9.1
347.142	23.33
347.525	37.12
347.908	74.86
348.291	79.38
348.674	97
349.057	98.13
349.44	140.62
349.823	144.46
350.206	156.44
350.588	191.24
350.971	219.49
351.354	244.12
351.737	230.33
352.119	257.22
352.502	267.85
352.884	259.26
353.267	300.61
353.65	293.83
354.032	310.1
354.414	313.27
354.797	332.48
355.179	324.34
355.562	329.09
355.944	340.61
356.326	343.55
356.709	341.97
357.091	348.07
357.473	356.66
357.855	357.11
358.238	342.42
358.62	343.78
359.002	357.79
359.384	339.26
359.766	370.89
360.148	362.98
360.53	376.09
360.912	348.07
361.294	350.56
361.676	355.98
362.057	332.7
362.439	344.91
362.821	341.97
363.203	349.88
363.584	357.11
363.966	327.05
364.348	336.09
364.729	336.77
365.111	346.26
365.493	351.69
365.874	350.1
366.256	338.58
366.637	353.04
367.019	335.41
367.4	360.27
367.781	344.68
368.163	341.52
368.544	322.31
368.925	323.21
369.306	339.93
369.688	328.64
370.069	326.83
370.45	345.58
370.831	353.95
371.212	338.35
371.593	335.64
371.974	343.78
372.355	349.2
372.736	341.74
373.117	337
373.498	351.23
373.879	348.97
374.26	345.36
374.641	330.67
375.021	345.13
375.402	341.29
375.783	351.01
376.163	376.54
376.544	360.27
376.925	342.42
377.305	349.88
377.686	369.31
378.066	373.15
378.447	365.02
378.827	372.48
379.208	374.06
379.588	378.8
379.968	378.58
380.349	380.61
380.729	395.75
381.109	375.19
381.489	373.15
381.87	414.96
382.25	408.86
382.63	392.36
383.01	386.94
383.39	394.62
383.77	416.09
384.15	391.68
384.53	374.28
384.91	409.76
385.29	414.73
385.67	424.23
386.049	431.46
386.429	426.03
386.809	410.44
387.189	423.77
387.568	444.56
387.948	426.26
388.328	449.31
388.707	440.27
389.087	447.95
389.466	479.59
389.846	464.68
390.225	456.99
390.605	482.76
390.984	466.94
391.363	472.59
391.743	491.79
392.122	489.99
392.501	472.36
392.881	481.17
393.26	494.73
393.639	506.03
394.018	513.49
394.397	503.77
394.776	506.94
395.155	514.39
395.534	515.98
395.913	524.11
396.292	520.95
396.671	529.76
397.05	541.96
397.429	545.8
397.808	546.71
398.186	559.36
398.565	524.56
398.944	560.72
399.323	568.86
399.701	581.28
400.08	583.77
400.458	580.61
400.837	595.75
401.215	603.88
401.594	580.83
401.972	591.68
402.351	613.37
402.729	633.03
403.107	633.03
403.486	625.35
403.864	642.53
404.242	638.91
404.62	645.92
404.999	659.02
405.377	692.92
405.755	685.91
406.133	682.07
406.511	697.89
406.889	691.79
407.267	711.22
407.645	713.94
408.023	770.21
408.401	750.55
408.779	773.14
409.156	754.61
409.534	757.1
409.912	771.11
410.29	802.97
410.667	831
411.045	823.54
411.422	848.4
411.8	841.62
412.178	851.79
412.555	838.68
412.933	871.45
413.31	884.55
413.687	885
414.065	919.35
414.442	904.67
414.819	905.57
415.197	901.95
415.574	951.44
415.951	939.69
416.328	975.4
416.705	958.9
417.082	974.27
417.46	980.82
417.837	1009.75
418.214	1003.42
418.591	1020.37
418.967	999.8
419.344	1025.34
419.721	1013.36
420.098	1059.01
420.475	1066.7
420.852	1076.64
421.228	1089.97
421.605	1080.25
421.982	1096.98
422.358	1122.51
422.735	1115.96
423.111	1154.83
423.488	1167.03
423.864	1179.23
424.241	1152.12
424.617	1207.71
424.994	1208.61
425.37	1214.04
425.746	1208.39
426.123	1239.35
426.499	1241.15
426.875	1278.67
427.251	1310.08
427.627	1314.82
428.003	1320.25
428.379	1318.21
428.756	1355.95
429.132	1369.74
429.507	1412.45
429.883	1420.81
430.259	1426.69
430.635	1451.54
431.011	1446.57
431.387	1496.74
431.763	1531.32
432.138	1517.53
432.514	1580.35
432.89	1569.05
433.265	1589.39
433.641	1602.95
434.016	1616.74
434.392	1644.98
434.767	1683.4
435.143	1685.89
435.518	1729.28
435.894	1731.31
436.269	1758.88
436.644	1772.89
437.02	1803.17
437.395	1828.26
437.77	1807.01
438.145	1868.93
438.52	1887.69
438.895	1890.63
439.271	1929.72
439.646	1936.95
440.021	1947.12
440.395	1960.46
440.77	1954.58
441.145	1995.03
441.52	2003.85
441.895	2049.95
442.27	2085.88
442.645	2046.78
443.019	2063.05
443.394	2080.68
443.769	2103.05
444.143	2083.39
444.518	2178.08
444.892	2192.54
445.267	2176.95
445.641	2216.5
446.016	2200.68
446.39	2204.74
446.764	2214.24
447.139	2232.09
447.513	2287
447.887	2280.45
448.262	2301.69
448.636	2319.32
449.01	2329.26
449.384	2380.78
449.758	2401.58
450.132	2425.08
450.506	2403.84
450.88	2447.68
451.254	2441.8
451.628	2465.08
452.002	2526.54
452.376	2510.95
452.75	2538.29
453.123	2604.96
453.497	2610.84
453.871	2632.98
454.244	2697.61
454.618	2720.44
454.992	2733.32
455.365	2781.45
455.739	2795.24
456.112	2850.15
456.486	2827.33
456.859	2837.5
457.232	2943.93
457.606	2924.5
457.979	2959.3
458.352	3028.9
458.725	3034.78
459.099	3115.68
459.472	3145.96
459.845	3155.23
460.218	3180.99
460.591	3222.8
460.964	3239.97
461.337	3334.66
461.71	3361.55
462.083	3449.46
462.456	3399.97
462.829	3409.23
463.201	3488.55
463.574	3499.17
463.947	3510.02
464.32	3613.52
464.692	3647.87
465.065	3659.17
465.438	3703.01
465.81	3772.39
466.183	3778.94
466.555	3914.76
466.928	3921.08
467.3	3924.25
467.672	3988.43
468.045	4060.06
468.417	4062.32
468.789	4040.4
469.161	4087.18
469.534	4233.39
469.906	4286.72
470.278	4314.97
470.65	4319.94
471.022	4418.92
471.394	4525.59
471.766	4510.67
472.138	4511.8
472.51	4656.66
472.882	4702.08
473.253	4756.32
473.625	4892.81
473.997	4909.76
474.369	4971.9
474.74	5034.05
475.112	5118.79
475.484	5161.5
475.855	5227.72
476.227	5302.97
476.598	5414.15
476.97	5442.85
477.341	5568.5
477.713	5645.11
478.084	5655.28
478.455	5815.27
478.827	5804.65
479.198	6044.19
479.569	5955.83
479.94	6160.57
480.311	6206.9
480.682	6266.78
481.053	6377.74
481.424	6464.29
481.795	6500.22
482.166	6636.27
482.537	6653.67
482.908	6808.01
483.279	6900.21
483.65	6973.43
484.021	7132.52
484.391	7151.05
484.762	7177.04
485.133	7256.59
485.503	7342.69
485.874	7469.01
486.244	7507.88
486.615	7716.24
486.985	7743.36
487.356	7831.71
487.726	7867.19
488.097	8056.34
488.467	8029
488.837	8191.71
489.207	8291.82
489.578	8339.72
489.948	8395.32
490.318	8533.84
490.688	8551.02
491.058	8600.28
491.428	8677.12
491.798	8802.08
492.168	8920.73
492.538	8941.97
492.908	9022.19
493.278	9138.8
493.648	9166.14
494.017	9199.59
494.387	9262.86
494.757	9359.36
495.126	9446.36
495.496	9413.59
495.866	9388.06
496.235	9537.43
496.605	9578.11
496.974	9618.56
497.344	9679.58
497.713	9715.96
498.082	9749.4
498.452	9869.63
498.821	9903.52
499.19	9914.82
499.559	10029.4
499.928	9997.08
500.298	10046.12
500.667	10109.4
501.036	10095.38
501.405	10210.41
501.774	10203.86
502.143	10233.01
502.512	10309.39
502.88	10357.75
503.249	10331.76
503.618	10416.96
503.987	10461.7
504.356	10519.1
504.724	10531.98
505.093	10514.36
505.462	10558.87
505.83	10674.35
506.199	10750.96
506.567	10816.04
506.936	10802.71
507.304	10950.5
507.672	10924.97
508.041	10972.2
508.409	11118.41
508.777	11115.92
509.145	11177.16
509.514	11162.7
509.882	11201.34
510.25	11254.45
510.618	11309.36
510.986	11301.91
511.354	11506.65
511.722	11500.09
512.09	11539.87
512.458	11599.75
512.826	11638.17
513.193	11668
513.561	11668.22
513.929	11790.25
514.297	11818.5
514.664	11855.34
515.032	11946.18
515.4	11990.7
515.767	12046.07
516.135	12044.26
516.502	12000.19
516.869	12269.11
517.237	12281.77
517.604	12171.71
517.972	12317.25
518.339	12424.36
518.706	12340.07
519.073	12434.98
519.44	12524.7
519.808	12658.48
520.175	12627.07
520.542	12785.03
520.909	12754.07
521.276	12774.86
521.643	12883.79
522.009	13012.6
522.376	12984.8
522.743	13072.48
523.11	13177.79
523.477	13316.99
523.843	13404.68
524.21	13491
524.577	13579.13
524.943	13592.47
525.31	13657.1
525.676	13748.85
526.043	13851.9
526.409	13873.59
526.776	13998.78
527.142	14027.26
527.508	13987.71
527.874	14176.86
528.241	14236.74
528.607	14312.67
528.973	14437.64
529.339	14414.37
529.705	14553.8
530.071	14661.14
530.437	14563.74
530.803	14708.37
531.169	14740.91
531.535	14706.79
531.901	14824.3
532.267	14972.54
532.632	15018.64
532.998	15029.72
533.364	15167.57
533.73	15125.08
534.095	15257.73
534.461	15282.59
534.826	15353.55
535.192	15309.26
535.557	15554.9
535.923	15476.49
536.288	15585.64
536.653	15630.15
537.019	15654.56
537.384	15659.53
537.749	15827.89
538.114	15834.22
538.479	15753.77
538.845	15986.75
539.21	15891.16
539.575	16032.63
539.94	15939.98
540.305	16110.37
540.67	16011.16
541.034	16105.85
541.399	16172.29
541.764	16231.95
542.129	16297.48
542.494	16331.38
542.858	16262.23
543.223	16350.14
543.587	16367.99
543.952	16395.33
544.316	16458.38
544.681	16506.74
545.045	16640.3
545.41	16678.04
545.774	16720.52
546.138	16725.94
546.503	16759.39
546.867	16786.96
547.231	16955.32
547.595	16950.35
547.959	16906.28
548.324	16979.72
548.688	17029.67
549.052	17083.22
549.416	17095.88
549.779	17188.31
550.143	17246.38
550.507	17316.89
550.871	17383.78
551.235	17387.62
551.599	17452.48
551.962	17501.97
552.326	17435.98
552.689	17629.65
553.053	17563.66
553.417	17632.36
553.78	17731.79
554.143	17614.96
554.507	17800.04
554.87	17890.89
555.234	18081.84
555.597	17857.67
555.96	18065.8
556.323	18008.85
556.686	18046.14
557.05	18238.67
557.413	18166.13
557.776	18237.54
558.139	18278.67
558.502	18369.97
558.865	18430.76
559.228	18508.95
559.59	18564.77
559.953	18592.56
560.316	18754.14
560.679	18746.91
561.041	18847.02
561.404	18978.54
561.767	19053.79
562.129	18917.07
562.492	19103.06
562.854	19251.3
563.217	19167.24
563.579	19282.71
563.941	19390.51
564.304	19437.74
564.666	19583.5
565.028	19498.75
565.39	19712.76
565.753	19799.76
566.115	19698.07
566.477	19910.27
566.839	19884.28
567.201	20008.57
567.563	20082.92
567.925	20240.65
568.287	20258.51
568.648	20212.18
569.01	20316.58
569.372	20531.95
569.734	20308
570.095	20547.99
570.457	20640.42
570.819	20579.18
571.18	20573.98
571.542	20867.3
571.903	20770.36
572.265	20899.85
572.626	20912.5
572.987	20993.85
573.349	20966.74
573.71	21044.93
574.071	21203.79
574.432	21251.7
574.794	21367.4
575.155	21351.59
575.516	21342.55
575.877	21469.77
576.238	21441.07
576.599	21525.14
576.96	21584.8
577.32	21523.33
577.681	21597.45
578.042	21690.56
578.403	21710.45
578.763	21786.83
579.124	21691.24
579.485	21822.99
579.845	22014.17
580.206	21953.15
580.566	21803.1
580.927	21955.19
581.287	21942.76
581.648	21883.1
582.008	22101.62
582.368	21997.22
582.728	22146.37
583.089	22168.29
583.449	22133.49
583.809	22240.38
584.169	22237.44
584.529	22124.45
584.889	22323.09
585.249	22241.51
585.609	22125.35
585.969	22301.62
586.329	22290.32
586.688	22268.17
587.048	22217.78
587.408	22244.67
587.768	22220.26
588.127	22233.6
588.487	22183.2
588.846	22533.7
589.206	22205.8
589.565	22297.55
589.925	22462.97
590.284	22286.93
590.643	22393.14
591.003	22382.74
591.362	22563.98
591.721	22470.2
592.08	22457.55
592.44	22497.32
592.799	22588.62
593.158	22424.55
593.517	22494.15
593.876	22473.14
594.235	22443.08
594.593	22598.56
594.952	22499.35
595.311	22542.97
595.67	22570.99
596.029	22775.28
596.387	22749.06
596.746	22679.23
597.104	22602.4
597.463	22510.43
597.822	22620.03
598.18	22538.22
598.538	22724.43
598.897	22705.9
599.255	22585.9
599.613	22824.32
599.972	22810.3
600.33	22813.47
600.688	22701.15
601.046	22692.12
601.404	22911.77
601.762	22841.94
602.12	22900.02
602.478	22959.68
602.836	22856.18
603.194	22789.29
603.552	22767.14
603.91	22846.01
604.268	22938.44
604.625	22894.37
604.983	22968.04
605.341	22815.95
605.698	22998.55
606.056	22936.63
606.413	23062.5
606.771	23140.92
607.128	23057.08
607.485	23011.2
607.843	23083.52
608.2	23199.9
608.557	23252.78
608.914	23118.54
609.272	23185.44
609.629	23283.06
609.986	23379.1
610.343	23272.89
610.7	23401.02
611.057	23382.27
611.414	23286
611.771	23438.99
612.127	23432.43
612.484	23541.13
612.841	23533.22
613.198	23473.56
613.554	23425.88
613.911	23462.04
614.267	23502.72
614.624	23470.85
614.98	23559.21
615.337	23629.27
615.693	23580.23
616.05	23505.65
616.406	23671.75
616.762	23612.99
617.118	23609.15
617.475	23629.04
617.831	23727.34
618.187	23763.05
618.543	23794.91
618.899	23815.7
619.255	23748.36
619.611	23781.35
619.967	23905.64
620.323	23916.26
620.678	23841.69
621.034	23847.34
621.39	23876.72
621.746	23809.6
622.101	24136.82
622.457	23904.51
622.812	23985.64
623.168	24054.79
623.523	24007.79
623.879	24144.05
624.234	23989.26
624.589	23948.35
624.945	24053.44
625.3	24023.83
625.655	24066.99
626.01	24092.53
626.365	24032.64
626.72	24083.94
627.075	24154.9
627.43	24025.87
627.785	24068.8
628.14	24045.98
628.495	24201.45
628.85	24148.8
629.205	24076.26
629.559	24218.85
629.914	24079.88
630.269	24141.34
630.623	24168.46
630.978	24053.66
631.332	24219.08
631.687	24208.23
632.041	24093.66
632.396	24197.84
632.75	24125.98
633.104	24183.38
633.459	24111.51
633.813	24032.42
634.167	24025.64
634.521	24027
634.875	24070.61
635.229	24060.67
635.583	23997.17
635.937	24029.93
636.291	24078.52
636.645	24070.16
636.999	23931.4
637.352	23985.87
637.706	23853.44
638.06	24014.11
638.413	23890.5
638.767	23957.62
639.121	23976.6
639.474	23939.09
639.828	23878.75
640.181	24015.92
640.534	23950.84
640.888	24030.16
641.241	23841.01
641.594	23888.02
641.947	24060.21
642.301	23939.99
642.654	23913.1
643.007	23987.22
643.36	24052.08
643.713	23906.55
644.066	24142.7
644.419	23895.02
644.771	23703.61
645.124	23491.19
645.477	23514.92
645.83	23403.06
646.182	23350.18
646.535	23260.46
646.888	23285.09
647.24	23248.71
647.593	23448.48
647.945	23319.9
648.298	23233.57
648.65	23183.4
649.002	23254.36
649.355	23329.39
649.707	23302.95
650.059	23442.83
650.411	23773.44
650.763	23768.47
651.115	24053.89
651.467	23948.35
651.819	23887.11
652.171	23962.36
652.523	23924.63
652.875	23793.78
653.227	23811.63
653.578	23987.45
653.93	24021.35
654.282	23829.26
654.633	23747
654.985	23898.19
655.337	23944.96
655.688	24010.5
656.039	24048.69
656.391	23832.65
656.742	23990.16
657.094	23888.47
657.445	24044.62
657.796	23926.43
658.147	23953.32
658.498	24009.14
658.849	23916.04
659.2	23882.59
659.551	23855.7
659.902	24053.21
660.253	24027
660.604	24017.05
660.955	23855.7
661.306	23991.97
661.656	24010.72
662.007	23930.95
662.358	23915.13
662.708	24028.35
663.059	23851.41
663.409	23706.78
663.76	23931.4
664.11	23904.96
664.461	23911.07
664.811	23922.14
665.161	23831.07
665.511	23853.67
665.862	23867.9
666.212	23884.63
666.562	23844.18
666.912	23854.34
667.262	23829.49
667.612	23823.16
667.962	23764.4
668.312	23727.57
668.662	23897.51
669.011	23729.6
669.361	23702.71
669.711	23688.02
670.06	23751.07
670.41	23609.15
670.76	23612.77
671.109	23676.5
671.459	23608.48
671.808	23540.23
672.157	23567.57
672.507	23473.34
672.856	23470.63
673.205	23405.77
673.554	23499.78
673.904	23439.44
674.253	23487.57
674.602	23320.8
674.951	23120.13
675.3	22826.57
675.649	23243.06
675.998	23189.05
676.346	23204.42
676.695	23408.93
677.044	23174.81
677.393	23077.42
677.741	23087.81
678.09	23070.86
678.438	22952.22
678.787	23041.94
679.135	22884.88
679.484	22787.71
679.832	22890.98
680.181	22765.33
680.529	22837.2
680.877	22686.24
681.225	22704.09
681.573	22834.94
681.922	22674.94
682.27	22514.94
682.618	22585.68
682.966	22558.56
683.314	22508.62
683.661	22437.88
684.009	22366.25
684.357	22334.61
684.705	22229.53
685.053	22260.49
685.4	22350.66
685.748	22119.93
686.095	22093.26
686.443	22093.03
686.79	21915.41
687.138	22139.81
687.485	22187.27
687.832	21899.14
688.18	22016.2
688.527	21975.75
688.874	21886.94
689.221	21807.17
689.568	21743.44
689.915	21663.22
690.262	21624.35
690.609	21685.81
690.956	21509.32
691.303	21487.18
691.65	21446.27
691.997	21468.19
692.344	21435.2
692.69	21382.32
693.037	21359.04
693.383	21198.14
693.73	21335.31
694.077	21097.13
694.423	21132.16
694.769	21161.31
695.116	20981.2
695.462	21109.33
695.808	21020.97
696.155	21088.99
696.501	21025.72
696.847	20880.86
697.193	20794.31
697.539	20874.76
697.885	20833.41
698.231	20628.67
698.577	20644.03
698.923	20578.5
699.269	20663.24
699.614	20533.08
699.96	20408.33
700.306	20493.53
700.651	20445.62
700.997	20393.64
701.342	20295.34
701.688	20231.39
702.033	20200.88
702.379	20317.49
702.724	20081.79
703.069	20272.07
703.415	20018.97
703.76	20053.77
704.105	20074.33
704.45	20068.46
704.795	19886.31
705.14	19891.28
705.485	19781.91
705.83	19789.37
706.175	19913.66
706.52	19851.06
706.865	19696.71
707.209	19667.34
707.554	19609.48
707.899	19696.71
708.243	19537.62
708.588	19568.81
708.932	19484.29
709.277	19499.88
709.621	19438.64
709.966	19327.68
710.31	19403.16
710.654	19384.86
710.998	19350.96
711.342	19447
711.687	19341.02
712.031	19261.47
712.375	19128.14
712.719	19202.49
713.063	19263.05
713.407	19326.55
713.75	19236.16
714.094	19190.29
714.438	19086.33
714.782	19150.06
715.125	18997.07
715.469	19079.1
715.812	18946.22
716.156	18878.88
716.499	18920.01
716.843	18903.06
717.186	18886.11
717.53	18924.76
717.873	18971.08
718.216	18869.84
718.559	18929.73
718.902	18750.98
719.246	18802.05
719.589	18760.47
719.932	18743.07
720.275	18732.67
720.617	18662.62
720.96	18651.09
721.303	18602.96
721.646	18578.33
721.989	18543.75
722.331	18620.13
722.674	18602.96
723.016	18581.94
723.359	18574.71
723.701	18626.91
724.044	18463.07
724.386	18419.01
724.729	18609.51
725.071	18553.69
725.413	18413.13
725.755	18466.24
726.097	18402.51
726.439	18181.95
726.782	18296.3
727.124	18455.16
727.465	18405.9
727.807	18324.55
728.149	18275.73
728.491	18291.1
728.833	18279.12
729.175	18159.58
729.516	18186.24
729.858	18204.55
730.199	18254.04
730.541	18254.94
730.882	18248.16
731.224	18343.3
731.565	18183.76
731.906	18190.31
732.248	18309.18
732.589	18149.18
732.93	18149.86
733.271	18252.91
733.612	18226.47
733.953	18181.73
734.294	18072.12
734.635	18095.4
734.976	18191.22
735.317	18047.04
735.658	18113.25
735.999	18109.64
736.339	18033.48
736.68	18268.73
737.021	18141.73
737.361	18053.14
737.702	18186.02
738.042	18129.52
738.383	18123.42
738.723	18241.38
739.063	18213.36
739.404	18247.03
739.744	18145.12
740.084	18188.05
740.424	18109.86
740.764	18202.97
741.104	18244.77
741.444	18174.95
741.784	18131.78
742.124	18278.22
742.464	18184.21
742.804	18202.06
743.143	18240.48
743.483	18300.14
743.823	18233.48
744.162	18402.51
744.502	18402.51
744.841	18305.56
745.181	18540.81
745.52	18354.15
745.86	18414.49
746.199	18418.1
746.538	18475.05
746.877	18571.77
747.216	18509.63
747.556	18491.1
747.895	18490.87
748.234	18567.93
748.573	18579
748.911	18600.02
749.25	18571.32
749.589	18524.09
749.928	18718.66
750.267	18704.2
750.605	18679.79
750.944	18653.13
751.283	18650.87
751.621	18726.34
751.96	18688.83
752.298	18649.96
752.636	18760.47
752.975	18717.98
753.313	18663.75
753.651	18718.66
753.989	18614.26
754.327	18710.3
754.666	18855.15
