Data from blue_clamp_base_FLMS001491_00078.txt Node
Date: Wed Feb 08 15:16:30 GMT 2017
User: dcchb
Spectrometer: FLMS00149
Trigger mode: 0
Integration Time (sec): 2.000000E-2
Scans to average: 10
Electric dark correction enabled: true
Nonlinearity correction enabled: false
Boxcar width: 0
XAxis mode: Wavelengths
Number of Pixels in Spectrum: 2048
>>>>>Begin Spectral Data<<<<<
341.393	-16.51
341.776	-16.51
342.16	-16.51
342.543	-62.39
342.927	-75.04
343.31	-61.93
343.693	-88.37
344.077	-62.84
344.46	-56.51
344.843	-50.18
345.226	-55.15
345.61	-35.04
345.993	-30.3
346.376	-6.34
346.759	4.96
347.142	25.97
347.525	50.15
347.908	70.94
348.291	81.11
348.674	109.81
349.057	103.71
349.44	115.46
349.823	136.48
350.206	161.79
350.588	214.67
350.971	206.53
351.354	234.56
351.737	214.9
352.119	239.53
352.502	277.27
352.884	259.19
353.267	273.88
353.65	302.58
354.032	293.31
354.414	316.59
354.797	317.94
355.179	319.07
355.562	340.32
355.944	307.55
356.326	330.15
356.709	320.66
357.091	331.95
357.473	347.55
357.855	352.29
358.238	340.09
358.62	341.22
359.002	330.37
359.384	336.93
359.766	348.68
360.148	335.34
360.53	348.23
360.912	336.7
361.294	365.4
361.676	310.71
362.057	325.63
362.439	338.96
362.821	334.89
363.203	332.41
363.584	348.23
363.966	296.48
364.348	352.74
364.729	320.88
365.111	298.74
365.493	325.18
365.874	313.65
366.256	327.89
366.637	312.07
367.019	324.72
367.4	328.11
367.781	331.5
368.163	337.6
368.544	323.37
368.925	321.56
369.306	336.25
369.688	321.33
370.069	329.69
370.45	343.03
370.831	347.1
371.212	315.46
371.593	322.01
371.974	325.4
372.355	333.76
372.736	325.18
373.117	330.37
373.498	336.47
373.879	326.98
374.26	334.67
374.641	318.62
375.021	338.28
375.402	318.17
375.783	354.78
376.163	349.13
376.544	341.22
376.925	338.51
377.305	349.13
377.686	321.11
378.066	348
378.447	341.9
378.827	348.68
379.208	350.49
379.588	348.9
379.968	351.16
380.349	343.25
380.729	377.83
381.109	355.46
381.489	366.3
381.87	379.86
382.25	362.69
382.63	358.39
383.01	377.83
383.39	370.82
383.77	383.25
384.15	374.89
384.53	379.41
384.91	384.38
385.29	381.67
385.67	379.41
386.049	394.55
386.429	403.82
386.809	376.25
387.189	388.45
387.568	412.18
387.948	388.68
388.328	401.78
388.707	392.07
389.087	406.53
389.466	397.26
389.846	394.33
390.225	398.17
390.605	396.59
390.984	392.29
391.363	418.51
391.743	446.3
392.122	409.24
392.501	425.74
392.881	445.4
393.26	449.69
393.639	456.25
394.018	454.89
394.397	461.89
394.776	445.85
395.155	466.19
395.534	460.09
395.913	484.04
396.292	454.21
396.671	456.92
397.05	487.66
397.429	474.55
397.808	478.84
398.186	472.97
398.565	503.02
398.944	520.2
399.323	499.86
399.701	495.57
400.08	515.45
400.458	508.45
400.837	532.18
401.215	548.45
401.594	514.32
401.972	516.13
402.351	553.87
402.729	530.82
403.107	562.46
403.486	575.11
403.864	567.88
404.242	580.31
404.62	585.28
404.999	571.95
405.377	596.81
405.755	587.32
406.133	611.95
406.511	596.13
406.889	599.97
407.267	616.92
407.645	616.47
408.023	621.89
408.401	637.71
408.779	658.27
409.156	638.84
409.534	674.09
409.912	648.78
410.29	678.84
410.667	681.32
411.045	682
411.422	711.83
411.8	703.47
412.178	695.33
412.555	740.76
412.933	726.75
413.31	760.42
413.687	767.42
414.065	762
414.442	758.38
414.819	766.97
415.197	779.85
415.574	799.29
415.951	801.09
416.328	832.96
416.705	811.49
417.082	821.66
417.46	842.9
417.837	845.61
418.214	816.46
418.591	857.82
418.967	852.62
419.344	857.36
419.721	887.42
420.098	872.05
420.475	907.53
420.852	912.73
421.228	910.7
421.605	929.9
421.982	938.94
422.358	920.41
422.735	940.98
423.111	952.5
423.488	973.97
423.864	981.2
424.241	999.73
424.617	993.86
424.994	979.62
425.37	1000.19
425.746	1010.81
426.123	1026.85
426.499	1016
426.875	1058.26
427.251	1076.57
427.627	1066.17
428.003	1101.88
428.379	1107.08
428.756	1124.7
429.132	1120.18
429.507	1139.84
429.883	1129.9
430.259	1174.42
430.635	1196.79
431.011	1185.49
431.387	1206.51
431.763	1237.02
432.138	1232.27
432.514	1285.38
432.89	1258.48
433.265	1293.06
433.641	1327.18
434.016	1332.38
434.392	1352.72
434.767	1404.92
435.143	1375.54
435.518	1383.23
435.894	1409.89
436.269	1426.39
436.644	1463
437.02	1462.09
437.395	1434.07
437.77	1463
438.145	1496.9
438.52	1520.17
438.895	1533.28
439.271	1563.11
439.646	1576.22
440.021	1585.25
440.395	1647.4
440.77	1599.94
441.145	1642.43
441.52	1627.97
441.895	1619.38
442.27	1651.02
442.645	1680.17
443.019	1685.59
443.394	1689.88
443.769	1727.4
444.143	1736.21
444.518	1745.02
444.892	1749.09
445.267	1764.01
445.641	1795.87
446.016	1784.57
446.39	1808.07
446.764	1819.6
447.139	1807.4
447.513	1860.28
447.887	1860.95
448.262	1818.47
448.636	1883.33
449.01	1905.92
449.384	1955.64
449.758	1940.05
450.132	1953.61
450.506	1954.51
450.88	1958.35
451.254	1963.32
451.628	2032.25
452.002	2043.77
452.376	2061.17
452.75	2086.48
453.123	2039.93
453.497	2116.99
453.871	2113.83
454.244	2187.05
454.618	2167.61
454.992	2184.34
455.365	2231.79
455.739	2270.66
456.112	2265.69
456.486	2315.86
456.859	2312.47
457.232	2375.06
457.606	2364.22
457.979	2372.35
458.352	2415.74
458.725	2458.23
459.099	2486.7
459.472	2477.66
459.845	2536.64
460.218	2523.54
460.591	2547.72
460.964	2552.46
461.337	2643.98
461.71	2686.47
462.083	2720.82
462.456	2707.71
462.829	2744.09
463.201	2757.65
463.574	2748.61
463.947	2809.18
464.32	2860.25
464.692	2859.35
465.065	2922.85
465.438	2959.23
465.81	2969.17
466.183	3004.2
466.555	3028.83
466.928	3063.18
467.3	3071.32
467.672	3098.44
468.045	3190.86
468.417	3185.44
468.789	3229.96
469.161	3279.22
469.534	3334.14
469.906	3333.46
470.278	3358.09
470.65	3400.8
471.022	3471.08
471.394	3502.72
471.766	3511.76
472.138	3568.93
472.51	3637.18
472.882	3690.96
473.253	3690.28
473.625	3759.66
473.997	3816.16
474.369	3853.22
474.74	3863.16
475.112	3902.93
475.484	4015.25
475.855	4028.58
476.227	4088.47
476.598	4205.07
476.97	4159.2
477.341	4241.23
477.713	4305.64
478.084	4373.88
478.455	4440.1
478.827	4456.82
479.198	4597.83
479.569	4565.06
479.94	4637.15
480.311	4691.39
480.682	4784.04
481.053	4859.52
481.424	4931.83
481.795	4951.04
482.166	5009.8
482.537	5054.77
482.908	5183.35
483.279	5206.4
483.65	5255.89
484.021	5351.03
484.391	5430.8
484.762	5425.15
485.133	5516
485.503	5576.56
485.874	5571.36
486.244	5628.99
486.615	5723.9
486.985	5786.05
487.356	5856.1
487.726	5885.03
488.097	6003.22
488.467	6023.1
488.837	6113.72
489.207	6170.45
489.578	6189.43
489.948	6247.51
490.318	6289.99
490.688	6283.44
491.058	6347.62
491.428	6414.05
491.798	6504.45
492.168	6588.97
492.538	6588.29
492.908	6620.83
493.278	6678.45
493.648	6666.93
494.017	6764.1
494.387	6763.42
494.757	6785.12
495.126	6877.77
495.496	6800.71
495.866	6898.79
496.235	6952.12
496.605	6947.15
496.974	6993.93
497.344	6990.76
497.713	7012.46
498.082	7076.64
498.452	7088.61
498.821	7132.68
499.19	7141.49
499.559	7197.54
499.928	7172.45
500.298	7282.73
500.667	7284.77
501.036	7237.76
501.405	7320.7
501.774	7293.58
502.143	7306.23
502.512	7344.65
502.88	7354.37
503.249	7366.57
503.618	7418.55
503.987	7452.9
504.356	7452.45
504.724	7563.85
505.093	7540.13
505.462	7514.82
505.83	7579.45
506.199	7617.64
506.567	7663.97
506.936	7621.71
507.304	7734.02
507.672	7739.67
508.041	7777.18
508.409	7786.9
508.777	7821.93
509.145	7819.89
509.514	7819.67
509.882	7955.03
510.25	7864.19
510.618	7931.75
510.986	7965.88
511.354	8022.83
511.722	8072.54
512.09	8124.29
512.458	8117.51
512.826	8121.35
513.193	8126.1
513.561	8164.52
513.929	8231.63
514.297	8317.51
514.664	8331.74
515.032	8277.73
515.4	8362.7
515.767	8314.34
516.135	8369.71
516.502	8325.42
516.869	8418.97
517.237	8431.4
517.604	8413.32
517.972	8464.85
518.339	8517.95
518.706	8546.88
519.073	8528.35
519.44	8588.91
519.808	8621.23
520.175	8694.45
520.542	8731.51
520.909	8762.92
521.276	8721.79
521.643	8777.38
522.009	8832.07
522.376	8888.79
522.743	8922.46
523.11	8933.31
523.477	9003.82
523.843	9058.28
524.21	9110.71
524.577	9174.43
524.943	9245.84
525.31	9210.14
525.676	9258.05
526.043	9320.42
526.409	9326.29
526.776	9373.3
527.142	9451.49
527.508	9487.87
527.874	9511.6
528.241	9540.07
528.607	9595.21
528.973	9676.12
529.339	9634.99
529.705	9685.61
530.071	9743.68
530.437	9772.38
530.803	9896.9
531.169	9886.96
531.535	9915.66
531.901	9925.6
532.267	9917.47
532.632	10000.63
532.998	10042.89
533.364	10112.04
533.73	10107.06
534.095	10157.68
534.461	10228.19
534.826	10205.14
535.192	10205.14
535.557	10274.52
535.923	10294.63
536.288	10301.86
536.653	10429.09
537.019	10348.87
537.384	10364.69
537.749	10414.4
538.114	10488.75
538.479	10536.88
538.845	10463.89
539.21	10521.07
539.575	10526.04
539.94	10575.98
540.305	10649.65
540.67	10652.14
541.034	10665.47
541.399	10750.44
541.764	10754.05
542.129	10789.08
542.494	10789.98
542.858	10816.65
543.223	10827.95
543.587	10962.86
543.952	10802.64
544.316	10882.64
544.681	10915.63
545.045	10966.7
545.41	11037.21
545.774	11068.17
546.138	11012.58
546.503	11060.26
546.867	11124.21
547.231	11149.98
547.595	11123.99
547.959	11215.28
548.324	11181.16
548.688	11227.94
549.052	11239.69
549.416	11245.57
549.779	11262.51
550.143	11358.33
550.507	11477.65
550.871	11386.35
551.235	11393.36
551.599	11448.27
551.962	11440.36
552.326	11547.93
552.689	11596.07
553.053	11576.4
553.417	11574.6
553.78	11729.85
554.143	11657.53
554.507	11771.65
554.87	11723.29
555.234	11848.94
555.597	11822.73
555.96	11858.21
556.323	11841.71
556.686	11898.66
557.05	11964.19
557.413	11944.08
557.776	11982.5
558.139	12034.92
558.502	12095.49
558.865	12056.39
559.228	12094.58
559.59	12180.23
559.953	12146.56
560.316	12356.5
560.679	12385.87
561.041	12358.3
561.404	12377.74
561.767	12505.65
562.129	12469.26
562.492	12559.88
562.854	12525.76
563.217	12504.97
563.579	12626.32
563.941	12668.13
564.304	12773.66
564.666	12780.44
565.028	12782.93
565.39	12959.65
565.753	12893.66
566.115	12927.1
566.477	13051.62
566.839	13002.13
567.201	13144.27
567.563	13066.76
567.925	13238.51
568.287	13252.07
568.648	13194.89
569.01	13325.74
569.372	13489.12
569.734	13415.9
570.095	13479.41
570.457	13488.22
570.819	13591.04
571.18	13591.27
571.542	13650.47
571.903	13704.71
572.265	13747.87
572.626	13706.07
572.987	13749.91
573.349	13802.11
573.71	13934.53
574.071	13900.86
574.432	13982.9
574.794	14148.54
575.155	14081.42
575.516	14023.12
575.877	14214.98
576.238	14193.96
576.599	14176.79
576.96	14235.77
577.32	14226.05
577.681	14304.92
578.042	14366.39
578.403	14410.23
578.763	14412.26
579.124	14347.63
579.485	14494.29
579.845	14458.81
580.206	14478.25
580.566	14491.13
580.927	14400.74
581.287	14605.48
581.648	14598.02
582.008	14565.7
582.368	14539.04
582.728	14606.61
583.089	14684.35
583.449	14573.39
583.809	14598.7
584.169	14660.17
584.529	14677.79
584.889	14740.16
585.249	14687.28
585.609	14659.04
585.969	14767.28
586.329	14765.7
586.688	14760.73
587.048	14795.98
587.408	14690.45
587.768	14728.86
588.127	14755.08
588.487	14779.48
588.846	14912.59
589.206	14748.98
589.565	14795.98
589.925	14953.04
590.284	14855.87
590.643	14934.06
591.003	14813.61
591.362	14908.75
591.721	14926.6
592.08	14954.17
592.44	14999.14
592.799	14907.84
593.158	15012.7
593.517	14941.06
593.876	15095.41
594.235	15045.92
594.593	15022.64
594.952	14998.91
595.311	15011.12
595.67	15023.77
596.029	15077.1
596.387	15104
596.746	15189.19
597.104	15090.21
597.463	14997.11
597.822	15131.79
598.18	15089.31
598.538	15032.36
598.897	15147.61
599.255	15083.21
599.613	15314.39
599.972	15192.58
600.33	15192.58
600.688	15181.51
601.046	15238.46
601.404	15283.2
601.762	15203.43
602.12	15278.68
602.478	15287.27
602.836	15332.01
603.194	15165.46
603.552	15321.16
603.91	15183.54
604.268	15294.05
604.625	15324.1
604.983	15403.2
605.341	15359.58
605.698	15375.17
606.056	15418.56
606.413	15415.4
606.771	15465.57
607.128	15466.25
607.485	15330.43
607.843	15358.68
608.2	15517.09
608.557	15500.37
608.914	15501.5
609.272	15512.8
609.629	15576.07
609.986	15621.95
610.343	15485.91
610.7	15682.74
611.057	15657.43
611.414	15585.79
611.771	15692.23
612.127	15695.84
612.484	15686.81
612.841	15786.01
613.198	15731.78
613.554	15747.14
613.911	15862.39
614.267	15836.86
614.624	15790.53
614.98	15817.88
615.337	15888.16
615.693	15817.88
616.05	15775.39
616.406	16001.15
616.762	15892.68
617.118	15890.19
617.475	15825.56
617.831	15979.68
618.187	16040.69
618.543	15964.09
618.899	16086.79
619.255	16048.6
619.611	16049.51
619.967	16100.13
620.323	16198.43
620.678	16107.13
621.034	16156.85
621.39	16120.24
621.746	16155.72
622.101	16193.01
622.457	16106.46
622.812	16119.79
623.168	16258.99
623.523	16177.64
623.879	16284.98
624.234	16289.5
624.589	16266.68
624.945	16236.62
625.3	16405.88
625.655	16318.65
626.01	16381.7
626.365	16334.47
626.72	16322.04
627.075	16362.49
627.43	16316.17
627.785	16284.76
628.14	16498.08
628.495	16417.63
628.85	16427.58
629.205	16273.23
629.559	16495.82
629.914	16375.83
630.269	16453.34
630.623	16394.13
630.978	16415.15
631.332	16418.99
631.687	16434.81
632.041	16483.17
632.396	16599.1
632.75	16448.14
633.104	16436.62
633.459	16527.69
633.813	16564.3
634.167	16486.11
634.521	16480.91
634.875	16559.1
635.229	16529.27
635.583	16437.97
635.937	16556.16
636.291	16528.36
636.645	16450.4
636.999	16447.91
637.352	16634.35
637.706	16533.79
638.06	16580.79
638.413	16588.7
638.767	16510.96
639.121	16625.31
639.474	16517.74
639.828	16551.42
640.181	16608.36
640.534	16712.77
640.888	16545.77
641.241	16599.1
641.594	16567.46
641.947	16688.81
642.301	16667.57
642.654	16680.23
643.007	16659.89
643.36	16607.68
643.713	16654.46
644.066	16737.85
644.419	16717.29
644.771	16537.4
645.124	16401.36
645.477	16311.42
645.83	16350.52
646.182	16208.15
646.535	16285.21
646.888	16423.96
647.24	16227.58
647.593	16480.46
647.945	16470.51
648.298	16338.99
648.65	16327.24
649.002	16407.24
649.355	16461.93
649.707	16257.64
650.059	16402.27
650.411	16590.28
650.763	16793.89
651.115	16998.41
651.467	16885.64
651.819	16856.94
652.171	16910.73
652.523	16835.02
652.875	16789.15
653.227	16800.67
653.578	17068.92
653.93	16898.52
654.282	16864.4
654.633	16871.41
654.985	16964.74
655.337	16981.91
655.688	16992.31
656.039	17137.61
656.391	16850.39
656.742	17042.48
657.094	16978.3
657.445	17066.88
657.796	17083.6
658.147	17008.13
658.498	17078.86
658.849	17076.37
659.2	17063.04
659.551	17066.66
659.902	17185.75
660.253	17051.97
660.604	17112.98
660.955	17025.07
661.306	17134.45
661.656	17105.75
662.007	17131.06
662.358	17121.57
662.708	17145.75
663.059	17229.14
663.409	16985.3
663.76	17135.35
664.11	17141
664.461	17150.04
664.811	17154.34
665.161	17168.12
665.511	17093.1
665.862	17103.94
666.212	17169.25
666.562	17047.45
666.912	17052.64
667.262	17013.55
667.612	17079.99
667.962	17195.01
668.312	17028.24
668.662	17216.71
669.011	17034.57
669.361	16990.05
669.711	16970.39
670.06	17008.35
670.41	16974.45
670.76	16842.25
671.109	16876.38
671.459	16969.26
671.808	16906.89
672.157	16945.98
672.507	16799.77
672.856	16797.96
673.205	16725.2
673.554	16758.42
673.904	16686.55
674.253	16747.79
674.602	16693.78
674.951	16470.97
675.3	16414.24
675.649	16591.41
675.998	16581.7
676.346	16458.76
676.695	16657.85
677.044	16490.85
677.393	16536.27
677.741	16537.18
678.09	16488.14
678.438	16422.6
678.787	16426.9
679.135	16398.65
679.484	16321.59
679.832	16436.39
680.181	16264.64
680.529	16360.01
680.877	16259.45
681.225	16118.88
681.573	16368.82
681.922	16200.01
682.27	16204.08
682.618	16180.13
682.966	16122.73
683.314	16082.73
683.661	16059.9
684.009	15868.04
684.357	15897.65
684.705	15900.81
685.053	15969.28
685.4	16013.8
685.748	15836.63
686.095	15852.22
686.443	15700.14
686.79	15637.77
687.138	15776.29
687.485	15769.74
687.832	15714.83
688.18	15676.64
688.527	15650.65
688.874	15571.55
689.221	15614.49
689.568	15546.7
689.915	15456.3
690.262	15510.09
690.609	15486.81
690.956	15495.62
691.303	15392.35
691.65	15344.22
691.997	15397.55
692.344	15283.88
692.69	15316.42
693.037	15327.27
693.383	15188.06
693.73	15308.28
694.077	15178.12
694.423	15189.87
694.769	15115.29
695.116	15199.81
695.462	15137.21
695.808	15151.23
696.155	15134.05
696.501	14947.62
696.847	15013.83
697.193	14878.46
697.539	15047.5
697.885	14895.64
698.231	14920.27
698.577	14865.36
698.923	14819.03
699.269	14865.13
699.614	14790.33
699.96	14790.33
700.306	14757.56
700.651	14650.9
700.997	14657
701.342	14700.39
701.688	14681.86
702.033	14670.56
702.379	14661.52
702.724	14557.57
703.069	14590.79
703.415	14583.11
703.76	14567.29
704.105	14481.41
704.45	14440.96
704.795	14348.99
705.14	14396.22
705.485	14496.33
705.83	14407.74
706.175	14374.07
706.52	14453.39
706.865	14337.46
707.209	14303.11
707.554	14281.64
707.899	14284.13
708.243	14180.86
708.588	14244.81
708.932	14218.37
709.277	14253.17
709.621	14217.24
709.966	14092.04
710.31	14179.73
710.654	14089.11
710.998	14139.73
711.342	14174.53
711.687	14120.52
712.031	14085.04
712.375	14079.84
712.719	14052.5
713.063	14090.01
713.407	14181.08
713.75	14017.47
714.094	14137.69
714.438	14021.31
714.782	14121.87
715.125	13862.9
715.469	14041.42
715.812	13962.56
716.156	13896.12
716.499	13896.57
716.843	13995.78
717.186	13863.35
717.53	13982.44
717.873	13980.18
718.216	13886.63
718.559	13935.44
718.902	13817.48
719.246	13897.47
719.589	13850.24
719.932	13870.36
720.275	13781.77
720.617	13801.43
720.96	13792.84
721.303	13721.66
721.646	13879.85
721.989	13758.72
722.331	13732.28
722.674	13714.2
723.016	13822.9
723.359	13682.34
723.701	13785.39
724.044	13634.43
724.386	13680.08
724.729	13780.41
725.071	13713.75
725.413	13667.42
725.755	13695.44
726.097	13632.85
726.439	13600.31
726.782	13617.93
727.124	13684.15
727.465	13723.69
727.807	13607.99
728.149	13607.99
728.491	13610.02
728.833	13641.89
729.175	13600.98
729.516	13606.86
729.858	13549.91
730.199	13607.76
730.541	13658.16
730.882	13589.69
731.224	13646.18
731.565	13590.36
731.906	13554.66
732.248	13705.61
732.589	13562.57
732.93	13511.27
733.271	13606.18
733.612	13626.07
733.953	13663.36
734.294	13621.77
734.635	13549.91
734.976	13680.3
735.317	13645.5
735.658	13489.8
735.999	13571.61
736.339	13631.04
736.68	13711.72
737.021	13637.82
737.361	13641.66
737.702	13793.3
738.042	13658.38
738.383	13730.47
738.723	13888.66
739.063	13744.94
739.404	13771.83
739.744	13811.15
740.084	13808.89
740.424	13846.63
740.764	13888.66
741.104	13888.89
741.444	13903.35
741.784	13863.58
742.124	13868.55
742.464	13900.64
742.804	13924.59
743.143	13951.03
743.483	13972.05
743.823	14004.36
744.162	13969.56
744.502	13954.87
744.841	14086.85
745.181	14077.81
745.52	14056.57
745.86	14089.11
746.199	14157.58
746.538	14064.25
746.877	14149.22
747.216	14219.27
747.556	14223.34
747.895	14270.35
748.234	14280.29
748.573	14314.86
748.911	14292.94
749.25	14303.79
749.589	14285.94
749.928	14343.79
750.267	14457.23
750.605	14381.53
750.944	14501.98
751.283	14430.79
751.621	14524.12
751.96	14454.97
752.298	14524.8
752.636	14450.23
752.975	14550.34
753.313	14548.98
753.651	14572.26
753.989	14568.42
754.327	14634.86
754.666	14597.57
755.004	14652.48
755.342	14724.34
755.679	14639.83
756.017	14664.01
756.355	14790.33
