Data from blue_surface_keyboard_FLMS001491_002.txt Node
Date: Tue Feb 07 11:12:32 GMT 2017
User: dcchb
Spectrometer: FLMS00149
Trigger mode: 0
Integration Time (sec): 2.000000E-2
Scans to average: 10
Electric dark correction enabled: true
Nonlinearity correction enabled: false
Boxcar width: 0
XAxis mode: Wavelengths
Number of Pixels in Spectrum: 2048
>>>>>Begin Spectral Data<<<<<
341.393	-8.49
341.776	-8.49
342.16	-8.49
342.543	-53.01
342.927	-58.66
343.31	-81.25
343.693	-69.73
344.077	-66.34
344.46	-63.63
344.843	-74.25
345.226	-39
345.61	-43.06
345.993	-10.75
346.376	2.58
346.759	14.34
347.142	50.04
347.525	44.84
347.908	48.91
348.291	72.64
348.674	92.75
349.057	121.9
349.44	116.93
349.823	133.65
350.206	150.6
350.588	173.65
350.971	185.63
351.354	205.52
351.737	211.84
352.119	239.19
352.502	225.63
352.884	252.75
353.267	278.06
353.65	296.81
354.032	299.07
354.414	279.64
354.797	314.67
355.179	294.78
355.562	307.21
355.944	307.21
356.326	310.37
356.709	327.77
357.091	310.15
357.473	337.49
357.855	311.05
358.238	329.36
358.62	327.55
359.002	307.66
359.384	319.19
359.766	333.88
360.148	314.44
360.53	303.14
360.912	310.83
361.294	305.4
361.676	297.49
362.057	309.47
362.439	317.15
362.821	298.62
363.203	314.44
363.584	294.1
363.966	297.49
364.348	298.62
364.729	311.73
365.111	296.36
365.493	289.58
365.874	282.58
366.256	292.97
366.637	294.1
367.019	299.3
367.4	302.69
367.781	271.96
368.163	278.51
368.544	273.09
368.925	276.02
369.306	301.56
369.688	270.83
370.069	293.65
370.45	286.19
370.831	269.92
371.212	285.52
371.593	286.65
371.974	279.87
372.355	286.87
372.736	278.51
373.117	268.11
373.498	284.16
373.879	303.37
374.26	288.23
374.641	277.38
375.021	295.23
375.402	275.35
375.783	290.49
376.163	290.71
376.544	299.3
376.925	275.57
377.305	288.9
377.686	306.98
378.066	316.47
378.447	306.53
378.827	307.89
379.208	291.16
379.588	311.96
379.968	283.48
380.349	320.99
380.729	306.53
381.109	316.47
381.489	299.3
381.87	314.21
382.25	291.16
382.63	310.37
383.01	296.59
383.39	297.49
383.77	318.51
384.15	301.11
384.53	311.96
384.91	318.28
385.29	329.13
385.67	314.21
386.049	323.71
386.429	305.85
386.809	322.35
387.189	299.3
387.568	318.73
387.948	292.97
388.328	325.97
388.707	326.87
389.087	309.24
389.466	315.12
389.846	317.83
390.225	342.24
390.605	324.61
390.984	314.89
391.363	322.8
391.743	332.75
392.122	310.6
392.501	323.25
392.881	311.5
393.26	310.83
393.639	308.34
394.018	322.35
394.397	335.91
394.776	330.26
395.155	339.98
395.534	337.27
395.913	336.14
396.292	327.77
396.671	350.37
397.05	321.9
397.429	323.25
397.808	348.11
398.186	335.91
398.565	337.72
398.944	335.46
399.323	342.91
399.701	314.21
400.08	324.16
400.458	334.78
400.837	332.29
401.215	340.88
401.594	327.1
401.972	350.82
402.351	333.2
402.729	334.33
403.107	352.86
403.486	330.03
403.864	327.32
404.242	341.33
404.62	358.51
404.999	338.62
405.377	350.15
405.755	352.63
406.133	338.62
406.511	358.96
406.889	348.11
407.267	374.33
407.645	351.95
408.023	356.25
408.401	375.23
408.779	353.99
409.156	354.44
409.534	351.73
409.912	363.93
410.29	351.28
410.667	377.94
411.045	360.77
411.422	379.98
411.8	393.31
412.178	390.82
412.555	371.84
412.933	377.49
413.31	384.27
413.687	383.14
414.065	398.28
414.442	385.17
414.819	384.95
415.197	386.08
415.574	376.13
415.951	375
416.328	398.28
416.705	389.69
417.082	374.55
417.46	376.59
417.837	387.89
418.214	377.04
418.591	397.83
418.967	407.77
419.344	386.98
419.721	419.75
420.098	381.11
420.475	424.72
420.852	398.73
421.228	417.72
421.605	423.82
421.982	418.17
422.358	397.38
422.735	408.68
423.111	392.4
423.488	415.91
423.864	409.13
424.241	399.18
424.617	400.99
424.994	411.39
425.37	403.25
425.746	416.81
426.123	438.51
426.499	445.06
426.875	425.85
427.251	427.66
427.627	437.15
428.003	447.77
428.379	471.95
428.756	430.14
429.132	453.65
429.507	456.58
429.883	442.12
430.259	443.93
430.635	444.83
431.011	453.65
431.387	446.64
431.763	448.45
432.138	442.57
432.514	489.13
432.89	475.57
433.265	470.59
433.641	444.38
434.016	470.14
434.392	480.99
434.767	478.5
435.143	494.1
435.518	490.93
435.894	499.75
436.269	482.12
436.644	474.21
437.02	512.85
437.395	502.68
437.77	486.41
438.145	517.37
438.52	485.28
438.895	490.03
439.271	504.27
439.646	486.41
440.021	502.68
440.395	506.98
440.77	499.52
441.145	499.52
441.52	514.89
441.895	505.4
442.27	527.54
442.645	505.85
443.019	515.11
443.394	521.67
443.769	524.38
444.143	522.12
444.518	517.83
444.892	518.5
445.267	529.8
445.641	541.78
446.016	523.02
446.39	553.3
446.764	539.07
447.139	551.04
447.513	532.97
447.887	565.28
448.262	551.04
448.636	544.27
449.01	557.37
449.384	556.47
449.758	535.9
450.132	578.61
450.506	559.63
450.88	588.56
451.254	531.38
451.628	584.04
452.002	586.3
452.376	582
452.75	579.74
453.123	582.23
453.497	597.15
453.871	565.06
454.244	579.97
454.618	583.13
454.992	608.44
455.365	587.2
455.739	607.09
456.112	622
456.486	617.48
456.859	612.51
457.232	616.81
457.606	613.87
457.979	638.5
458.352	625.17
458.725	631.95
459.099	619.07
459.472	647.54
459.845	644.15
460.218	645.51
460.591	631.95
460.964	651.16
461.337	662.23
461.71	686.86
462.083	666.52
462.456	690.7
462.829	683.47
463.201	655.45
463.574	670.36
463.947	683.02
464.32	692.51
464.692	692.06
465.065	711.04
465.438	694.54
465.81	720.08
466.183	703.13
466.555	713.07
466.928	691.61
467.3	751.72
467.672	712.17
468.045	718.27
468.417	732.51
468.789	718.05
469.161	740.19
469.534	744.94
469.906	753.3
470.278	767.99
470.65	768.89
471.022	767.31
471.394	794.43
471.766	791.94
472.138	788.33
472.51	791.04
472.882	803.69
473.253	792.85
473.625	831.49
473.997	814.09
474.369	828.78
474.74	847.99
475.112	843.47
475.484	836.01
475.855	865.16
476.227	887.76
476.598	865.39
476.97	871.04
477.341	906.97
477.713	864.93
478.084	878.72
478.455	908.78
478.827	923.46
479.198	934.31
479.569	946.29
479.94	962.79
480.311	941.77
480.682	963.92
481.053	969.11
481.424	988.1
481.795	997.36
482.166	1042.33
482.537	1023.57
482.908	1030.81
483.279	1045.5
483.65	1029.68
484.021	1064.48
484.391	1068.55
484.762	1050.47
485.133	1073.97
485.503	1078.26
485.874	1084.36
486.244	1125.94
486.615	1122.33
486.985	1109.45
487.356	1159.39
487.726	1131.82
488.097	1130.01
488.467	1143.8
488.837	1175.66
489.207	1194.19
489.578	1175.89
489.948	1177.02
490.318	1177.47
490.688	1188.54
491.058	1204.14
491.428	1223.57
491.798	1204.81
492.168	1242.33
492.538	1243.91
492.908	1255.21
493.278	1253.85
493.648	1244.59
494.017	1252.95
494.387	1268.31
494.757	1264.47
495.126	1293.85
495.496	1299.95
495.866	1271.93
496.235	1273.06
496.605	1301.99
496.974	1289.56
497.344	1304.47
497.713	1304.47
498.082	1304.02
498.452	1302.21
498.821	1325.26
499.19	1311.7
499.559	1305.83
499.928	1324.36
500.298	1325.94
500.667	1337.46
501.036	1352.61
501.405	1337.69
501.774	1333.62
502.143	1345.6
502.512	1348.76
502.88	1366.84
503.249	1348.54
503.618	1359.61
503.987	1367.52
504.356	1379.95
504.724	1355.32
505.093	1365.94
505.462	1366.62
505.83	1379.72
506.199	1386.73
506.567	1404.81
506.936	1391.7
507.304	1372.27
507.672	1403.9
508.041	1411.59
508.409	1428.54
508.777	1417.46
509.145	1407.29
509.514	1408.42
509.882	1414.52
510.25	1422.66
510.618	1447.07
510.986	1426.28
511.354	1435.32
511.722	1429.67
512.09	1467.4
512.458	1421.76
512.826	1419.04
513.193	1466.05
513.561	1462.89
513.929	1430.57
514.297	1438.71
514.664	1426.73
515.032	1449.78
515.4	1461.76
515.767	1486.16
516.135	1472.15
516.502	1456.11
516.869	1475.31
517.237	1471.47
517.604	1475.99
517.972	1485.94
518.339	1466.28
518.706	1480.51
519.073	1488.42
519.44	1468.99
519.808	1484.13
520.175	1501.53
520.542	1508.31
520.909	1497.23
521.276	1507.4
521.643	1501.98
522.009	1508.99
522.376	1515.77
522.743	1506.95
523.11	1517.12
523.477	1531.36
523.843	1522.09
524.21	1517.12
524.577	1537.46
524.943	1549.44
525.31	1546.5
525.676	1535.43
526.043	1547.4
526.409	1557.35
526.776	1572.03
527.142	1570
527.508	1563.45
527.874	1576.55
528.241	1559.38
528.607	1580.17
528.973	1581.53
529.339	1541.75
529.705	1552.6
530.071	1571.13
530.437	1616.55
530.803	1623.56
531.169	1596.44
531.535	1601.64
531.901	1607.97
532.267	1595.99
532.632	1608.87
532.998	1603.9
533.364	1603.22
533.73	1612.03
534.095	1588.53
534.461	1582.88
534.826	1633.5
535.192	1620.4
535.557	1606.61
535.923	1604.12
536.288	1621.07
536.653	1619.04
537.019	1604.58
537.384	1616.78
537.749	1585.59
538.114	1611.36
538.479	1621.07
538.845	1632.15
539.21	1606.38
539.575	1631.24
539.94	1598.93
540.305	1605.93
540.67	1600.06
541.034	1602.32
541.399	1642.99
541.764	1616.78
542.129	1628.08
542.494	1621.3
542.858	1621.53
543.223	1603.9
543.587	1630.56
543.952	1635.31
544.316	1640.96
544.681	1611.58
545.045	1638.02
545.41	1640.06
545.774	1623.11
546.138	1637.57
546.503	1608.42
546.867	1644.8
547.231	1653.84
547.595	1628.3
547.959	1635.54
548.324	1633.95
548.688	1600.06
549.052	1656.33
549.416	1663.33
549.779	1656.55
550.143	1607.29
550.507	1626.27
550.871	1645.48
551.235	1635.08
551.599	1634.63
551.962	1641.41
552.326	1629.89
552.689	1658.36
553.053	1637.57
553.417	1659.72
553.78	1659.94
554.143	1662.88
554.507	1664.24
554.87	1656.55
555.234	1637.12
555.597	1659.26
555.96	1652.71
556.323	1630.79
556.686	1623.78
557.05	1667.4
557.413	1647.97
557.776	1661.52
558.139	1654.07
558.502	1657.91
558.865	1686.16
559.228	1677.12
559.59	1675.31
559.953	1681.41
560.316	1689.77
560.679	1678.02
561.041	1697.46
561.404	1672.82
561.767	1721.41
562.129	1680.05
562.492	1720.28
562.854	1675.76
563.217	1693.61
563.579	1700.39
563.941	1722.77
564.304	1708.98
564.666	1693.84
565.028	1692.94
565.39	1704.46
565.753	1711.01
566.115	1699.72
566.477	1716.21
566.839	1720.51
567.201	1758.7
567.563	1745.36
567.925	1734.06
568.287	1732.03
568.648	1700.39
569.01	1747.17
569.372	1724.57
569.734	1748.75
570.095	1740.84
570.457	1734.29
570.819	1722.99
571.18	1743.33
571.542	1733.39
571.903	1775.42
572.265	1750.56
572.626	1759.37
572.987	1806.15
573.349	1748.3
573.71	1771.8
574.071	1784.46
574.432	1768.64
574.794	1795.76
575.155	1797.34
575.516	1797.79
575.877	1761.86
576.238	1784.01
576.599	1781.07
576.96	1794.4
577.32	1791.01
577.681	1800.28
578.042	1784.91
578.403	1795.53
578.763	1800.73
579.124	1793.27
579.485	1787.17
579.845	1808.41
580.206	1803.44
580.566	1810.9
580.927	1766.38
581.287	1800.28
581.648	1795.08
582.008	1824.23
582.368	1802.09
582.728	1831.46
583.089	1790.56
583.449	1794.63
583.809	1802.99
584.169	1809.99
584.529	1798.02
584.889	1812.48
585.249	1808.64
585.609	1803.22
585.969	1831.01
586.329	1832.82
586.688	1808.41
587.048	1807.73
587.408	1809.99
587.768	1848.64
588.127	1808.64
588.487	1783.33
588.846	1820.62
589.206	1801.63
589.565	1793.05
589.925	1821.07
590.284	1819.26
590.643	1791.92
591.003	1849.32
591.362	1834.4
591.721	1827.85
592.08	1821.07
592.44	1819.49
592.799	1844.12
593.158	1842.76
593.517	1842.08
593.876	1849.09
594.235	1822.65
594.593	1855.64
594.952	1833.05
595.311	1831.24
595.67	1846.38
596.029	1891.12
596.387	1841.86
596.746	1835.08
597.104	1851.58
597.463	1823.55
597.822	1874.85
598.18	1831.92
598.538	1867.85
598.897	1830.79
599.255	1837.11
599.613	1860.61
599.972	1855.19
600.33	1839.6
600.688	1834.17
601.046	1871.24
601.404	1888.86
601.762	1864.46
602.12	1871.01
602.478	1879.82
602.836	1847.51
603.194	1883.89
603.552	1882.76
603.91	1871.01
604.268	1874.63
604.625	1854.97
604.983	1871.01
605.341	1878.69
605.698	1884.34
606.056	1905.81
606.413	1897
606.771	1913.49
607.128	1895.42
607.485	1889.31
607.843	1903.78
608.2	1897.22
608.557	1889.09
608.914	1875.53
609.272	1905.59
609.629	1903.78
609.986	1898.58
610.343	1912.36
610.7	1936.09
611.057	1922.08
611.414	1920.73
611.771	1957.56
612.127	1943.78
612.484	1907.17
612.841	1919.14
613.198	1940.39
613.554	1905.13
613.911	1931.8
614.267	1956.88
614.624	1931.57
614.98	1912.36
615.337	1982.87
615.693	1978.58
616.05	2000.5
616.406	1973.15
616.762	1957.79
617.118	1944.68
617.475	1963.66
617.831	1996.88
618.187	1993.72
618.543	2022.87
618.899	1988.3
619.255	2004.34
619.611	1988.97
619.967	2003.21
620.323	2017.22
620.678	2008.63
621.034	2019.25
621.39	2019.25
621.746	1991.91
622.101	1986.26
622.457	2019.71
622.812	2028.97
623.168	2050.89
623.523	1993.72
623.879	2034.4
624.234	2017.45
624.589	2041.18
624.945	2036.43
625.3	2037.56
625.655	2060.84
626.01	2063.1
626.365	2021.29
626.72	2017.22
627.075	2061.74
627.43	2083.66
627.785	2072.36
628.14	2063.1
628.495	2089.76
628.85	2059.93
629.205	2041.85
629.559	2090.89
629.914	2090.44
630.269	2097.67
630.623	2039.37
630.978	2084.11
631.332	2092.02
631.687	2136.09
632.041	2124.34
632.396	2068.29
632.75	2122.75
633.104	2124.11
633.459	2101.96
633.813	2100.38
634.167	2095.86
634.521	2115.07
634.875	2141.96
635.229	2113.49
635.583	2113.04
635.937	2122.08
636.291	2134.96
636.645	2141.29
636.999	2143.77
637.352	2165.24
637.706	2144.45
638.06	2154.84
638.413	2165.92
638.767	2177.22
639.121	2200.94
639.474	2157.33
639.828	2179.93
640.181	2183.77
640.534	2154.39
640.888	2175.18
641.241	2199.14
641.594	2200.49
641.947	2186.93
642.301	2219.7
642.654	2223.77
643.007	2216.09
643.36	2247.05
643.713	2233.26
644.066	2233.49
644.419	2257.44
644.771	2247.72
645.124	2207.5
645.477	2225.13
645.83	2206.82
646.182	2235.75
646.535	2195.52
646.888	2221.96
647.24	2261.73
647.593	2255.86
647.945	2236.88
648.298	2245.69
648.65	2278.68
649.002	2275.75
649.355	2291.11
649.707	2305.57
650.059	2300.83
650.411	2331.11
650.763	2355.52
651.115	2398.45
651.467	2416.31
651.819	2411.56
652.171	2439.36
652.523	2406.82
652.875	2411.56
653.227	2421.5
653.578	2472.12
653.93	2419.7
654.282	2435.97
654.633	2459.92
654.985	2443.2
655.337	2464.89
655.688	2494.04
656.039	2507.38
656.391	2487.04
656.742	2512.58
657.094	2546.7
657.445	2516.87
657.796	2525.91
658.147	2578.79
658.498	2579.24
658.849	2572.69
659.2	2619.92
659.551	2637.32
659.902	2625.34
660.253	2605.23
660.604	2671.22
660.955	2649.75
661.306	2675.06
661.656	2671.67
662.007	2652.23
662.358	2715.51
662.708	2734.49
663.059	2743.53
663.409	2723.42
663.76	2767.48
664.11	2761.16
664.461	2768.84
664.811	2798.22
665.161	2807.71
665.511	2802.06
665.862	2835.28
666.212	2853.81
666.562	2876.18
666.912	2858.78
667.262	2896.52
667.612	2906.01
667.962	2893.36
668.312	2931.55
668.662	2973.13
669.011	2977.87
669.361	2976.74
669.711	2966.12
670.06	2982.85
670.41	2992.56
670.76	2974.48
671.109	2976.07
671.459	3045.44
671.808	3048.61
672.157	3067.36
672.507	3040.02
672.856	3076.63
673.205	3138.77
673.554	3119.11
673.904	3114.59
674.253	3163.86
674.602	3158.89
674.951	3084.09
675.3	3080.7
675.649	3153.24
675.998	3146
676.346	3192.11
676.695	3224.87
677.044	3240.24
677.393	3195.27
677.741	3192.78
678.09	3225.78
678.438	3237.3
678.787	3273.23
679.135	3290.41
679.484	3268.71
679.832	3306.23
680.181	3298.54
680.529	3363.17
680.877	3318.43
681.225	3350.07
681.573	3393.91
681.922	3362.95
682.27	3330.63
682.618	3380.57
682.966	3375.83
683.314	3406.34
683.661	3402.5
684.009	3367.47
684.357	3368.37
684.705	3367.47
685.053	3377.64
685.4	3432.78
685.748	3431.87
686.095	3460.8
686.443	3430.52
686.79	3460.8
687.138	3476.39
687.485	3471.19
687.832	3524.07
688.18	3508.71
688.527	3487.01
688.874	3514.13
689.221	3507.35
689.568	3515.26
689.915	3522.72
690.262	3502.61
690.609	3521.14
690.956	3549.61
691.303	3572.66
691.65	3514.81
691.997	3522.27
692.344	3527.92
692.69	3536.5
693.037	3563.62
693.383	3519.33
693.73	3553.45
694.077	3521.36
694.423	3520.91
694.769	3579.44
695.116	3553.45
695.462	3533.11
695.808	3555.94
696.155	3609.95
696.501	3491.98
696.847	3515.49
697.193	3529.27
697.539	3557.97
697.885	3510.74
698.231	3553.9
698.577	3516.16
698.923	3532.66
699.269	3498.76
699.614	3491.31
699.96	3535.37
700.306	3529.05
700.651	3495.83
700.997	3514.13
701.342	3470.52
701.688	3513.9
702.033	3493.57
702.379	3478.65
702.724	3493.79
703.069	3453.57
703.415	3455.83
703.76	3449.5
704.105	3468.03
704.45	3484.53
704.795	3415.83
705.14	3433.23
705.485	3464.19
705.83	3403.63
706.175	3453.34
706.52	3455.6
706.865	3463.06
707.209	3444.08
707.554	3398.43
707.899	3455.83
708.243	3433.68
708.588	3446.79
708.932	3418.09
709.277	3419.22
709.621	3385.55
709.966	3397.52
710.31	3425.77
710.654	3386.45
710.998	3418.99
711.342	3431.87
711.687	3412.44
712.031	3396.39
712.375	3381.93
712.719	3423.74
713.063	3374.02
713.407	3413.34
713.75	3375.15
714.094	3393.46
714.438	3433
714.782	3390.97
715.125	3382.83
715.469	3392.1
715.812	3372.21
716.156	3380.8
716.499	3359.78
716.843	3391.65
717.186	3385.55
717.53	3390.07
717.873	3404.08
718.216	3355.04
718.559	3394.59
718.902	3346.23
719.246	3382.83
719.589	3368.15
719.932	3350.75
720.275	3385.32
720.617	3346.68
720.96	3354.36
721.303	3373.8
721.646	3354.59
721.989	3369.73
722.331	3409.27
722.674	3349.39
723.016	3357.07
723.359	3347.13
723.701	3387.35
724.044	3339.9
724.386	3378.99
724.729	3387.35
725.071	3401.14
725.413	3349.39
725.755	3375.15
726.097	3398.43
726.439	3347.81
726.782	3328.15
727.124	3417.64
727.465	3357.3
727.807	3373.8
728.149	3337.64
728.491	3382.61
728.833	3400.46
729.175	3353.46
729.516	3404.76
729.858	3362.95
730.199	3404.08
730.541	3409.27
730.882	3409.95
731.224	3376.73
731.565	3419.22
731.906	3401.82
732.248	3424.19
732.589	3409.05
732.93	3378.77
733.271	3428.26
733.612	3374.47
733.953	3412.21
734.294	3387.13
734.635	3359.78
734.976	3429.16
735.317	3438.2
735.658	3393.46
735.999	3458.54
736.339	3417.86
736.68	3448.14
737.021	3439.1
737.361	3420.12
737.702	3444.08
738.042	3448.14
738.383	3421.93
738.723	3458.76
739.063	3455.38
739.404	3462.61
739.744	3468.48
740.084	3491.31
740.424	3499.67
740.764	3460.8
741.104	3488.59
741.444	3508.71
741.784	3493.79
742.124	3515.26
742.464	3534.7
742.804	3493.79
743.143	3538.31
743.483	3537.63
743.823	3532.21
744.162	3527.24
744.502	3582.83
744.841	3530.4
745.181	3608.14
745.52	3604.07
745.86	3582.83
746.199	3653.11
746.538	3663.28
746.877	3668.25
747.216	3706.44
747.556	3687.91
747.895	3685.88
748.234	3710.74
748.573	3717.52
748.911	3741.47
749.25	3722.49
749.589	3747.34
749.928	3802.71
750.267	3769.04
750.605	3799.32
750.944	3826.21
751.283	3839.55
751.621	3858.3
751.96	3864.86
752.298	3891.97
752.636	3909.15
752.975	3904.18
753.313	3922.71
753.651	3967.23
753.989	3981.92
754.327	3960.22
754.666	3954.35
755.004	4017.85
755.342	4054.68
755.679	4089.71
756.017	4082.48
756.355	4089.93
756.693	4116.15
757.031	4154.11
757.368	4123.61
757.706	4138.3
758.044	4186.2
758.381	4139.2
758.719	4192.08
759.056	4210.84
759.394	4212.64
759.731	4185.75
760.068	4233.43
760.405	4221.46
760.743	4264.85
761.08	4284.51
761.417	4298.74
761.754	4317.27
762.091	4346.43
762.428	4346.43
762.765	4328.12
763.102	4374.9
763.438	4339.87
763.775	4359.31
764.112	4359.53
764.449	4392.98
764.785	4421
765.122	4389.59
765.458	4371.51
765.795	4382.58
766.131	4367.89
766.467	4370.83
766.804	4342.36
767.14	4360.21
767.476	4402.69
767.812	4430.04
768.148	4450.15
768.485	4399.98
768.821	4376.93
769.157	4446.54
769.492	4405.41
769.828	4375.8
770.164	4343.04
770.5	4399.08
770.836	4418.29
771.171	4401.34
771.507	4420.32
771.842	4388.01
