Data from blue_clamp_base_FLMS001491_00088.txt Node
Date: Wed Feb 08 15:16:38 GMT 2017
User: dcchb
Spectrometer: FLMS00149
Trigger mode: 0
Integration Time (sec): 2.000000E-2
Scans to average: 10
Electric dark correction enabled: true
Nonlinearity correction enabled: false
Boxcar width: 0
XAxis mode: Wavelengths
Number of Pixels in Spectrum: 2048
>>>>>Begin Spectral Data<<<<<
341.393	-17.78
341.776	-17.78
342.16	-17.78
342.543	-59.59
342.927	-66.14
343.31	-74.73
343.693	-53.26
344.077	-69.76
344.46	-40.38
344.843	-56.2
345.226	-35.86
345.61	-44.45
345.993	-19.14
346.376	-2.87
346.759	14.31
347.142	15.89
347.525	40.52
347.908	61.54
348.291	70.58
348.674	89.33
349.057	104.47
349.44	128.88
349.823	147.64
350.206	187.64
350.588	214.53
350.971	251.36
351.354	236.45
351.737	237.35
352.119	232.61
352.502	288.2
352.884	269.22
353.267	290.23
353.65	292.72
354.032	326.62
354.414	339.27
354.797	342.43
355.179	335.66
355.562	342.21
355.944	331.14
356.326	343.56
356.709	346.5
357.091	368.65
357.473	355.99
357.855	357.8
358.238	350.12
358.62	345.15
359.002	363.45
359.384	352.6
359.766	360.06
360.148	331.36
360.53	358.93
360.912	358.03
361.294	364.81
361.676	354.41
362.057	338.82
362.439	341.08
362.821	340.4
363.203	337.01
363.584	336.56
363.966	318.71
364.348	329.33
364.729	327.75
365.111	337.24
365.493	350.12
365.874	358.03
366.256	343.34
366.637	336.56
367.019	351.02
367.4	330.91
367.781	328.2
368.163	364.13
368.544	327.97
368.925	327.07
369.306	355.77
369.688	332.04
370.069	349.67
370.45	344.92
370.831	344.92
371.212	352.83
371.593	352.83
371.974	326.62
372.355	345.15
372.736	353.73
373.117	337.69
373.498	340.63
373.879	356.45
374.26	346.5
374.641	333.17
375.021	346.95
375.402	349.44
375.783	363.45
376.163	366.16
376.544	381.76
376.925	349.44
377.305	381.53
377.686	357.12
378.066	367.74
378.447	360.51
378.827	375.43
379.208	394.64
379.588	375.88
379.968	384.24
380.349	379.72
380.729	398.93
381.109	384.47
381.489	377.01
381.87	373.62
382.25	379.04
382.63	372.49
383.01	400.51
383.39	414.75
383.77	395.99
384.15	417.46
384.53	427.18
384.91	392.38
385.29	424.69
385.67	390.34
386.049	439.38
386.429	428.08
386.809	404.13
387.189	424.47
387.568	418.14
387.948	449.55
388.328	461.98
388.707	448.19
389.087	458.14
389.466	456.56
389.846	451.81
390.225	455.88
390.605	473.5
390.984	472.15
391.363	472.83
391.743	446.39
392.122	482.54
392.501	494.07
392.881	495.88
393.26	498.81
393.639	516.44
394.018	499.49
394.397	499.27
394.776	483.67
395.155	527.06
395.534	530.9
395.913	525.03
396.292	545.59
396.671	562.54
397.05	562.32
397.429	555.76
397.808	550.34
398.186	551.24
398.565	561.64
398.944	551.02
399.323	563.9
399.701	574.97
400.08	594.63
400.458	571.58
400.837	589.21
401.215	601.64
401.594	617.23
401.972	622.43
402.351	629.88
402.729	633.95
403.107	635.53
403.486	633.5
403.864	630.34
404.242	650.9
404.62	658.36
404.999	669.66
405.377	671.69
405.755	673.5
406.133	699.04
406.511	702.88
406.889	722.09
407.267	741.29
407.645	714.85
408.023	735.87
408.401	718.7
408.779	740.16
409.156	764.34
409.534	781.52
409.912	798.47
410.29	791.01
410.667	803.21
411.045	812.93
411.422	843.21
411.8	824.23
412.178	864
412.555	865.81
412.933	882.99
413.31	897.9
413.687	895.64
414.065	904
414.442	909.2
414.819	935.87
415.197	923.44
415.574	943.77
415.951	939.25
416.328	952.81
416.705	953.49
417.082	989.2
417.46	975.19
417.837	987.84
418.214	991.46
418.591	1015.86
418.967	1025.81
419.344	1025.81
419.721	1057.67
420.098	1055.86
420.475	1067.39
420.852	1093.15
421.228	1076.43
421.605	1094.05
421.982	1101.28
422.358	1126.37
422.735	1136.54
423.111	1118.91
423.488	1181.73
423.864	1184.67
424.241	1193.26
424.617	1225.58
424.994	1198.23
425.37	1203.2
425.746	1217.21
426.123	1217.89
426.499	1246.37
426.875	1278.91
427.251	1280.71
427.627	1325.91
428.003	1336.98
428.379	1342.86
428.756	1345.35
429.132	1401.16
429.507	1385.34
429.883	1387.83
430.259	1442.97
430.635	1440.48
431.011	1476.87
431.387	1503.53
431.763	1525.45
432.138	1550.76
432.514	1562.06
432.89	1581.27
433.265	1602.06
433.641	1617.43
434.016	1623.53
434.392	1670.08
434.767	1687.26
435.143	1709.4
435.518	1709.63
435.894	1761.15
436.269	1736.97
436.644	1785.79
437.02	1772
437.395	1802.74
437.77	1805.9
438.145	1867.82
438.52	1868.5
438.895	1913.92
439.271	1913.92
439.646	1964.54
440.021	1941.94
440.395	1982.84
440.77	1956.18
441.145	1986.91
441.52	1997.76
441.895	2047.93
442.27	2073.24
442.645	2065.1
443.019	2070.98
443.394	2086.12
443.769	2089.51
444.143	2134.7
444.518	2173.8
444.892	2156.4
445.267	2178.32
445.641	2197.98
446.016	2226.9
446.39	2236.17
446.764	2247.24
447.139	2229.39
447.513	2302.16
447.887	2314.13
448.262	2285.43
448.636	2295.6
449.01	2327.24
449.384	2398.2
449.758	2377.64
450.132	2421.02
450.506	2437.29
450.88	2446.79
451.254	2412.44
451.628	2486.33
452.002	2522.26
452.376	2542.6
452.75	2557.97
453.123	2602.71
453.497	2623.28
453.871	2655.82
454.244	2716.61
454.618	2729.72
454.992	2769.94
455.365	2722.71
455.739	2847.23
456.112	2831.41
456.486	2875.7
456.859	2916.15
457.232	2958.41
457.606	2916.6
457.979	2967.68
458.352	3039.54
458.725	3010.16
459.099	3089.93
459.472	3174.45
459.845	3149.37
460.218	3201.57
460.591	3206.99
460.964	3257.84
461.337	3309.59
461.71	3362.24
462.083	3374.9
462.456	3415.35
462.829	3430.04
463.201	3495.12
463.574	3502.8
463.947	3584.38
464.32	3602.46
464.692	3633.42
465.065	3693.08
465.438	3756.58
465.81	3757.71
466.183	3811.27
466.555	3880.19
466.928	3918.84
467.3	3890.14
467.672	3938.5
468.045	4046.29
468.417	4030.02
468.789	4108.21
469.161	4185.5
469.534	4199.96
469.906	4300.07
470.278	4329.67
470.65	4326.96
471.022	4416.45
471.394	4514.98
471.766	4519.73
472.138	4553.17
472.51	4702.77
472.882	4736.9
473.253	4785.93
473.625	4830.45
473.997	4952.03
474.369	4956.78
474.74	4980.73
475.112	5074.74
475.484	5197.67
475.855	5299.14
476.227	5228.63
476.598	5428.63
476.97	5419.14
477.341	5538.68
477.713	5587.04
478.084	5655.52
478.455	5792.69
478.827	5821.16
479.198	5925.79
479.569	5987.94
479.94	6123.3
480.311	6200.59
480.682	6295.5
481.053	6384.08
481.424	6451.65
481.795	6562.16
482.166	6634.25
482.537	6672.66
482.908	6786.33
483.279	6830.63
483.65	6941.58
484.021	7109.94
484.391	7138.87
484.762	7211.41
485.133	7230.16
485.503	7363.72
485.874	7451.17
486.244	7541.79
486.615	7706.76
486.985	7725.29
487.356	7900.65
487.726	7856.36
488.097	8009.35
488.467	8049.8
488.837	8155.79
489.207	8270.36
489.578	8374.54
489.948	8395.1
490.318	8466.29
490.688	8545.16
491.058	8632.84
491.428	8710.8
491.798	8802.78
492.168	8891.81
492.538	8894.98
492.908	8988.99
493.278	9073.96
493.648	9133.84
494.017	9171.35
494.387	9215.65
494.757	9320.28
495.126	9367.96
495.496	9421.07
495.866	9437.79
496.235	9542.42
496.605	9575.64
496.974	9646.37
497.344	9665.35
497.713	9711.91
498.082	9757.55
498.452	9852.01
498.821	9929.75
499.19	9907.83
499.559	10076.87
499.928	10028.51
500.298	10020.82
500.667	10153.02
501.036	10202.06
501.405	10217.43
501.774	10236.64
502.143	10330.65
502.512	10344.21
502.88	10374.94
503.249	10424.88
503.618	10512.79
503.987	10466.46
504.356	10486.35
504.724	10596.63
505.093	10610.41
505.462	10633.69
505.83	10666.91
506.199	10723.63
506.567	10834.36
506.936	10813.57
507.304	10943.51
507.672	10986
508.041	10968.37
508.409	11069.84
508.777	11088.59
509.145	11134.47
509.514	11171.98
509.882	11248.81
510.25	11288.36
510.618	11285.65
510.986	11384.4
511.354	11420.79
511.722	11507.34
512.09	11664.4
512.458	11532.2
512.826	11622.36
513.193	11652.19
513.561	11719.31
513.929	11735.36
514.297	11877.72
514.664	11849.48
515.032	11902.13
515.4	12030.04
515.767	12074.78
516.135	12036.82
516.502	12037.72
516.869	12279.75
517.237	12296.24
517.604	12253.99
517.972	12374.43
518.339	12406.98
518.706	12472.06
519.073	12502.11
519.44	12565.39
519.808	12630.7
520.175	12628.44
520.542	12770.36
520.909	12785.72
521.276	12779.17
521.643	12929.22
522.009	12876.34
522.376	13018.26
522.743	13134.41
523.11	13166.96
523.477	13313.84
523.843	13265.71
524.21	13522.65
524.577	13575.98
524.943	13592.93
525.31	13677.68
525.676	13837.9
526.043	13881.29
526.409	13893.72
526.776	14020.94
527.142	14003.77
527.508	14114.5
527.874	14195.18
528.241	14233.37
528.607	14301.16
528.973	14380.94
529.339	14344.1
529.705	14493.7
530.071	14693.02
530.437	14638.1
530.803	14732.56
531.169	14709.97
531.535	14743.41
531.901	14854.37
532.267	14909.74
532.632	14969.85
532.998	15021.82
533.364	15189.5
533.73	15130.97
534.095	15162.38
534.461	15290.29
534.826	15396.95
535.192	15477.4
535.557	15499.78
535.923	15490.74
536.288	15489.15
536.653	15705.19
537.019	15609.38
537.384	15659.09
537.749	15678.98
538.114	15778.64
538.479	15890.73
538.845	15892.99
539.21	15907.45
539.575	15885.53
539.94	15956.71
540.305	16097.05
540.67	16008.92
541.034	16097.73
541.399	16202.81
541.764	16220.66
542.129	16264.28
542.494	16266.54
542.858	16377.04
543.223	16343.82
543.587	16473.76
543.952	16349.47
544.316	16489.81
544.681	16484.61
545.045	16691.16
545.41	16742
545.774	16613.19
546.138	16657.26
546.503	16817.26
546.867	16831.72
547.231	16930.47
547.595	16908.1
547.959	16941.32
548.324	17000.3
548.688	17063.35
549.052	17100.41
549.416	17086.85
549.779	17095.67
550.143	17222.67
550.507	17313.74
550.871	17253.18
551.235	17360.74
551.599	17445.94
551.962	17526.16
552.326	17562.77
552.689	17626.95
553.053	17576.33
553.417	17564.58
553.78	17820.62
554.143	17756.21
554.507	17855.42
554.87	17787.63
555.234	18033.49
555.597	17871.01
555.96	17907.4
556.323	18141.97
556.686	18054.74
557.05	18151.23
557.413	18222.42
557.776	18273.94
558.139	18340.38
558.502	18302.64
558.865	18364.33
559.228	18461.05
559.59	18532.46
559.953	18590.09
560.316	18679.13
560.679	18755.28
561.041	18908.73
561.404	18933.13
561.767	18959.12
562.129	18962.51
562.492	19182.84
562.854	19176.74
563.217	19103.75
563.579	19238.89
563.941	19314.59
564.304	19381.48
564.666	19534.92
565.028	19539.9
565.39	19596.62
565.753	19766.1
566.115	19890.17
566.477	19937.17
566.839	19834.35
567.201	20084.74
567.563	19965.65
567.925	20180.33
568.287	20174.46
568.648	20228.92
569.01	20364.05
569.372	20480.21
569.734	20394.79
570.095	20511.4
570.457	20578.06
570.819	20588
571.18	20715.46
571.542	20780.77
571.903	20815.57
572.265	20852.4
572.626	20841.78
572.987	20972.17
573.349	21012.63
573.71	21179.17
574.071	21140.98
574.432	21271.38
574.794	21383.69
575.155	21302.56
575.516	21302.34
575.877	21432.73
576.238	21378.04
576.599	21519.96
576.96	21537.13
577.32	21600.41
577.681	21672.95
578.042	21709.1
578.403	21641.54
578.763	21748.65
579.124	21838.59
579.485	21803.34
579.845	21965.14
580.206	21884.47
580.566	21792.27
580.927	21945.26
581.287	22006.27
581.648	21970.57
582.008	22142.31
582.368	22055.08
582.728	22068.19
583.089	22115.65
583.449	22131.47
583.809	22175.76
584.169	22061.64
584.529	22128.3
584.889	22328.75
585.249	22263.67
585.609	22207.85
585.969	22362.42
586.329	22227.51
586.688	22329.43
587.048	22270.22
587.408	22234.29
587.768	22163.33
588.127	22252.59
588.487	22253.04
588.846	22374.4
589.206	22227.28
589.565	22280.16
589.925	22373.95
590.284	22306.6
590.643	22388.41
591.003	22495.52
591.362	22483.77
591.721	22505.47
592.08	22417.56
592.44	22501.85
592.799	22516.99
593.158	22504.11
593.517	22471.57
593.876	22534.62
594.235	22391.57
594.593	22420.95
594.952	22567.39
595.311	22506.82
595.67	22587.05
596.029	22626.14
596.387	22651.68
596.746	22644.22
597.104	22572.81
597.463	22525.81
597.822	22660.04
598.18	22526.03
598.538	22567.61
598.897	22701.17
599.255	22548.4
599.613	22996.3
599.972	22738.46
600.33	22848.06
600.688	22596.09
601.046	22736.2
601.404	22883.76
601.762	22707.95
602.12	22935.29
602.478	22835.4
602.836	22938.22
603.194	22826.82
603.552	22884.44
603.91	22765.35
604.268	22996.98
604.625	22776.87
604.983	22930.77
605.341	22808.51
605.698	22993.14
606.056	23024.1
606.413	23018.22
606.771	23055.06
607.128	23122.17
607.485	23038.56
607.843	23028.17
608.2	23138.22
608.557	23169.18
608.914	23140.48
609.272	23170.76
609.629	23282.17
609.986	23242.85
610.343	23218.67
610.7	23467.93
611.057	23306.8
611.414	23329.63
611.771	23302.96
612.127	23470.64
612.484	23357.42
612.841	23454.14
613.198	23378.21
613.554	23515.38
613.911	23510.86
614.267	23414.82
614.624	23468.15
614.98	23545.89
615.337	23653.01
615.693	23595.38
616.05	23642.84
616.406	23674.25
616.762	23607.59
617.118	23648.49
617.475	23666.12
617.831	23697.53
618.187	23619.56
618.543	23855.04
618.899	23910.4
619.255	23787.92
619.611	23883.51
619.967	23918.54
620.323	23951.98
620.678	23827.69
621.034	23766.68
621.39	23975.94
621.746	23868.82
622.101	24113.56
622.457	23815.04
622.812	23909.95
623.168	24048.93
623.523	23974.58
623.879	24125.54
624.234	23929.16
624.589	24006.45
624.945	24102.04
625.3	24115.82
625.655	24057.97
626.01	24080.12
626.365	24142.49
626.72	24034.01
627.075	24048.7
627.43	23980.23
627.785	24025.88
628.14	24086.44
628.495	24031.98
628.85	24120.79
629.205	24033.11
629.559	24250.05
629.914	24063.62
630.269	24191.75
630.623	24167.8
630.978	24083.73
631.332	24169.15
631.687	24267.23
632.041	24131.19
632.396	24229.49
632.75	24062.49
633.104	24208.93
633.459	24065.2
633.813	24059.55
634.167	24080.57
634.521	24068.36
634.875	24083.96
635.229	24102.71
635.583	23977.97
635.937	23939.78
636.291	23935.26
636.645	24026.33
636.999	23887.13
637.352	23909.05
637.706	23815.94
638.06	23956.73
638.413	23914.24
638.767	23885.54
639.121	23946.79
639.474	23831.53
639.828	24022.26
640.181	24050.96
640.534	23939.55
640.888	23887.58
641.241	23831.31
641.594	23927.58
641.947	23904.75
642.301	23929.16
642.654	24001.02
643.007	23988.37
643.36	23851.87
643.713	23849.61
644.066	23984.07
644.419	23887.58
644.771	23693.46
645.124	23530.53
645.477	23514.93
645.83	23361.49
646.182	23317.42
646.535	23190.65
646.888	23369.17
647.24	23235.84
647.593	23415.95
647.945	23290.76
648.298	23194.26
648.65	23257.54
649.002	23215.96
649.355	23269.52
649.707	23340.7
650.059	23369.4
650.411	23732.78
650.763	23756.06
651.115	24024.52
651.467	23879.89
651.819	23900.91
652.171	24049.83
652.523	24010.29
652.875	23961.47
653.227	23841.25
653.578	23980.01
653.93	23969.61
654.282	23907.69
654.633	23827.47
654.985	23999.44
655.337	23897.75
655.688	23890.52
656.039	23970.74
656.391	23839.44
656.742	24007.57
657.094	23961.02
657.445	23962.15
657.796	23865.21
658.147	23935.49
658.498	23901.14
658.849	23958.76
659.2	24010.29
659.551	23956.05
659.902	24071.08
660.253	23961.93
660.604	24042.6
660.955	23813.23
661.306	23923.74
661.656	23848.26
662.007	23954.47
662.358	24043.28
662.708	23940.91
663.059	23836.96
663.409	23753.12
663.76	23976.84
664.11	23907.92
664.461	23903.85
664.811	23863.4
665.161	23887.8
665.511	23853.68
665.862	23899.56
666.212	23940.91
666.562	23816.17
666.912	23799.67
667.262	23809.16
667.612	23712.89
667.962	23760.58
668.312	23784.3
668.662	23829.95
669.011	23731.88
669.361	23758.77
669.711	23804.64
670.06	23677.19
670.41	23638.55
670.76	23630.86
671.109	23635.83
671.459	23557.87
671.808	23522.39
672.157	23610.75
672.507	23472.22
672.856	23415.95
673.205	23450.98
673.554	23493.92
673.904	23471.09
674.253	23438.32
674.602	23397.2
674.951	23012.35
675.3	22901.62
675.649	23261.38
675.998	23129.63
676.346	23177.54
676.695	23181.83
677.044	23060.26
677.393	23038.79
677.741	23073.59
678.09	22997.21
678.438	23008.28
678.787	22938.68
679.135	22980.71
679.484	22843.99
679.832	22816.19
680.181	22738.46
680.529	22780.49
680.877	22732.58
681.225	22734.61
681.573	22818.68
681.922	22604.45
682.27	22554.73
682.618	22621.17
682.966	22455.07
683.314	22537.78
683.661	22440.16
684.009	22296.43
684.357	22313.83
684.705	22250.78
685.053	22263.67
685.4	22229.09
685.748	22089.43
686.095	22174.85
686.443	22093.95
686.79	22055.54
687.138	22099.38
687.485	22128.98
687.832	21989.77
688.18	22004.01
688.527	21818.48
688.874	21797.92
689.221	21773.51
689.568	21882.89
689.915	21651.7
690.262	21706.39
690.609	21702.1
690.956	21423.69
691.303	21574.64
691.65	21483.12
691.997	21400.19
692.344	21390.02
692.69	21325.61
693.037	21310.24
693.383	21288.78
693.73	21272.73
694.077	21231.83
694.423	21137.82
694.769	21113.87
695.116	21031.83
695.462	21016.92
695.808	21041.1
696.155	21123.36
696.501	20958.16
696.847	20994.55
697.193	20811.27
697.539	20973.53
697.885	20725.4
698.231	20615.35
698.577	20685.63
698.923	20674.78
699.269	20577.16
699.614	20546.65
699.96	20438.86
700.306	20468.68
700.651	20449.48
700.997	20383.49
701.342	20317.5
701.688	20220.1
702.033	20192.76
702.379	20127.9
702.724	20262.59
703.069	20253.55
703.415	20051.29
703.76	20029.83
704.105	20050.39
704.45	19990.73
704.795	19875.25
705.14	19809.95
705.485	19861.7
705.83	19734.69
706.175	19883.16
706.52	19769.72
706.865	19700.8
707.209	19818.76
707.554	19628.26
707.899	19627.8
708.243	19504.87
708.588	19609.5
708.932	19529.95
709.277	19534.47
709.621	19419.45
709.966	19357.75
710.31	19447.92
710.654	19213.12
710.998	19389.84
711.342	19464.64
711.687	19358.21
712.031	19241.37
712.375	19174.48
712.719	19256.74
713.063	19187.81
713.407	19327.7
713.75	19179.91
714.094	19245.67
714.438	19096.29
714.782	19225.33
715.125	19120.7
715.469	19056.74
715.812	18960.93
716.156	18919.35
716.499	18958.22
716.843	18988.05
717.186	18925.67
717.53	18960.25
717.873	18935.62
718.216	18969.52
718.559	18911.89
718.902	18623.08
719.246	18870.76
719.589	18851.1
719.932	18626.7
720.275	18710.54
720.617	18706.02
720.96	18600.49
721.303	18652.91
721.646	18646.13
721.989	18521.84
722.331	18669.41
722.674	18558.23
723.016	18611.56
723.359	18471.22
723.701	18553.26
724.044	18383.09
724.386	18397.55
724.729	18522.75
725.071	18550.54
725.413	18462.64
725.755	18438.23
726.097	18371.79
726.439	18339.48
726.782	18313.71
727.124	18501.28
727.465	18400.72
727.807	18364.33
728.149	18306.26
728.491	18297.67
728.833	18282.08
729.175	18257.22
729.516	18224.9
729.858	18282.08
730.199	18347.16
730.541	18272.13
730.882	18215.64
731.224	18248.4
731.565	18139.25
731.906	18129.54
732.248	18319.14
732.589	18267.16
732.93	18069.88
733.271	18205.92
733.612	18269.42
733.953	18203.89
734.294	18165.47
734.635	18168.63
734.976	18213.83
735.317	18129.54
735.658	18141.97
735.999	18191.91
736.339	18112.81
736.68	18122.08
737.021	18192.36
737.361	18096.54
737.702	18202.76
738.042	18162.76
738.383	18127.28
738.723	18195.75
739.063	18230.78
739.404	18250.89
739.744	18230.55
740.084	18248.4
740.424	18233.94
740.764	18179.48
741.104	18291.34
741.444	18165.02
741.784	18174.06
742.124	18289.53
742.464	18233.94
742.804	18201.17
743.143	18388.51
743.483	18284.34
743.823	18304.45
744.162	18197.78
744.502	18386.71
744.841	18398.46
745.181	18460.15
745.52	18418.57
745.86	18523.2
746.199	18402.75
746.538	18499.92
746.877	18490.88
747.216	18463.54
747.556	18577.44
747.895	18547.83
748.234	18509.19
748.573	18623.54
748.911	18498.12
749.25	18587.38
749.589	18621.73
749.928	18607.94
750.267	18666.92
750.605	18623.99
750.944	18632.8
751.283	18591.22
751.621	18634.38
751.96	18602.07
752.298	18705.34
752.636	18655.4
752.975	18657.66
753.313	18727.04
753.651	18734.27
753.989	18744.66
