Data from blue_chair_FLMS001491_00054.txt Node
Date: Wed Feb 08 10:31:18 GMT 2017
User: dcchb
Spectrometer: FLMS00149
Trigger mode: 0
Integration Time (sec): 2.000000E-2
Scans to average: 10
Electric dark correction enabled: true
Nonlinearity correction enabled: false
Boxcar width: 0
XAxis mode: Wavelengths
Number of Pixels in Spectrum: 2048
>>>>>Begin Spectral Data<<<<<
341.393	-4.7
341.776	-4.7
342.16	-4.7
342.543	-48.77
342.927	-60.3
343.31	-70.69
343.693	-68.88
344.077	-61.2
344.46	-61.2
344.843	-54.19
345.226	-45.15
345.61	-27.98
345.993	-28.66
346.376	-5.83
346.759	37.33
347.142	33.49
347.525	52.24
347.908	43.21
348.291	59.93
348.674	94.5
349.057	103.09
349.44	127.04
349.823	143.99
350.206	157.1
350.588	176.53
350.971	188.29
351.354	214.05
351.737	212.01
352.119	229.87
352.502	231.45
352.884	253.6
353.267	246.14
353.65	269.19
354.032	258.34
354.414	285.91
354.797	298.34
355.179	306.25
355.562	292.24
355.944	307.6
356.326	312.35
356.709	289.98
357.091	290.88
357.473	297.21
357.855	302.63
358.238	330.66
358.62	319.36
359.002	313.48
359.384	314.61
359.766	306.93
360.148	336.53
360.53	301.96
360.912	310.32
361.294	304.67
361.676	295.18
362.057	289.98
362.439	323.88
362.821	306.93
363.203	298.11
363.584	293.37
363.966	301.96
364.348	299.47
364.729	296.76
365.111	279.81
365.493	288.85
365.874	294.05
366.256	292.46
366.637	285.68
367.019	287.94
367.4	315.06
367.781	299.92
368.163	288.17
368.544	287.94
368.925	289.75
369.306	271.45
369.688	259.7
370.069	277.55
370.45	287.49
370.831	265.57
371.212	289.75
371.593	275.29
371.974	287.72
372.355	269.87
372.736	282.52
373.117	270.54
373.498	276.65
373.879	275.06
374.26	287.04
374.641	283.88
375.021	291.56
375.402	298.11
375.783	287.94
376.163	286.81
376.544	299.92
376.925	285.23
377.305	303.09
377.686	289.3
378.066	296.76
378.447	288.85
378.827	280.04
379.208	295.18
379.588	292.92
379.968	293.82
380.349	304.67
380.729	292.92
381.109	320.03
381.489	276.65
381.87	299.7
382.25	285.01
382.63	318.45
383.01	301.5
383.39	291.79
383.77	287.27
384.15	285.23
384.53	292.24
384.91	289.75
385.29	297.89
385.67	290.2
386.049	296.31
386.429	294.5
386.809	321.16
387.189	301.73
387.568	313.93
387.948	315.97
388.328	316.19
388.707	324.1
389.087	323.65
389.466	326.36
389.846	328.62
390.225	329.53
390.605	306.25
390.984	330.2
391.363	326.81
391.743	316.42
392.122	315.06
392.501	309.64
392.881	318.23
393.26	341.05
393.639	307.38
394.018	312.58
394.397	336.08
394.776	338.34
395.155	310.32
395.534	327.72
395.913	325.01
396.292	325.23
396.671	324.1
397.05	346.02
397.429	314.16
397.808	335.63
398.186	338.56
398.565	331.79
398.944	336.08
399.323	346.93
399.701	351.22
400.08	344.67
400.458	343.76
400.837	357.55
401.215	367.49
401.594	345.12
401.972	343.54
402.351	329.75
402.729	348.96
403.107	370.88
403.486	346.7
403.864	352.35
404.242	342.86
404.62	346.25
404.999	357.1
405.377	338.79
405.755	338.34
406.133	380.82
406.511	349.19
406.889	358.9
407.267	367.94
407.645	370.43
408.023	377.43
408.401	376.53
408.779	370.2
409.156	375.63
409.534	402.97
409.912	386.92
410.29	390.99
410.667	395.29
411.045	396.19
411.422	381.73
411.8	400.71
412.178	412.01
412.555	410.43
412.933	411.78
413.31	403.42
413.687	413.14
414.065	413.82
414.442	402.52
414.819	422.18
415.197	422.4
415.574	407.94
415.951	414.95
416.328	412.69
416.705	432.12
417.082	412.46
417.46	413.59
417.837	442.29
418.214	438
418.591	433.48
418.967	417.66
419.344	442.74
419.721	458.56
420.098	418.11
420.475	438.9
420.852	430.99
421.228	453.14
421.605	480.48
421.982	464.21
422.358	459.47
422.735	447.94
423.111	466.02
423.488	478.67
423.864	466.02
424.241	483.65
424.617	493.36
424.994	491.1
425.37	497.43
425.746	480.93
426.123	486.58
426.499	496.98
426.875	503.53
427.251	497.88
427.627	514.15
428.003	520.03
428.379	518.9
428.756	514.61
429.132	513.48
429.507	539.01
429.883	527.94
430.259	550.76
430.635	545.56
431.011	559.58
431.387	555.51
431.763	536.75
432.138	546.47
432.514	575.85
432.89	555.28
433.265	586.92
433.641	598.22
434.016	567.03
434.392	594.38
434.767	580.82
435.143	588.05
435.518	602.51
435.894	596.18
436.269	609.97
436.644	661.04
437.02	654.94
437.395	636.64
437.77	642.06
438.145	648.39
438.52	670.99
438.895	669.63
439.271	682.06
439.646	691.78
440.021	707.59
440.395	706.92
440.77	709.18
441.145	711.44
441.52	713.02
441.895	713.92
442.27	758.89
442.645	722.06
443.019	753.24
443.394	749.18
443.769	767.03
444.143	800.02
444.518	776.75
444.892	782.17
445.267	767.03
445.641	771.55
446.016	783.75
446.39	790.76
446.764	805.9
447.139	820.81
447.513	792.11
447.887	783.75
448.262	818.1
448.636	822.62
449.01	821.04
449.384	819.23
449.758	816.97
450.132	846.35
450.506	849.29
450.88	849.29
451.254	832.11
451.628	872.11
452.002	866.23
452.376	877.53
452.75	847.48
453.123	889.28
453.497	900.81
453.871	924.99
454.244	907.82
454.618	911.43
454.992	938.32
455.365	922.5
455.739	927.02
456.112	949.62
456.486	953.69
456.859	986.91
457.232	977.42
457.606	964.76
457.979	973.35
458.352	974.03
458.725	975.16
459.099	1000.47
459.472	1017.19
459.845	993.24
460.218	1001.37
460.591	1020.81
460.964	1043.4
461.337	1017.42
461.71	1044.76
462.083	1056.06
462.456	1082.95
462.829	1080.47
463.201	1072.33
463.574	1105.32
463.947	1081.37
464.32	1132.22
464.692	1117.75
465.065	1130.18
465.438	1125.66
465.81	1142.39
466.183	1159.33
466.555	1158.2
466.928	1167.47
467.3	1169.28
467.672	1178.09
468.045	1177.86
468.417	1223.96
468.789	1181.93
469.161	1227.13
469.534	1222.38
469.906	1276.84
470.278	1242.95
470.65	1279.56
471.022	1252.89
471.394	1298.09
471.766	1278.88
472.138	1303.96
472.51	1295.6
472.882	1333.11
473.253	1337.86
473.625	1370.63
473.997	1389.16
474.369	1367.01
474.74	1393.9
475.112	1389.61
475.484	1423.73
475.855	1438.2
476.227	1433.68
476.598	1466.22
476.97	1467.8
477.341	1490.17
477.713	1479.1
478.084	1504.64
478.455	1524.07
478.827	1518.42
479.198	1565.65
479.569	1559.78
479.94	1586.67
480.311	1604.07
480.682	1597.51
481.053	1626.67
481.424	1626.67
481.795	1649.72
482.166	1665.99
482.537	1689.72
482.908	1699.66
483.279	1691.75
483.65	1721.35
484.021	1724.74
484.391	1714.57
484.762	1720.68
485.133	1792.31
485.503	1789.83
485.874	1785.98
486.244	1804.97
486.615	1809.71
486.985	1807.9
487.356	1802.48
487.726	1844.06
488.097	1858.98
488.467	1834.57
488.837	1886.32
489.207	1892.65
489.578	1868.47
489.948	1918.41
490.318	1923.61
490.688	1909.37
491.058	1924.74
491.428	1925.87
491.798	1910.95
492.168	1954.57
492.538	1947.34
492.908	1978.52
493.278	1973.55
493.648	1990.27
494.017	1987.56
494.387	1982.82
494.757	1980.1
495.126	1971.74
495.496	1992.08
495.866	1974.23
496.235	1965.19
496.605	2008.13
496.974	1977.17
497.344	1991.18
497.713	2021.23
498.082	1972.87
498.452	1999.76
498.821	1989.82
499.19	1993.21
499.559	1974.68
499.928	2032.31
500.298	1976.94
500.667	1962.25
501.036	1972.65
501.405	1981.01
501.774	2012.64
502.143	1996.37
502.512	1978.97
502.88	1974
503.249	1970.16
503.618	1981.23
503.987	1984.17
504.356	1975.81
504.724	1992.53
505.093	1972.65
505.462	1976.26
505.83	1999.99
506.199	1976.26
506.567	1951.18
506.936	1991.18
507.304	1954.34
507.672	1978.52
508.041	1943.49
508.409	1987.33
508.777	1964.96
509.145	1992.31
509.514	1974.23
509.882	1975.81
510.25	1954.12
510.618	1921.57
510.986	1913.89
511.354	1935.81
511.722	1955.25
512.09	1928.81
512.458	1931.97
512.826	1929.48
513.193	1893.1
513.561	1915.92
513.929	1918.41
514.297	1900.56
514.664	1897.17
515.032	1936.49
515.4	1891.29
515.767	1903.95
516.135	1891.29
516.502	1850.84
516.869	1878.41
517.237	1880.22
517.604	1895.13
517.972	1835.02
518.339	1851.97
518.706	1857.85
519.073	1848.58
519.44	1839.32
519.808	1842.93
520.175	1845.42
520.542	1825.31
520.909	1829.6
521.276	1809.26
521.643	1785.98
522.009	1808.13
522.376	1816.27
522.743	1777.85
523.11	1816.04
523.477	1780.56
523.843	1782.59
524.21	1827.34
524.577	1793.67
524.943	1802.25
525.31	1795.02
525.676	1801.12
526.043	1756.83
526.409	1798.19
526.776	1760.22
527.142	1765.87
527.508	1747.34
527.874	1764.52
528.241	1780.33
528.607	1759.09
528.973	1770.62
529.339	1749.15
529.705	1757.28
530.071	1743.05
530.437	1720.9
530.803	1735.59
531.169	1733.56
531.535	1736.49
531.901	1713.22
532.267	1749.15
532.632	1705.31
532.998	1702.82
533.364	1722.71
533.73	1735.82
534.095	1700.11
534.461	1688.13
534.826	1681.13
535.192	1698.98
535.557	1697.4
535.923	1691.98
536.288	1701.69
536.653	1665.54
537.019	1687.91
537.384	1659.66
537.749	1678.19
538.114	1652.43
538.479	1643.61
538.845	1640.23
539.21	1642.03
539.575	1638.64
539.94	1605.2
540.305	1610.62
540.67	1642.49
541.034	1591.41
541.399	1590.74
541.764	1602.03
542.129	1599.1
542.494	1576.27
542.858	1601.81
543.223	1600.23
543.587	1596.61
543.952	1586.89
544.316	1545.76
544.681	1573.11
545.045	1556.61
545.41	1567.46
545.774	1548.02
546.138	1531.08
546.503	1529.72
546.867	1540.79
547.231	1543.96
547.595	1511.87
547.959	1561.81
548.324	1528.82
548.688	1509.83
549.052	1506.22
549.416	1512.77
549.779	1478.2
550.143	1503.73
550.507	1465.31
550.871	1477.29
551.235	1476.84
551.599	1478.87
551.962	1487.46
552.326	1464.64
552.689	1473.45
553.053	1467.12
553.417	1454.47
553.78	1483.62
554.143	1465.54
554.507	1476.39
554.87	1433.68
555.234	1471.87
555.597	1439.33
555.96	1447.01
556.323	1456.95
556.686	1437.97
557.05	1425.09
557.413	1451.53
557.776	1408.37
558.139	1423.96
558.502	1408.82
558.865	1410.17
559.228	1436.16
559.59	1449.95
559.953	1426.67
560.316	1404.75
560.679	1435.94
561.041	1447.24
561.404	1427.12
561.767	1415.82
562.129	1417.18
562.492	1412.66
562.854	1404.07
563.217	1403.4
563.579	1397.52
563.941	1407.24
564.304	1416.05
564.666	1441.81
565.028	1399.55
565.39	1394.81
565.753	1428.03
566.115	1440.68
566.477	1424.41
566.839	1410.63
567.201	1425.99
567.563	1446.78
567.925	1455.6
568.287	1427.58
568.648	1393.45
569.01	1427.58
569.372	1433.9
569.734	1428.93
570.095	1454.69
570.457	1425.99
570.819	1450.4
571.18	1465.99
571.542	1442.94
571.903	1463.51
572.265	1443.62
572.626	1445.88
572.987	1460.34
573.349	1469.83
573.71	1477.74
574.071	1483.39
574.432	1465.09
574.794	1461.02
575.155	1500.79
575.516	1462.38
575.877	1456.95
576.238	1521.13
576.599	1467.57
576.96	1477.52
577.32	1473.9
577.681	1476.39
578.042	1482.04
578.403	1513.45
578.763	1489.04
579.124	1468.48
579.485	1509.38
579.845	1505.99
580.206	1486.78
580.566	1492.66
580.927	1505.09
581.287	1512.32
581.648	1517.52
582.008	1528.59
582.368	1510.29
582.728	1516.84
583.089	1528.82
583.449	1497.4
583.809	1517.29
584.169	1491.98
584.529	1493.11
584.889	1509.83
585.249	1497.18
585.609	1492.21
585.969	1495.14
586.329	1508.48
586.688	1503.28
587.048	1523.17
587.408	1519.1
587.768	1525.2
588.127	1482.26
588.487	1495.14
588.846	1534.01
589.206	1494.92
589.565	1531.75
589.925	1512.77
590.284	1506.22
590.643	1506.22
591.003	1477.29
591.362	1544.63
591.721	1501.47
592.08	1487.69
592.44	1514.8
592.799	1520.68
593.158	1535.6
593.517	1528.59
593.876	1510.74
594.235	1505.09
594.593	1507.57
594.952	1514.58
595.311	1488.59
595.67	1506.67
596.029	1527.01
596.387	1530.4
596.746	1524.3
597.104	1498.76
597.463	1505.99
597.822	1510.06
598.18	1497.4
598.538	1491.75
598.897	1496.73
599.255	1500.12
599.613	1543.73
599.972	1521.36
600.33	1509.16
600.688	1502.15
601.046	1517.74
601.404	1500.34
601.762	1485.2
602.12	1523.39
602.478	1532.88
602.836	1536.95
603.194	1531.98
603.552	1534.01
603.91	1518.87
604.268	1524.75
604.625	1506.9
604.983	1513.9
605.341	1508.25
605.698	1514.8
606.056	1491.98
606.413	1504.86
606.771	1512.54
607.128	1499.21
607.485	1554.35
607.843	1518.42
608.2	1516.39
608.557	1502.83
608.914	1505.99
609.272	1552.77
609.629	1509.38
609.986	1544.63
610.343	1534.47
610.7	1559.55
611.057	1508.25
611.414	1550.06
611.771	1535.37
612.127	1553.45
612.484	1543.5
612.841	1544.41
613.198	1497.63
613.554	1569.04
613.911	1560.91
614.267	1513.9
614.624	1531.75
614.98	1540.79
615.337	1551.41
615.693	1548.48
616.05	1532.21
616.406	1537.63
616.762	1543.28
617.118	1543.73
617.475	1531.98
617.831	1550.51
618.187	1553.67
618.543	1546.67
618.899	1560.91
619.255	1578.53
619.611	1574.92
619.967	1558.42
620.323	1591.19
620.678	1554.35
621.034	1545.54
621.39	1553.67
621.746	1534.24
622.101	1558.87
622.457	1556.84
622.812	1554.58
623.168	1555.26
623.523	1580.11
623.879	1547.57
624.234	1554.58
624.589	1548.7
624.945	1572.66
625.3	1575.82
625.655	1550.28
626.01	1574.69
626.365	1575.82
626.72	1562.94
627.075	1562.94
627.43	1543.73
627.785	1580.34
628.14	1572.88
628.495	1553.22
628.85	1583.96
629.205	1571.07
629.559	1567.23
629.914	1573.56
630.269	1550.28
630.623	1561.58
630.978	1553.9
631.332	1571.3
631.687	1586.22
632.041	1586.67
632.396	1565.42
632.75	1572.2
633.104	1575.59
633.459	1554.58
633.813	1619.21
634.167	1572.43
634.521	1558.42
634.875	1554.35
635.229	1591.86
635.583	1539.21
635.937	1564.3
636.291	1559.32
636.645	1549.83
636.999	1545.31
637.352	1534.47
637.706	1515.48
638.06	1562.04
638.413	1534.69
638.767	1532.43
639.121	1541.47
639.474	1526.56
639.828	1563.62
640.181	1561.58
640.534	1560.23
640.888	1577.18
641.241	1555.71
641.594	1591.41
641.947	1552.54
642.301	1568.14
642.654	1542.37
643.007	1575.59
643.36	1565.42
643.713	1557.52
644.066	1551.19
644.419	1572.2
644.771	1562.94
645.124	1561.58
645.477	1541.7
645.83	1526.33
646.182	1517.97
646.535	1548.7
646.888	1534.69
647.24	1554.35
647.593	1559.78
647.945	1535.14
648.298	1526.1
648.65	1513.22
649.002	1554.8
649.355	1557.52
649.707	1533.34
650.059	1515.26
650.411	1557.74
650.763	1567.91
651.115	1563.84
651.467	1572.2
651.819	1564.3
652.171	1612.2
652.523	1605.88
652.875	1562.49
653.227	1536.95
653.578	1589.15
653.93	1560.91
654.282	1556.39
654.633	1562.26
654.985	1565.88
655.337	1572.2
655.688	1535.82
656.039	1572.66
656.391	1565.65
656.742	1576.27
657.094	1588.48
657.445	1576.72
657.796	1577.63
658.147	1595.25
658.498	1566.78
658.849	1590.74
659.2	1612.2
659.551	1578.76
659.902	1565.2
660.253	1574.92
660.604	1604.97
660.955	1607.46
661.306	1548.48
661.656	1573.11
662.007	1577.85
662.358	1583.5
662.708	1584.18
663.059	1571.07
663.409	1598.87
663.76	1597.29
664.11	1592.99
664.461	1576.27
664.811	1574.24
665.161	1583.5
665.511	1583.73
665.862	1581.02
666.212	1611.3
666.562	1584.18
666.912	1583.05
667.262	1579.89
667.612	1566.33
667.962	1599.77
668.312	1553.9
668.662	1593.45
669.011	1576.27
669.361	1558.65
669.711	1572.2
670.06	1564.97
670.41	1574.01
670.76	1554.8
671.109	1600.45
671.459	1553
671.808	1549.15
672.157	1551.64
672.507	1573.79
672.856	1573.33
673.205	1562.71
673.554	1584.63
673.904	1579.44
674.253	1581.02
674.602	1549.61
674.951	1536.95
675.3	1538.31
675.649	1541.7
675.998	1532.88
676.346	1530.85
676.695	1553.45
677.044	1550.06
677.393	1540.34
677.741	1531.3
678.09	1534.92
678.438	1545.99
678.787	1532.88
679.135	1543.73
679.484	1532.43
679.832	1534.92
680.181	1518.65
680.529	1546.44
680.877	1505.31
681.225	1510.96
681.573	1522.04
681.922	1508.93
682.27	1547.8
682.618	1544.86
682.966	1518.87
683.314	1506.67
683.661	1512.77
684.009	1496.27
684.357	1493.79
684.705	1503.73
685.053	1519.1
685.4	1519.1
685.748	1476.84
686.095	1490.4
686.443	1501.7
686.79	1472.32
687.138	1473.9
687.485	1463.28
687.832	1475.48
688.18	1496.5
688.527	1462.38
688.874	1483.85
689.221	1479.33
689.568	1439.1
689.915	1445.65
690.262	1432.1
690.609	1466.67
690.956	1435.48
691.303	1448.59
691.65	1480.23
691.997	1437.07
692.344	1453.11
692.69	1469.61
693.037	1425.09
693.383	1432.1
693.73	1410.85
694.077	1408.59
694.423	1412.89
694.769	1425.32
695.116	1399.33
695.462	1419.21
695.808	1416.95
696.155	1417.86
696.501	1439.78
696.847	1383.06
697.193	1398.2
697.539	1397.29
697.885	1404.98
698.231	1363.17
698.577	1381.02
698.923	1406.79
699.269	1387.12
699.614	1374.24
699.96	1358.65
700.306	1344.87
700.651	1360.68
700.997	1379.67
701.342	1369.5
701.688	1361.14
702.033	1363.85
702.379	1372.21
702.724	1373.34
703.069	1380.8
703.415	1340.35
703.76	1367.69
704.105	1377.86
704.45	1348.26
704.795	1342.61
705.14	1360.91
705.485	1361.14
705.83	1368.82
706.175	1360.91
706.52	1337.41
706.865	1357.75
707.209	1374.02
707.554	1379.67
707.899	1357.52
708.243	1350.97
708.588	1375.15
708.932	1338.99
709.277	1359.55
709.621	1327.01
709.966	1354.58
710.31	1341.02
710.654	1347.58
710.998	1333.57
711.342	1324.08
711.687	1383.28
712.031	1351.65
712.375	1351.19
712.719	1337.18
713.063	1353.45
713.407	1334.24
713.75	1362.72
714.094	1360.68
714.438	1335.83
714.782	1395.71
715.125	1350.74
715.469	1388.25
715.812	1376.73
716.156	1377.18
716.499	1388.48
716.843	1392.1
717.186	1372.44
717.53	1381.47
717.873	1400.68
718.216	1388.25
718.559	1379.67
718.902	1390.06
719.246	1384.86
719.589	1421.02
719.932	1375.83
720.275	1381.25
720.617	1416.05
720.96	1426.67
721.303	1424.41
721.646	1438.2
721.989	1422.6
722.331	1418.31
722.674	1433.68
723.016	1427.35
723.359	1446.33
723.701	1462.83
724.044	1442.49
724.386	1437.74
724.729	1450.63
725.071	1439.33
725.413	1471.19
725.755	1482.49
726.097	1480.68
726.439	1445.2
726.782	1485.88
727.124	1471.42
727.465	1469.16
727.807	1493.34
728.149	1513.67
728.491	1474.13
728.833	1511.19
729.175	1505.09
729.516	1502.38
729.858	1506.22
730.199	1517.29
730.541	1513.45
730.882	1538.08
731.224	1547.8
731.565	1564.97
731.906	1545.76
732.248	1564.75
732.589	1568.81
732.93	1561.13
733.271	1601.13
733.612	1584.86
733.953	1594.8
734.294	1621.02
734.635	1607.01
734.976	1633.45
735.317	1635.93
735.658	1651.75
735.999	1651.07
736.339	1654.46
736.68	1669.6
737.021	1705.08
737.361	1692.65
737.702	1706.21
738.042	1687
738.383	1705.53
738.723	1750.28
739.063	1760.45
739.404	1750.96
739.744	1748.02
740.084	1808.58
740.424	1779.88
740.764	1854.68
741.104	1797.28
741.444	1815.36
741.784	1871.63
742.124	1877.96
742.464	1880.9
742.804	1921.35
743.143	1932.65
743.483	1932.65
743.823	1985.98
744.162	1966.32
744.502	2009.71
744.841	2015.13
745.181	2072.76
745.52	2088.12
745.86	2145.3
746.199	2130.38
746.538	2156.14
746.877	2167.44
747.216	2247.67
747.556	2274.11
747.895	2305.52
748.234	2300.55
748.573	2349.81
748.911	2374.9
749.25	2400.66
749.589	2431.84
749.928	2496.25
750.267	2542.35
750.605	2583.03
750.944	2622.12
751.283	2685.17
751.621	2745.05
751.96	2770.82
752.298	2787.09
752.636	2844.49
752.975	2912.28
753.313	2944.15
753.651	3032.96
753.989	3085.38
754.327	3159.73
754.666	3163.12
755.004	3260.97
755.342	3334.87
755.679	3410.12
756.017	3475.43
756.355	3504.81
756.693	3585.71
757.031	3644.92
757.368	3671.13
757.706	3773.28
758.044	3874.52
758.381	3934.63
758.719	3985.47
759.056	4042.65
759.394	4148.63
759.731	4172.36
760.068	4271.57
760.405	4338.46
760.743	4418.23
761.08	4489.42
761.417	4539.58
761.754	4664.33
762.091	4735.29
762.428	4823.64
762.765	4841.27
763.102	4991.78
763.438	5032.9
763.775	5098.67
764.112	5196.06
764.449	5217.98
764.785	5339.11
765.122	5428.15
765.458	5477.86
765.795	5564.19
766.131	5649.84
766.467	5687.12
766.804	5768.7
767.14	5822.49
767.476	5919.21
767.812	5984.07
768.148	5989.94
768.485	6036.95
768.821	6136.38
769.157	6194.46
769.492	6292.76
769.828	6347.22
770.164	6332.76
770.5	6430.83
770.836	6524.62
