Data from blue_chair_FLMS001491_00060.txt Node
Date: Wed Feb 08 10:31:19 GMT 2017
User: dcchb
Spectrometer: FLMS00149
Trigger mode: 0
Integration Time (sec): 2.000000E-2
Scans to average: 10
Electric dark correction enabled: true
Nonlinearity correction enabled: false
Boxcar width: 0
XAxis mode: Wavelengths
Number of Pixels in Spectrum: 2048
>>>>>Begin Spectral Data<<<<<
341.393	-32.84
341.776	-32.84
342.16	-32.84
342.543	-70.8
342.927	-50.69
343.31	-54.76
343.693	-75.77
344.077	-67.87
344.46	-36.23
344.843	-50.24
345.226	-37.58
345.61	-33.29
345.993	-24.02
346.376	-14.76
346.759	11.23
347.142	20.04
347.525	42.87
347.908	57.78
348.291	87.61
348.674	79.93
349.057	95.07
349.44	118.12
349.823	142.75
350.206	149.53
350.588	174.84
350.971	194.27
351.354	192.92
351.737	228.85
352.119	231.79
352.502	235.4
352.884	255.74
353.267	267.72
353.65	240.83
354.032	269.07
354.414	284.22
354.797	291.22
355.179	310.2
355.562	290.32
355.944	305.68
356.326	311.79
356.709	308.4
357.091	304.55
357.473	325.12
357.855	298
358.238	334.38
358.62	315.18
359.002	295.29
359.384	305.91
359.766	306.36
360.148	306.59
360.53	322.63
360.912	303.2
361.294	312.92
361.676	311.56
362.057	318.11
362.439	313.82
362.821	313.37
363.203	316.53
363.584	307.27
363.966	300.71
364.348	294.61
364.729	304.33
365.111	289.19
365.493	283.09
365.874	299.36
366.256	277.89
366.637	300.94
367.019	276.53
367.4	273.37
367.781	290.54
368.163	267.72
368.544	272.46
368.925	286.93
369.306	287.38
369.688	299.58
370.069	297.55
370.45	279.7
370.831	284.22
371.212	267.94
371.593	287.15
371.974	310.66
372.355	277.89
372.736	296.19
373.117	287.15
373.498	309.3
373.879	296.19
374.26	281.5
374.641	280.15
375.021	292.58
375.402	296.19
375.783	275.63
376.163	281.96
376.544	303.88
376.925	302.29
377.305	284.67
377.686	284.44
378.066	264.33
378.447	281.28
378.827	293.26
379.208	298.23
379.588	300.71
379.968	318.79
380.349	304.33
380.729	323.54
381.109	319.47
381.489	305.01
381.87	297.55
382.25	293.71
382.63	290.32
383.01	290.32
383.39	298.68
383.77	297.1
384.15	296.42
384.53	288.96
384.91	306.81
385.29	300.03
385.67	286.48
386.049	296.42
386.429	290.09
386.809	305.23
387.189	294.84
387.568	308.17
387.948	300.03
388.328	324.67
388.707	312.01
389.087	335.51
389.466	324.21
389.846	296.19
390.225	326.02
390.605	314.95
390.984	282.18
391.363	306.81
391.743	312.24
392.122	318.57
392.501	307.94
392.881	309.3
393.26	311.56
393.639	312.69
394.018	319.24
394.397	328.51
394.776	332.58
395.155	312.01
395.534	340.94
395.913	331.67
396.292	333.25
396.671	329.86
397.05	343.65
397.429	330.54
397.808	320.37
398.186	332.12
398.565	333.03
398.944	349.98
399.323	320.82
399.701	326.93
400.08	326.25
400.458	338.23
400.837	341.84
401.215	332.35
401.594	340.49
401.972	353.59
402.351	349.3
402.729	330.09
403.107	347.04
403.486	338.9
403.864	346.81
404.242	354.27
404.62	369.64
404.999	339.13
405.377	382.07
405.755	374.61
406.133	364.67
406.511	363.08
406.889	394.27
407.267	384.33
407.645	382.29
408.023	371.67
408.401	379.35
408.779	384.78
409.156	376.87
409.534	366.25
409.912	389.98
410.29	379.13
410.667	392.46
411.045	383.65
411.422	392.46
411.8	416.19
412.178	402.63
412.555	412.12
412.933	406.25
413.31	411.22
413.687	418.22
414.065	402.18
414.442	425.91
414.819	408.05
415.197	426.81
415.574	428.17
415.951	443.99
416.328	407.15
416.705	435.17
417.082	426.81
417.46	442.63
417.837	431.56
418.214	415.51
418.591	435.17
418.967	430.2
419.344	435.17
419.721	440.37
420.098	439.92
420.475	443.76
420.852	440.82
421.228	439.24
421.605	435.17
421.982	443.99
422.358	465.45
422.735	457.54
423.111	463.42
423.488	484.66
423.864	478.11
424.241	469.75
424.617	477.43
424.994	481.95
425.37	484.89
425.746	472.46
426.123	508.84
426.499	507.94
426.875	508.62
427.251	506.58
427.627	522.18
428.003	532.12
428.379	528.96
428.756	503.42
429.132	505.23
429.507	510.88
429.883	538.67
430.259	539.12
430.635	535.51
431.011	532.12
431.387	548.62
431.763	572.8
432.138	560.59
432.514	551.78
432.89	587.94
433.265	573.25
433.641	583.64
434.016	582.06
434.392	595.39
434.767	606.02
435.143	587.03
435.518	606.47
435.894	625.22
436.269	604.21
436.644	660.48
437.02	656.41
437.395	638.78
437.77	660.25
438.145	648.95
438.52	671.55
438.895	677.2
439.271	688.5
439.646	692.79
440.021	697.54
440.395	690.08
440.77	705
441.145	724.66
441.52	736.63
441.895	750.87
442.27	745.22
442.645	737.99
443.019	755.84
443.394	745.67
443.769	749.51
444.143	763.53
444.518	775.05
444.892	778.44
445.267	783.19
445.641	776.18
446.016	787.03
446.39	782.96
446.764	802.85
447.139	807.82
447.513	831.77
447.887	827.03
448.262	810.76
448.636	815.95
449.01	830.19
449.384	824.31
449.758	844.65
450.132	845.78
450.506	849.4
450.88	864.09
451.254	894.82
451.628	896.18
452.002	884.2
452.376	875.39
452.75	871.77
453.123	886.23
453.497	918.1
453.871	912.67
454.244	938.21
454.618	927.59
454.992	901.6
455.365	931.88
455.739	926.01
456.112	953.35
456.486	961.49
456.859	962.62
457.232	990.19
457.606	989.73
457.979	1008.49
458.352	988.6
458.725	1022.05
459.099	1027.7
459.472	1021.15
459.845	1011.2
460.218	1041.03
460.591	1060.69
460.964	1037.64
461.337	1069.96
461.71	1077.64
462.083	1083.52
462.456	1066.57
462.829	1101.37
463.201	1092.56
463.574	1100.01
463.947	1105.21
464.32	1126.91
464.692	1133.68
465.065	1138.43
465.438	1140.46
465.81	1148.6
466.183	1172.1
466.555	1163.97
466.928	1180.69
467.3	1193.8
467.672	1205.32
468.045	1229.28
468.417	1239.44
468.789	1221.37
469.161	1221.37
469.534	1254.59
469.906	1295.04
470.278	1248.48
470.65	1299.56
471.022	1297.75
471.394	1299.33
471.766	1319.67
472.138	1311.31
472.51	1305.66
472.882	1359.22
473.253	1370.06
473.625	1396.05
473.997	1407.8
474.369	1404.86
474.74	1390.63
475.112	1419.55
475.484	1454.35
475.855	1445.54
476.227	1473.56
476.598	1491.87
476.97	1482.6
477.341	1497.97
477.713	1498.42
478.084	1514.92
478.455	1555.14
478.827	1548.59
479.198	1565.54
479.569	1607.8
479.94	1606.89
480.311	1591.3
480.682	1631.98
481.053	1644.86
481.424	1645.99
481.795	1683.05
482.166	1703.16
482.537	1704.74
482.908	1711.97
483.279	1737.28
483.65	1753.78
484.021	1782.26
484.391	1788.13
484.762	1781.13
485.133	1775.7
485.503	1817.28
485.874	1827.45
486.244	1823.38
486.615	1848.24
486.985	1879.65
487.356	1869.26
487.726	1879.88
488.097	1904.06
488.467	1902.25
488.837	1915.13
489.207	1903.61
489.578	1925.75
489.948	1948.35
490.318	1919.88
490.688	1956.04
491.058	1967.79
491.428	1984.74
491.798	1973.89
492.168	1996.04
492.538	1976.6
492.908	2002.81
493.278	2031.29
493.648	1991.52
494.017	2013.66
494.387	2027.67
494.757	2010.5
495.126	2010.95
495.496	1992.87
495.866	2017.96
496.235	2052.76
496.605	2009.37
496.974	2021.12
497.344	2018.41
497.713	2049.14
498.082	2025.41
498.452	2035.13
498.821	2041.46
499.19	2041.46
499.559	1994.23
499.928	2017.28
500.298	2047.11
500.667	2059.54
501.036	2033.77
501.405	2059.08
501.774	2017.96
502.143	2049.59
502.512	2023.38
502.88	2006.2
503.249	1995.36
503.618	2025.64
503.987	2026.77
504.356	2020.44
504.724	2008.24
505.093	2002.14
505.462	2017.96
505.83	2017.5
506.199	2026.32
506.567	1989.93
506.936	1990.84
507.304	1996.94
507.672	2004.62
508.041	1963.04
508.409	2016.83
508.777	1996.49
509.145	1989.26
509.514	1982.48
509.882	1986.32
510.25	1979.09
510.618	2012.08
510.986	1980.44
511.354	1936.15
511.722	2001.23
512.09	1974.79
512.458	1964.85
512.826	1956.71
513.193	1955.36
513.561	1952.65
513.929	1943.16
514.297	1944.96
514.664	1953.78
515.032	1965.53
515.4	1902.25
515.767	1919.2
516.135	1880.78
516.502	1898.64
516.869	1909.03
517.237	1895.47
517.604	1880.11
517.972	1884.85
518.339	1880.33
518.706	1904.74
519.073	1896.38
519.44	1853.89
519.808	1864.29
520.175	1868.13
520.542	1896.6
520.909	1847.79
521.276	1873.33
521.643	1862.48
522.009	1839.88
522.376	1808.24
522.743	1844.17
523.11	1803.95
523.477	1859.99
523.843	1846.43
524.21	1856.83
524.577	1836.72
524.943	1794.01
525.31	1829.71
525.676	1829.94
526.043	1810.28
526.409	1806.66
526.776	1802.59
527.142	1799.43
527.508	1811.18
527.874	1808.47
528.241	1795.36
528.607	1803.95
528.973	1804.4
529.339	1783.16
529.705	1806.21
530.071	1784.06
530.437	1772.09
530.803	1775.48
531.169	1761.46
531.535	1738.41
531.901	1758.08
532.267	1771.18
532.632	1760.11
532.998	1765.76
533.364	1749.04
533.73	1719.66
534.095	1739.54
534.461	1717.85
534.826	1732.09
535.192	1714.23
535.557	1715.14
535.923	1709.71
536.288	1723.73
536.653	1698.87
537.019	1655.03
537.384	1701.58
537.749	1694.8
538.114	1672.65
538.479	1687.79
538.845	1659.09
539.21	1663.61
539.575	1661.58
539.94	1680.56
540.305	1647.57
540.67	1654.12
541.034	1652.32
541.399	1665.87
541.764	1635.82
542.129	1644.63
542.494	1641.47
542.858	1616.84
543.223	1628.36
543.587	1575.48
543.952	1599.66
544.316	1602.6
544.681	1610.28
545.045	1577.29
545.41	1562.83
545.774	1555.59
546.138	1551.08
546.503	1557.63
546.867	1568.7
547.231	1593.11
547.595	1544.75
547.959	1529.61
548.324	1550.85
548.688	1551.75
549.052	1571.19
549.416	1554.92
549.779	1513.34
550.143	1512.66
550.507	1516.27
550.871	1509.95
551.235	1485.99
551.599	1495.94
551.962	1496.39
552.326	1504.07
552.689	1478.31
553.053	1460
553.417	1469.72
553.78	1443.51
554.143	1462.49
554.507	1487.57
554.87	1453.9
555.234	1464.75
555.597	1470.85
555.96	1467.69
556.323	1450.51
556.686	1436.05
557.05	1458.42
557.413	1459.33
557.776	1460.68
558.139	1458.2
558.502	1460.46
558.865	1452.32
559.228	1444.86
559.59	1439.44
559.953	1435.37
560.316	1434.92
560.679	1407.35
561.041	1416.62
561.404	1440.8
561.767	1455.26
562.129	1454.13
562.492	1409.38
562.854	1403.73
563.217	1421.36
563.579	1426.78
563.941	1423.39
564.304	1415.71
564.666	1417.29
565.028	1438.76
565.39	1421.59
565.753	1455.94
566.115	1451.87
566.477	1428.37
566.839	1435.6
567.201	1443.73
567.563	1445.54
567.925	1416.62
568.287	1435.82
568.648	1451.64
569.01	1451.87
569.372	1471.08
569.734	1453
570.095	1460.23
570.457	1426.11
570.819	1470.63
571.18	1450.06
571.542	1475.82
571.903	1436.5
572.265	1438.31
572.626	1456.16
572.987	1466.56
573.349	1476.05
573.71	1464.07
574.071	1467.91
574.432	1475.6
574.794	1475.14
575.155	1484.64
575.516	1473.79
575.877	1479.21
576.238	1469.04
576.599	1502.04
576.96	1505.88
577.32	1484.18
577.681	1500.91
578.042	1518.76
578.403	1512.88
578.763	1514.47
579.124	1491.64
579.485	1533.45
579.845	1504.3
580.206	1487.35
580.566	1511.08
580.927	1508.82
581.287	1510.62
581.648	1513.34
582.008	1514.47
582.368	1510.85
582.728	1507.91
583.089	1505.88
583.449	1508.14
583.809	1522.6
584.169	1514.24
584.529	1533.22
584.889	1524.86
585.249	1542.71
585.609	1510.62
585.969	1496.16
586.329	1546.78
586.688	1545.2
587.048	1504.52
587.408	1535.93
587.768	1520.57
588.127	1505.65
588.487	1515.6
588.846	1520.34
589.206	1500.68
589.565	1514.92
589.925	1540
590.284	1542.71
590.643	1501.81
591.003	1525.31
591.362	1510.4
591.721	1513.79
592.08	1507.01
592.44	1514.24
592.799	1542.04
593.158	1529.38
593.517	1528.02
593.876	1510.17
594.235	1525.31
594.593	1512.88
594.952	1545.43
595.311	1501.81
595.67	1518.31
596.029	1504.3
596.387	1531.64
596.746	1531.87
597.104	1506.78
597.463	1497.07
597.822	1499.78
598.18	1493.22
598.538	1506.33
598.897	1544.52
599.255	1511.53
599.613	1512.88
599.972	1515.14
600.33	1494.35
600.688	1484.86
601.046	1529.61
601.404	1522.38
601.762	1527.35
602.12	1503.17
602.478	1513.34
602.836	1520.79
603.194	1527.57
603.552	1507.69
603.91	1521.25
604.268	1532.54
604.625	1548.36
604.983	1514.24
605.341	1513.34
605.698	1521.7
606.056	1514.01
606.413	1528.7
606.771	1525.76
607.128	1551.3
607.485	1521.02
607.843	1519.89
608.2	1529.83
608.557	1521.25
608.914	1516.73
609.272	1552.43
609.629	1493.22
609.986	1539.55
610.343	1509.04
610.7	1555.37
611.057	1522.15
611.414	1520.12
611.771	1526.67
612.127	1562.37
612.484	1556.05
612.841	1549.95
613.198	1528.25
613.554	1551.53
613.911	1544.97
614.267	1528.48
614.624	1534.8
614.98	1565.31
615.337	1522.15
615.693	1560.57
616.05	1566.22
616.406	1538.65
616.762	1555.59
617.118	1553.33
617.475	1564.18
617.831	1556.72
618.187	1572.32
618.543	1585.65
618.899	1575.71
619.255	1541.36
619.611	1528.25
619.967	1528.02
620.323	1555.37
620.678	1536.39
621.034	1549.95
621.39	1565.54
621.746	1556.95
622.101	1558.08
622.457	1543.39
622.812	1565.09
623.168	1590.85
623.523	1557.85
623.879	1589.49
624.234	1562.15
624.589	1552.88
624.945	1568.93
625.3	1567.12
625.655	1560.79
626.01	1574.58
626.365	1569.83
626.72	1564.63
627.075	1601.47
627.43	1616.16
627.785	1592.43
628.14	1590.4
628.495	1584.97
628.85	1587.46
629.205	1597.85
629.559	1580.68
629.914	1565.09
630.269	1577.29
630.623	1581.36
630.978	1560.79
631.332	1596.72
631.687	1564.18
632.041	1571.19
632.396	1557.85
632.75	1581.13
633.104	1557.4
633.459	1551.3
633.813	1568.02
634.167	1563.73
634.521	1577.52
634.875	1532.77
635.229	1542.71
635.583	1550.4
635.937	1553.56
636.291	1560.57
636.645	1585.88
636.999	1594.69
637.352	1546.78
637.706	1570.74
638.06	1593.79
638.413	1545.43
638.767	1563.05
639.121	1538.87
639.474	1543.39
639.828	1553.79
640.181	1559.21
640.534	1566.67
640.888	1595.14
641.241	1530.96
641.594	1552.88
641.947	1562.83
642.301	1585.42
642.654	1570.51
643.007	1558.08
643.36	1585.42
643.713	1570.96
644.066	1544.97
644.419	1550.85
644.771	1558.31
645.124	1517.86
645.477	1536.39
645.83	1526.67
646.182	1540.23
646.535	1551.53
646.888	1539.55
647.24	1530.96
647.593	1528.25
647.945	1583.62
648.298	1552.2
648.65	1517.86
649.002	1537.29
649.355	1548.14
649.707	1525.54
650.059	1530.06
650.411	1557.85
650.763	1553.56
651.115	1553.79
651.467	1572.32
651.819	1557.4
652.171	1583.84
652.523	1573.22
652.875	1599.44
653.227	1572.32
653.578	1582.71
653.93	1585.2
654.282	1549.95
654.633	1551.75
654.985	1562.6
655.337	1560.34
655.688	1553.11
656.039	1572.32
656.391	1560.11
656.742	1583.84
657.094	1584.07
657.445	1613.9
657.796	1577.74
658.147	1563.5
658.498	1566.44
658.849	1621.36
659.2	1589.94
659.551	1606.89
659.902	1586.55
660.253	1606.21
660.604	1601.24
660.955	1576.61
661.306	1578.19
661.656	1583.84
662.007	1601.47
662.358	1592.88
662.708	1600.79
663.059	1575.93
663.409	1589.94
663.76	1576.16
664.11	1611.86
664.461	1584.97
664.811	1596.27
665.161	1604.86
665.511	1564.86
665.862	1593.33
666.212	1562.37
666.562	1573.45
666.912	1588.81
667.262	1583.39
667.612	1595.82
667.962	1590.85
668.312	1595.59
668.662	1596.27
669.011	1606.21
669.361	1568.48
669.711	1594.46
670.06	1576.61
670.41	1587.01
670.76	1597.4
671.109	1580.68
671.459	1582.94
671.808	1565.31
672.157	1580.9
672.507	1587.01
672.856	1543.62
673.205	1579.32
673.554	1564.41
673.904	1570.51
674.253	1564.18
674.602	1547.46
674.951	1539.1
675.3	1530.51
675.649	1551.3
675.998	1547.91
676.346	1575.48
676.695	1545.2
677.044	1541.58
677.393	1554.69
677.741	1572.09
678.09	1546.1
678.438	1511.98
678.787	1520.34
679.135	1545.65
679.484	1527.12
679.832	1578.42
680.181	1534.35
680.529	1541.13
680.877	1534.13
681.225	1530.74
681.573	1539.55
681.922	1524.18
682.27	1488.03
682.618	1477.18
682.966	1531.87
683.314	1500.68
683.661	1511.08
684.009	1473.56
684.357	1478.53
684.705	1514.01
685.053	1502.26
685.4	1487.12
685.748	1488.7
686.095	1502.49
686.443	1500.68
686.79	1506.33
687.138	1498.87
687.485	1495.26
687.832	1479.21
688.18	1492.77
688.527	1457.97
688.874	1505.43
689.221	1467.24
689.568	1474.24
689.915	1478.99
690.262	1465.65
690.609	1430.85
690.956	1452.55
691.303	1458.42
691.65	1457.52
691.997	1454.35
692.344	1445.09
692.69	1441.02
693.037	1427.24
693.383	1415.94
693.73	1428.37
694.077	1432.66
694.423	1435.82
694.769	1410.97
695.116	1419.1
695.462	1420.46
695.808	1426.11
696.155	1405.32
696.501	1410.97
696.847	1420.68
697.193	1386.11
697.539	1389.5
697.885	1374.13
698.231	1411.42
698.577	1405.77
698.923	1391.53
699.269	1387.92
699.614	1385.66
699.96	1398.54
700.306	1358.31
700.651	1363.06
700.997	1356.05
701.342	1365.77
701.688	1377.07
702.033	1367.58
702.379	1396.28
702.724	1387.01
703.069	1391.53
703.415	1396.73
703.76	1381.81
704.105	1370.74
704.45	1368.48
704.795	1385.43
705.14	1326.22
705.485	1359.89
705.83	1344.07
706.175	1377.07
706.52	1357.86
706.865	1348.14
707.209	1379.1
707.554	1357.86
707.899	1354.24
708.243	1372.1
708.588	1386.11
708.932	1346.56
709.277	1361.25
709.621	1368.71
709.966	1361.02
710.31	1349.05
710.654	1340.46
710.998	1332.32
711.342	1353.79
711.687	1368.48
712.031	1367.35
712.375	1332.32
712.719	1340.69
713.063	1346.79
713.407	1360.12
713.75	1349.72
714.094	1372.77
714.438	1362.61
714.782	1395.82
715.125	1375.71
715.469	1384.53
715.812	1385.88
716.156	1396.28
716.499	1386.56
716.843	1388.37
717.186	1406.22
717.53	1389.27
717.873	1387.46
718.216	1412.1
718.559	1382.72
718.902	1375.49
719.246	1403.28
719.589	1392.21
719.932	1419.78
720.275	1431.98
720.617	1413.9
720.96	1412.55
721.303	1413.68
721.646	1434.24
721.989	1425.65
722.331	1404.19
722.674	1437.86
723.016	1435.6
723.359	1434.92
723.701	1426.56
724.044	1468.14
724.386	1460.46
724.729	1454.81
725.071	1450.74
725.413	1460.23
725.755	1505.43
726.097	1463.62
726.439	1494.81
726.782	1488.93
727.124	1513.56
727.465	1500.91
727.807	1518.31
728.149	1499.55
728.491	1514.92
728.833	1497.07
729.175	1522.15
729.516	1529.83
729.858	1537.97
730.199	1552.43
730.541	1564.63
730.882	1563.28
731.224	1572.32
731.565	1547.46
731.906	1595.59
732.248	1582.03
732.589	1545.88
732.93	1601.02
733.271	1608.47
733.612	1610.96
733.953	1614.58
734.294	1603.73
734.635	1619.55
734.976	1649.83
735.317	1637.85
735.658	1639.66
735.999	1686.21
736.339	1675.82
736.68	1669.94
737.021	1659.55
737.361	1712.65
737.702	1702.48
738.042	1723.73
738.383	1724.63
738.723	1741.8
739.063	1770.28
739.404	1755.59
739.744	1765.98
740.084	1819.32
740.424	1798.3
740.764	1842.82
741.104	1856.6
741.444	1844.4
741.784	1854.12
742.124	1885.08
742.464	1898.64
742.804	1924.17
743.143	1932.76
743.483	1970.27
743.823	1989.48
744.162	2019.31
744.502	2021.12
744.841	2042.59
745.181	2070.84
745.52	2110.16
745.86	2113.55
746.199	2122.36
746.538	2144.51
746.877	2208.46
747.216	2253.2
747.556	2278.51
747.895	2338.17
748.234	2327.1
748.573	2361.22
748.911	2410.26
749.25	2412.07
749.589	2442.8
749.928	2513.31
750.267	2553.99
750.605	2624.27
750.944	2634.21
751.283	2669.01
751.621	2735.45
751.96	2777.48
752.298	2859.74
752.636	2880.31
752.975	2920.53
753.313	2981.09
753.651	3034.43
753.989	3096.8
754.327	3151.94
754.666	3207.75
755.004	3285.49
755.342	3361.65
755.679	3431.93
756.017	3447.52
756.355	3530.91
756.693	3614.3
757.031	3701.75
757.368	3737.23
757.706	3827.63
758.044	3869.88
758.381	3979.26
758.719	4027.62
759.056	4154.85
759.394	4201.4
759.731	4264.68
760.068	4339.93
760.405	4387.38
760.743	4530.66
761.08	4579.7
761.417	4698.56
761.754	4707.15
762.091	4821.72
762.428	4858.78
762.765	4946.69
763.102	5023.53
763.438	5135.39
763.775	5153.92
764.112	5235.27
764.449	5341.03
764.785	5447.24
765.122	5476.85
765.458	5581.7
765.795	5654.24
766.131	5694.02
766.467	5785.77
766.804	5888.81
767.14	5885.65
767.476	5972.88
767.812	6018.08
768.148	6142.82
768.485	6174.91
768.821	6185.76
769.157	6301.91
769.492	6325.41
769.828	6433.88
770.164	6494.67
770.5	6567.21
