Data from blue_surface_keyboard_FLMS001491_058.txt Node
Date: Tue Feb 07 11:13:20 GMT 2017
User: dcchb
Spectrometer: FLMS00149
Trigger mode: 0
Integration Time (sec): 2.000000E-2
Scans to average: 10
Electric dark correction enabled: true
Nonlinearity correction enabled: false
Boxcar width: 0
XAxis mode: Wavelengths
Number of Pixels in Spectrum: 2048
>>>>>Begin Spectral Data<<<<<
341.393	-3.76
341.776	-3.76
342.16	-3.76
342.543	-45.79
342.927	-58.22
343.31	-65
343.693	-81.04
344.077	-69.74
344.46	-69.74
344.843	-55.51
345.226	-47.15
345.61	-32.91
345.993	-2.85
346.376	7.32
346.759	9.12
347.142	30.59
347.525	33.53
347.908	61.33
348.291	80.76
348.674	88.9
349.057	112.4
349.44	115.79
349.823	133.19
350.206	144.94
350.588	170.02
350.971	190.81
351.354	196.92
351.737	205.05
352.119	241.43
352.502	240.76
352.884	249.8
353.267	242.56
353.65	278.95
354.032	267.42
354.414	291.83
354.797	298.61
355.179	297.48
355.562	297.93
355.944	326.86
356.326	296.35
356.709	318.72
357.091	293.64
357.473	330.92
357.855	309
358.238	297.03
358.62	312.84
359.002	307.87
359.384	309.46
359.766	307.42
360.148	319.85
360.53	329.57
360.912	331.83
361.294	302
361.676	293.64
362.057	307.2
362.439	320.08
362.821	320.08
363.203	294.09
363.584	286.4
363.966	290.47
364.348	311.26
364.729	304.03
365.111	294.31
365.493	293.18
365.874	294.09
366.256	285.05
366.637	293.64
367.019	280.3
367.4	303.58
367.781	300.87
368.163	297.93
368.544	285.95
368.925	263.81
369.306	291.6
369.688	285.05
370.069	296.35
370.45	263.35
370.831	282.56
371.212	283.69
371.593	282.11
371.974	279.63
372.355	266.07
372.736	291.6
373.117	283.47
373.498	284.6
373.879	273.52
374.26	283.47
374.641	290.92
375.021	283.02
375.402	296.35
375.783	302.45
376.163	306.97
376.544	297.48
376.925	293.86
377.305	290.7
377.686	291.6
378.066	285.73
378.447	306.07
378.827	303.13
379.208	278.72
379.588	297.93
379.968	277.37
380.349	306.29
380.729	286.63
381.109	305.16
381.489	305.84
381.87	292.51
382.25	320.98
382.63	299.74
383.01	298.38
383.39	307.42
383.77	309.91
384.15	294.99
384.53	316.01
384.91	313.07
385.29	327.31
385.67	310.13
386.049	324.14
386.429	317.36
386.809	330.92
387.189	307.65
387.568	315.78
387.948	294.31
388.328	312.84
388.707	314.65
389.087	305.61
389.466	299.96
389.846	317.82
390.225	313.3
390.605	330.92
390.984	328.89
391.363	315.1
391.743	311.49
392.122	311.71
392.501	305.39
392.881	336.35
393.26	348.55
393.639	313.07
394.018	314.65
394.397	310.36
394.776	329.57
395.155	328.66
395.534	318.04
395.913	326.18
396.292	339.51
396.671	325.73
397.05	331.6
397.429	327.31
397.808	342
398.186	342.67
398.565	337.7
398.944	343.35
399.323	342.45
399.701	334.99
400.08	322.34
400.458	337.7
400.837	347.87
401.215	329.57
401.594	351.04
401.972	341.77
402.351	365.72
402.729	333.41
403.107	326.63
403.486	347.19
403.864	356.23
404.242	344.71
404.62	349.91
404.999	338.61
405.377	368.89
405.755	336.35
406.133	352.62
406.511	360.08
406.889	346.29
407.267	355.33
407.645	342
408.023	358.49
408.401	365.95
408.779	364.59
409.156	356.01
409.534	342.22
409.912	363.69
410.29	354.65
410.667	375.22
411.045	372.5
411.422	366.85
411.8	362.56
412.178	357.82
412.555	363.47
412.933	379.74
413.31	380.64
413.687	391.26
414.065	382.9
414.442	393.75
414.819	378.15
415.197	391.03
415.574	391.94
415.951	369.34
416.328	347.19
416.705	391.71
417.082	389.23
417.46	384.93
417.837	413.86
418.214	396.01
418.591	398.72
418.967	380.64
419.344	385.39
419.721	392.84
420.098	396.91
420.475	400.3
420.852	401.66
421.228	406.85
421.605	391.71
421.982	387.65
422.358	396.46
422.735	396.91
423.111	414.54
423.488	410.02
423.864	397.81
424.241	442.33
424.617	422.67
424.994	418.83
425.37	435.33
425.746	404.82
426.123	445.27
426.499	429.45
426.875	422.45
427.251	421.09
427.627	421.54
428.003	434.88
428.379	442.56
428.756	446.17
429.132	422.9
429.507	427.64
429.883	441.2
430.259	457.93
430.635	443.46
431.011	443.24
431.387	466.74
431.763	440.3
432.138	447.08
432.514	466.29
432.89	464.71
433.265	490.69
433.641	484.37
434.016	462.22
434.392	479.39
434.767	464.71
435.143	480.52
435.518	486.63
435.894	487.98
436.269	481.2
436.644	511.94
437.02	492.5
437.395	500.18
437.77	484.59
438.145	485.5
438.52	500.64
438.895	516.23
439.271	509.68
439.646	510.13
440.021	501.77
440.395	496.12
440.77	504.03
441.145	505.83
441.52	520.07
441.895	517.13
442.27	488.43
442.645	501.31
443.019	525.95
443.394	520.07
443.769	530.24
444.143	538.6
444.518	547.64
444.892	518.04
445.267	550.58
445.641	546.96
446.016	552.16
446.39	542.22
446.764	535.21
447.139	545.16
447.513	562.1
447.887	554.19
448.262	570.47
448.636	550.13
449.01	544.03
449.384	550.58
449.758	556.91
450.132	589.45
450.506	569.79
450.88	582.89
451.254	558.49
451.628	572.73
452.002	570.92
452.376	580.86
452.75	583.12
453.123	576.34
453.497	605.49
453.871	585.61
454.244	590.13
454.618	626.28
454.992	619.28
455.365	601.42
455.739	589.45
456.112	612.5
456.486	618.37
456.859	619.05
457.232	628.99
457.606	598.49
457.979	631.93
458.352	630.8
458.725	637.58
459.099	641.65
459.472	655.66
459.845	656.56
460.218	638.03
460.591	657.02
460.964	653.63
461.337	679.39
461.71	692.72
462.083	680.07
462.456	666.51
462.829	675.32
463.201	676
463.574	678.94
463.947	693.17
464.32	699.28
464.692	700.41
465.065	689.56
465.438	708.99
465.81	712.38
466.183	722.55
466.555	725.04
466.928	729.78
467.3	733.4
467.672	730.46
468.045	745.83
468.417	748.54
468.789	742.66
469.161	753.74
469.534	773.62
469.906	776.56
470.278	765.49
470.65	784.02
471.022	794.41
471.394	814.07
471.766	792.15
472.138	812.94
472.51	812.94
472.882	838.25
473.253	841.64
473.625	843.68
473.997	841.87
474.369	855.66
474.74	852.72
475.112	862.21
475.484	873.73
475.855	903.11
476.227	882.1
476.598	901.98
476.97	902.21
477.341	905.15
477.713	923.22
478.084	895.43
478.455	934.75
478.827	952.83
479.198	950.79
479.569	948.53
479.94	998.02
480.311	991.25
480.682	1006.39
481.053	998.93
481.424	1033.05
481.795	1010.23
482.166	1025.14
482.537	1025.14
482.908	1087.97
483.279	1077.12
483.65	1061.75
484.021	1089.1
484.391	1096.55
484.762	1096.33
485.133	1106.95
485.503	1097.01
485.874	1087.06
486.244	1128.19
486.615	1140.62
486.985	1152.37
487.356	1174.97
487.726	1167.74
488.097	1177
488.467	1209.32
488.837	1186.04
489.207	1200.96
489.578	1215.65
489.948	1219.71
490.318	1235.31
490.688	1231.01
491.058	1228.98
491.428	1245.25
491.798	1276.44
492.168	1261.75
492.538	1256.1
492.908	1264.91
493.278	1297.45
493.648	1302.2
494.017	1309.65
494.387	1298.13
494.757	1329.54
495.126	1324.57
495.496	1303.78
495.866	1342.87
496.235	1321.86
496.605	1323.89
496.974	1330.9
497.344	1346.94
497.713	1335.64
498.082	1354.85
498.452	1360.5
498.821	1365.02
499.19	1360.73
499.559	1384
499.928	1369.77
500.298	1385.13
500.667	1367.73
501.036	1352.59
501.405	1372.7
501.774	1386.26
502.143	1398.47
502.512	1382.87
502.88	1391.91
503.249	1412.48
503.618	1394.62
503.987	1402.76
504.356	1402.99
504.724	1438.92
505.093	1406.83
505.462	1412.7
505.83	1442.76
506.199	1415.64
506.567	1435.98
506.936	1420.61
507.304	1449.99
507.672	1446.37
508.041	1448.41
508.409	1453.15
508.777	1449.09
509.145	1431.91
509.514	1454.28
509.882	1461.74
510.25	1461.52
510.618	1454.28
510.986	1450.67
511.354	1456.32
511.722	1486.15
512.09	1495.19
512.458	1496.54
512.826	1492.47
513.193	1487.05
513.561	1490.44
513.929	1502.64
514.297	1510.78
514.664	1515.75
515.032	1491.12
515.4	1526.37
515.767	1522.3
516.135	1531.57
516.502	1523.21
516.869	1531.34
517.237	1521.17
517.604	1504.45
517.972	1534.96
518.339	1530.67
518.706	1520.04
519.073	1525.69
519.44	1547.84
519.808	1530.67
520.175	1532.93
520.542	1563.43
520.909	1547.16
521.276	1558.91
521.643	1574.05
522.009	1579.48
522.376	1572.25
522.743	1555.3
523.11	1584.45
523.477	1596.2
523.843	1585.81
524.21	1568.18
524.577	1608.63
524.943	1612.25
525.31	1605.47
525.676	1595.75
526.043	1624.45
526.409	1632.13
526.776	1619.25
527.142	1631.45
527.508	1611.79
527.874	1624.22
528.241	1619.93
528.607	1640.49
528.973	1614.73
529.339	1623.32
529.705	1632.36
530.071	1618.8
530.437	1650.44
530.803	1636.43
531.169	1614.51
531.535	1645.24
531.901	1636.43
532.267	1616.77
532.632	1680.27
532.998	1676.65
533.364	1679.81
533.73	1668.52
534.095	1666.48
534.461	1672.36
534.826	1654.73
535.192	1679.81
535.557	1694.5
535.923	1703.09
536.288	1693.83
536.653	1715.97
537.019	1679.14
537.384	1693.83
537.749	1672.81
538.114	1670.55
538.479	1695.86
538.845	1692.7
539.21	1654.5
539.575	1653.6
539.94	1700.38
540.305	1681.85
540.67	1681.62
541.034	1671.91
541.399	1664.9
541.764	1693.15
542.129	1706.48
542.494	1722.3
542.858	1712.81
543.223	1706.48
543.587	1722.98
543.952	1700.38
544.316	1708.97
544.681	1731.79
545.045	1703.54
545.41	1722.98
545.774	1705.12
546.138	1683.2
546.503	1704.67
546.867	1706.71
547.231	1712.36
547.595	1722.3
547.959	1727.5
548.324	1690.21
548.688	1736.54
549.052	1696.76
549.416	1720.49
549.779	1715.07
550.143	1734.05
550.507	1725.69
550.871	1718.68
551.235	1733.37
551.599	1748.51
551.962	1712.36
552.326	1738.57
552.689	1744.9
553.053	1748.29
553.417	1744.67
553.78	1765.46
554.143	1747.38
554.507	1746.25
554.87	1733.6
555.234	1744.45
555.597	1730.21
555.96	1747.84
556.323	1759.59
556.686	1728.17
557.05	1747.38
557.413	1747.84
557.776	1746.25
558.139	1744.9
558.502	1767.5
558.865	1755.97
559.228	1768.4
559.59	1762.52
559.953	1788.96
560.316	1768.4
560.679	1762.3
561.041	1782.86
561.404	1786.93
561.767	1794.16
562.129	1788.06
562.492	1799.13
562.854	1805.91
563.217	1783.77
563.579	1781.05
563.941	1819.47
564.304	1810.88
564.666	1793.26
565.028	1810.21
565.39	1793.48
565.753	1823.31
566.115	1822.64
566.477	1819.02
566.839	1823.54
567.201	1830.55
567.563	1801.62
567.925	1831.45
568.287	1848.62
568.648	1849.3
569.01	1822.18
569.372	1843.65
569.734	1825.8
570.095	1833.03
570.457	1878.91
570.819	1878.91
571.18	1862.86
571.542	1859.47
571.903	1863.09
572.265	1847.27
572.626	1890.66
572.987	1866.02
573.349	1901.73
573.71	1890.88
574.071	1851.56
574.432	1876.87
574.794	1915.74
575.155	1852.47
575.516	1872.35
575.877	1894.5
576.238	1868.06
576.599	1899.47
576.96	1856.53
577.32	1896.08
577.681	1909.19
578.042	1895.63
578.403	1910.54
578.763	1932.46
579.124	1912.8
579.485	1892.92
579.845	1937.66
580.206	1904.89
580.566	1948.51
580.927	1874.61
581.287	1908.96
581.648	1918.45
582.008	1914.61
582.368	1924.55
582.728	1918.23
583.089	1922.29
583.449	1900.6
583.809	1914.16
584.169	1921.62
584.529	1893.37
584.889	1941.28
585.249	1901.05
585.609	1905.35
585.969	1909.87
586.329	1914.61
586.688	1943.31
587.048	1920.03
587.408	1915.06
587.768	1910.32
588.127	1908.51
588.487	1920.49
588.846	1946.47
589.206	1928.62
589.565	1907.15
589.925	1974.04
590.284	1933.37
590.643	1927.49
591.003	1918.23
591.362	1948.96
591.721	1955.74
592.08	1934.72
592.44	1942.63
592.799	1968.39
593.158	1935.18
593.517	1960.94
593.876	1942.41
594.235	1948.06
594.593	1935.85
594.952	1953.25
595.311	1956.64
595.67	1970.2
596.029	1944.67
596.387	1943.54
596.746	1967.49
597.104	1952.8
597.463	1931.11
597.822	1965.23
598.18	1983.99
598.538	1959.81
598.897	1979.92
599.255	1907.15
599.613	1974.5
599.972	1973.14
600.33	1979.24
600.688	1967.94
601.046	1974.27
601.404	1982.63
601.762	1986.7
602.12	1974.95
602.478	1986.7
602.836	1980.6
603.194	1961.16
603.552	1976.98
603.91	2005.46
604.268	1987.38
604.625	1986.47
604.983	2029.41
605.341	1994.83
605.698	2027.15
606.056	1972.46
606.413	2026.47
606.771	2004.33
607.128	2019.47
607.485	2002.07
607.843	2002.74
608.2	2024.21
608.557	2050.43
608.914	2020.14
609.272	2037.32
609.629	2061.27
609.986	2029.64
610.343	2017.66
610.7	2044.1
611.057	2040.03
611.414	2074.83
611.771	2074.61
612.127	2069.63
612.484	2066.47
612.841	2054.27
613.198	2040.48
613.554	2055.62
613.911	2056.08
614.267	2063.76
614.624	2053.14
614.98	2056.98
615.337	2070.09
615.693	2074.38
616.05	2090.65
616.406	2091.78
616.762	2115.06
617.118	2096.3
617.475	2122.97
617.831	2083.65
618.187	2087.04
618.543	2111.67
618.899	2142.4
619.255	2100.59
619.611	2109.63
619.967	2123.19
620.323	2116.87
620.678	2146.47
621.034	2131.78
621.39	2122.06
621.746	2126.58
622.101	2153.02
622.457	2162.97
622.812	2121.61
623.168	2133.36
623.523	2169.52
623.879	2181.04
624.234	2182.63
624.589	2131.55
624.945	2157.99
625.3	2179.91
625.655	2196.41
626.01	2163.42
626.365	2173.13
626.72	2151.44
627.075	2191.21
627.43	2159.35
627.785	2181.04
628.14	2183.08
628.495	2198.67
628.85	2241.38
629.205	2205
629.559	2214.72
629.914	2217.43
630.269	2193.7
630.623	2177.65
630.978	2192.8
631.332	2168.84
631.687	2214.04
632.041	2214.26
632.396	2219.24
632.75	2192.57
633.104	2253.13
633.459	2254.71
633.813	2214.26
634.167	2248.16
634.521	2214.49
634.875	2252
635.229	2246.13
635.583	2262.4
635.937	2265.34
636.291	2275.73
636.645	2272.34
636.999	2243.87
637.352	2264.21
637.706	2235.05
638.06	2284.77
638.413	2256.3
638.767	2277.31
639.121	2246.81
639.474	2296.75
639.828	2288.61
640.181	2294.04
640.534	2275.96
640.888	2295.17
641.241	2300.82
641.594	2295.62
641.947	2337.2
642.301	2369.74
642.654	2353.7
643.007	2340.14
643.36	2361.6
643.713	2386.24
644.066	2353.7
644.419	2371.55
644.771	2337.88
645.124	2323.87
645.477	2341.04
645.83	2340.59
646.182	2337.42
646.535	2334.71
646.888	2351.66
647.24	2345.11
647.593	2400.02
647.945	2416.52
648.298	2403.19
648.65	2374.49
649.002	2381.49
649.355	2394.82
649.707	2390.53
650.059	2435.95
650.411	2457.65
650.763	2449.51
651.115	2487.25
651.467	2531.09
651.819	2509.4
652.171	2543.29
652.523	2541.49
652.875	2527.93
653.227	2554.82
653.578	2588.94
653.93	2546.01
654.282	2536.52
654.633	2587.36
654.985	2604.31
655.337	2610.41
655.688	2631.2
656.039	2639.34
656.391	2629.39
656.742	2595.5
657.094	2660.13
657.445	2686.34
657.796	2665.55
658.147	2663.52
658.498	2666
658.849	2700.35
659.2	2731.09
659.551	2720.69
659.902	2773.35
660.253	2737.19
660.604	2784.64
660.955	2777.19
661.306	2828.94
661.656	2828.48
662.007	2807.02
662.358	2803.4
662.708	2870.07
663.059	2826.45
663.409	2851.54
663.76	2872.55
664.11	2879.11
664.461	2917.52
664.811	2910.74
665.161	2913.91
665.511	2927.47
665.862	2954.36
666.212	2991.19
666.562	2990.29
666.912	2981.48
667.262	3020.57
667.612	3024.41
667.962	3022.6
668.312	3019.89
668.662	3067.8
669.011	3066.22
669.361	3074.35
669.711	3105.99
670.06	3067.8
670.41	3109.16
670.76	3145.76
671.109	3184.41
671.459	3141.92
671.808	3172.2
672.157	3190.06
672.507	3157.74
672.856	3194.13
673.205	3233.45
673.554	3263.5
673.904	3229.83
674.253	3276.83
674.602	3290.85
674.951	3241.13
675.3	3239.1
675.649	3284.52
675.998	3288.81
676.346	3331.07
676.695	3343.05
677.044	3334.01
677.393	3357.51
677.741	3399.09
678.09	3363.61
678.438	3414.23
678.787	3408.81
679.135	3367
679.484	3404.97
679.832	3426.21
680.181	3436.38
680.529	3428.47
680.877	3487.9
681.225	3481.12
681.573	3499.65
681.922	3492.42
682.27	3504.4
682.618	3476.15
682.966	3520.22
683.314	3562.93
683.661	3502.59
684.009	3514.79
684.357	3508.92
684.705	3565.64
685.053	3565.41
685.4	3551.63
685.748	3558.64
686.095	3562.7
686.443	3619.65
686.79	3558.18
687.138	3585.75
687.485	3606.09
687.832	3592.08
688.18	3631.18
688.527	3661.68
688.874	3627.11
689.221	3620.55
689.568	3664.17
689.915	3624.62
690.262	3649.71
690.609	3595.24
690.956	3610.61
691.303	3645.86
691.65	3635.24
691.997	3649.48
692.344	3627.79
692.69	3645.64
693.037	3676.6
693.383	3685.19
693.73	3628.92
694.077	3610.16
694.423	3689.48
694.769	3663.27
695.116	3654.23
695.462	3672.3
695.808	3664.4
696.155	3689.03
696.501	3665.75
696.847	3661.68
697.193	3675.69
697.539	3661.23
697.885	3671.63
698.231	3680.67
698.577	3684.06
698.923	3666.2
699.269	3636.37
699.614	3635.24
699.96	3697.61
700.306	3712.08
700.651	3623.04
700.997	3617.62
701.342	3656.94
701.688	3689.48
702.033	3657.16
702.379	3646.99
702.724	3621.01
703.069	3655.58
703.415	3602.48
703.76	3613.55
704.105	3664.4
704.45	3601.35
704.795	3608.8
705.14	3609.93
705.485	3579.2
705.83	3638.86
706.175	3621.46
706.52	3626.2
706.865	3608.13
707.209	3593.21
707.554	3551.86
707.899	3576.26
708.243	3565.19
708.588	3571.97
708.932	3563.83
709.277	3560.67
709.621	3572.19
709.966	3549.37
710.31	3549.14
710.654	3569.48
710.998	3532.42
711.342	3556.83
711.687	3527.9
712.031	3538.3
712.375	3547.34
712.719	3529.71
713.063	3555.25
713.407	3574.45
713.75	3565.41
714.094	3581.46
714.438	3500.11
714.782	3494
715.125	3523.83
715.469	3536.94
715.812	3527.22
716.156	3537.39
716.499	3524.29
716.843	3528.58
717.186	3512.08
717.53	3528.58
717.873	3555.92
718.216	3506.89
718.559	3495.81
718.902	3499.65
719.246	3541.23
719.589	3525.42
719.932	3509.6
720.275	3508.24
720.617	3498.98
720.96	3534.46
721.303	3524.51
721.646	3529.48
721.989	3480.45
722.331	3496.04
722.674	3526.55
723.016	3525.64
723.359	3509.82
723.701	3503.27
724.044	3505.98
724.386	3487.45
724.729	3511.86
725.071	3524.29
725.413	3564.51
725.755	3534.23
726.097	3499.43
726.439	3506.21
726.782	3505.98
727.124	3530.16
727.465	3573.32
727.807	3548.01
728.149	3524.29
728.491	3525.42
728.833	3547.11
729.175	3498.52
729.516	3522.93
729.858	3520.9
730.199	3525.19
730.541	3514.57
730.882	3514.79
731.224	3538.75
731.565	3524.29
731.906	3550.05
732.248	3527.22
732.589	3545.53
732.93	3554.57
733.271	3524.74
733.612	3583.72
733.953	3525.87
734.294	3531.07
734.635	3552.08
734.976	3571.74
735.317	3549.37
735.658	3548.47
735.999	3604.51
736.339	3564.28
736.68	3554.79
737.021	3559.99
737.361	3561.57
737.702	3604.51
738.042	3621.91
738.383	3627.33
738.723	3639.76
739.063	3612.42
739.404	3608.58
739.744	3599.76
740.084	3626.2
740.424	3670.5
740.764	3635.47
741.104	3646.32
741.444	3670.27
741.784	3662.36
742.124	3684.96
742.464	3681.57
742.804	3691.06
743.143	3708.46
743.483	3721.79
743.823	3703.49
744.162	3708.46
744.502	3738.52
744.841	3782.13
745.181	3783.94
745.52	3743.72
745.86	3746.2
746.199	3773.09
746.538	3806.09
746.877	3799.53
747.216	3852.86
747.556	3838.4
747.895	3851.28
748.234	3889.7
748.573	3891.28
748.911	3855.12
749.25	3932.86
749.589	3921.11
749.928	3906.42
750.267	3969.92
750.605	3978.74
750.944	3997.27
751.283	4039.98
751.621	4051.5
751.96	4005.4
752.298	4067.32
752.636	4064.61
752.975	4072.07
753.313	4036.81
753.651	4119.75
753.989	4101.67
754.327	4159.07
754.666	4128.11
755.004	4171.05
755.342	4206.3
755.679	4225.74
756.017	4205.62
756.355	4288.56
756.693	4200.43
757.031	4282.01
757.368	4274.55
757.706	4357.03
758.044	4317.03
758.381	4312.29
758.719	4356.13
759.056	4354.32
759.394	4399.97
759.731	4356.81
760.068	4352.06
760.405	4381.66
760.743	4436.8
761.08	4418.95
761.417	4440.87
761.754	4454.43
762.091	4439.97
762.428	4479.29
762.765	4486.97
763.102	4469.12
763.438	4506.41
763.775	4490.36
764.112	4517.48
764.449	4510.25
764.785	4577.59
765.122	4491.04
765.458	4479.74
765.795	4508.21
766.131	4583.02
766.467	4527.2
766.804	4545.95
767.14	4503.7
767.476	4563.13
767.812	4522.23
768.148	4525.16
768.485	4573.52
768.821	4515.67
769.157	4521.55
769.492	4553.41
769.828	4540.98
770.164	4525.62
770.5	4534.88
770.836	4517.03
771.171	4508.67
771.507	4509.34
771.842	4464.83
772.178	4493.53
772.513	4453.98
