Data from blue_surface_keyboard_FLMS001491_071.txt Node
Date: Tue Feb 07 11:13:37 GMT 2017
User: dcchb
Spectrometer: FLMS00149
Trigger mode: 0
Integration Time (sec): 2.000000E-2
Scans to average: 10
Electric dark correction enabled: true
Nonlinearity correction enabled: false
Boxcar width: 0
XAxis mode: Wavelengths
Number of Pixels in Spectrum: 2048
>>>>>Begin Spectral Data<<<<<
341.393	-5.68
341.776	-5.68
342.16	-5.68
342.543	-48.39
342.927	-77.77
343.31	-66.92
343.693	-67.37
344.077	-51.55
344.46	-61.04
344.843	-52.91
345.226	-40.93
345.61	-41.61
345.993	-10.42
346.376	5.17
346.759	-10.2
347.142	39.97
347.525	52.4
347.908	41.55
348.291	74.77
348.674	87.2
349.057	101.89
349.44	117.03
349.823	160.19
350.206	141.21
350.588	178.27
350.971	176.24
351.354	183.7
351.737	215.79
352.119	212.62
352.502	245.62
352.884	253.3
353.267	242
353.65	275.22
354.032	275.9
354.414	307.53
354.797	265.95
355.179	285.16
355.562	287.87
355.944	277.48
356.326	314.09
356.709	292.17
357.091	298.49
357.473	311.83
357.855	290.59
358.238	294.2
358.62	309.79
359.002	316.35
359.384	310.92
359.766	314.31
360.148	307.53
360.53	310.47
360.912	317.03
361.294	301.21
361.676	321.09
362.057	300.98
362.439	283.13
362.821	298.04
363.203	300.53
363.584	302.34
363.966	295.56
364.348	304.6
364.729	281.32
365.111	308.66
365.493	301.43
365.874	296.69
366.256	258.5
366.637	304.14
367.019	267.08
367.4	287.65
367.781	294.43
368.163	289.46
368.544	260.76
368.925	274.09
369.306	286.74
369.688	285.84
370.069	272.96
370.45	293.3
370.831	284.48
371.212	298.04
371.593	290.81
371.974	285.16
372.355	292.39
372.736	282.68
373.117	291.94
373.498	279.96
373.879	274.09
374.26	266.41
374.641	274.54
375.021	277.7
375.402	293.3
375.783	287.42
376.163	290.59
376.544	298.27
376.925	291.94
377.305	305.73
377.686	295.33
378.066	294.65
378.447	285.16
378.827	290.13
379.208	277.25
379.588	291.94
379.968	295.11
380.349	302.79
380.729	267.08
381.109	293.98
381.489	295.33
381.87	308.21
382.25	279.96
382.63	288.78
383.01	286.29
383.39	284.03
383.77	275.67
384.15	296.01
384.53	297.37
384.91	316.57
385.29	296.24
385.67	295.11
386.049	290.59
386.429	289.91
386.809	280.64
387.189	305.95
387.568	300.98
387.948	274.09
388.328	325.16
388.707	331.26
389.087	317.93
389.466	304.6
389.846	311.83
390.225	315.22
390.605	321.55
390.984	309.12
391.363	300.08
391.743	314.31
392.122	303.01
392.501	310.92
392.881	329.45
393.26	319.96
393.639	313.18
394.018	303.47
394.397	310.47
394.776	321.55
395.155	314.77
395.534	333.3
395.913	323.13
396.292	334.43
396.671	322.22
397.05	313.86
397.429	304.37
397.808	308.21
398.186	311.15
398.565	324.26
398.944	331.26
399.323	339.62
399.701	323.58
400.08	328.32
400.458	329.91
400.837	345.05
401.215	324.93
401.594	342.11
401.972	312.96
402.351	305.95
402.729	335.1
403.107	340.75
403.486	345.5
403.864	333.07
404.242	346.18
404.62	317.7
404.999	344.37
405.377	343.92
405.755	341.66
406.133	339.62
406.511	325.61
406.889	329.23
407.267	351.83
407.645	356.8
408.023	349.34
408.401	353.86
408.779	338.49
409.156	366.06
409.534	360.64
409.912	364.03
410.29	366.74
410.667	387.98
411.045	348.89
411.422	349.34
411.8	349.34
412.178	368.78
412.555	342.34
412.933	372.84
413.31	377.59
413.687	359.96
414.065	370.81
414.442	376.01
414.819	362
415.197	364.71
415.574	392.96
415.951	383.46
416.328	407.64
416.705	380.07
417.082	362
417.46	386.18
417.837	392.96
418.214	371.94
418.591	400.87
418.967	355.22
419.344	384.59
419.721	379.62
420.098	399.96
420.475	381.2
420.852	395.89
421.228	402.9
421.605	385.05
421.982	386.63
422.358	371.49
422.735	396.8
423.111	396.35
423.488	408.55
423.864	384.14
424.241	397.25
424.617	402.45
424.994	404.48
425.37	405.38
425.746	406.74
426.123	394.09
426.499	417.36
426.875	405.84
427.251	414.42
427.627	425.05
428.003	434.08
428.379	427.31
428.756	421.2
429.132	422.33
429.507	410.81
429.883	432.05
430.259	432.95
430.635	433.86
431.011	424.59
431.387	439.28
431.763	419.17
432.138	434.99
432.514	445.84
432.89	458.26
433.265	450.36
433.641	430.02
434.016	449.68
434.392	441.32
434.767	460.98
435.143	457.59
435.518	463.91
435.894	451.26
436.269	463.24
436.644	458.26
437.02	451.94
437.395	464.37
437.77	488.09
438.145	499.62
438.52	491.26
438.895	456.68
439.271	484.48
439.646	474.76
440.021	468.21
440.395	488.77
440.77	492.61
441.145	489.9
441.52	524.93
441.895	505.5
442.27	492.84
442.645	498.72
443.019	513.4
443.394	478.15
443.769	510.01
444.143	500.3
444.518	544.14
444.892	499.85
445.267	520.18
445.641	530.58
446.016	510.01
446.39	519.28
446.764	513.4
447.139	506.63
447.513	530.13
447.887	504.37
448.262	513.86
448.636	521.09
449.01	512.05
449.384	514.99
449.758	520.86
450.132	536.45
450.506	555.44
450.88	528.09
451.254	538.71
451.628	538.26
452.002	534.42
452.376	535.32
452.75	586.4
453.123	575.78
453.497	547.53
453.871	576
454.244	577.13
454.618	586.4
454.992	561.09
455.365	568.54
455.739	568.32
456.112	582.78
456.486	581.88
456.859	571.03
457.232	577.36
457.606	600.18
457.979	595.21
458.352	609
458.725	602.89
459.099	609
459.472	580.97
459.845	615.77
460.218	634.76
460.591	621.88
460.964	625.04
461.337	625.49
461.71	624.81
462.083	629.79
462.456	640.63
462.829	631.59
463.201	642.89
463.574	635.21
463.947	650.12
464.32	637.47
464.692	663.01
465.065	646.96
465.438	657.36
465.81	690.12
466.183	663.46
466.555	706.17
466.928	694.42
467.3	690.12
467.672	698.03
468.045	691.93
468.417	707.52
468.789	719.95
469.161	714.08
469.534	720.86
469.906	729.44
470.278	740.29
470.65	726.73
471.022	752.27
471.394	729.22
471.766	740.97
472.138	768.09
472.51	767.64
472.882	770.12
473.253	794.3
473.625	778.48
473.997	776.67
474.369	795.43
474.74	790.23
475.112	780.97
475.484	813.74
475.855	823.23
476.227	842.89
476.598	846.96
476.97	839.27
477.341	863
477.713	841.98
478.084	836.33
478.455	876.56
478.827	895.99
479.198	907.52
479.569	920.63
479.94	892.6
480.311	916.33
480.682	896.9
481.053	911.59
481.424	925.82
481.795	947.97
482.166	978.93
482.537	959.49
482.908	989.1
483.279	965.82
483.65	1005.6
484.021	995.43
484.391	1020.28
484.762	1008.31
485.133	1038.14
485.503	1026.39
485.874	1019.83
486.244	1048.08
486.615	1046.95
486.985	1056.22
487.356	1086.04
487.726	1077.01
488.097	1097.8
488.467	1107.29
488.837	1108.64
489.207	1121.98
489.578	1088.98
489.948	1136.89
490.318	1135.99
490.688	1113.61
491.058	1156.78
491.428	1163.56
491.798	1147.74
492.168	1150
492.538	1155.65
492.908	1182.54
493.278	1167.85
493.648	1163.78
494.017	1190.9
494.387	1216.44
494.757	1216.21
495.126	1197.68
495.496	1211.47
495.866	1214.86
496.235	1236.78
496.605	1217.34
496.974	1245.36
497.344	1242.42
497.713	1238.36
498.082	1231.13
498.452	1239.49
498.821	1253.27
499.19	1231.35
499.559	1222.31
499.928	1238.36
500.298	1287.4
500.667	1266.38
501.036	1239.04
501.405	1274.06
501.774	1275.19
502.143	1279.94
502.512	1279.49
502.88	1284.23
503.249	1269.32
503.618	1291.01
503.987	1277.9
504.356	1294.4
504.724	1302.76
505.093	1302.08
505.462	1295.76
505.83	1286.27
506.199	1300.28
506.567	1295.3
506.936	1307.73
507.304	1298.02
507.672	1316.77
508.041	1319.03
508.409	1369.2
508.777	1335.53
509.145	1359.94
509.514	1326.04
509.882	1330.11
510.25	1361.29
510.618	1353.38
510.986	1329.43
511.354	1349.09
511.722	1352.7
512.09	1352.93
512.458	1339.15
512.826	1350.67
513.193	1372.14
513.561	1343.44
513.929	1365.36
514.297	1366.94
514.664	1366.49
515.032	1397.45
515.4	1390.9
515.767	1374.85
516.135	1403.55
516.502	1382.08
516.869	1353.16
517.237	1374.85
517.604	1403.78
517.972	1400.39
518.339	1396.77
518.706	1398.35
519.073	1369.88
519.44	1394.51
519.808	1405.13
520.175	1397.22
520.542	1408.52
520.909	1416.88
521.276	1398.81
521.643	1416.88
522.009	1447.62
522.376	1420.5
522.743	1427.05
523.11	1429.31
523.477	1459.14
523.843	1422.31
524.21	1442.65
524.577	1457.11
524.943	1441.06
525.31	1462.53
525.676	1458.69
526.043	1461.18
526.409	1473.38
526.776	1488.97
527.142	1467.96
527.508	1486.26
527.874	1501.63
528.241	1468.41
528.607	1471.35
528.973	1479.48
529.339	1480.16
529.705	1491.91
530.071	1507.5
530.437	1482.64
530.803	1497.33
531.169	1519.93
531.535	1520.84
531.901	1492.81
532.267	1545.69
532.632	1511.34
532.998	1526.71
533.364	1527.39
533.73	1490.55
534.095	1518.58
534.461	1522.87
534.826	1566.26
535.192	1513.38
535.557	1552.93
535.923	1522.42
536.288	1530.55
536.653	1552.7
537.019	1554.06
537.384	1548.18
537.749	1530.33
538.114	1535.52
538.479	1556.09
538.845	1542.3
539.21	1524.9
539.575	1549.31
539.94	1542.3
540.305	1559.48
540.67	1565.35
541.034	1565.35
541.399	1568.29
541.764	1562.64
542.129	1561.29
542.494	1559.03
542.858	1588.18
543.223	1560.61
543.587	1563.77
543.952	1568.07
544.316	1560.38
544.681	1561.06
545.045	1560.83
545.41	1572.13
545.774	1566.94
546.138	1569.42
546.503	1564.22
546.867	1556.54
547.231	1564.68
547.595	1563.09
547.959	1581.63
548.324	1539.82
548.688	1570.1
549.052	1570.78
549.416	1562.42
549.779	1564.9
550.143	1570.33
550.507	1569.65
550.871	1599.93
551.235	1596.31
551.599	1570.1
551.962	1608.97
552.326	1615.75
552.689	1602.87
553.053	1609.19
553.417	1608.74
553.78	1620.95
554.143	1631.79
554.507	1626.6
554.87	1595.18
555.234	1618.91
555.597	1618.46
555.96	1596.31
556.323	1624.56
556.686	1594.05
557.05	1616.88
557.413	1617.33
557.776	1629.76
558.139	1615.97
558.502	1618.23
558.865	1597.67
559.228	1636.54
559.59	1615.97
559.953	1627.27
560.316	1637.22
560.679	1641.06
561.041	1632.92
561.404	1596.77
561.767	1625.92
562.129	1645.8
562.492	1669.53
562.854	1647.61
563.217	1640.15
563.579	1637.22
563.941	1653.71
564.304	1647.39
564.666	1658.01
565.028	1669.98
565.39	1672.92
565.753	1674.28
566.115	1687.84
566.477	1660.27
566.839	1662.98
567.201	1710.21
567.563	1692.36
567.925	1694.84
568.287	1691.23
568.648	1712.47
569.01	1691.68
569.372	1701.62
569.734	1718.34
570.095	1712.92
570.457	1690.55
570.819	1723.54
571.18	1700.27
571.542	1712.02
571.903	1703.88
572.265	1733.94
572.626	1700.04
572.987	1720.83
573.349	1722.86
573.71	1728.97
574.071	1757.21
574.432	1718.12
574.794	1749.3
575.155	1727.38
575.516	1717.67
575.877	1736.42
576.238	1733.49
576.599	1746.37
576.96	1762.86
577.32	1775.97
577.681	1750.21
578.042	1749.76
578.403	1743.65
578.763	1779.81
579.124	1790.43
579.485	1758.12
579.845	1767.16
580.206	1748.17
580.566	1748.17
580.927	1747.72
581.287	1782.07
581.648	1757.89
582.008	1749.08
582.368	1764.9
582.728	1778.23
583.089	1763.77
583.449	1785.46
583.809	1750.43
584.169	1767.61
584.529	1762.19
584.889	1807.83
585.249	1769.19
585.609	1786.59
585.969	1788.17
586.329	1765.35
586.688	1790.21
587.048	1780.04
587.408	1782.75
587.768	1798.57
588.127	1792.92
588.487	1770.55
588.846	1794.95
589.206	1787.27
589.565	1774.84
589.925	1794.5
590.284	1808.06
590.643	1742.52
591.003	1807.38
591.362	1774.39
591.721	1757.21
592.08	1790.66
592.44	1787.95
592.799	1838.34
593.158	1803.77
593.517	1808.96
593.876	1830.88
594.235	1802.41
594.593	1810.32
594.952	1808.96
595.311	1803.77
595.67	1787.95
596.029	1811.9
596.387	1827.49
596.746	1833.37
597.104	1814.16
597.463	1800.6
597.822	1803.09
598.18	1837.44
598.538	1803.77
598.897	1821.84
599.255	1817.33
599.613	1825.91
599.972	1820.26
600.33	1838.34
600.688	1815.52
601.046	1824.78
601.404	1826.36
601.762	1836.31
602.12	1836.53
602.478	1861.39
602.836	1803.31
603.194	1829.75
603.552	1825.91
603.91	1848.96
604.268	1833.14
604.625	1847.61
604.983	1858.68
605.341	1827.72
605.698	1863.2
606.056	1840.83
606.413	1868.17
606.771	1854.84
607.128	1859.81
607.485	1878.11
607.843	1852.58
608.2	1873.37
608.557	1850.54
608.914	1882.18
609.272	1863.43
609.629	1889.87
609.986	1886.7
610.343	1890.54
610.7	1902.07
611.057	1865.91
611.414	1859.81
611.771	1896.65
612.127	1918.11
612.484	1893.03
612.841	1896.87
613.198	1907.49
613.554	1890.09
613.911	1909.53
614.267	1920.37
614.624	1895.06
614.98	1919.24
615.337	1934.61
615.693	1938.23
616.05	1898.45
616.406	1932.35
616.762	1926.25
617.118	1935.51
617.475	1921.5
617.831	1941.84
618.187	1948.17
618.543	1965.34
618.899	1972.58
619.255	1942.29
619.611	1949.53
619.967	1941.16
620.323	1956.53
620.678	1921.73
621.034	1958.34
621.39	1914.95
621.746	1961.28
622.101	1958.79
622.457	1953.59
622.812	1960.15
623.168	1973.25
623.523	1960.6
623.879	1984.33
624.234	1970.32
624.589	1981.84
624.945	1981.61
625.3	1976.19
625.655	1986.36
626.01	1990.65
626.365	1970.32
626.72	1977.55
627.075	1989.75
627.43	2012.35
627.785	1972.35
628.14	1967.83
628.495	1981.39
628.85	1976.64
629.205	1977.55
629.559	1993.59
629.914	1993.82
630.269	1997.66
630.623	2002.18
630.978	2026.81
631.332	2021.61
631.687	2052.35
632.041	2022.07
632.396	2020.48
632.75	2027.26
633.104	2014.16
633.459	1996.98
633.813	2044.89
634.167	2038.56
634.521	2038.79
634.875	2027.72
635.229	2034.04
635.583	2053.25
635.937	2053.25
636.291	2039.69
636.645	2051.44
636.999	2041.95
637.352	2091.44
637.706	2087.83
638.06	2079.01
638.413	2044.89
638.767	2040.37
639.121	2081.5
639.474	2068.84
639.828	2065.45
640.181	2082.18
640.534	2102.06
640.888	2107.49
641.241	2115.4
641.594	2127.15
641.947	2099.58
642.301	2095.74
642.654	2101.84
643.007	2097.32
643.36	2107.71
643.713	2114.27
644.066	2121.95
644.419	2101.84
644.771	2122.63
645.124	2119.69
645.477	2126.02
645.83	2116.75
646.182	2105.45
646.535	2130.31
646.888	2129.63
647.24	2124.89
647.593	2158.56
647.945	2163.08
648.298	2155.85
648.65	2172.8
649.002	2154.49
649.355	2183.42
649.707	2180.25
650.059	2177.99
650.411	2196.3
650.763	2249.63
651.115	2254.83
651.467	2275.17
651.819	2280.59
652.171	2281.72
652.523	2278.33
652.875	2304.32
653.227	2304.09
653.578	2299.35
653.93	2317.65
654.282	2310.87
654.633	2315.84
654.985	2299.8
655.337	2321.27
655.688	2363.98
656.039	2366.01
656.391	2355.62
656.742	2393.36
657.094	2326.46
657.445	2394.03
657.796	2414.15
658.147	2417.99
658.498	2394.49
658.849	2437.65
659.2	2469.51
659.551	2437.87
659.902	2472.22
660.253	2462.96
660.604	2515.16
660.955	2441.49
661.306	2469.06
661.656	2507.02
662.007	2514.93
662.358	2530.07
662.708	2535.5
663.059	2536.63
663.409	2523.75
663.76	2595.61
664.11	2570.98
664.461	2595.38
664.811	2615.04
665.161	2583.63
665.511	2620.69
665.862	2627.25
666.212	2655.5
666.562	2663.63
666.912	2648.72
667.262	2661.82
667.612	2666.12
667.962	2700.01
668.312	2716.51
668.662	2706.57
669.011	2696.85
669.361	2724.65
669.711	2754.25
670.06	2723.29
670.41	2769.84
670.76	2747.24
671.109	2764.87
671.459	2792.89
671.808	2772.55
672.157	2815.26
672.507	2786.57
672.856	2783.85
673.205	2806.45
673.554	2810.52
673.904	2843.96
674.253	2891.87
674.602	2856.39
674.951	2828.15
675.3	2810.29
675.649	2858.65
675.998	2878.31
676.346	2920.57
676.695	2928.93
677.044	2901.36
677.393	2928.26
677.741	2929.16
678.09	2939.78
678.438	2956.28
678.787	2975.94
679.135	3026.56
679.484	2966.9
679.832	3042.6
680.181	2985.43
680.529	3047.8
680.877	2983.4
681.225	3007.58
681.573	3046.45
681.922	2989.05
682.27	3012.77
682.618	3065.88
682.966	3023.62
683.314	3046.9
683.661	3055.48
684.009	3016.16
684.357	3042.6
684.705	3069.04
685.053	3076.73
685.4	3074.24
685.748	3092.09
686.095	3080.34
686.443	3050.29
686.79	3098.42
687.138	3103.62
687.485	3083.73
687.832	3097.97
688.18	3096.16
688.527	3080.79
688.874	3108.36
689.221	3128.7
689.568	3113.11
689.915	3124.86
690.262	3114.69
690.609	3169.15
690.956	3133
691.303	3109.27
691.65	3093.22
691.997	3163.73
692.344	3092.55
692.69	3155.82
693.037	3151.75
693.383	3137.29
693.73	3142.71
694.077	3126.9
694.423	3145.88
694.769	3108.14
695.116	3138.19
695.462	3117.86
695.808	3104.97
696.155	3117.18
696.501	3117.86
696.847	3133.67
697.193	3071.08
697.539	3116.73
697.885	3105.65
698.231	3075.37
698.577	3122.38
698.923	3124.18
699.269	3131.41
699.614	3081.25
699.96	3070.85
700.306	3086.44
700.651	3041.7
700.997	3065.43
701.342	3097.97
701.688	3094.35
702.033	3094.81
702.379	3097.29
702.724	3100.23
703.069	3050.96
703.415	3023.85
703.76	3019.55
704.105	3013.45
704.45	3048.03
704.795	3054.58
705.14	3013.68
705.485	3030.17
705.83	3020.91
706.175	3037.18
706.52	3018.88
706.865	3004.41
707.209	3038.76
707.554	3017.07
707.899	3015.03
708.243	3005.99
708.588	2976.84
708.932	2989.27
709.277	2990.63
709.621	3021.59
709.966	2959.89
710.31	3006.22
710.654	2984.98
710.998	2985.66
711.342	2973.45
711.687	2970.06
712.031	2986.11
712.375	2983.4
712.719	2984.75
713.063	2973
713.407	2969.39
713.75	2951.08
714.094	2959.67
714.438	2949.95
714.782	2988.37
715.125	2941.14
715.469	2978.42
715.812	2973.45
716.156	2943.4
716.499	2971.87
716.843	2933.91
717.186	2936.17
717.53	2966
717.873	2971.19
718.216	2975.49
718.559	2954.24
718.902	2945.43
719.246	2930.29
719.589	2924.87
719.932	2923.06
720.275	2974.36
720.617	2949.72
720.96	2919.89
721.303	2930.52
721.646	2918.31
721.989	2942.95
722.331	2948.14
722.674	2908.6
723.016	2951.53
723.359	2947.46
723.701	2896.84
724.044	2917.41
724.386	2929.16
724.729	2921.7
725.071	2922.15
725.413	2930.97
725.755	2924.41
726.097	2943.4
726.439	2953.34
726.782	2921.7
727.124	2924.41
727.465	2924.64
727.807	2965.32
728.149	2955.15
728.491	2966.9
728.833	2913.57
729.175	2968.93
729.516	2949.27
729.858	2932.55
730.199	2972.55
730.541	3016.16
730.882	2949.05
731.224	2975.49
731.565	2903.85
731.906	2955.37
732.248	2964.64
732.589	2964.41
732.93	2957.86
733.271	2978.65
733.612	2977.29
733.953	3001.02
734.294	2981.81
734.635	2953.34
734.976	3010.51
735.317	2997.41
735.658	2980.91
735.999	3007.35
736.339	2971.65
736.68	3023.62
737.021	2988.14
737.361	3009.38
737.702	3024.75
738.042	3015.71
738.383	3004.64
738.723	3050.29
739.063	2990.18
739.404	3060
739.744	3033.79
740.084	3038.31
740.424	3036.28
740.764	3049.16
741.104	3078.31
741.444	3074.24
741.784	3086.22
742.124	3111.08
742.464	3118.76
742.804	3133
743.143	3101.13
743.483	3135.93
743.823	3144.07
744.162	3147.46
744.502	3178.19
744.841	3154.24
745.181	3182.71
745.52	3168.48
745.86	3229.27
746.199	3206.67
746.538	3180.45
746.877	3263.16
747.216	3275.82
747.556	3286.66
747.895	3311.98
748.234	3291.86
748.573	3277.63
748.911	3311.75
749.25	3363.73
749.589	3335.48
749.928	3365.31
750.267	3396.94
750.605	3394.46
750.944	3398.07
751.283	3456.15
751.621	3471.07
751.96	3475.59
752.298	3508.58
752.636	3484.85
752.975	3502.7
753.313	3513.33
753.651	3544.51
753.989	3556.49
754.327	3589.26
754.666	3561.23
755.004	3621.35
755.342	3628.58
755.679	3670.38
756.017	3722.13
756.355	3742.7
756.693	3723.04
757.031	3708.12
757.368	3733.66
757.706	3753.09
758.044	3762.58
758.381	3789.7
758.719	3837.84
759.056	3863.37
759.394	3842.13
759.731	3817.5
760.068	3911.73
760.405	3880.77
760.743	3870.15
761.08	3912.86
761.417	3915.12
761.754	3892.07
762.091	3939.98
762.428	3926.2
762.765	3902.02
763.102	3976.82
763.438	3976.59
763.775	3923.48
764.112	3980.88
764.449	4048.45
764.785	4000.54
765.122	3977.27
765.458	4016.59
765.795	4041.67
766.131	3989.02
766.467	4052.97
766.804	3984.73
767.14	3963.03
767.476	4005.06
767.812	4065.4
768.148	4049.13
768.485	4026.53
768.821	4044.39
769.157	4079.41
769.492	3996.93
769.828	4082.12
770.164	3996.48
770.5	4036.48
770.836	4004.84
771.171	4022.46
771.507	4035.8
771.842	4015.91
772.178	4005.29
