Data from blue_clamp_base_FLMS001491_00042.txt Node
Date: Wed Feb 08 15:16:03 GMT 2017
User: dcchb
Spectrometer: FLMS00149
Trigger mode: 0
Integration Time (sec): 2.000000E-2
Scans to average: 10
Electric dark correction enabled: true
Nonlinearity correction enabled: false
Boxcar width: 0
XAxis mode: Wavelengths
Number of Pixels in Spectrum: 2048
>>>>>Begin Spectral Data<<<<<
341.393	-2.54
341.776	-2.54
342.16	-2.54
342.543	-76.21
342.927	-51.35
343.31	-71.92
343.693	-71.02
344.077	-69.43
344.46	-64.24
344.843	-37.12
345.226	-12.26
345.61	-45.25
345.993	-19.72
346.376	-6.61
346.759	6.27
347.142	36.33
347.525	31.36
347.908	62.77
348.291	69.55
348.674	97.79
349.057	93.5
349.44	128.08
349.823	159.04
350.206	187.74
350.588	212.59
350.971	219.37
351.354	232.71
351.737	243.78
352.119	272.93
352.502	279.48
352.884	305.7
353.267	279.48
353.65	316.77
354.032	307.96
354.414	302.76
354.797	331.23
355.179	342.76
355.562	348.18
355.944	326.04
356.326	380.27
356.709	347.96
357.091	363.1
357.473	354.96
357.855	357.45
358.238	359.26
358.62	352.48
359.002	354.51
359.384	357.45
359.766	369.65
360.148	356.32
360.53	335.75
360.912	361.97
361.294	357.67
361.676	332.14
362.057	363.78
362.439	346.38
362.821	315.87
363.203	331.46
363.584	327.84
363.966	345.25
364.348	344.34
364.729	331.46
365.111	325.81
365.493	320.61
365.874	331.01
366.256	332.82
366.637	360.16
367.019	357.9
367.4	315.87
367.781	346.38
368.163	328.75
368.544	306.6
368.925	306.6
369.306	347.73
369.688	349.54
370.069	333.27
370.45	331.91
370.831	334.17
371.212	334.62
371.593	342.99
371.974	331.01
372.355	327.39
372.736	332.14
373.117	338.69
373.498	342.31
373.879	339.82
374.26	333.27
374.641	319.03
375.021	346.6
375.402	333.04
375.783	347.96
376.163	352.93
376.544	352.02
376.925	366.49
377.305	358.58
377.686	350.89
378.066	358.58
378.447	365.81
378.827	390.67
379.208	372.59
379.588	364
379.968	362.87
380.349	374.85
380.729	368.97
381.109	384.79
381.489	380.72
381.87	391.12
382.25	398.35
382.63	380.72
383.01	376.43
383.39	359.48
383.77	373.72
384.15	401.51
384.53	408.29
384.91	406.49
385.29	410.1
385.67	388.63
386.049	393.61
386.429	405.81
386.809	406.49
387.189	425.92
387.568	410.1
387.948	424.11
388.328	405.81
388.707	416.88
389.087	421.85
389.466	422.98
389.846	413.72
390.225	448.97
390.605	431.34
390.984	434.06
391.363	442.42
391.743	445.36
392.122	469.08
392.501	448.75
392.881	462.08
393.26	475.86
393.639	472.47
394.018	458.24
394.397	490.78
394.776	491.68
395.155	491.23
395.534	503.43
395.913	484
396.292	502.76
396.671	525.58
397.05	522.19
397.429	519.93
397.808	528.52
398.186	526.71
398.565	535.3
398.944	527.84
399.323	552.92
399.701	547.27
400.08	552.02
400.458	571.68
400.837	550.66
401.215	562.87
401.594	564.22
401.972	584.33
402.351	582.98
402.729	604
403.107	619.14
403.486	593.15
403.864	618.46
404.242	606.71
404.62	619.14
404.999	617.55
405.377	657.1
405.755	679.02
406.133	648.51
406.511	647.84
406.889	674.95
407.267	689.19
407.645	674.95
408.023	680.6
408.401	683.32
408.779	709.98
409.156	710.43
409.534	742.3
409.912	726.7
410.29	723.54
410.667	746.59
411.045	756.31
411.422	787.49
411.8	764.67
412.178	787.95
412.555	830.66
412.933	810.77
413.31	834.5
413.687	833.82
414.065	852.8
414.442	830.2
414.819	860.94
415.197	896.87
415.574	855.29
415.951	899.58
416.328	893.93
416.705	885.12
417.082	902.07
417.46	919.92
417.837	932.35
418.214	946.59
418.591	942.52
418.967	937.77
419.344	964.89
419.721	979.8
420.098	966.02
420.475	1012.12
420.852	994.72
421.228	1005.79
421.605	1032.46
421.982	1023.42
422.358	998.56
422.735	1048.96
423.111	1053.25
423.488	1090.54
423.864	1080.14
424.241	1096.86
424.617	1113.13
424.994	1083.08
425.37	1111.78
425.746	1128.95
426.123	1146.13
426.499	1143.87
426.875	1141.83
427.251	1160.36
427.627	1185.45
428.003	1221.15
428.379	1208.95
428.756	1237.88
429.132	1282.85
429.507	1282.4
429.883	1314.03
430.259	1302.06
430.635	1321.72
431.011	1335.95
431.387	1373.24
431.763	1393.35
432.138	1380.02
432.514	1426.8
432.89	1422.05
433.265	1465.22
433.641	1489.4
434.016	1473.13
434.392	1522.16
434.767	1527.81
435.143	1537.08
435.518	1555.16
435.894	1569.85
436.269	1585.44
436.644	1604.87
437.02	1643.97
437.395	1627.92
437.77	1654.59
438.145	1690.75
438.52	1724.64
438.895	1751.54
439.271	1730.97
439.646	1777.52
440.021	1775.26
440.395	1782.5
440.77	1796.96
441.145	1798.31
441.52	1822.72
441.895	1827.24
442.27	1864.98
442.645	1864.53
443.019	1888.03
443.394	1908.59
443.769	1944.07
444.143	1939.1
444.518	1983.85
444.892	1976.61
445.267	1972.55
445.641	1991.08
446.016	2022.26
446.39	2054.13
446.764	2034.47
447.139	2017.52
447.513	2078.76
447.887	2079.21
448.262	2083.5
448.636	2134.8
449.01	2119.44
449.384	2124.41
449.758	2166.89
450.132	2194.91
450.506	2217.29
450.88	2243.05
451.254	2223.61
451.628	2241.24
452.002	2270.84
452.376	2269.49
452.75	2287.79
453.123	2326.89
453.497	2368.02
453.871	2395.59
454.244	2419.99
454.618	2443.27
454.992	2457.05
455.365	2450.05
455.739	2538.63
456.112	2546.54
456.486	2570.05
456.859	2590.84
457.232	2636.94
457.606	2655.24
457.979	2661.34
458.352	2720.1
458.725	2771.85
459.099	2756.48
459.472	2830.6
459.845	2863.37
460.218	2861.34
460.591	2920.54
460.964	2888.23
461.337	2979.07
461.71	3045.51
462.083	3047.1
462.456	3035.12
462.829	3071.5
463.201	3075.34
463.574	3104.49
463.947	3153.53
464.32	3216.36
464.692	3274.89
465.065	3263.13
465.438	3297.26
465.81	3360.31
466.183	3394.43
466.555	3473.52
466.928	3489.34
467.3	3457.03
467.672	3511.26
468.045	3579.96
468.417	3582
468.789	3657.02
469.161	3650.24
469.534	3684.37
469.906	3776.57
470.278	3810.46
470.65	3890.24
471.022	3908.09
471.394	3974.08
471.766	4026.05
472.138	4037.35
472.51	4104.02
472.882	4134.75
473.253	4189.21
473.625	4233.73
473.997	4332.71
474.369	4347.4
474.74	4404.12
475.112	4447.28
475.484	4506.04
475.855	4603.21
476.227	4673.72
476.598	4687.73
476.97	4764.11
477.341	4838.69
477.713	4891.11
478.084	4920.49
478.455	5130.2
478.827	5056.53
479.198	5198.68
479.569	5203.2
479.94	5334.04
480.311	5338.33
480.682	5431.21
481.053	5567.71
481.424	5647.93
481.795	5636.63
482.166	5734.71
482.537	5733.35
482.908	5877.08
483.279	5920.69
483.65	6024.42
484.021	6091.99
484.391	6139.22
484.762	6164.53
485.133	6161.36
485.503	6303.28
485.874	6414.01
486.244	6451.07
486.615	6555.93
486.985	6621.46
487.356	6655.14
487.726	6680.9
488.097	6835.7
488.467	6799.54
488.837	6905.07
489.207	6955.92
489.578	7034.11
489.948	7118.85
490.318	7187.1
490.688	7166.08
491.058	7277.27
491.428	7274.78
491.798	7363.59
492.168	7475.45
492.538	7470.93
492.908	7521.33
493.278	7692.85
493.648	7609.46
494.017	7719.74
494.387	7753.19
494.757	7695.33
495.126	7801.09
495.496	7850.58
495.866	7852.39
496.235	7916.8
496.605	7988.89
496.974	7966.51
497.344	8056.45
497.713	8052.39
498.082	8165.83
498.452	8157.92
498.821	8164.02
499.19	8123.57
499.559	8302.78
499.928	8249.44
500.298	8342.32
500.667	8317.24
501.036	8324.02
501.405	8447.41
501.774	8377.12
502.143	8407.18
502.512	8440.4
502.88	8460.06
503.249	8497.57
503.618	8549.78
503.987	8505.93
504.356	8599.27
504.724	8638.59
505.093	8660.05
505.462	8648.53
505.83	8702.09
506.199	8697.79
506.567	8828.64
506.936	8807.17
507.304	8938.47
507.672	8890.56
508.041	8891.24
508.409	8999.71
508.777	9025.02
509.145	9033.6
509.514	8943.44
509.882	9036.99
510.25	9062.98
510.618	9087.61
510.986	9148.63
511.354	9178.69
511.722	9234.73
512.09	9295.52
512.458	9250.55
512.826	9338.91
513.193	9346.82
513.561	9392.92
513.929	9407.61
514.297	9496.19
514.664	9478.11
515.032	9445.12
515.4	9534.16
515.767	9519.02
516.135	9630.65
516.502	9498
516.869	9695.06
517.237	9690.76
517.604	9661.61
517.972	9719.91
518.339	9749.52
518.706	9750.42
519.073	9831.32
519.44	9885.56
519.808	9946.35
520.175	9921.72
520.542	10107.93
520.909	10028.15
521.276	10008.27
521.643	10058.66
522.009	10132.78
522.376	10199
522.743	10208.49
523.11	10287.36
523.477	10348.37
523.843	10382.95
524.21	10478.31
524.577	10494.36
524.943	10540.68
525.31	10567.58
525.676	10604.18
526.043	10741.13
526.409	10638.08
526.776	10881.01
527.142	10846.66
527.508	10844.63
527.874	10977.28
528.241	10993.33
528.607	10984.74
528.973	11053.44
529.339	11001.69
529.705	11150.16
530.071	11214.56
530.437	11248.24
530.803	11298.63
531.169	11313.77
531.535	11296.37
531.901	11360.77
532.267	11455.46
532.632	11551.05
532.998	11478.74
533.364	11583.37
533.73	11542.92
534.095	11648.45
534.461	11685.29
534.826	11743.36
535.192	11783.14
535.557	11847.54
535.923	11832.63
536.288	11887.99
536.653	11933.87
537.019	11903.36
537.384	12027.65
537.749	12013.86
538.114	11978.84
538.479	12062
538.845	12126.18
539.21	12069.23
539.575	12207.98
539.94	12200.75
540.305	12246.85
540.67	12251.82
541.034	12364.59
541.399	12334.76
541.764	12352.84
542.129	12356.23
542.494	12390.58
542.858	12441.65
543.223	12469.45
543.587	12605.49
543.952	12561.42
544.316	12627.18
544.681	12567.97
545.045	12711.47
545.41	12735.2
545.774	12708.99
546.138	12746.05
546.503	12793.05
546.867	12691.14
547.231	12934.07
547.595	12907.85
547.959	12966.61
548.324	12986.49
548.688	12937.68
549.052	13001.64
549.416	12981.3
549.779	12983.1
550.143	13038.24
550.507	13211.8
550.871	13148.07
551.235	13137.23
551.599	13186.49
551.962	13193.95
552.326	13246.37
552.689	13307.39
553.053	13143.33
553.417	13342.19
553.78	13471.45
554.143	13478.46
554.507	13396.43
554.87	13495.63
555.234	13588.96
555.597	13586.7
555.96	13590.09
556.323	13582.64
556.686	13639.58
557.05	13760.03
557.413	13731.56
557.776	13789.86
558.139	13906.7
558.502	13878.67
558.865	13920.26
559.228	14038.67
559.59	13983.53
559.953	13967.94
560.316	14072.34
560.679	14171.32
561.041	14207.25
561.404	14251.55
561.767	14397.08
562.129	14241.38
562.492	14469.39
562.854	14444.31
563.217	14428.94
563.579	14515.49
563.941	14559.33
564.304	14586.9
564.666	14660.57
565.028	14751.42
565.39	14684.76
565.753	14903.05
566.115	14880.46
566.477	14933.79
566.839	14947.8
567.201	15087.68
567.563	15083.16
567.925	15217.17
568.287	15142.6
568.648	15154.8
569.01	15257.85
569.372	15432.31
569.734	15333.33
570.095	15437.73
570.457	15499.87
570.819	15594.56
571.18	15523.38
571.542	15705.07
571.903	15627.56
572.265	15754.11
572.626	15797.72
572.987	15889.92
573.349	15856.25
573.71	15964.72
574.071	15999.52
574.432	16089.69
574.794	16167.43
575.155	16160.42
575.516	16089.46
575.877	16232.96
576.238	16211.04
576.599	16338.5
576.96	16347.76
577.32	16279.97
577.681	16413.75
578.042	16532.16
578.403	16455.1
578.763	16416.01
579.124	16592.5
579.485	16591.82
579.845	16639.73
580.206	16566.74
580.566	16654.19
580.927	16565.38
581.287	16634.76
581.648	16615.1
582.008	16748.43
582.368	16760.63
582.728	16725.38
583.089	16754.53
583.449	16766.51
583.809	16812.38
584.169	16792.5
584.529	16744.14
584.889	16838.14
585.249	16824.81
585.609	16813.06
585.969	16859.39
586.329	16824.36
586.688	16978.25
587.048	16851.03
587.408	16841.08
587.768	16892.83
588.127	16912.27
588.487	16814.64
588.846	16871.82
589.206	16883.12
589.565	16811.7
589.925	17032.94
590.284	16910.69
590.643	16941.19
591.003	17080.62
591.362	17052.83
591.721	17082.88
592.08	17039.72
592.44	17096.44
592.799	17114.75
593.158	17062.55
593.517	17058.48
593.876	17143.67
594.235	17058.25
594.593	17067.97
594.952	17138.02
595.311	17072.71
595.67	17143.22
596.029	17238.81
596.387	17243.33
596.746	17257.34
597.104	17194.97
597.463	17175.99
597.822	17268.19
598.18	17168.98
598.538	17274.07
598.897	17233.84
599.255	17175.54
599.613	17397.45
599.972	17264.57
600.33	17299.38
600.688	17313.84
601.046	17345.02
601.404	17404.01
601.762	17252.6
602.12	17351.8
602.478	17321.3
602.836	17493.72
603.194	17357
603.552	17372.14
603.91	17375.08
604.268	17440.39
604.625	17372.59
604.983	17484
605.341	17338.47
605.698	17479.94
606.056	17574.62
606.413	17539.14
606.771	17546.83
607.128	17577.33
607.485	17473.16
607.843	17468.18
608.2	17623.21
608.557	17671.12
608.914	17600.61
609.272	17745.47
609.629	17757.67
609.986	17766.93
610.343	17596.09
610.7	17784.79
611.057	17792.92
611.414	17698.46
611.771	17677.22
612.127	17726.94
612.484	17827.95
612.841	17879.02
613.198	17826.37
613.554	17812.81
613.911	17928.06
614.267	17933.71
614.624	17899.36
614.98	17816.65
615.337	17964.89
615.693	17920.15
616.05	17970.09
616.406	18077.89
616.762	18059.81
617.118	18051.45
617.475	18044.21
617.831	18067.04
618.187	18125.12
618.543	18172.8
618.899	18203.76
619.255	18169.86
619.611	18161.95
619.967	18225.23
620.323	18300.93
620.678	18148.62
621.034	18269.07
621.39	18198.34
621.746	18239.46
622.101	18419.35
622.457	18272.01
622.812	18287.82
623.168	18444.43
623.523	18380.7
623.879	18453.24
624.234	18317.43
624.589	18352.68
624.945	18325.56
625.3	18517.42
625.655	18490.53
626.01	18492.34
626.365	18558.1
626.72	18501.15
627.075	18485.11
627.43	18517.2
627.785	18373.7
628.14	18509.97
628.495	18559
628.85	18539.34
629.205	18525.78
629.559	18646.01
629.914	18539.12
630.269	18636.97
630.623	18621.6
630.978	18561.26
631.332	18660.24
631.687	18659.11
632.041	18546.12
632.396	18626.12
632.75	18657.08
633.104	18577.53
633.459	18613.01
633.813	18569.62
634.167	18562.39
634.521	18598.32
634.875	18574.6
635.229	18550.87
635.583	18547.48
635.937	18571.43
636.291	18618.21
636.645	18612.34
636.999	18680.81
637.352	18597.87
637.706	18587.48
638.06	18730.52
638.413	18632.9
638.767	18670.87
639.121	18706.8
639.474	18556.07
639.828	18611.43
640.181	18710.41
640.534	18665.67
640.888	18602.84
641.241	18567.36
641.594	18637.65
641.947	18680.58
642.301	18633.13
642.654	18657.31
643.007	18742.5
643.36	18642.17
643.713	18632.45
644.066	18845.32
644.419	18664.31
644.771	18490.98
645.124	18338.67
645.477	18290.31
645.83	18218.9
646.182	18226.36
646.535	18314.94
646.888	18291.44
647.24	18401.95
647.593	18407.6
647.945	18447.59
648.298	18333.02
648.65	18390.65
649.002	18462.73
649.355	18374.83
649.707	18396.97
650.059	18475.84
650.411	18692.79
650.763	18765.78
651.115	18954.25
651.467	18928.03
651.819	18958.09
652.171	18875.15
652.523	18859.79
652.875	18880.58
653.227	18886.68
653.578	19030.63
653.93	18987.92
654.282	18897.53
654.633	18946.34
654.985	18972.1
655.337	19078.09
655.688	19014.58
656.039	19038.54
656.391	18954.02
656.742	19069.72
657.094	19018.2
657.445	19136.84
657.796	19122.38
658.147	19035.83
658.498	19001.25
658.849	19084.19
659.2	19091.87
659.551	18967.58
659.902	19097.07
660.253	19127.35
660.604	19095.03
660.955	19076.5
661.306	19052.78
661.656	19078.31
662.007	19093.45
662.358	19101.81
662.708	19191.53
663.059	19150.17
663.409	19063.17
663.76	19123.73
664.11	19252.32
664.461	19141.81
664.811	19305.88
665.161	19227.01
665.511	19165.99
665.862	19155.82
666.212	19192.89
666.562	19209.38
666.912	19229.04
667.262	19151.53
667.612	19068.82
667.962	19189.95
668.312	19041.93
668.662	19170.51
669.011	19126.9
669.361	19142.72
669.711	19120.34
670.06	18938.2
670.41	18851.88
670.76	18918.32
671.109	19026.34
671.459	18943.4
671.808	18922.61
672.157	18984.53
672.507	18851.2
672.856	18890.97
673.205	18915.15
673.554	18863.4
673.904	18676.97
674.253	18877.41
674.602	18753.12
674.951	18493.92
675.3	18333.7
675.649	18610.08
675.998	18688.27
676.346	18539.8
676.695	18626.35
677.044	18489.17
677.393	18508.16
677.741	18544.99
678.09	18469.06
678.438	18387.93
678.787	18506.8
679.135	18445.11
679.484	18254.83
679.832	18354.26
680.181	18185
680.529	18251.89
680.877	18230.42
681.225	18145.23
681.573	18221.84
681.922	18096.19
682.27	18037.21
682.618	18014.16
682.966	18005.12
683.314	18035.18
683.661	17957.21
684.009	17889.87
684.357	17820.72
684.705	17876.08
685.053	17780.04
685.4	17760.15
685.748	17749.53
686.095	17707.27
686.443	17651.46
686.79	17687.39
687.138	17724.68
687.485	17675.41
687.832	17530.78
688.18	17526.26
688.527	17421.18
688.874	17416.66
689.221	17411.46
689.568	17455.08
689.915	17413.95
690.262	17418.24
690.609	17338.24
690.956	17330.56
691.303	17291.01
691.65	17231.35
691.997	17234.74
692.344	17198.14
692.69	17137.35
693.037	17230.9
693.383	16996.78
693.73	17153.62
694.077	17061.64
694.423	17038.14
694.769	16962.21
695.116	16769.45
695.462	16867.75
695.808	16867.97
696.155	16959.05
696.501	16737.13
696.847	16782.1
697.193	16596.34
697.539	16733.29
697.885	16667.75
698.231	16599.73
698.577	16625.95
698.923	16688.32
699.269	16502.11
699.614	16470.7
699.96	16547.76
700.306	16501.43
700.651	16363.81
700.997	16332.62
701.342	16402.45
701.688	16431.6
702.033	16390.47
702.379	16322.68
702.724	16387.76
703.069	16378.5
703.415	16227.31
703.76	16253.08
704.105	16251.95
704.45	16174.21
704.795	16142.34
705.14	16081.33
705.485	16072.06
705.83	16043.36
706.175	16084.94
706.52	16079.07
706.865	16073.87
707.209	16034.78
707.554	15937.38
707.899	16035.68
708.243	15945.29
708.588	15949.58
708.932	15836.14
709.277	15792.75
709.621	15815.35
709.966	15802.47
710.31	15793.2
710.654	15694.9
710.998	15776.93
711.342	15777.38
711.687	15805.86
712.031	15720.21
712.375	15681.57
712.719	15710.72
713.063	15689.25
713.407	15755.24
713.75	15643.6
714.094	15754.56
714.438	15604.96
714.782	15607.44
715.125	15623.49
715.469	15585.97
715.812	15513.89
716.156	15484.51
716.499	15508.69
716.843	15554.34
717.186	15509.37
717.53	15543.94
717.873	15546.88
718.216	15492.87
718.559	15403.83
718.902	15436.6
719.246	15455.36
719.589	15377.62
719.932	15336.72
720.275	15375.81
720.617	15308.92
720.96	15345.3
721.303	15307.11
721.646	15289.48
721.989	15222.14
722.331	15212.42
722.674	15272.99
723.016	15364.29
723.359	15270.73
723.701	15336.49
724.044	15127.46
724.386	15131.75
724.729	15160
725.071	15248.13
725.413	15200.9
725.755	15178.3
726.097	15120.68
726.439	15098.98
726.782	15188.92
727.124	15236.38
727.465	15122.03
727.807	15120.68
728.149	15190.28
728.491	15053.33
728.833	15179.43
729.175	15212.88
729.516	15191.41
729.858	15091.07
730.199	15195.02
730.541	15085.2
730.882	15118.87
731.224	15196.38
731.565	15204.74
731.906	15106.44
732.248	15123.16
732.589	15089.04
732.93	15058.3
733.271	15093.33
733.612	15174.46
733.953	15132.2
734.294	15162.48
734.635	15140.11
734.976	15214.23
735.317	15112.54
735.658	15135.14
735.999	15123.39
736.339	15146.89
736.68	15230.5
737.021	15176.49
737.361	15145.31
737.702	15233.89
738.042	15271.63
738.383	15245.19
738.723	15337.62
739.063	15334.23
739.404	15373.55
739.744	15320.9
740.084	15320.9
740.424	15341.01
740.764	15344.85
741.104	15474.56
741.444	15387.11
741.784	15371.06
742.124	15418.52
742.464	15388.47
742.804	15416.49
743.143	15403.15
743.483	15568.57
743.823	15524.73
744.162	15493.55
744.502	15499.65
744.841	15646.99
745.181	15730.15
745.52	15566.99
745.86	15717.27
746.199	15661.45
746.538	15816.93
746.877	15805.86
747.216	15752.98
747.556	15898.28
747.895	15895.34
748.234	15814.89
748.573	15872.29
748.911	15920.2
749.25	15978.96
749.589	15939.19
749.928	15959.52
750.267	16014.89
750.605	16015.12
750.944	15974.21
751.283	16001.33
751.621	16093.76
751.96	16075.9
752.298	16047.88
752.636	16169.01
752.975	16100.99
753.313	16131.95
753.651	16305.28
753.989	16173.3
754.327	16217.14
754.666	16128.78
755.004	16303.02
755.342	16411.49
755.679	16314.77
