Data from blue_chair_FLMS001491_00007.txt Node
Date: Wed Feb 08 10:28:56 GMT 2017
User: dcchb
Spectrometer: FLMS00149
Trigger mode: 0
Integration Time (sec): 2.000000E-2
Scans to average: 10
Electric dark correction enabled: true
Nonlinearity correction enabled: false
Boxcar width: 0
XAxis mode: Wavelengths
Number of Pixels in Spectrum: 2048
>>>>>Begin Spectral Data<<<<<
341.393	-30
341.776	-30
342.16	-30
342.543	-70.45
342.927	-83.33
343.31	-64.35
343.693	-65.48
344.077	-59.6
344.46	-57.12
344.843	-50.34
345.226	-30.68
345.61	-45.14
345.993	-10.56
346.376	-10.56
346.759	7.97
347.142	13.84
347.525	42.54
347.908	67.17
348.291	67.4
348.674	84.12
349.057	110.79
349.44	133.39
349.823	127.74
350.206	150.11
350.588	167.06
350.971	180.84
351.354	204.8
351.737	211.8
352.119	233.04
352.502	237.79
352.884	264.23
353.267	259.94
353.65	255.19
354.032	263.1
354.414	270.11
354.797	287.05
355.179	272.14
355.562	307.17
355.944	317.34
356.326	294.51
356.709	294.74
357.091	303.55
357.473	301.52
357.855	298.58
358.238	310.1
358.62	283.66
359.002	301.97
359.384	324.12
359.766	302.65
360.148	309.43
360.53	318.69
360.912	310.33
361.294	317.11
361.676	311.01
362.057	325.47
362.439	295.19
362.821	290.67
363.203	309.65
363.584	294.06
363.966	290.44
364.348	285.02
364.729	299.26
365.111	306.94
365.493	269.88
365.874	285.25
366.256	277.11
366.637	302.42
367.019	282.08
367.4	278.92
367.781	295.42
368.163	289.54
368.544	264
368.925	305.36
369.306	285.92
369.688	267.85
370.069	277.34
370.45	261.74
370.831	265.81
371.212	268.75
371.593	257.45
371.974	281.63
372.355	301.52
372.736	281.63
373.117	266.72
373.498	272.14
373.879	278.92
374.26	285.47
374.641	287.73
375.021	275.98
375.402	272.82
375.783	287.73
376.163	265.36
376.544	285.7
376.925	293.61
377.305	276.89
377.686	296.77
378.066	301.52
378.447	284.12
378.827	281.18
379.208	286.6
379.588	290.9
379.968	291.57
380.349	301.29
380.729	282.99
381.109	296.55
381.489	282.76
381.87	284.12
382.25	300.84
382.63	293.38
383.01	288.86
383.39	276.66
383.77	296.77
384.15	293.16
384.53	288.86
384.91	310.56
385.29	293.61
385.67	310.1
386.049	309.2
386.429	302.42
386.809	326.15
387.189	300.16
387.568	297.22
387.948	285.02
388.328	305.36
388.707	308.75
389.087	301.52
389.466	303.55
389.846	322.08
390.225	320.5
390.605	304.68
390.984	308.75
391.363	325.02
391.743	313.72
392.122	311.91
392.501	293.83
392.881	329.31
393.26	304.68
393.639	308.97
394.018	316.66
394.397	306.72
394.776	291.57
395.155	299.26
395.534	304
395.913	337.22
396.292	329.31
396.671	321.86
397.05	307.39
397.429	329.09
397.808	322.99
398.186	333.16
398.565	324.34
398.944	320.5
399.323	329.54
399.701	324.34
400.08	308.52
400.458	333.83
400.837	326.15
401.215	325.92
401.594	349.2
401.972	354.4
402.351	326.6
402.729	334.06
403.107	334.06
403.486	330.44
403.864	346.49
404.242	337.9
404.62	352.14
404.999	350.78
405.377	338.35
405.755	358.01
406.133	375.64
406.511	360.05
406.889	357.11
407.267	350.78
407.645	377.22
408.023	366.37
408.401	369.31
408.779	362.53
409.156	353.27
409.534	383.32
409.912	398.46
410.29	387.84
410.667	369.76
411.045	358.01
411.422	387.62
411.8	381.97
412.178	387.39
412.555	372.02
412.933	381.29
413.31	414.06
413.687	411.57
414.065	382.65
414.442	399.82
414.819	405.24
415.197	419.25
415.574	389.42
415.951	417.45
416.328	401.4
416.705	388.07
417.082	406.83
417.46	388.97
417.837	403.89
418.214	394.17
418.591	403.66
418.967	388.97
419.344	423.1
419.721	398.24
420.098	397.56
420.475	430.1
420.852	412.25
421.228	424.45
421.605	428.29
421.982	436.66
422.358	410.22
422.735	463.77
423.111	454.96
423.488	448.63
423.864	436.88
424.241	432.36
424.617	449.31
424.994	459.03
425.37	461.06
425.746	439.82
426.123	479.82
426.499	457.67
426.875	482.76
427.251	489.31
427.627	497.44
428.003	482.53
428.379	485.24
428.756	494.96
429.132	494.28
429.507	493.6
429.883	514.17
430.259	514.17
430.635	508.97
431.011	510.33
431.387	526.14
431.763	496.99
432.138	526.6
432.514	544
432.89	545.58
433.265	570.21
433.641	544.22
434.016	553.49
434.392	545.8
434.767	545.13
435.143	549.87
435.518	544
435.894	575.18
436.269	565.47
436.644	598.68
437.02	607.05
437.395	592.81
437.77	597.55
438.145	591.68
438.52	628.51
438.895	619.93
439.271	641.85
439.646	612.47
440.021	649.08
440.395	638.01
440.77	627.84
441.145	647.27
441.52	672.58
441.895	647.72
442.27	685.69
442.645	670.55
443.019	661.96
443.394	685.46
443.769	670.55
444.143	689.76
444.518	692.92
444.892	702.18
445.267	687.04
445.641	672.58
446.016	720.04
446.39	712.13
446.764	715.74
447.139	694.73
447.513	717.1
447.887	728.62
448.262	723.65
448.636	703.31
449.01	734.27
449.384	732.92
449.758	747.61
450.132	773.14
450.506	757.78
450.88	775.18
451.254	766.59
451.628	776.99
452.002	772.24
452.376	776.99
452.75	776.99
453.123	774.05
453.497	803.88
453.871	793.48
454.244	806.36
454.618	812.24
454.992	820.37
455.365	840.49
455.739	822.41
456.112	846.59
456.486	833.25
456.859	863.31
457.232	868.73
457.606	868.28
457.979	860.37
458.352	868.96
458.725	914.61
459.099	873.93
459.472	885.91
459.845	897.66
460.218	895.85
460.591	927.26
460.964	931.33
461.337	915.96
461.71	951.44
462.083	935.17
462.456	949.18
462.829	956.87
463.201	946.47
463.574	944.66
463.947	959.58
464.32	949.41
464.692	977.43
465.065	973.14
465.438	995.51
465.81	1019.24
466.183	1012.01
466.555	1004.32
466.928	1015.62
467.3	1013.59
467.672	1007.49
468.045	1051.78
468.417	1074.38
468.789	1045
469.161	1048.16
469.534	1082.06
469.906	1106.02
470.278	1086.58
470.65	1072.12
471.022	1111.21
471.394	1111.67
471.766	1119.35
472.138	1116.19
472.51	1129.52
472.882	1158.9
473.253	1173.13
473.625	1170.42
473.997	1192.34
474.369	1196.18
474.74	1186.92
475.112	1221.04
475.484	1226.69
475.855	1250.42
476.227	1240.93
476.598	1263.75
476.97	1271.21
477.341	1257.2
477.713	1250.87
478.084	1277.54
478.455	1288.84
478.827	1311.43
479.198	1345.11
479.569	1328.84
479.94	1373.13
480.311	1378.78
480.682	1383.97
481.053	1401.6
481.424	1393.24
481.795	1422.39
482.166	1423.52
482.537	1421.71
482.908	1426.01
483.279	1461.71
483.65	1449.51
484.021	1480.24
484.391	1484.99
484.762	1485.89
485.133	1507.59
485.503	1501.71
485.874	1527.7
486.244	1501.26
486.615	1490.86
486.985	1523.86
487.356	1558.43
487.726	1566.12
488.097	1546.68
488.467	1539.45
488.837	1607.47
489.207	1575.83
489.578	1574.48
489.948	1593.46
490.318	1590.98
490.688	1625.55
491.058	1621.03
491.428	1615.83
491.798	1619
492.168	1635.95
492.538	1628.94
492.908	1637.98
493.278	1631.65
493.648	1605.66
494.017	1628.49
494.387	1633.69
494.757	1642.27
495.126	1657.87
495.496	1612.22
495.866	1653.8
496.235	1664.19
496.605	1683.4
496.974	1673.23
497.344	1670.52
497.713	1656.96
498.082	1651.31
498.452	1680.46
498.821	1620.58
499.19	1627.36
499.559	1656.28
499.928	1619
500.298	1604.31
500.667	1637.75
501.036	1616.06
501.405	1646.11
501.774	1620.35
502.143	1648.6
502.512	1619.9
502.88	1620.13
503.249	1600.69
503.618	1616.74
503.987	1629.39
504.356	1610.18
504.724	1602.73
505.093	1614.25
505.462	1616.96
505.83	1595.04
506.199	1600.47
506.567	1653.57
506.936	1610.86
507.304	1625.55
507.672	1573.35
508.041	1584.65
508.409	1602.95
508.777	1570.86
509.145	1595.04
509.514	1591.43
509.882	1585.55
510.25	1573.57
510.618	1555.95
510.986	1586.91
511.354	1580.81
511.722	1545.1
512.09	1548.94
512.458	1546.91
512.826	1559.11
513.193	1560.24
513.561	1552.78
513.929	1542.84
514.297	1563.86
514.664	1550.52
515.032	1539.68
515.4	1521.37
515.767	1513.69
516.135	1533.8
516.502	1487.7
516.869	1515.5
517.237	1522.95
517.604	1495.16
517.972	1522.28
518.339	1488.38
518.706	1461.71
519.073	1460.13
519.44	1499.9
519.808	1475.95
520.175	1462.39
520.542	1496.29
520.909	1441.6
521.276	1450.19
521.643	1433.92
522.009	1445.22
522.376	1475.05
522.743	1435.72
523.11	1446.57
523.477	1429.85
523.843	1456.29
524.21	1459.23
524.577	1461.26
524.943	1440.7
525.31	1449.74
525.676	1454.48
526.043	1454.71
526.409	1436.85
526.776	1414.48
527.142	1451.32
527.508	1437.76
527.874	1466.23
528.241	1414.48
528.607	1414.48
528.973	1413.13
529.339	1407.7
529.705	1428.95
530.071	1431.66
530.437	1423.07
530.803	1432.11
531.169	1426.23
531.535	1423.07
531.901	1428.27
532.267	1406.35
532.632	1446.35
532.998	1408.83
533.364	1426.69
533.73	1410.87
534.095	1431.66
534.461	1429.62
534.826	1385.33
535.192	1390.3
535.557	1397.31
535.923	1440.47
536.288	1388.95
536.653	1424.65
537.019	1402.96
537.384	1395.5
537.749	1400.47
538.114	1406.35
538.479	1373.81
538.845	1382.39
539.21	1388.72
539.575	1385.1
539.94	1390.3
540.305	1385.56
540.67	1398.44
541.034	1375.16
541.399	1350.3
541.764	1374.94
542.129	1388.04
542.494	1388.95
542.858	1360.47
543.223	1365.9
543.587	1356.41
543.952	1384.2
544.316	1361.15
544.681	1352.79
545.045	1373.81
545.41	1355.95
545.774	1334.26
546.138	1360.47
546.503	1366.12
546.867	1382.39
547.231	1343.98
547.595	1357.99
547.959	1332
548.324	1352.56
548.688	1337.87
549.052	1345.56
549.416	1322.73
549.779	1320.93
550.143	1330.19
550.507	1342.39
550.871	1309.17
551.235	1348.5
551.599	1324.99
551.962	1341.49
552.326	1333.81
552.689	1292.45
553.053	1287.93
553.417	1272.34
553.78	1334.03
554.143	1303.07
554.507	1335.16
554.87	1318.44
555.234	1317.99
555.597	1299.23
555.96	1304.43
556.323	1276.63
556.686	1275.05
557.05	1286.12
557.413	1306.91
557.776	1318.89
558.139	1315.5
558.502	1315.73
558.865	1297.88
559.228	1307.14
559.59	1299.46
559.953	1270.53
560.316	1299.91
560.679	1287.03
561.041	1302.17
561.404	1284.77
561.767	1297.88
562.129	1304.88
562.492	1308.27
562.854	1332
563.217	1301.04
563.579	1325.22
563.941	1302.4
564.304	1302.62
564.666	1299.46
565.028	1314.82
565.39	1341.26
565.753	1324.54
566.115	1320.47
566.477	1336.97
566.839	1287.25
567.201	1305.33
567.563	1316.41
567.925	1317.99
568.287	1349.4
568.648	1342.85
569.01	1332.22
569.372	1334.71
569.734	1325.45
570.095	1351.66
570.457	1362.05
570.819	1361.83
571.18	1355.95
571.542	1347.37
571.903	1359.12
572.265	1345.11
572.626	1382.39
572.987	1357.31
573.349	1367.25
573.71	1376.29
574.071	1372.68
574.432	1389.85
574.794	1402.96
575.155	1399.34
575.516	1387.59
575.877	1370.19
576.238	1397.99
576.599	1400.7
576.96	1402.51
577.32	1393.47
577.681	1416.52
578.042	1419
578.403	1401.15
578.763	1411.09
579.124	1408.38
579.485	1429.62
579.845	1419
580.206	1434.37
580.566	1423.3
580.927	1440.7
581.287	1420.36
581.648	1448.61
582.008	1419
582.368	1428.49
582.728	1424.43
583.089	1448.38
583.449	1485.44
583.809	1431.88
584.169	1478.66
584.529	1447.93
584.889	1490.64
585.249	1444.76
585.609	1444.31
585.969	1468.94
586.329	1466.46
586.688	1483.18
587.048	1486.12
587.408	1475.05
587.768	1466.23
588.127	1460.36
588.487	1461.49
588.846	1506.23
589.206	1480.47
589.565	1478.21
589.925	1504.88
590.284	1464.2
590.643	1490.19
591.003	1487.7
591.362	1473.69
591.721	1454.48
592.08	1483.63
592.44	1487.7
592.799	1509.85
593.158	1487.25
593.517	1486.8
593.876	1468.72
594.235	1462.39
594.593	1459.23
594.952	1469.62
595.311	1473.69
595.67	1468.49
596.029	1466.91
596.387	1476.4
596.746	1468.94
597.104	1478.44
597.463	1466.46
597.822	1464.65
598.18	1484.09
598.538	1472.56
598.897	1480.92
599.255	1494.48
599.613	1508.04
599.972	1477.31
600.33	1490.86
600.688	1450.41
601.046	1502.16
601.404	1487.25
601.762	1488.6
602.12	1476.4
602.478	1484.54
602.836	1472.33
603.194	1461.49
603.552	1487.02
603.91	1453.8
604.268	1462.84
604.625	1489.06
604.983	1457.65
605.341	1480.02
605.698	1478.44
606.056	1450.87
606.413	1451.32
606.771	1485.89
607.128	1484.54
607.485	1483.41
607.843	1479.57
608.2	1489.96
608.557	1465.33
608.914	1453.35
609.272	1468.27
609.629	1455.39
609.986	1472.79
610.343	1460.13
610.7	1493.12
611.057	1500.81
611.414	1465.33
611.771	1463.29
612.127	1484.99
612.484	1477.98
612.841	1472.11
613.198	1481.37
613.554	1483.86
613.911	1502.62
614.267	1472.11
614.624	1457.19
614.98	1473.46
615.337	1491.32
615.693	1470.98
616.05	1503.52
616.406	1494.48
616.762	1486.8
617.118	1488.15
617.475	1478.66
617.831	1506.23
618.187	1506.23
618.543	1466.23
618.899	1506.68
619.255	1501.03
619.611	1488.6
619.967	1531.54
620.323	1514.37
620.678	1507.81
621.034	1495.84
621.39	1507.14
621.746	1516.4
622.101	1518.66
622.457	1510.75
622.812	1514.14
623.168	1511.88
623.523	1507.36
623.879	1533.12
624.234	1520.69
624.589	1520.24
624.945	1511.2
625.3	1509.85
625.655	1534.25
626.01	1510.75
626.365	1535.38
626.72	1546.91
627.075	1504.65
627.43	1515.04
627.785	1528.83
628.14	1538.55
628.495	1541.26
628.85	1538.32
629.205	1517.98
629.559	1531.54
629.914	1542.16
630.269	1537.87
630.623	1512.11
630.978	1529.28
631.332	1535.38
631.687	1513.91
632.041	1515.04
632.396	1511.88
632.75	1526.8
633.104	1525.21
633.459	1523.86
633.813	1492.67
634.167	1513.69
634.521	1540.13
634.875	1506.46
635.229	1524.31
635.583	1517.53
635.937	1501.26
636.291	1527.47
636.645	1535.61
636.999	1515.5
637.352	1548.94
637.706	1485.22
638.06	1513.01
638.413	1508.94
638.767	1531.77
639.121	1548.94
639.474	1511.66
639.828	1528.15
640.181	1548.26
640.534	1501.49
640.888	1501.49
641.241	1543.52
641.594	1508.72
641.947	1514.14
642.301	1531.54
642.654	1543.97
643.007	1528.15
643.36	1532.45
643.713	1500.13
644.066	1560.92
644.419	1523.41
644.771	1520.02
645.124	1510.98
645.477	1523.18
645.83	1499.23
646.182	1512.79
646.535	1473.69
646.888	1513.69
647.24	1557.76
647.593	1528.38
647.945	1534.93
648.298	1536.29
648.65	1510.75
649.002	1505.55
649.355	1529.28
649.707	1524.31
650.059	1504.65
650.411	1525.67
650.763	1528.83
651.115	1553.24
651.467	1560.47
651.819	1553.46
652.171	1610.18
652.523	1555.04
652.875	1559.34
653.227	1581.03
653.578	1564.54
653.93	1593.46
654.282	1549.85
654.633	1575.83
654.985	1576.96
655.337	1606.12
655.688	1588.04
656.039	1596.4
656.391	1536.97
656.742	1579
657.094	1572.44
657.445	1591.2
657.796	1607.47
658.147	1570.86
658.498	1602.05
658.849	1611.31
659.2	1599.79
659.551	1586
659.902	1608.83
660.253	1556.4
660.604	1606.57
660.955	1615.83
661.306	1615.16
661.656	1622.61
662.007	1632.33
662.358	1605.66
662.708	1602.27
663.059	1613.57
663.409	1589.39
663.76	1658.54
664.11	1608.38
664.461	1636.85
664.811	1612.9
665.161	1629.62
665.511	1583.97
665.862	1633.01
666.212	1626.91
666.562	1621.71
666.912	1626.91
667.262	1635.27
667.612	1601.82
667.962	1631.88
668.312	1599.56
668.662	1621.71
669.011	1638.21
669.361	1592.78
669.711	1619
670.06	1610.64
670.41	1594.82
670.76	1620.35
671.109	1608.38
671.459	1604.99
671.808	1631.2
672.157	1621.93
672.507	1590.75
672.856	1607.02
673.205	1597.08
673.554	1598.66
673.904	1600.24
674.253	1600.92
674.602	1601.82
674.951	1599.11
675.3	1587.13
675.649	1563.18
675.998	1554.14
676.346	1580.81
676.695	1563.18
677.044	1591.65
677.393	1547.81
677.741	1593.91
678.09	1556.17
678.438	1581.26
678.787	1567.25
679.135	1573.8
679.484	1570.41
679.832	1584.42
680.181	1548.49
680.529	1551.2
680.877	1531.99
681.225	1522.73
681.573	1559.11
681.922	1553.91
682.27	1555.04
682.618	1514.59
682.966	1531.77
683.314	1542.16
683.661	1537.64
684.009	1508.94
684.357	1534.71
684.705	1517.53
685.053	1560.92
685.4	1531.54
685.748	1481.15
686.095	1492.67
686.443	1482.73
686.79	1485.89
687.138	1483.63
687.485	1487.25
687.832	1507.14
688.18	1481.15
688.527	1471.88
688.874	1483.63
689.221	1467.59
689.568	1486.12
689.915	1458.1
690.262	1470.3
690.609	1468.72
690.956	1457.19
691.303	1480.47
691.65	1445.44
691.997	1430.53
692.344	1441.37
692.69	1443.41
693.037	1474.14
693.383	1413.35
693.73	1457.42
694.077	1452
694.423	1438.21
694.769	1425.33
695.116	1398.66
695.462	1423.07
695.808	1417.87
696.155	1399.12
696.501	1396.4
696.847	1404.99
697.193	1390.75
697.539	1387.14
697.885	1363.86
698.231	1336.97
698.577	1359.79
698.923	1374.03
699.269	1353.24
699.614	1367.03
699.96	1362.73
700.306	1352.34
700.651	1340.13
700.997	1389.17
701.342	1372.45
701.688	1351.21
702.033	1338.55
702.379	1335.84
702.724	1348.5
703.069	1340.13
703.415	1337.87
703.76	1342.62
704.105	1343.98
704.45	1350.08
704.795	1333.35
705.14	1332
705.485	1328.61
705.83	1319.57
706.175	1317.99
706.52	1340.59
706.865	1330.42
707.209	1315.5
707.554	1329.06
707.899	1327.25
708.243	1322.96
708.588	1317.54
708.932	1321.15
709.277	1332
709.621	1321.83
709.966	1328.16
710.31	1301.49
710.654	1322.06
710.998	1316.18
711.342	1342.17
711.687	1310.76
712.031	1341.72
712.375	1327.03
712.719	1346.46
713.063	1340.13
713.407	1359.57
713.75	1327.25
714.094	1328.38
714.438	1339
714.782	1320.25
715.125	1346.01
715.469	1361.15
715.812	1346.91
716.156	1334.71
716.499	1359.12
716.843	1318.21
717.186	1336.52
717.53	1367.7
717.873	1368.16
718.216	1373.58
718.559	1387.14
718.902	1401.38
719.246	1376.97
719.589	1385.33
719.932	1388.49
720.275	1408.16
720.617	1400.25
720.96	1401.38
721.303	1370.42
721.646	1409.51
721.989	1406.57
722.331	1385.33
722.674	1415.84
723.016	1395.05
723.359	1393.69
723.701	1405.9
724.044	1408.38
724.386	1424.65
724.729	1431.21
725.071	1419
725.413	1440.47
725.755	1480.47
726.097	1458.78
726.439	1457.19
726.782	1469.4
727.124	1472.33
727.465	1485.67
727.807	1443.41
728.149	1496.29
728.491	1508.72
728.833	1489.73
729.175	1495.61
729.516	1501.03
729.858	1514.37
730.199	1525.21
730.541	1499.68
730.882	1542.16
731.224	1570.41
731.565	1593.23
731.906	1567.47
732.248	1562.73
732.589	1580.13
732.93	1569.51
733.271	1604.76
733.612	1605.66
733.953	1622.39
734.294	1634.36
734.635	1621.03
734.976	1642.27
735.317	1613.12
735.658	1652.22
735.999	1649.96
736.339	1677.75
736.68	1695.83
737.021	1687.47
737.361	1708.94
737.702	1743.29
738.042	1727.24
738.383	1713.01
738.723	1773.8
739.063	1770.18
739.404	1762.5
739.744	1771.99
740.084	1825.32
740.424	1847.69
740.764	1824.87
741.104	1850.4
741.444	1885.43
741.784	1887.46
742.124	1912.1
742.464	1931.98
742.804	1918.42
743.143	1972.66
743.483	1973.11
743.823	2058.53
744.162	2014.92
744.502	2058.08
744.841	2088.36
745.181	2133.11
745.52	2085.2
745.86	2167.46
746.199	2172.2
746.538	2207.68
746.877	2241.35
747.216	2278.19
747.556	2302.14
747.895	2312.76
748.234	2402.93
748.573	2396.38
748.911	2443.38
749.25	2458.75
749.589	2498.07
749.928	2552.08
750.267	2602.02
750.605	2620.33
750.944	2645.18
751.283	2708.46
751.621	2707.33
751.96	2757.27
752.298	2813.32
752.636	2856.03
752.975	2868.46
753.313	2941.67
753.651	3027.32
753.989	3052.86
754.327	3068
754.666	3111.84
755.004	3176.24
755.342	3208.33
755.679	3281.55
756.017	3326.07
756.355	3391.83
756.693	3420.53
757.031	3494.43
757.368	3524.48
757.706	3606.52
758.044	3684.93
758.381	3719.05
758.719	3702.11
759.056	3811.93
759.394	3847.86
759.731	3904.81
760.068	3937.81
760.405	3983.45
760.743	4033.17
761.08	4128.08
761.417	4135.77
761.754	4173.51
762.091	4198.14
762.428	4272.71
762.765	4313.16
763.102	4421.64
763.438	4419.83
763.775	4474.29
764.112	4526.49
764.449	4594.29
764.785	4647.17
765.122	4667.05
765.458	4695.98
765.795	4774.17
766.131	4789.54
766.467	4882.41
766.804	4900.94
767.14	4888.06
767.476	4996.99
767.812	4966.93
768.148	4992.24
768.485	5028.4
768.821	5065.91
769.157	5144.78
769.492	5188.85
769.828	5218.68
770.164	5249.86
770.5	5217.09
770.836	5323.76
771.171	5284.89
771.507	5329.41
771.842	5357.43
