Data from blue_clamp_base_FLMS001491_00071.txt Node
Date: Wed Feb 08 15:16:29 GMT 2017
User: dcchb
Spectrometer: FLMS00149
Trigger mode: 0
Integration Time (sec): 2.000000E-2
Scans to average: 10
Electric dark correction enabled: true
Nonlinearity correction enabled: false
Boxcar width: 0
XAxis mode: Wavelengths
Number of Pixels in Spectrum: 2048
>>>>>Begin Spectral Data<<<<<
341.393	-11.61
341.776	-11.61
342.16	-11.61
342.543	-62.23
342.927	-51.38
343.31	-79.18
343.693	-64.94
344.077	-67.43
344.46	-49.12
344.843	-56.81
345.226	-53.19
345.61	-40.31
345.993	-15.9
346.376	-11.84
346.759	19.58
347.142	26.81
347.525	48.28
347.908	32.91
348.291	86.24
348.674	108.84
349.057	116.07
349.44	123.53
349.823	144.09
350.206	149.52
350.588	206.01
350.971	193.58
351.354	232.45
351.737	248.27
352.119	261.83
352.502	276.52
352.884	272.9
353.267	276.74
353.65	299.57
354.032	309.51
354.414	302.28
354.797	306.35
355.179	320.36
355.562	319.45
355.944	330.53
356.326	337.08
356.709	337.08
357.091	352.67
357.473	361.26
357.855	349.74
358.238	346.35
358.62	365.33
359.002	346.12
359.384	365.56
359.766	370.53
360.148	351.09
360.53	349.51
360.912	358.78
361.294	343.86
361.676	362.62
362.057	314.26
362.439	331.43
362.821	319.45
363.203	335.5
363.584	339.12
363.966	356.74
364.348	344.31
364.729	326.46
365.111	313.81
365.493	346.35
365.874	345.67
366.256	320.13
366.637	330.98
367.019	339.12
367.4	343.64
367.781	317.2
368.163	331.66
368.544	318.32
368.925	315.84
369.306	323.3
369.688	325.56
370.069	341.38
370.45	349.74
370.831	323.52
371.212	318.1
371.593	351.32
371.974	321.49
372.355	338.44
372.736	330.75
373.117	348.15
373.498	338.66
373.879	326.69
374.26	313.58
374.641	334.6
375.021	309.29
375.402	351.09
375.783	342.28
376.163	361.04
376.544	323.52
376.925	339.57
377.305	359.91
377.686	348.38
378.066	364.43
378.447	357.87
378.827	354.71
379.208	333.47
379.588	360.58
379.968	363.3
380.349	350.64
380.729	370.3
381.109	359.23
381.489	376.63
381.87	357.42
382.25	388.38
382.63	355.61
383.01	357.19
383.39	370.53
383.77	369.85
384.15	365.78
384.53	396.29
384.91	361.26
385.29	370.75
385.67	403.07
386.049	374.37
386.429	392.9
386.809	393.58
387.189	404.65
387.568	394.93
387.948	406.46
388.328	410.98
388.707	396.51
389.087	423.41
389.466	404.2
389.846	400.36
390.225	398.1
390.605	431.54
390.984	428.38
391.363	449.62
391.743	432.9
392.122	430.64
392.501	443.52
392.881	454.37
393.26	430.86
393.639	444.42
394.018	453.01
394.397	440.36
394.776	453.91
395.155	465.21
395.534	467.47
395.913	482.16
396.292	481.26
396.671	476.51
397.05	483.97
397.429	484.42
397.808	486
398.186	483.07
398.565	482.39
398.944	495.27
399.323	514.48
399.701	521.26
400.08	512.67
400.458	517.64
400.837	509.28
401.215	525.1
401.594	529.62
401.972	561.03
402.351	529.39
402.729	556.51
403.107	547.47
403.486	560.58
403.864	551.09
404.242	550.41
404.62	563.97
404.999	571.88
405.377	557.41
405.755	606.23
406.133	599.45
406.511	606.68
406.889	601.48
407.267	643.97
407.645	640.35
408.023	622.05
408.401	658.43
408.779	663.17
409.156	659.33
409.534	667.02
409.912	693.23
410.29	679.67
410.667	685.09
411.045	700.01
411.422	701.59
411.8	729.16
412.178	710.63
412.555	734.81
412.933	739.78
413.31	758.54
413.687	753.34
414.065	781.82
414.442	782.04
414.819	791.08
415.197	805.77
415.574	813.91
415.951	811.19
416.328	825.2
416.705	829.5
417.082	823.85
417.46	819.33
417.837	842.15
418.214	845.54
418.591	862.94
418.967	871.53
419.344	892.77
419.721	883.51
420.098	887.12
420.475	905.2
420.852	895.26
421.228	910.17
421.605	916.28
421.982	947.91
422.358	952.88
422.735	956.5
423.111	945.88
423.488	953.79
423.864	981.13
424.241	979.78
424.617	988.14
424.994	1007.8
425.37	1026.1
425.746	1020.68
426.123	1023.84
426.499	1054.12
426.875	1063.84
427.251	1081.69
427.627	1135.7
428.003	1093.67
428.379	1116.27
428.756	1112.2
429.132	1151.3
429.507	1149.94
429.883	1166.89
430.259	1188.58
430.635	1173.67
431.011	1218.19
431.387	1218.87
431.763	1240.33
432.138	1238.75
432.514	1265.64
432.89	1271.07
433.265	1281.92
433.641	1315.59
434.016	1350.61
434.392	1370.73
434.767	1372.76
435.143	1376.6
435.518	1401.23
435.894	1442.14
436.269	1447.79
436.644	1459.31
437.02	1476.26
437.395	1452.08
437.77	1477.39
438.145	1535.47
438.52	1512.19
438.895	1543.38
439.271	1522.59
439.646	1572.53
440.021	1584.96
440.395	1596.71
440.77	1597.16
441.145	1602.36
441.52	1659.53
441.895	1657.27
442.27	1673.77
442.645	1668.57
443.019	1710.6
443.394	1699.76
443.769	1692.53
444.143	1708.8
444.518	1741.79
444.892	1757.16
445.267	1761.22
445.641	1792.86
446.016	1779.98
446.39	1791.28
446.764	1791.73
447.139	1817.95
447.513	1836.7
447.887	1869.7
448.262	1867.66
448.636	1871.28
449.01	1902.69
449.384	1899.98
449.758	1925.06
450.132	1943.59
450.506	1934.55
450.88	1971.16
451.254	1999.18
451.628	2004.38
452.002	2057.04
452.376	2046.19
452.75	2072.86
453.123	2056.58
453.497	2121.22
453.871	2082.8
454.244	2166.64
454.618	2178.84
454.992	2209.12
455.365	2179.97
455.739	2282.79
456.112	2280.99
456.486	2311.49
456.859	2335.22
457.232	2353.53
457.606	2332.06
457.979	2381.1
458.352	2466.29
458.725	2442.34
459.099	2472.84
459.472	2496.8
459.845	2533.63
460.218	2541.54
460.591	2537.93
460.964	2554.88
461.337	2685.72
461.71	2685.72
462.083	2726.4
462.456	2677.36
462.829	2694.08
463.201	2736.11
463.574	2770.46
463.947	2798.26
464.32	2898.6
464.692	2902.21
465.065	2894.08
465.438	2964.36
465.81	2973.85
466.183	3034.86
466.555	3047.52
466.928	3098.36
467.3	3091.13
467.672	3135.2
468.045	3192.83
468.417	3175.2
468.789	3190.57
469.161	3242.09
469.534	3287.74
469.906	3348.3
470.278	3355.76
470.65	3421.75
471.022	3448.41
471.394	3491.35
471.766	3576.09
472.138	3567.73
472.51	3633.27
472.882	3718.24
473.253	3743.32
473.625	3805.46
473.997	3860.15
474.369	3850.21
474.74	3873.94
475.112	3970.43
475.484	4024.67
475.855	4082.29
476.227	4066.47
476.598	4190.77
476.97	4210.88
477.341	4275.74
477.713	4310.54
478.084	4320.03
478.455	4455.39
478.827	4489.74
479.198	4597.76
479.569	4573.13
479.94	4646.12
480.311	4769.73
480.682	4782.39
481.053	4869.39
481.424	4948.94
481.795	4928.83
482.166	5055.38
482.537	5084.98
482.908	5188.93
483.279	5194.58
483.65	5252.88
484.021	5361.36
484.391	5403.61
484.762	5439.32
485.133	5508.47
485.503	5521.35
485.874	5624.4
486.244	5627.34
486.615	5801.34
486.985	5768.35
487.356	5896.71
487.726	5914.79
488.097	5961.11
488.467	6013.32
488.837	6097.61
489.207	6131.96
489.578	6224.84
489.948	6242.24
490.318	6350.48
490.688	6293.31
491.058	6373.08
491.428	6421.22
491.798	6437.71
492.168	6579.63
492.538	6541.21
492.908	6608.56
493.278	6725.61
493.648	6708.89
494.017	6748.21
494.387	6759.74
494.757	6794.31
495.126	6856.23
495.496	6921.09
495.866	6904.37
496.235	6943.46
496.605	6966.74
496.974	7016.23
497.344	7054.42
497.713	7029.56
498.082	7113.17
498.452	7121.54
498.821	7155.43
499.19	7186.17
499.559	7159.95
499.928	7192.04
500.298	7251.02
500.667	7306.39
501.036	7324.24
501.405	7288.99
501.774	7272.72
502.143	7339.61
502.512	7392.72
502.88	7447.18
503.249	7416.9
503.618	7445.37
503.987	7446.5
504.356	7496.89
504.724	7576.89
505.093	7524.24
505.462	7598.36
505.83	7631.58
506.199	7661.18
506.567	7698.24
506.936	7687.85
507.304	7738.92
507.672	7749.99
508.041	7802.87
508.409	7771.91
508.777	7867.05
509.145	7912.93
509.514	7928.07
509.882	7918.35
510.25	7929.88
510.618	7939.59
510.986	7917.67
511.354	8045.13
511.722	8054.84
512.09	8147.05
512.458	8069.08
512.826	8126.93
513.193	8204.22
513.561	8174.62
513.929	8224.11
514.297	8290.54
514.664	8316.76
515.032	8340.94
515.4	8366.47
515.767	8352.69
516.135	8430.88
516.502	8285.12
516.869	8490.31
517.237	8465.23
517.604	8462.97
517.972	8524.44
518.339	8507.71
518.706	8509.97
519.073	8504.55
519.44	8617.77
519.808	8714.04
520.175	8633.81
520.542	8707.26
520.909	8747.26
521.276	8747.71
521.643	8871.09
522.009	8877.65
522.376	8831.1
522.743	8917.19
523.11	9021.6
523.477	9054.82
523.843	9053.24
524.21	9149.28
524.577	9145.21
524.943	9253.46
525.31	9253.68
525.676	9271.54
526.043	9346.11
526.409	9374.36
526.776	9488.25
527.142	9494.58
527.508	9470.85
527.874	9544.07
528.241	9619.78
528.607	9604.86
528.973	9691.41
529.339	9619.78
529.705	9697.74
530.071	9763.27
530.437	9769.15
530.803	9876.94
531.169	9931.41
531.535	9910.84
531.901	9960.56
532.267	9970.73
532.632	10087.11
532.998	10031.97
533.364	10111.06
533.73	10099.99
534.095	10183.83
534.461	10171.17
534.826	10287.1
535.192	10231.51
535.557	10310.6
535.923	10387.89
536.288	10320.77
536.653	10339.53
537.019	10403.48
537.384	10422.47
537.749	10488.23
538.114	10411.62
538.479	10457.95
538.845	10484.61
539.21	10459.98
539.575	10620.2
539.94	10651.61
540.305	10638.51
540.67	10577.49
541.034	10674.66
541.399	10740.42
541.764	10730.48
542.129	10764.6
542.494	10836.01
542.858	10804.38
543.223	10856.58
543.587	10922.57
543.952	10911.49
544.316	10946.07
544.681	10974.32
545.045	10989.46
545.41	11035.33
545.774	11052.51
546.138	11031.26
546.503	11131.83
546.867	11076.46
547.231	11208.89
547.595	11201.2
547.959	11185.16
548.324	11290.69
548.688	11250.69
549.052	11317.81
549.416	11340.18
549.779	11358.26
550.143	11340.41
550.507	11468.09
550.871	11471.7
551.235	11449.11
551.599	11460.4
551.962	11482.33
552.326	11610.68
552.689	11600.06
553.053	11539.5
553.417	11616.33
553.78	11786.5
554.143	11604.13
554.507	11712.6
554.87	11688.42
555.234	11829.89
555.597	11765.03
555.96	11779.04
556.323	11822.2
556.686	11889.77
557.05	11939.04
557.413	11961.63
557.776	11978.13
558.139	12043.21
558.502	12078.92
558.865	12171.57
559.228	12174.51
559.59	12296.77
559.953	12251.34
560.316	12384.67
560.679	12306.71
561.041	12429.42
561.404	12429.87
561.767	12578.12
562.129	12462.64
562.492	12647.04
562.854	12588.74
563.217	12570.88
563.579	12630.32
563.941	12736.3
564.304	12786.7
564.666	12822.4
565.028	12867.15
565.39	12922.06
565.753	12949.63
566.115	13005.67
566.477	13043.64
566.839	12975.62
567.201	13129.97
567.563	13140.13
567.925	13304.88
568.287	13292.9
568.648	13313.24
569.01	13331.77
569.372	13457.87
569.734	13389.39
570.095	13418.77
570.457	13602.72
570.819	13611.31
571.18	13661.02
571.542	13576.28
571.903	13659.22
572.265	13784.41
572.626	13850.62
572.987	13901.02
573.349	13916.84
573.71	13916.39
574.071	13914.58
574.432	14019.66
574.794	14136.04
575.155	14064.4
575.516	13968.36
575.877	14112.54
576.238	14204.74
576.599	14219.43
576.96	14153.22
577.32	14294.45
577.681	14325.41
578.042	14374.68
578.403	14419.88
578.763	14369.48
579.124	14405.19
579.485	14450.61
579.845	14514.11
580.206	14454
580.566	14552.07
580.927	14510.04
581.287	14648.8
581.648	14562.7
582.008	14599.98
582.368	14623.71
582.728	14741
583.089	14600.21
583.449	14752.97
583.809	14705.74
584.169	14650.38
584.529	14735.35
584.889	14821.45
585.249	14670.72
585.609	14629.14
585.969	14733.31
586.329	14721.79
586.688	14817.15
587.048	14722.69
587.408	14735.12
587.768	14779.41
588.127	14775.8
588.487	14841.11
588.846	14922.69
589.206	14793.42
589.565	14842.91
589.925	14916.81
590.284	14846.98
590.643	14953.19
591.003	14980.31
591.362	14967.88
591.721	14951.16
592.08	14876.13
592.44	15066.41
592.799	15049.69
593.158	14969.69
593.517	15019.86
593.876	15052.85
594.235	14975.57
594.593	15041.1
594.952	15030.48
595.311	15016.02
595.67	15067.54
596.029	15133.08
596.387	15145.73
596.746	15222.79
597.104	14996.81
597.463	15099.86
597.822	15214.66
598.18	15139.4
598.538	15114.77
598.897	15218.95
599.255	15132.17
599.613	15303.02
599.972	15253.3
600.33	15296.46
600.688	15205.17
601.046	15271.6
601.404	15298.27
601.762	15212.4
602.12	15364.71
602.478	15314.54
602.836	15317.03
603.194	15279.51
603.552	15352.73
603.91	15234.09
604.268	15309.12
604.625	15289.91
604.983	15351.38
605.341	15311.15
605.698	15363.35
606.056	15476.12
606.413	15409.91
606.771	15450.81
607.128	15477.7
607.485	15412.39
607.843	15378.72
608.2	15522.67
608.557	15625.27
608.914	15541.2
609.272	15521.09
609.629	15526.96
609.986	15601.99
610.343	15565.83
610.7	15688.99
611.057	15670.46
611.414	15721.08
611.771	15628.43
612.127	15710.69
612.484	15739.39
612.841	15838.14
613.198	15725.6
613.554	15769.9
613.911	15860.52
614.267	15863.45
614.624	15721.54
614.98	15865.71
615.337	15854.87
615.693	15918.14
616.05	15865.26
616.406	16021.87
616.762	15897.8
617.118	15924.02
617.475	16018.48
617.831	16040.62
618.187	16038.59
618.543	16103.9
618.899	16104.8
619.255	16065.03
619.611	16143.45
619.967	16039.04
620.323	16114.75
620.678	16207.62
621.034	16114.52
621.39	16123.33
621.746	16160.85
622.101	16266.38
622.457	16143.45
622.812	16140.51
623.168	16297.11
623.523	16189.55
623.879	16362.2
624.234	16241.3
624.589	16204.91
624.945	16300.28
625.3	16339.82
625.655	16382.54
626.01	16314.97
626.365	16356.32
626.72	16363.55
627.075	16366.94
627.43	16387.73
627.785	16297.79
628.14	16370.78
628.495	16449.43
628.85	16441.29
629.205	16389.77
629.559	16506.15
629.914	16433.16
630.269	16417.11
630.623	16341.41
630.978	16375.3
631.332	16544.34
631.687	16513.83
632.041	16423.44
632.396	16451.23
632.75	16447.62
633.104	16452.14
633.459	16470.22
633.813	16452.82
634.167	16485.36
634.521	16472.93
634.875	16609.42
635.229	16548.18
635.583	16456.88
635.937	16556.77
636.291	16600.16
636.645	16505.24
636.999	16517.22
637.352	16607.84
637.706	16520.84
638.06	16551.8
638.413	16624.56
638.767	16576.43
639.121	16525.13
639.474	16591.57
639.828	16608.74
640.181	16646.94
640.534	16625.01
640.888	16620.95
641.241	16595.86
641.594	16634.96
641.947	16660.72
642.301	16655.07
642.654	16664.79
643.007	16726.48
643.36	16766.03
643.713	16725.8
644.066	16795.63
644.419	16628.86
644.771	16548.18
645.124	16445.81
645.477	16432.93
645.83	16281.52
646.182	16266.83
646.535	16274.06
646.888	16440.39
647.24	16319.71
647.593	16471.8
647.945	16422.08
648.298	16466.15
648.65	16324.68
649.002	16339.6
649.355	16453.49
649.707	16354.51
650.059	16396.09
650.411	16653.71
650.763	16716.31
651.115	16927.38
651.467	16844.9
651.819	16877.89
652.171	16907.49
652.523	16854.39
652.875	16967.83
653.227	16808.51
653.578	17031.56
653.93	16886.93
654.282	16869.98
654.633	16872.24
654.985	16965.57
655.337	17011.45
655.688	16961.73
656.039	17106.58
656.391	17027.72
656.742	17016.42
657.094	16957.89
657.445	16991.78
657.796	17003.54
658.147	17012.12
658.498	16992.01
658.849	17100.48
659.2	17137.32
659.551	17109.07
659.902	17118.34
660.253	17096.64
660.604	17073.14
660.955	17012.12
661.306	17165.79
661.656	17132.35
662.007	17156.75
662.358	17110.88
662.708	17103.87
663.059	17142.74
663.409	17021.61
663.76	17235.39
664.11	17224.1
664.461	17099.8
664.811	17090.31
665.161	17143.42
665.511	17074.27
665.862	17128.73
666.212	17199.01
666.562	17166.47
666.912	17125.57
667.262	17063.2
667.612	17067.49
667.962	17125.11
668.312	17110.88
668.662	17151.78
669.011	16982.75
669.361	17073.59
669.711	17050.54
670.06	17051.67
670.41	16979.13
670.76	16912.69
671.109	17109.52
671.459	16938.9
671.808	16862.52
672.157	16951.56
672.507	16867.95
672.856	16864.1
673.205	16836.53
673.554	16788.4
673.904	16758.12
674.253	16844.44
674.602	16779.81
674.951	16580.72
675.3	16368.52
675.649	16681.28
675.998	16611.46
676.346	16647.16
676.695	16638.8
677.044	16517
677.393	16516.32
677.741	16607.84
678.09	16542.08
678.438	16468.41
678.787	16427.28
679.135	16543.44
679.484	16396.55
679.832	16423.44
680.181	16309.32
680.529	16304.12
680.877	16275.65
681.225	16173.73
681.573	16323.55
681.922	16153.16
682.27	16152.03
682.618	16224.57
682.966	16080.62
683.314	16157.46
683.661	16001.53
684.009	15941.64
684.357	16069.78
684.705	15959.04
685.053	15989.55
685.4	15971.47
685.748	15892.38
686.095	15899.38
686.443	15851.25
686.79	15704.14
687.138	15794.53
687.485	15820.52
687.832	15719.5
688.18	15730.12
688.527	15646.28
688.874	15682.89
689.221	15672.5
689.568	15596.12
689.915	15595.21
690.262	15559.51
690.609	15482.45
690.956	15460.53
691.303	15471.6
691.65	15443.13
691.997	15441.09
692.344	15315.44
692.69	15312.28
693.037	15322
693.383	15201.78
693.73	15204.94
694.077	15172.62
694.423	15305.73
694.769	15104.38
695.116	15126.07
695.462	15150.03
695.808	15098.73
696.155	15133.98
696.501	15048.33
696.847	15069.8
697.193	15013.53
697.539	15051.04
697.885	14961.1
698.231	14893.08
698.577	14905.06
698.923	14906.19
699.269	14880.2
699.614	14803.37
699.96	14740.32
700.306	14781
700.651	14695.12
700.997	14706.87
701.342	14713.65
701.688	14712.3
702.033	14642.92
702.379	14638.17
702.724	14607.67
703.069	14677.5
703.415	14449.25
703.76	14506.2
704.105	14487.9
704.45	14515.92
704.795	14446.54
705.14	14447.22
705.485	14489.93
705.83	14431.17
706.175	14415.13
706.52	14474.11
706.865	14343.49
707.209	14340.1
707.554	14355.47
707.899	14346.2
708.243	14241.35
708.588	14291.29
708.932	14246.55
709.277	14247.45
709.621	14221.91
709.966	14141.69
710.31	14241.35
710.654	14094.01
710.998	14180.56
711.342	14112.54
711.687	14154.12
712.031	14140.56
712.375	13998.42
712.719	14138.98
713.063	14115.25
713.407	14103.73
713.75	14097.85
714.094	14046.33
714.438	14025.54
714.782	14006.1
715.125	14045.65
715.469	14091.52
715.812	13983.73
716.156	13929.72
716.499	13933.11
716.843	13958.87
717.186	13958.87
717.53	14018.3
717.873	14021.69
718.216	13970.4
718.559	13927.46
718.902	13792.32
719.246	13910.74
719.589	13879.32
719.932	13764.07
720.275	13880.23
720.617	13822.6
720.96	13791.87
721.303	13745.32
721.646	13812.43
721.989	13748.93
722.331	13753.9
722.674	13724.75
723.016	13795.03
723.359	13718.42
723.701	13759.55
724.044	13764.53
724.386	13635.04
724.729	13693.11
725.071	13677.75
725.413	13680.69
725.755	13715.26
726.097	13660.35
726.439	13605.43
726.782	13721.81
727.124	13669.16
727.465	13675.49
727.807	13683.17
728.149	13680.01
728.491	13581.93
728.833	13704.87
729.175	13625.77
729.516	13693.34
729.858	13597.98
730.199	13593.46
730.541	13585.77
730.882	13581.48
731.224	13739.44
731.565	13575.15
731.906	13617.64
732.248	13624.19
732.589	13636.39
732.93	13619.22
733.271	13632.33
733.612	13690.4
733.953	13614.47
734.294	13642.04
734.635	13561.14
734.976	13636.84
735.317	13676.39
735.658	13592.1
735.999	13580.35
736.339	13677.52
736.68	13714.13
737.021	13699.44
737.361	13605.89
737.702	13786.22
738.042	13698.76
738.383	13832.32
738.723	13813.56
739.063	13710.74
739.404	13798.2
739.744	13805.43
740.084	13804.3
740.424	13817.86
740.764	13808.59
741.104	13861.25
741.444	13823.73
741.784	13938.53
742.124	13939.21
742.464	13888.82
742.804	13955.03
743.143	13988.25
743.483	14023.73
743.823	13995.48
744.162	14042.71
744.502	14067.79
744.841	14153.22
745.181	14118.41
745.52	14122.93
745.86	14137.17
746.199	14089.94
746.538	14147.34
746.877	14294.68
747.216	14219.43
747.556	14232.08
747.895	14279.77
748.234	14331.52
748.573	14309.82
748.911	14304.4
749.25	14277.05
749.589	14295.58
749.928	14388.92
750.267	14364.74
750.605	14417.16
750.944	14501.23
751.283	14507.1
751.621	14545.97
751.96	14428.91
752.298	14558.4
752.636	14571.28
752.975	14550.72
753.313	14583.94
753.651	14586.42
753.989	14626.2
754.327	14602.02
754.666	14646.31
755.004	14622.81
755.342	14734.22
755.679	14735.57
756.017	14728.34
756.355	14760.66
