Data from blue_shiny_book_FLMS001491_00091.txt Node
Date: Wed Feb 08 15:27:47 GMT 2017
User: dcchb
Spectrometer: FLMS00149
Trigger mode: 0
Integration Time (sec): 2.000000E-2
Scans to average: 10
Electric dark correction enabled: true
Nonlinearity correction enabled: false
Boxcar width: 0
XAxis mode: Wavelengths
Number of Pixels in Spectrum: 2048
>>>>>Begin Spectral Data<<<<<
341.393	-13.25
341.776	-13.25
342.16	-13.25
342.543	-68.84
342.927	-60.7
343.31	-84.66
343.693	-62.96
344.077	-64.77
344.46	-55.73
344.843	-49.18
345.226	-48.05
345.61	-22.06
345.993	-29.29
346.376	5.96
346.759	17.03
347.142	20.65
347.525	36.92
347.908	50.93
348.291	79.4
348.674	93.64
349.057	112.17
349.44	126.41
349.823	139.97
350.206	168.67
350.588	176.13
350.971	226.07
351.354	243.92
351.737	234.2
352.119	261.32
352.502	278.95
352.884	275.78
353.267	297.7
353.65	290.25
354.032	310.81
354.414	287.53
354.797	325.73
355.179	319.85
355.562	321.21
355.944	328.44
356.326	342.67
356.709	348.1
357.091	348.32
357.473	356.01
357.855	338.15
358.238	343.35
358.62	349.91
359.002	354.88
359.384	351.04
359.766	351.04
360.148	358.27
360.53	340.41
360.912	337.03
361.294	322.79
361.676	323.47
362.057	339.96
362.439	331.15
362.821	331.6
363.203	340.64
363.584	311.04
363.966	320.3
364.348	305.16
364.729	332.96
365.111	328.89
365.493	330.47
365.874	323.47
366.256	318.27
366.637	326.86
367.019	327.08
367.4	297.93
367.781	325.05
368.163	324.37
368.544	337.03
368.925	326.63
369.306	324.14
369.688	323.01
370.069	324.37
370.45	312.62
370.831	323.92
371.212	317.36
371.593	323.92
371.974	322.56
372.355	336.8
372.736	325.27
373.117	328.44
373.498	330.02
373.879	320.08
374.26	311.49
374.641	309
375.021	316.01
375.402	334.54
375.783	342.67
376.163	343.13
376.544	320.98
376.925	341.09
377.305	333.86
377.686	368.66
378.066	339.06
378.447	355.78
378.827	342
379.208	342.67
379.588	339.74
379.968	327.76
380.349	357.59
380.729	350.81
381.109	351.26
381.489	345.39
381.87	366.18
382.25	364.59
382.63	374.09
383.01	363.24
383.39	384.26
383.77	358.49
384.15	386.29
384.53	391.49
384.91	376.12
385.29	382.67
385.67	380.87
386.049	412.5
386.429	398.49
386.809	386.74
387.189	403.24
387.568	382.45
387.948	408.44
388.328	393.52
388.707	402.33
389.087	389.45
389.466	413.63
389.846	413.63
390.225	416.8
390.605	421.09
390.984	438.27
391.363	425.61
391.743	451.82
392.122	418.83
392.501	424.93
392.881	450.24
393.26	457.47
393.639	459.73
394.018	454.54
394.397	444.59
394.776	460.64
395.155	430.36
395.534	468.55
395.913	469.9
396.292	471.03
396.671	476.68
397.05	464.25
397.429	478.72
397.808	477.59
398.186	461.99
398.565	477.13
398.944	483.01
399.323	483.01
399.701	490.69
400.08	512.16
400.458	510.35
400.837	492.05
401.215	512.84
401.594	488.43
401.972	514.42
402.351	517.36
402.729	549.9
403.107	537.92
403.486	528.21
403.864	528.43
404.242	536.79
404.62	541.54
404.999	574.08
405.377	591.93
405.755	584.48
406.133	551.48
406.511	578.15
406.889	601.42
407.267	603.91
407.645	614.98
408.023	628.77
408.401	626.28
408.779	594.65
409.156	643.68
409.534	641.65
409.912	640.75
410.29	652.95
410.667	680.29
411.045	669.9
411.422	670.8
411.8	672.16
412.178	685.94
412.555	701.31
412.933	723
413.31	736.79
413.687	762.1
414.065	745.83
414.442	740.4
414.819	748.77
415.197	755.09
415.574	768.43
415.951	791.25
416.328	800.74
416.705	817.92
417.082	790.12
417.46	810.01
417.837	833.51
418.214	838.93
418.591	852.72
418.967	837.35
419.344	841.42
419.721	862.21
420.098	875.09
420.475	868.99
420.852	864.02
421.228	881.64
421.605	914.64
421.982	922.77
422.358	924.13
422.735	952.83
423.111	931.36
423.488	978.82
423.864	949.66
424.241	977.69
424.617	993.96
424.994	1015.88
425.37	1014.07
425.746	1010.45
426.123	1039.38
426.499	1035.54
426.875	1059.27
427.251	1070.57
427.627	1095.42
428.003	1100.62
428.379	1125.7
428.756	1129.09
429.132	1140.85
429.507	1151.92
429.883	1144.46
430.259	1151.24
430.635	1195.08
431.011	1216.55
431.387	1236.21
431.763	1247.06
432.138	1272.82
432.514	1287.06
432.89	1282.99
433.265	1325.93
433.641	1324.12
434.016	1345.36
434.392	1376.77
434.767	1391.46
435.143	1411.12
435.518	1416.54
435.894	1427.17
436.269	1425.81
436.644	1483.44
437.02	1497.67
437.395	1515.07
437.77	1529.54
438.145	1553.94
438.52	1550.78
438.895	1546.03
439.271	1597.56
439.646	1640.72
440.021	1650.21
440.395	1636.88
440.77	1643.21
441.145	1652.7
441.52	1740.38
441.895	1726.59
442.27	1722.07
442.645	1691.57
443.019	1738.8
443.394	1733.15
443.769	1800.72
444.143	1765.01
444.518	1790.09
444.892	1792.58
445.267	1823.77
445.641	1826.25
446.016	1851.34
446.39	1887.27
446.764	1885.23
447.139	1886.81
447.513	1883.2
447.887	1913.71
448.262	1922.07
448.636	1928.17
449.01	1971.33
449.384	1972.24
449.758	1984.21
450.132	2029.64
450.506	2019.69
450.88	2016.75
451.254	2078.67
451.628	2110.54
452.002	2107.83
452.376	2134.72
452.75	2151.44
453.123	2119.8
453.497	2176.75
453.871	2191.21
454.244	2245.45
454.618	2285.45
454.992	2330.64
455.365	2324.32
455.739	2387.82
456.112	2378.33
456.486	2432.11
456.859	2430.08
457.232	2508.27
457.606	2499
457.979	2567.25
458.352	2577.19
458.725	2614.25
459.099	2656.74
459.472	2701.26
459.845	2724.98
460.218	2746.45
460.591	2729.5
460.964	2757.75
461.337	2848.6
461.71	2899.44
462.083	2970.4
462.456	2959.55
462.829	2963.4
463.201	3005.88
463.574	3045.2
463.947	3065.09
464.32	3171.75
464.692	3145.09
465.065	3207.46
465.438	3244.52
465.81	3274.12
466.183	3325.87
466.555	3416.72
466.928	3402.93
467.3	3451.75
467.672	3523.38
468.045	3578.75
468.417	3620.1
468.789	3592.08
469.161	3641.8
469.534	3739.65
469.906	3812.41
470.278	3829.81
470.65	3890.38
471.022	3908.91
471.394	4025.06
471.766	4032.3
472.138	4115.23
472.51	4192.97
472.882	4282.01
473.253	4306.41
473.625	4373.76
473.997	4436.8
474.369	4540.53
474.74	4503.47
475.112	4608.33
475.484	4674.99
475.855	4811.71
476.227	4834.76
476.598	4949.79
476.97	4987.98
477.341	5090.35
477.713	5209.67
478.084	5282.88
478.455	5356.33
478.827	5448.76
479.198	5595.64
479.569	5631.58
479.94	5745.47
480.311	5776.88
480.682	5928.74
481.053	6028.17
481.424	6121.96
481.795	6221.39
482.166	6330.09
482.537	6374.15
482.908	6539.57
483.279	6579.57
483.65	6735.5
484.021	6875.84
484.391	6941.82
484.762	7006
485.133	7091.42
485.503	7177.07
485.874	7357.63
486.244	7440.12
486.615	7550.85
486.985	7615.7
487.356	7735.47
487.726	7862.48
488.097	8018.63
488.467	8044.62
488.837	8229.25
489.207	8307.89
489.578	8486.87
489.948	8551.05
490.318	8680.53
490.688	8722.12
491.058	8923.69
491.428	9072.39
491.798	9126.4
492.168	9375.66
492.538	9375.43
492.908	9457.24
493.278	9616.56
493.648	9614.52
494.017	9678.47
494.387	9732.48
494.757	9869.66
495.126	9947.39
495.496	10063.32
495.866	10116.65
496.235	10320.94
496.605	10440.49
496.974	10405.46
497.344	10673.7
497.713	10700.14
498.082	10787.15
498.452	10882.28
498.821	10886.35
499.19	10993.47
499.559	11105.33
499.928	11115.5
500.298	11232.33
500.667	11283.18
501.036	11295.61
501.405	11434.36
501.774	11544.19
502.143	11552.1
502.512	11690.4
502.88	11821.47
503.249	11815.82
503.618	11946.44
503.987	12086.77
504.356	12158.64
504.724	12284.28
505.093	12331.51
505.462	12360.66
505.83	12372.87
506.199	12421.68
506.567	12531.96
506.936	12525.86
507.304	12734.44
507.672	12790.03
508.041	12920.42
508.409	12958.16
508.777	13025.96
509.145	13151.15
509.514	13329.9
509.882	13419.17
510.25	13557.47
510.618	13594.08
510.986	13717.46
511.354	13804.69
511.722	13978.7
512.09	14051.24
512.458	14022.09
512.826	14208.3
513.193	14181.63
513.561	14167.85
513.929	14315.19
514.297	14462.76
514.664	14528.06
515.032	14488.07
515.4	14707.95
515.767	14950.65
516.135	14966.47
516.502	14860.26
516.869	15269.29
517.237	15300.25
517.604	15376.18
517.972	15568.94
518.339	15631.76
518.706	15718.32
519.073	15804.87
519.44	15721.25
519.808	16006.9
520.175	15880.12
520.542	16128.47
520.909	16128.47
521.276	16191.98
521.643	16331.63
522.009	16455.92
522.376	16665.41
522.743	16765.75
523.11	16887.55
523.477	17093.19
523.843	17249.8
524.21	17490.92
524.577	17607.31
524.943	17757.81
525.31	17885.49
525.676	17990.35
526.043	18137.01
526.409	18125.03
526.776	18260.85
527.142	18297.91
527.508	18462.88
527.874	18493.84
528.241	18600.5
528.607	18528.86
528.973	18751.68
529.339	18817.67
529.705	19017.21
530.071	19218.34
530.437	19345.79
530.803	19546.01
531.169	19844.99
531.535	19756.18
531.901	19848.15
532.267	20115.26
532.632	20251.08
532.998	20185.77
533.364	20309.16
533.73	20452.2
534.095	20515.25
534.461	20580.79
534.826	20580.56
535.192	20632.76
535.557	20732.42
535.923	20656.04
536.288	20847.67
536.653	20931.96
537.019	20822.81
537.384	20985.52
537.749	21217.38
538.114	21306.87
538.479	21457.37
538.845	21585.51
539.21	21590.25
539.575	21764.94
539.94	21790.92
540.305	22023.01
540.67	21887.87
541.034	22007.64
541.399	22157.69
541.764	22072.27
542.129	22151.37
542.494	22076.79
542.858	22294.64
543.223	22212.83
543.587	22301.65
543.952	22320.85
544.316	22329.67
544.681	22367.18
545.045	22502.09
545.41	22675.65
545.774	22590
546.138	22668.87
546.503	22853.27
546.867	22865.25
547.231	23240.15
547.595	23176.2
547.959	23237.67
548.324	23235.41
548.688	23365.35
549.052	23584.32
549.416	23575.96
549.779	23552.01
550.143	23403.31
550.507	23506.36
550.871	23538
551.235	23478.34
551.599	23680.59
551.962	23593.59
552.326	23635.85
552.689	23768.05
553.053	23681.72
553.417	23743.42
553.78	24148.6
554.143	24024.76
554.507	24318.09
554.87	24309.95
555.234	24653.9
555.597	24529.84
555.96	24741.58
556.323	24884.63
556.686	24806.44
557.05	24947.68
557.413	24985.42
557.776	24977.96
558.139	25150.84
558.502	25042.59
558.865	25109.93
559.228	25076.49
559.59	25207.33
559.953	25148.8
560.316	25444.16
560.679	25469.47
561.041	25671.73
561.404	25729.13
561.767	25835.34
562.129	25810.93
562.492	26176.8
562.854	26167.98
563.217	26247.98
563.579	26478.71
563.941	26696.33
564.304	26831.24
564.666	27005.02
565.028	26934.07
565.39	27146.49
565.753	27188.3
566.115	27206.38
566.477	27366.82
566.839	27169.09
567.201	27398.01
567.563	27376.31
567.925	27463.32
568.287	27503.32
568.648	27477.78
569.01	27565.91
569.372	27653.82
569.734	27592.35
570.095	27941.04
570.457	27978.33
570.819	27913.93
571.18	28153.92
571.542	28405.67
571.903	28457.64
572.265	28640.01
572.626	28715.04
572.987	28806.56
573.349	28986.67
573.71	29109.15
574.071	29044.97
574.432	29237.51
574.794	29323.83
575.155	29188.02
575.516	29145.08
575.877	29225.53
576.238	29258.07
576.599	29280.9
576.96	29162.26
577.32	29353.89
577.681	29424.17
578.042	29477.73
578.403	29404.06
578.763	29529.48
579.124	29531.51
579.485	29796.14
579.845	29911.16
580.206	29884.72
580.566	29998.62
580.927	30002.91
581.287	30272.28
581.648	30242.91
582.008	30439.74
582.368	30277.25
582.728	30500.53
583.089	30512.5
583.449	30425.27
583.809	30367.87
584.169	30434.54
584.529	30394.09
584.889	30557.47
585.249	30356.35
585.609	30215.34
585.969	30481.54
586.329	30335.56
586.688	30234.77
587.048	30246.52
587.408	30269.8
587.768	30321.77
588.127	30198.39
588.487	30339.17
588.846	30607.19
589.206	30448.78
589.565	30369.68
589.925	30749.78
590.284	30440.41
590.643	30707.98
591.003	30870.23
591.362	30931.47
591.721	30966.28
592.08	31121.75
592.44	31150.45
592.799	31118.59
593.158	31022.55
593.517	31016.44
593.876	30986.39
594.235	30975.54
594.593	30960.63
594.952	30920.85
595.311	30787.3
595.67	30957.24
596.029	31109.1
596.387	31007.41
596.746	31013.73
597.104	30774.87
597.463	30710.92
597.822	30899.84
598.18	30937.35
598.538	30849.22
598.897	31055.77
599.255	30837.01
599.613	31437.22
599.972	31284.01
600.33	31353.61
600.688	31289.21
601.046	31593.15
601.404	31613.49
601.762	31613.49
602.12	31618.24
602.478	31613.94
602.836	31666.6
603.194	31604.9
603.552	31611.68
603.91	31572.36
604.268	31665.24
604.625	31412.59
604.983	31505.47
605.341	31324.46
605.698	31394.51
606.056	31505.02
606.413	31482.19
606.771	31593.38
607.128	31606.49
607.485	31452.82
607.843	31646.26
608.2	31750.21
608.557	31959.7
608.914	31735.75
609.272	32090.09
609.629	31983.2
609.986	32206.92
610.343	31943.2
610.7	32229.52
611.057	32383.64
611.414	32446.69
611.771	32371.44
612.127	32568.95
612.484	32601.04
612.841	32589.96
613.198	32514.03
613.554	32587.25
613.911	32853.91
614.267	32709.73
614.624	32509.96
614.98	32645.78
615.337	32770.75
615.693	32626.12
616.05	32586.8
616.406	32784.99
616.762	32551.55
617.118	32553.35
617.475	32517.65
617.831	32559.45
618.187	32603.07
618.543	32691.65
618.899	32921.25
619.255	32801.48
619.611	32936.62
619.967	33059.1
620.323	33026.79
620.678	33029.5
621.034	33055.71
621.39	33207.12
621.746	33139.1
622.101	33510.62
622.457	33248.48
622.812	33495.93
623.168	33393.11
623.523	33347.91
623.879	33541.58
624.234	33217.97
624.589	33389.49
624.945	33383.16
625.3	33421.35
625.655	33444.86
626.01	33329.38
626.365	33314.91
626.72	33338.19
627.075	33246.22
627.43	33135.48
627.785	33072.21
628.14	33086.9
628.495	33160.12
628.85	33058.88
629.205	32693.91
629.559	33018.65
629.914	32924.19
630.269	32916.96
630.623	32960.35
630.978	33027.01
631.332	33111.53
631.687	33146.78
632.041	33055.71
632.396	33111.08
632.75	33098.65
633.104	33218.19
633.459	33101.81
633.813	33024.3
634.167	33067.92
634.521	32971.87
634.875	33129.61
635.229	32953.34
635.583	32908.82
635.937	33012.78
636.291	32833.8
636.645	32870.86
636.999	32611.43
637.352	32717.87
637.706	32649.62
638.06	32549.96
638.413	32606.69
638.767	32453.24
639.121	32383.64
639.474	32182.97
639.828	32174.83
640.181	32299.8
640.534	32190.2
640.888	31952.92
641.241	31910.88
641.594	32027.04
641.947	32122.86
642.301	32098.9
642.654	32106.36
643.007	32255.73
643.36	32189.29
643.713	32205.57
644.066	32280.14
644.419	32196.75
644.771	32119.47
645.124	32067.72
645.477	32124.21
645.83	31889.42
646.182	31691.45
646.535	31382.54
646.888	31269.32
647.24	30954.07
647.593	31076.33
647.945	30943.23
648.298	30767.19
648.65	30721.54
649.002	30675.66
649.355	30880.63
649.707	30732.38
650.059	31094.41
650.411	31481.06
650.763	31439.26
651.115	31590.21
651.467	31403.33
651.819	31379.15
652.171	31253.27
652.523	31204.01
652.875	31239.94
653.227	31171.92
653.578	31466.83
653.93	31403.78
654.282	31308.64
654.633	31215.99
654.985	31304.8
655.337	31497.34
655.688	31401.07
656.039	31434.96
656.391	31349.77
656.742	31502.08
657.094	31709.99
657.445	31668.4
657.796	31707.05
658.147	31488.75
658.498	31515.19
658.849	31588.41
659.2	31609.65
659.551	31448.3
659.902	31545.7
660.253	31480.84
660.604	31559.48
660.955	31297.79
661.306	31242.88
661.656	31169.66
662.007	31223.44
662.358	30980.06
662.708	31093.05
663.059	31149.77
663.409	30771.48
663.76	31010.79
664.11	30854.64
664.461	30932.83
664.811	30799.5
665.161	30801.99
665.511	30797.24
665.862	30905.71
666.212	30985.03
666.562	30962.21
666.912	30917.92
667.262	31136.89
667.612	31046.27
667.962	31192.94
668.312	31199.72
668.662	31371.69
669.011	31362.65
669.361	31376.21
669.711	31373.5
670.06	31215.31
670.41	31197.68
670.76	31093.96
671.109	31328.75
671.459	31242.2
671.808	31067.74
672.157	31097.12
672.507	30904.36
672.856	30966.73
673.205	30929.89
673.554	30814.19
673.904	30687.19
674.253	30870.23
674.602	30574.65
674.951	30168.33
675.3	29963.59
675.649	30518.38
675.998	30430.02
676.346	30269.12
676.695	30359.29
677.044	30110.71
677.393	30094.66
677.741	30166.98
678.09	30256.01
678.438	30158.61
678.787	30091.04
679.135	30193.42
679.484	29870.03
679.832	30203.36
680.181	30035.23
680.529	30175.79
680.877	30277.71
681.225	30288.78
681.573	30429.79
681.922	30250.14
682.27	30147.99
682.618	30208.56
682.966	30104.6
683.314	30180.76
683.661	30105.51
684.009	29940.54
684.357	29764.73
684.705	29867.55
685.053	29779.19
685.4	29605.86
685.748	29510.95
686.095	29369.93
686.443	29315.47
686.79	29298.07
687.138	29269.15
687.485	29184.63
687.832	29018.08
688.18	28938.31
688.527	28654.47
688.874	28673.23
689.221	28530.41
689.568	28532.67
689.915	28433.91
690.262	28353.01
690.609	28363.63
690.956	28199.34
691.303	28138.1
691.65	28021.95
691.997	28169.51
692.344	27811.1
692.69	27969.52
693.037	27835.51
693.383	27654.95
693.73	27848.62
694.077	27759.13
694.423	27857.43
694.769	27686.59
695.116	27577.89
695.462	27488.4
695.808	27570.43
696.155	27666.7
696.501	27466.03
696.847	27479.36
697.193	27227.17
697.539	27283.66
697.885	27111.46
698.231	26865.82
698.577	26901.07
698.923	26831.7
699.269	26751.47
699.614	26587.41
699.96	26463.8
700.306	26436
700.651	26251.15
700.997	26042.56
701.342	25957.14
701.688	25773.42
702.033	25791.05
702.379	25708.56
702.724	25432.18
703.069	25618.62
703.415	25313.77
703.76	25252.98
704.105	25341.11
704.45	25260.21
704.795	25093.89
705.14	25071.29
705.485	25041.23
705.83	24958.75
706.175	24954.23
706.52	24982.03
706.865	24957.17
707.209	25100.44
707.554	25017.73
707.899	25081.01
708.243	24863.16
708.588	24895.25
708.932	24818.64
709.277	24824.29
709.621	24976.83
709.966	24765.54
710.31	24783.61
710.654	24494.13
710.998	24589.95
711.342	24526.22
711.687	24533.68
712.031	24248.71
712.375	24277.86
712.719	24244.42
713.063	24093.69
713.407	24224.53
713.75	24015.27
714.094	23905.9
714.438	23758.78
714.782	23706.81
715.125	23561.05
715.469	23533.48
715.812	23410.54
716.156	23357.66
716.499	23179.36
716.843	23245.58
717.186	23182.53
717.53	23297.33
717.873	23233.37
718.216	23091
718.559	23073.15
718.902	22901.86
719.246	23065.47
719.589	22968.07
719.932	23100.27
720.275	23083.32
720.617	22969.42
720.96	23008.29
721.303	22958.13
721.646	23102.08
721.989	23059.14
722.331	23176.2
722.674	23091.91
723.016	23224.56
723.359	23137.33
723.701	23185.46
724.044	23049.2
724.386	22881.74
724.729	22994.96
725.071	22934.62
725.413	22993.83
725.755	22954.28
726.097	22808.07
726.439	22781.18
726.782	22670.45
727.124	22731.92
727.465	22552.26
727.807	22533.96
728.149	22511.13
728.491	22486.95
728.833	22465.48
729.175	22447.63
729.516	22317.92
729.858	22381.64
730.199	22448.53
730.541	22441.98
730.882	22365.15
731.224	22324.47
731.565	22142.78
731.906	22204.92
732.248	22165.15
732.589	22088.32
732.93	21970.13
733.271	22107.07
733.612	22182.55
733.953	22283.11
734.294	22087.19
734.635	22099.62
734.976	22248.77
735.317	22059.17
735.658	22217.13
735.999	22295.32
736.339	22251.93
736.68	22394.3
737.021	22314.07
737.361	22195.43
737.702	22327.18
738.042	22322.89
738.383	22307.07
738.723	22374.41
739.063	22381.87
739.404	22449.44
739.744	22491.47
740.084	22500.06
740.424	22577.34
740.764	22421.42
741.104	22558.81
741.444	22388.42
741.784	22321.31
742.124	22364.02
742.464	22357.91
742.804	22332.6
743.143	22375.54
743.483	22289.22
743.823	22227.97
744.162	22203.79
744.502	22244.7
744.841	22198.37
745.181	22304.81
745.52	22201.31
745.86	22249.9
746.199	22162.44
746.538	22162.44
746.877	22221.42
747.216	22288.76
747.556	22215.77
747.895	22259.84
748.234	22233.17
748.573	22282.44
748.911	22357.46
749.25	22392.04
749.589	22299.16
749.928	22401.98
750.267	22473.17
750.605	22428.65
750.944	22480.85
751.283	22585.03
751.621	22581.19
751.96	22530.79
752.298	22786.6
752.636	22651.92
752.975	22686.49
753.313	22691.01
753.651	22800.84
753.989	22775.53
754.327	22796.32
