Data from blue_clamp_base_FLMS001491_00008.txt Node
Date: Wed Feb 08 15:15:29 GMT 2017
User: dcchb
Spectrometer: FLMS00149
Trigger mode: 0
Integration Time (sec): 2.000000E-2
Scans to average: 10
Electric dark correction enabled: true
Nonlinearity correction enabled: false
Boxcar width: 0
XAxis mode: Wavelengths
Number of Pixels in Spectrum: 2048
>>>>>Begin Spectral Data<<<<<
341.393	-11.58
341.776	-11.58
342.16	-11.58
342.543	-50.22
342.927	-56.1
343.31	-81.18
343.693	-67.4
344.077	-64.69
344.46	-53.39
344.843	-31.02
345.226	-31.69
345.61	-54.07
345.993	-24.01
346.376	5.59
346.759	3.79
347.142	29.77
347.525	31.58
347.908	63.9
348.291	70.68
348.674	87.85
349.057	114.29
349.44	143.89
349.823	166.27
350.206	160.39
350.588	160.62
350.971	218.69
351.354	235.42
351.737	245.81
352.119	245.13
352.502	259.15
352.884	274.74
353.267	287.85
353.65	310.67
354.032	291.46
354.414	309.09
354.797	314.06
355.179	322.42
355.562	321.52
355.944	333.95
356.326	334.17
356.709	338.92
357.091	333.95
357.473	345.7
357.855	338.24
358.238	334.85
358.62	334.17
359.002	339.14
359.384	326.49
359.766	359.93
360.148	359.26
360.53	317.68
360.912	340.73
361.294	330.1
361.676	341.18
362.057	336.43
362.439	349.09
362.821	342.31
363.203	319.94
363.584	337.56
363.966	322.19
364.348	301.18
364.729	321.97
365.111	322.65
365.493	316.09
365.874	316.77
366.256	306.83
366.637	322.87
367.019	341.63
367.4	327.84
367.781	305.47
368.163	322.42
368.544	315.42
368.925	323.55
369.306	316.77
369.688	332.59
370.069	322.42
370.45	308.64
370.831	312.48
371.212	311.35
371.593	299.6
371.974	305.02
372.355	309.99
372.736	313.16
373.117	303.66
373.498	297.56
373.879	322.87
374.26	327.17
374.641	312.48
375.021	299.82
375.402	304.79
375.783	314.96
376.163	338.47
376.544	334.4
376.925	349.76
377.305	319.71
377.686	316.77
378.066	319.71
378.447	337.56
378.827	338.24
379.208	327.17
379.588	329.43
379.968	338.24
380.349	342.08
380.729	336.43
381.109	326.49
381.489	350.44
381.87	334.85
382.25	352.48
382.63	321.97
383.01	341.86
383.39	328.75
383.77	334.4
384.15	347.05
384.53	354.74
384.91	345.25
385.29	335.98
385.67	338.92
386.049	367.62
386.429	367.39
386.809	350.22
387.189	355.64
387.568	361.97
387.948	364.45
388.328	374.85
388.707	387.96
389.087	386.37
389.466	380.27
389.846	393.15
390.225	376.88
390.605	372.36
390.984	382.08
391.363	372.36
391.743	378.69
392.122	376.43
392.501	399.93
392.881	414.85
393.26	392.02
393.639	399.93
394.018	388.41
394.397	411.68
394.776	413.04
395.155	427.73
395.534	388.63
395.913	416.88
396.292	422.08
396.671	446.94
397.05	433.83
397.429	433.83
397.808	429.08
398.186	424.34
398.565	438.12
398.944	433.83
399.323	462.76
399.701	472.02
400.08	454.39
400.458	461.85
400.837	461.63
401.215	468.86
401.594	473.15
401.972	468.86
402.351	470.89
402.729	482.64
403.107	503.66
403.486	514.51
403.864	500.5
404.242	515.18
404.62	545.47
404.999	515.86
405.377	528.29
405.755	540.72
406.133	542.75
406.511	521.74
406.889	531.91
407.267	545.01
407.645	551.12
408.023	556.09
408.401	552.7
408.779	569.19
409.156	556.54
409.534	585.01
409.912	599.02
410.29	600.38
410.667	613.26
411.045	589.08
411.422	611.68
411.8	611
412.178	629.08
412.555	644.45
412.933	650.77
413.31	646.03
413.687	650.1
414.065	669.76
414.442	649.87
414.819	675.18
415.197	681.96
415.574	695.74
415.951	713.37
416.328	700.04
416.705	713.37
417.082	723.31
417.46	726.03
417.837	723.09
418.214	699.81
418.591	719.7
418.967	742.97
419.344	758.12
419.721	758.57
420.098	750.88
420.475	777.78
420.852	775.06
421.228	772.58
421.605	791.34
421.982	776.87
422.358	802.41
422.735	798.57
423.111	846.93
423.488	838.57
423.864	841.96
424.241	825.68
424.617	847.6
424.994	862.97
425.37	872.46
425.746	874.95
426.123	872.24
426.499	895.51
426.875	910.88
427.251	905.91
427.627	927.15
428.003	943.42
428.379	938.68
428.756	962.63
429.132	949.52
429.507	973.25
429.883	1002.63
430.259	1026.58
430.635	1007.15
431.011	1023.42
431.387	1045.11
431.763	1072.23
432.138	1049.63
432.514	1089.86
432.89	1079.01
433.265	1119.91
433.641	1096.86
434.016	1120.82
434.392	1143.42
434.767	1169.4
435.143	1161.04
435.518	1159.24
435.894	1184.32
436.269	1213.7
436.644	1223.87
437.02	1243.3
437.395	1252.34
437.77	1279.46
438.145	1287.59
438.52	1319.23
438.895	1309.97
439.271	1309.97
439.646	1333.47
440.021	1367.37
440.395	1353.81
440.77	1329.4
441.145	1352
441.52	1409.62
441.895	1390.19
442.27	1415.05
442.645	1392.22
443.019	1425.89
443.394	1427.48
443.769	1477.19
444.143	1463.63
444.518	1499.11
444.892	1477.19
445.267	1484.2
445.641	1515.84
446.016	1516.97
446.39	1524.65
446.764	1556.29
447.139	1538.89
447.513	1562.39
447.887	1575.5
448.262	1594.7
448.636	1599.22
449.01	1625.44
449.384	1634.48
449.758	1626.12
450.132	1662.72
450.506	1679.45
450.88	1644.65
451.254	1682.84
451.628	1695.27
452.002	1733.91
452.376	1714.7
452.75	1740.91
453.123	1768.71
453.497	1793.79
453.871	1799.9
454.244	1828.82
454.618	1869.27
454.992	1886.45
455.365	1870.18
455.739	1949.72
456.112	1963.28
456.486	1990.4
456.859	2005.31
457.232	2006.22
457.606	1991.98
457.979	2024.3
458.352	2062.26
458.725	2072.66
459.099	2114.92
459.472	2119.21
459.845	2128.48
460.218	2172.99
460.591	2167.12
460.964	2187.68
461.337	2248.25
461.71	2223.84
462.083	2306.32
462.456	2301.13
462.829	2360.79
463.201	2313.1
463.574	2316.72
463.947	2375.25
464.32	2440.78
464.692	2424.06
465.065	2453.89
465.438	2510.84
465.81	2517.84
466.183	2533.89
466.555	2613.43
466.928	2545.41
467.3	2615.02
467.672	2630.16
468.045	2723.04
468.417	2673.77
468.789	2729.14
469.161	2727.78
469.534	2789.02
469.906	2825.63
470.278	2810.72
470.65	2849.81
471.022	2906.31
471.394	2956.48
471.766	2974.78
472.138	3008.9
472.51	3071.5
472.882	3101.33
473.253	3099.3
473.625	3191.95
473.997	3168.22
474.369	3210.93
474.74	3273.76
475.112	3299.97
475.484	3336.8
475.855	3400.76
476.227	3435.56
476.598	3497.93
476.97	3527.76
477.341	3616.12
477.713	3634.88
478.084	3632.39
478.455	3716
478.827	3751.26
479.198	3848.88
479.569	3842.1
479.94	3920.29
480.311	3958.48
480.682	3997.13
481.053	4084.13
481.424	4123
481.795	4160.29
482.166	4233.28
482.537	4234.18
482.908	4318.25
483.279	4370.45
483.65	4408.42
484.021	4473.27
484.391	4527.51
484.762	4525.93
485.133	4559.6
485.503	4563.89
485.874	4700.16
486.244	4678.69
486.615	4769.76
486.985	4815.18
487.356	4875.52
487.726	4885.01
488.097	4956.88
488.467	4977.89
488.837	5091.56
489.207	5082.75
489.578	5116.42
489.948	5181.95
490.318	5217.21
490.688	5215.4
491.058	5288.84
491.428	5321.84
491.798	5370.2
492.168	5444.09
492.538	5406.36
492.908	5416.07
493.278	5531.78
493.648	5564.54
494.017	5546.92
494.387	5580.81
494.757	5611.55
495.126	5635.5
495.496	5597.54
495.866	5668.72
496.235	5752.56
496.605	5717.76
496.974	5732.9
497.344	5763.86
497.713	5811.32
498.082	5820.13
498.452	5874.59
498.821	5896.96
499.19	5880.47
499.559	5866.46
499.928	5913.01
500.298	5921.6
500.667	5976.06
501.036	5969.5
501.405	5962.95
501.774	5960.69
502.143	6015.6
502.512	6027.36
502.88	6065.55
503.249	6026.68
503.618	6070.97
503.987	6090.18
504.356	6113
504.724	6072.33
505.093	6150.06
505.462	6107.13
505.83	6225.54
506.199	6187.13
506.567	6289.72
506.936	6250.17
507.304	6276.39
507.672	6289.27
508.041	6310.74
508.409	6323.62
508.777	6395.26
509.145	6388.25
509.514	6398.42
509.882	6421.24
510.25	6433.9
510.618	6389.38
510.986	6529.26
511.354	6514.57
511.722	6504.18
512.09	6520
512.458	6491.3
512.826	6526.1
513.193	6529.49
513.561	6537.85
513.929	6636.38
514.297	6578.08
514.664	6637.74
515.032	6644.29
515.4	6675.02
515.767	6734.46
516.135	6732.65
516.502	6628.47
516.869	6777.62
517.237	6738.75
517.604	6762.25
517.972	6835.47
518.339	6804.06
518.706	6845.64
519.073	6796.37
519.44	6829.14
519.808	6905.3
520.175	6854.9
520.542	6959.76
520.909	7010.38
521.276	6981.23
521.643	7000.21
522.009	6965.41
522.376	7019.42
522.743	7016.03
523.11	7149.59
523.477	7161.79
523.843	7202.24
524.21	7221.9
524.577	7243.82
524.943	7268
525.31	7308.23
525.676	7327.43
526.043	7402.01
526.409	7344.38
526.776	7457.83
527.142	7463.7
527.508	7451.5
527.874	7515.9
528.241	7539.63
528.607	7550.71
528.973	7558.61
529.339	7592.06
529.705	7688.78
530.071	7661.21
530.437	7676.13
530.803	7756.8
531.169	7799.96
531.535	7759.06
531.901	7767.65
532.267	7768.1
532.632	7784.15
532.998	7850.58
533.364	7845.39
533.73	7872.5
534.095	7954.99
534.461	7939.4
534.826	7950.92
535.192	7950.47
535.557	8048.77
535.923	8010.58
536.288	8059.17
536.653	8076.12
537.019	8113.63
537.384	8101.2
537.749	8186.39
538.114	8106.62
538.479	8132.84
538.845	8190.46
539.21	8142.78
539.575	8186.39
539.94	8204.25
540.305	8246.51
540.67	8256.9
541.034	8241.99
541.399	8263
541.764	8240.63
542.129	8353.85
542.494	8301.42
542.858	8400.63
543.223	8346.16
543.587	8417.12
543.952	8384.58
544.316	8399.72
544.681	8370.8
545.045	8418.93
545.41	8503.9
545.774	8519.72
546.138	8481.08
546.503	8568.53
546.867	8548.19
547.231	8565.37
547.595	8578.7
547.959	8617.57
548.324	8563.33
548.688	8517.01
549.052	8605.37
549.416	8655.54
549.779	8605.14
550.143	8670.45
550.507	8725.82
550.871	8783.22
551.235	8715.42
551.599	8767.4
551.962	8774.85
552.326	8848.52
552.689	8799.26
553.053	8773.27
553.417	8764.91
553.78	8871.12
554.143	8850.78
554.507	8871.8
554.87	8836.55
555.234	8958.8
555.597	8857.56
555.96	8957.45
556.323	9002.64
556.686	8963.32
557.05	8974.85
557.413	9040.84
557.776	9005.13
558.139	9012.81
558.502	9023.89
558.865	9077.44
559.228	9094.85
559.59	9099.59
559.953	9130.55
560.316	9217.33
560.679	9192.92
561.041	9262.98
561.404	9193.15
561.767	9228.4
562.129	9268.4
562.492	9309.08
562.854	9314.05
563.217	9375.74
563.579	9397.66
563.941	9453.25
564.304	9409.64
564.666	9445.8
565.028	9424.78
565.39	9465.46
565.753	9495.74
566.115	9505
566.477	9580.26
566.839	9588.62
567.201	9642.63
567.563	9723.53
567.925	9727.6
568.287	9737.77
568.648	9738.9
569.01	9757.2
569.372	9835.62
569.734	9756.98
570.095	9838.55
570.457	9890.76
570.819	9889.85
571.18	9876.75
571.542	9936.18
571.903	9971.43
572.265	9997.65
572.626	10002.84
572.987	10062.28
573.349	10043.52
573.71	10082.84
574.071	10184.99
574.432	10208.26
574.794	10239.22
575.155	10198.09
575.516	10170.3
575.877	10240.13
576.238	10256.4
576.599	10311.76
576.96	10272.22
577.32	10260.01
577.681	10334.36
578.042	10393.57
578.403	10370.97
578.763	10389.05
579.124	10449.39
579.485	10499.1
579.845	10446.22
580.206	10533.9
580.566	10495.03
580.927	10504.75
581.287	10570.51
581.648	10572.09
582.008	10634.69
582.368	10549.27
582.728	10610.06
583.089	10587.91
583.449	10508.82
583.809	10577.07
584.169	10621.81
584.529	10554.02
584.889	10675.14
585.249	10598.31
585.609	10558.99
585.969	10633.34
586.329	10654.13
586.688	10657.52
587.048	10621.59
587.408	10742.26
587.768	10658.65
588.127	10713.56
588.487	10632.21
588.846	10713.79
589.206	10688.7
589.565	10752.2
589.925	10805.54
590.284	10700.45
590.643	10731.64
591.003	10758.98
591.362	10815.93
591.721	10722.6
592.08	10766.89
592.44	10806.21
592.799	10791.3
593.158	10759.66
593.517	10883.05
593.876	10725.09
594.235	10769.83
594.593	10855.03
594.952	10841.01
595.311	10779.1
595.67	10863.39
596.029	10845.31
596.387	10748.59
596.746	10861.8
597.104	10872.65
597.463	10811.86
597.822	10892.09
598.18	10799.43
598.538	10872.88
598.897	10880.34
599.255	10856.16
599.613	10939.99
599.972	10922.14
600.33	10961.46
600.688	10842.37
601.046	10887.11
601.404	11008.24
601.762	11040.56
602.12	10927.57
602.478	11043.49
602.836	10979.99
603.194	10996.26
603.552	10995.81
603.91	10877.4
604.268	11002.59
604.625	10904.97
604.983	11009.82
605.341	10961.69
605.698	11072.87
606.056	11033.55
606.413	11038.98
606.771	11038.98
607.128	11086.66
607.485	11068.13
607.843	11075.36
608.2	11141.12
608.557	11146.54
608.914	11060.9
609.272	11122.81
609.629	11085.3
609.986	11239.42
610.343	11181.34
610.7	11191.74
611.057	11272.64
611.414	11120.56
611.771	11256.37
612.127	11241.46
612.484	11250.5
612.841	11316.93
613.198	11236.26
613.554	11223.6
613.911	11247.56
614.267	11365.29
614.624	11310.61
614.98	11309.48
615.337	11391.73
615.693	11315.35
616.05	11357.84
616.406	11437.83
616.762	11412.3
617.118	11338.4
617.475	11404.84
617.831	11370.27
618.187	11387.67
618.543	11443.26
618.899	11419.3
619.255	11479.87
619.611	11489.58
619.967	11530.71
620.323	11543.59
620.678	11513.99
621.034	11538.17
621.39	11462.69
621.746	11410.26
622.101	11593.76
622.457	11581.11
622.812	11555.12
623.168	11592.41
623.523	11571.62
623.879	11634.21
624.234	11645.96
624.589	11628.11
624.945	11595.8
625.3	11643.71
625.655	11595.8
626.01	11641.45
626.365	11647.32
626.72	11610.49
627.075	11650.03
627.43	11695
627.785	11702.23
628.14	11659.07
628.495	11666.76
628.85	11697.26
629.205	11717.38
629.559	11742.46
629.914	11804.15
630.269	11836.69
630.623	11713.99
630.978	11793.31
631.332	11873.3
631.687	11798.73
632.041	11825.17
632.396	11837.15
632.75	11797.83
633.104	11897.71
633.459	11836.02
633.813	11889.12
634.167	11866.07
634.521	11873.98
634.875	11857.94
635.229	11909.69
635.583	11820.88
635.937	11800.54
636.291	11877.6
636.645	11890.48
636.999	11910.82
637.352	11828.79
637.706	11840.08
638.06	11907.2
638.413	11929.35
638.767	11868.78
639.121	11836.24
639.474	11826.98
639.828	11879.86
640.181	11944.71
640.534	11963.24
640.888	11891.61
641.241	11917.37
641.594	11881.89
641.947	12012.51
642.301	11949.23
642.654	12000.31
643.007	12039.4
643.36	12010.93
643.713	12003.02
644.066	12109.68
644.419	11994.88
644.771	12061.32
645.124	11900.42
645.477	11974.77
645.83	11882.34
646.182	11798.5
646.535	11757.37
646.888	11777.03
647.24	11783.59
647.593	11858.61
647.945	11783.36
648.298	11708.11
648.65	11751.27
649.002	11772.74
649.355	11848.9
649.707	11857.26
650.059	12000.98
650.411	12167.99
650.763	12107.65
651.115	12265.84
651.467	12286.4
651.819	12172.28
652.171	12244.59
652.523	12284.14
652.875	12280.52
653.227	12249.11
653.578	12356
653.93	12347.19
654.282	12321.65
654.633	12310.35
654.985	12378.6
655.337	12322.56
655.688	12387.19
656.039	12464.02
656.391	12358.04
656.742	12384.7
657.094	12365.27
657.445	12385.15
657.796	12410.24
658.147	12457.7
658.498	12438.26
658.849	12466.73
659.2	12432.38
659.551	12388.54
659.902	12556.68
660.253	12528.65
660.604	12588.09
660.955	12385.83
661.306	12466.73
661.656	12478.26
662.007	12488.2
662.358	12480.75
662.708	12468.32
663.059	12533.63
663.409	12500.63
663.76	12616.79
664.11	12542.44
664.461	12553.74
664.811	12612.95
665.161	12536.79
665.511	12443.46
665.862	12494.98
666.212	12550.12
666.562	12567.52
666.912	12520.52
667.262	12560.74
667.612	12533.17
667.962	12521.42
668.312	12547.41
668.662	12565.26
669.011	12479.39
669.361	12447.75
669.711	12459.73
670.06	12326.17
670.41	12439.16
670.76	12305.16
671.109	12397.13
671.459	12404.59
671.808	12299.73
672.157	12328.66
672.507	12281.2
672.856	12229.23
673.205	12305.38
673.554	12297.7
673.904	12219.28
674.253	12224.71
674.602	12168.21
674.951	12063.36
675.3	11934.32
675.649	12196.46
675.998	12093.18
676.346	12129.12
676.695	12223.12
677.044	12053.41
677.393	12062
677.741	12031.94
678.09	12043.69
678.438	11985.39
678.787	11998.05
679.135	11984.26
679.484	11817.26
679.832	11961.66
680.181	11852.51
680.529	11885.05
680.877	11836.92
681.225	11746.98
681.573	11861.1
681.922	11785.85
682.27	11726.64
682.618	11733.19
682.966	11700.43
683.314	11655.23
683.661	11687.09
684.009	11598.06
684.357	11616.59
684.705	11559.64
685.053	11530.49
685.4	11554.22
685.748	11500.66
686.095	11566.19
686.443	11468.79
686.79	11434.67
687.138	11473.77
687.485	11411.17
687.832	11422.92
688.18	11436.7
688.527	11330.49
688.874	11403.03
689.221	11333.66
689.568	11307.89
689.915	11288.01
690.262	11175.47
690.609	11289.82
690.956	11228.35
691.303	11234.22
691.65	11247.11
691.997	11250.72
692.344	11122.14
692.69	11152.64
693.037	11174.56
693.383	11142.25
693.73	11167.33
694.077	11074.68
694.423	11042.59
694.769	11007.11
695.116	11039.65
695.462	11010.5
695.808	10970.73
696.155	10953.33
696.501	10957.62
696.847	10912.42
697.193	10860.9
697.539	11017.51
697.885	10831.98
698.231	10871.3
698.577	10819.32
698.923	10814.8
699.269	10783.84
699.614	10693
699.96	10711.3
700.306	10799.43
700.651	10745.42
700.997	10676.72
701.342	10694.35
701.688	10664.75
702.033	10611.64
702.379	10712.88
702.724	10657.74
703.069	10718.08
703.415	10605.77
703.76	10638.99
704.105	10574.35
704.45	10596.5
704.795	10571.42
705.14	10536.62
705.485	10543.17
705.83	10513.34
706.175	10482.83
706.52	10553.11
706.865	10578.2
707.209	10532.1
707.554	10500.68
707.899	10516.73
708.243	10483.51
708.588	10459.78
708.932	10365.32
709.277	10406.45
709.621	10367.35
709.966	10274.7
710.31	10383.4
710.654	10334.59
710.998	10377.3
711.342	10364.42
711.687	10322.61
712.031	10387.47
712.375	10314.25
712.719	10294.81
713.063	10356.96
713.407	10371.65
713.75	10343.4
714.094	10323.06
714.438	10302.05
714.782	10297.75
715.125	10234.02
715.469	10301.37
715.812	10244.19
716.156	10154.25
716.499	10169.39
716.843	10274.02
717.186	10170.98
717.53	10207.13
717.873	10222.27
718.216	10229.28
718.559	10182.95
718.902	10145.44
719.246	10194.48
719.589	10143.41
719.932	10196.06
720.275	10191.31
720.617	10195.83
720.96	10183.4
721.303	10205.78
721.646	10212.33
721.989	10100.24
722.331	10212.33
722.674	10147.25
723.016	10178.66
723.359	10136.63
723.701	10173.69
724.044	10126
724.386	10061.83
724.729	10176.17
725.071	10206.68
725.413	10152.9
725.755	10126
726.097	10099.11
726.439	10056.4
726.782	10104.76
727.124	10166.46
727.465	10135.04
727.807	10169.39
728.149	10088.49
728.491	10174.37
728.833	10138.66
729.175	10111.77
729.516	10077.64
729.858	10105.89
730.199	10234.48
730.541	10106.34
730.882	10126.68
731.224	10111.32
731.565	10119.45
731.906	10129.85
732.248	10193.57
732.589	10213.91
732.93	10124.88
733.271	10238.09
733.612	10215.49
733.953	10271.76
734.294	10284.19
734.635	10203.74
734.976	10227.7
735.317	10230.86
735.658	10264.53
735.999	10271.99
736.339	10230.86
736.68	10313.8
737.021	10191.09
737.361	10273.12
737.702	10237.87
738.042	10277.64
738.383	10317.64
738.723	10354.02
739.063	10333.91
739.404	10438.31
739.744	10297.3
740.084	10343.85
740.424	10394.02
740.764	10404.64
741.104	10427.24
741.444	10468.14
741.784	10466.33
742.124	10518.76
742.464	10524.86
742.804	10525.54
743.143	10496.84
743.483	10587.91
743.823	10563.96
744.162	10655.26
744.502	10672.88
744.841	10641.02
745.181	10722.15
745.52	10702.94
745.86	10726.44
746.199	10665.2
746.538	10809.15
746.877	10856.38
747.216	10825.87
747.556	10803.5
747.895	10918.3
748.234	10900.45
748.573	10949.26
748.911	10909.71
749.25	11010.28
749.589	10981.8
749.928	11003.04
750.267	11106.77
750.605	11073.1
750.944	11048.69
751.283	11150.61
751.621	11126.88
751.96	11063.83
752.298	11185.64
752.636	11275.35
752.975	11180.67
753.313	11240.55
753.651	11280.78
753.989	11281.68
754.327	11346.09
754.666	11347.44
755.004	11424.73
755.342	11406.42
755.679	11431.28
756.017	11495.69
756.355	11548.79
756.693	11509.92
757.031	11543.82
757.368	11564.84
757.706	11523.26
758.044	11561.9
758.381	11601.22
758.719	11536.59
759.056	11679.41
759.394	11682.35
