Data from blue_chair_FLMS001491_00069.txt Node
Date: Wed Feb 08 10:31:34 GMT 2017
User: dcchb
Spectrometer: FLMS00149
Trigger mode: 0
Integration Time (sec): 2.000000E-2
Scans to average: 10
Electric dark correction enabled: true
Nonlinearity correction enabled: false
Boxcar width: 0
XAxis mode: Wavelengths
Number of Pixels in Spectrum: 2048
>>>>>Begin Spectral Data<<<<<
341.393	-33.5
341.776	-33.5
342.16	-33.5
342.543	-52.71
342.927	-59.04
343.31	-66.04
343.693	-51.58
344.077	-50.9
344.46	-73.5
344.843	-32.15
345.226	-29.21
345.61	-44.12
345.993	-45.48
346.376	0.17
346.759	6.72
347.142	35.87
347.525	35.87
347.908	67.51
348.291	68.64
348.674	89.21
349.057	88.98
349.44	139.6
349.823	160.39
350.206	162.43
350.588	200.16
350.971	200.84
351.354	179.6
351.737	227.28
352.119	212.59
352.502	243.1
352.884	256.43
353.267	258.92
353.65	270.22
354.032	278.81
354.414	291.24
354.797	284.23
355.179	294.85
355.562	305.47
355.944	303.21
356.326	308.86
356.709	321.52
357.091	317.68
357.473	319.26
357.855	320.39
358.238	316.55
358.62	320.16
359.002	323.1
359.384	303.44
359.766	318.13
360.148	316.32
360.53	324
360.912	317.9
361.294	303.44
361.676	321.52
362.057	309.99
362.439	305.25
362.821	310.67
363.203	295.98
363.584	306.15
363.966	308.86
364.348	293.27
364.729	289.65
365.111	286.72
365.493	311.8
365.874	301.4
366.256	293.5
366.637	321.52
367.019	288.3
367.4	292.37
367.781	292.82
368.163	295.75
368.544	294.17
368.925	291.69
369.306	282.65
369.688	283.55
370.069	281.74
370.45	267.28
370.831	272.93
371.212	285.13
371.593	280.16
371.974	289.2
372.355	282.42
372.736	304.57
373.117	280.84
373.498	267.96
373.879	303.21
374.26	294.17
374.641	299.6
375.021	294.4
375.402	284.68
375.783	286.26
376.163	282.65
376.544	291.69
376.925	291.46
377.305	286.26
377.686	315.42
378.066	299.37
378.447	300.95
378.827	286.49
379.208	312.48
379.588	295.3
379.968	309.31
380.349	285.13
380.729	295.53
381.109	281.97
381.489	279.94
381.87	305.02
382.25	295.98
382.63	316.09
383.01	309.54
383.39	295.75
383.77	298.24
384.15	316.09
384.53	298.69
384.91	323.32
385.29	302.99
385.67	317.68
386.049	292.14
386.429	316.09
386.809	329.65
387.189	334.4
387.568	329.43
387.948	277.68
388.328	325.13
388.707	305.25
389.087	315.19
389.466	304.79
389.846	314.74
390.225	295.98
390.605	321.29
390.984	330.78
391.363	320.39
391.743	306.6
392.122	310.67
392.501	317.9
392.881	330.56
393.26	328.3
393.639	318.58
394.018	324
394.397	325.81
394.776	331.69
395.155	326.04
395.534	343.21
395.913	315.64
396.292	347.05
396.671	317.9
397.05	327.39
397.429	323.1
397.808	342.99
398.186	353.38
398.565	335.53
398.944	321.52
399.323	341.86
399.701	328.97
400.08	349.54
400.458	349.09
400.837	341.4
401.215	371.91
401.594	352.48
401.972	350.44
402.351	361.29
402.729	348.63
403.107	352.93
403.486	377.11
403.864	348.63
404.242	367.17
404.62	352.25
404.999	372.82
405.377	367.39
405.755	365.13
406.133	373.94
406.511	366.71
406.889	358.13
407.267	393.83
407.645	387.5
408.023	366.26
408.401	386.83
408.779	381.4
409.156	384.79
409.534	390.22
409.912	391.57
410.29	397.67
410.667	378.01
411.045	394.74
411.422	406.94
411.8	407.16
412.178	395.41
412.555	423.21
412.933	393.61
413.31	429.08
413.687	413.72
414.065	419.59
414.442	424.11
414.819	436.32
415.197	430.44
415.574	429.31
415.951	436.54
416.328	405.81
416.705	411.46
417.082	452.59
417.46	439.71
417.837	424.57
418.214	442.64
418.591	433.6
418.967	458.24
419.344	459.59
419.721	450.33
420.098	454.39
420.475	461.63
420.852	449.65
421.228	453.26
421.605	446.71
421.982	477.67
422.358	458.91
422.735	460.5
423.111	510.66
423.488	479.48
423.864	486.94
424.241	474.28
424.617	483.32
424.994	486.03
425.37	503.21
425.746	495.75
426.123	485.81
426.499	478.57
426.875	492.36
427.251	495.98
427.627	525.35
428.003	503.89
428.379	532.13
428.756	540.27
429.132	532.58
429.507	532.13
429.883	545.47
430.259	531.91
430.635	548.4
431.011	545.69
431.387	582.53
431.763	561.51
432.138	560.61
432.514	575.97
432.89	579.59
433.265	596.09
433.641	573.49
434.016	585.92
434.392	579.59
434.767	621.62
435.143	604.9
435.518	617.1
435.894	626.59
436.269	637.44
436.644	639.02
437.02	648.97
437.395	660.04
437.77	658.91
438.145	672.69
438.52	655.97
438.895	677.89
439.271	675.41
439.646	666.14
440.021	669.3
440.395	680.15
440.77	701.62
441.145	728.96
441.52	721.51
441.895	717.89
442.27	745.23
442.645	727.38
443.019	740.49
443.394	759.25
443.769	745.23
444.143	752.92
444.518	762.86
444.892	762.18
445.267	799.7
445.641	780.94
446.016	770.09
446.39	763.99
446.764	804.44
447.139	788.17
447.513	802.18
447.887	804.67
448.262	797.66
448.636	794.27
449.01	811
449.384	817.55
449.758	831.79
450.132	823.42
450.506	822.52
450.88	831.11
451.254	836.53
451.628	877.21
452.002	879.69
452.376	881.95
452.75	893.93
453.123	860.71
453.497	900.94
453.871	861.84
454.244	894.16
454.618	906.13
454.992	912.91
455.365	902.07
455.739	942.97
456.112	921.73
456.486	945.46
456.859	956.53
457.232	957.21
457.606	973.93
457.979	962.63
458.352	987.26
458.725	994.27
459.099	976.87
459.472	1009.18
459.845	1016.41
460.218	1015.28
460.591	1032.46
460.964	1043.08
461.337	1036.3
461.71	1059.8
462.083	1062.51
462.456	1055.73
462.829	1055.96
463.201	1082.85
463.574	1073.59
463.947	1084.43
464.32	1095.73
464.692	1137.09
465.065	1126.69
465.438	1135.96
465.81	1123.98
466.183	1148.16
466.555	1157.65
466.928	1154.26
467.3	1148.16
467.672	1169.86
468.045	1203.08
468.417	1202.17
468.789	1174.83
469.161	1230.19
469.534	1239.01
469.906	1232.23
470.278	1230.65
470.65	1246.92
471.022	1263.41
471.394	1286.69
471.766	1276.97
472.138	1298.89
472.51	1300.93
472.882	1317.2
473.253	1320.81
473.625	1332.34
473.997	1353.13
474.369	1358.78
474.74	1366.69
475.112	1426.8
475.484	1396.52
475.855	1423.18
476.227	1416.86
476.598	1435.16
476.97	1468.83
477.341	1477.87
477.713	1493.92
478.084	1498.66
478.455	1489.17
478.827	1509.28
479.198	1535.27
479.569	1529.39
479.94	1573.01
480.311	1561.71
480.682	1596.51
481.053	1629.28
481.424	1643.52
481.795	1661.14
482.166	1672.89
482.537	1652.78
482.908	1705.66
483.279	1690.75
483.65	1712.21
484.021	1722.84
484.391	1753.12
484.762	1701.82
485.133	1739.11
485.503	1774.36
485.874	1788.37
486.244	1774.36
486.615	1815.49
486.985	1811.87
487.356	1820.91
487.726	1824.08
488.097	1853
488.467	1841.03
488.837	1887.13
489.207	1881.25
489.578	1879.22
489.948	1914.92
490.318	1872.66
490.688	1866.34
491.058	1874.47
491.428	1933.68
491.798	1888.03
492.168	1927.58
492.538	1952.89
492.908	1944.3
493.278	1948.37
493.648	1959.21
494.017	1988.82
494.387	1959.21
494.757	1961.93
495.126	1974.13
495.496	1973.68
495.866	1952.89
496.235	1949.27
496.605	1967.12
496.974	1971.64
497.344	1975.26
497.713	1958.08
498.082	1968.48
498.452	1974.13
498.821	1966.22
499.19	1930.06
499.559	1955.15
499.928	1969.61
500.298	1945.88
500.667	1959.44
501.036	1934.58
501.405	1938.42
501.774	1964.19
502.143	1949.5
502.512	1968.71
502.88	1956.95
503.249	1943.17
503.618	1945.2
503.987	1962.83
504.356	1944.75
504.724	1954.02
505.093	1915.15
505.462	1953.56
505.83	1962.83
506.199	1945.66
506.567	1939.1
506.936	1929.38
507.304	1962.83
507.672	1922.15
508.041	1935.03
508.409	1916.73
508.777	1930.51
509.145	1960.8
509.514	1941.36
509.882	1931.87
510.25	1927.58
510.618	1925.32
510.986	1892.32
511.354	1940.68
511.722	1890.97
512.09	1910.4
512.458	1868.14
512.826	1891.19
513.193	1904.3
513.561	1889.39
513.929	1889.39
514.297	1904.3
514.664	1879.67
515.032	1886.9
515.4	1917.18
515.767	1867.69
516.135	1873.57
516.502	1834.47
516.869	1860.91
517.237	1852.55
517.604	1814.81
517.972	1842.61
518.339	1859.1
518.706	1836.05
519.073	1791.31
519.44	1811.42
519.808	1813.23
520.175	1819.56
520.542	1840.12
520.909	1832.44
521.276	1833.34
521.643	1816.84
522.009	1813.68
522.376	1823.62
522.743	1785.43
523.11	1782.72
523.477	1791.31
523.843	1761.03
524.21	1790.86
524.577	1773.91
524.943	1809.61
525.31	1817.52
525.676	1823.4
526.043	1808.48
526.409	1799.9
526.776	1799.22
527.142	1787.24
527.508	1775.04
527.874	1807.58
528.241	1792.66
528.607	1806.22
528.973	1802.61
529.339	1804.87
529.705	1808.94
530.071	1789.95
530.437	1798.09
530.803	1802.61
531.169	1787.69
531.535	1803.06
531.901	1770.74
532.267	1791.08
532.632	1806.68
532.998	1803.06
533.364	1822.27
533.73	1776.39
534.095	1780.91
534.461	1799.22
534.826	1803.96
535.192	1785.66
535.557	1820.46
535.923	1763.74
536.288	1742.27
536.653	1757.64
537.019	1764.87
537.384	1797.86
537.749	1777.07
538.114	1795.6
538.479	1787.02
538.845	1791.08
539.21	1792.44
539.575	1785.21
539.94	1764.19
540.305	1765.09
540.67	1764.42
541.034	1777.3
541.399	1767.58
541.764	1811.87
542.129	1767.58
542.494	1791.53
542.858	1757.19
543.223	1769.16
543.587	1753.12
543.952	1762.16
544.316	1740.46
544.681	1744.08
545.045	1756.96
545.41	1748.15
545.774	1739.11
546.138	1701.59
546.503	1730.97
546.867	1719.67
547.231	1747.69
547.595	1753.12
547.959	1734.81
548.324	1717.64
548.688	1732.78
549.052	1722.38
549.416	1736.17
549.779	1759.9
550.143	1738.88
550.507	1693.46
550.871	1747.24
551.235	1697.75
551.599	1726.9
551.962	1688.94
552.326	1729.84
552.689	1705.66
553.053	1720.35
553.417	1713.8
553.78	1692.1
554.143	1699.11
554.507	1703.85
554.87	1693.91
555.234	1709.73
555.597	1692.1
555.96	1728.94
556.323	1713.57
556.686	1702.95
557.05	1685.55
557.413	1682.61
557.776	1685.32
558.139	1699.11
558.502	1700.46
558.865	1696.62
559.228	1708.83
559.59	1723.74
559.953	1746.34
560.316	1697.53
560.679	1708.37
561.041	1725.32
561.404	1695.04
561.767	1721.93
562.129	1730.52
562.492	1740.91
562.854	1706.57
563.217	1713.57
563.579	1736.4
563.941	1713.12
564.304	1714.93
564.666	1728.26
565.028	1726.45
565.39	1745.66
565.753	1719.22
566.115	1726
566.477	1755.6
566.839	1753.12
567.201	1733.01
567.563	1770.52
567.925	1742.27
568.287	1772.55
568.648	1790.18
569.01	1771.87
569.372	1775.04
569.734	1763.51
570.095	1808.94
570.457	1799.44
570.819	1792.44
571.18	1781.37
571.542	1784.3
571.903	1805.77
572.265	1800.57
572.626	1816.84
572.987	1827.01
573.349	1817.75
573.71	1816.84
574.071	1828.14
574.432	1862.95
574.794	1833.57
575.155	1855.49
575.516	1855.71
575.877	1842.15
576.238	1855.04
576.599	1845.09
576.96	1862.72
577.32	1841.93
577.681	1845.32
578.042	1838.99
578.403	1848.93
578.763	1868.37
579.124	1889.16
579.485	1894.36
579.845	1875.83
580.206	1898.42
580.566	1897.75
580.927	1896.39
581.287	1910.85
581.648	1926.22
582.008	1921.02
582.368	1918.09
582.728	1915.37
583.089	1913.79
583.449	1911.31
583.809	1910.85
584.169	1905.88
584.529	1931.42
584.889	1943.17
585.249	1925.32
585.609	1919.22
585.969	1938.65
586.329	1879.89
586.688	1953.34
587.048	1897.75
587.408	1932.32
587.768	1936.39
588.127	1920.12
588.487	1944.98
588.846	1913.79
589.206	1910.63
589.565	1950.17
589.925	1943.62
590.284	1957.86
590.643	1984.98
591.003	1974.13
591.362	1931.19
591.721	1949.72
592.08	1930.97
592.44	1949.04
592.799	1947.69
593.158	1942.49
593.517	1914.02
593.876	1914.47
594.235	1912.89
594.593	1917.86
594.952	1956.73
595.311	1945.2
595.67	1940.46
596.029	1932.77
596.387	1960.57
596.746	1926.67
597.104	1929.84
597.463	1950.85
597.822	1916.28
598.18	1962.6
598.538	1939.33
598.897	1957.63
599.255	1930.74
599.613	1953.79
599.972	1952.66
600.33	1958.99
600.688	1975.26
601.046	1983.85
601.404	1955.82
601.762	1931.87
602.12	1938.65
602.478	1956.28
602.836	1926.45
603.194	1954.02
603.552	1984.52
603.91	1949.72
604.268	1965.99
604.625	1950.4
604.983	1976.16
605.341	1956.28
605.698	1945.66
606.056	1955.37
606.413	1963.96
606.771	1968.48
607.128	1947.69
607.485	1952.89
607.843	1937.52
608.2	1968.93
608.557	1954.47
608.914	1951.53
609.272	1916.28
609.629	1960.57
609.986	1983.17
610.343	1973.22
610.7	1971.42
611.057	1976.84
611.414	1958.54
611.771	1979.78
612.127	1983.39
612.484	1975.71
612.841	1989.72
613.198	1967.12
613.554	1971.19
613.911	1980
614.267	1970.97
614.624	1982.04
614.98	1971.87
615.337	1973.9
615.693	1993.79
616.05	1980
616.406	1989.27
616.762	1993.56
617.118	1982.04
617.475	1995.15
617.831	2008.03
618.187	1989.04
618.543	1992.66
618.899	2007.12
619.255	2021.81
619.611	2002.83
619.967	2016.39
620.323	1992.66
620.678	2002.6
621.034	2022.94
621.39	1998.08
621.746	1967.12
622.101	2014.13
622.457	2035.14
622.812	2008.93
623.168	2019.55
623.523	2020.68
623.879	2015.71
624.234	2000.34
624.589	2052.09
624.945	2013.68
625.3	2017.97
625.655	2036.95
626.01	2037.18
626.365	2012.77
626.72	2013.9
627.075	2008.25
627.43	2017.29
627.785	2011.87
628.14	2023.17
628.495	2017.29
628.85	2004.64
629.205	2026.1
629.559	2037.18
629.914	1986.56
630.269	2013.9
630.623	1985.2
630.978	2013.45
631.332	2043.28
631.687	2066.33
632.041	2001.92
632.396	2039.89
632.75	2031.75
633.104	2055.48
633.459	2016.39
633.813	2011.19
634.167	2029.04
634.521	2001.7
634.875	2048.25
635.229	2020.23
635.583	2030.4
635.937	2006.67
636.291	2028.36
636.645	2012.55
636.999	2001.02
637.352	2026.56
637.706	2019.78
638.06	2031.08
638.413	2027.91
638.767	2004.64
639.121	2019.78
639.474	1985.65
639.828	2049.83
640.181	2016.39
640.534	2016.84
640.888	2023.62
641.241	2004.86
641.594	1984.3
641.947	2047.57
642.301	2038.08
642.654	2039.66
643.007	2026.78
643.36	2032.21
643.713	2033.79
644.066	2047.8
644.419	2020.91
644.771	1999.21
645.124	2024.3
645.477	1998.54
645.83	2005.99
646.182	1967.8
646.535	1986.56
646.888	2023.39
647.24	1997.41
647.593	1994.92
647.945	1980.68
648.298	1997.18
648.65	2023.85
649.002	1977.07
649.355	2030.17
649.707	2020.23
650.059	2016.84
650.411	2030.85
650.763	2028.36
651.115	2040.12
651.467	2051.87
651.819	2050.74
652.171	2056.84
652.523	2052.09
652.875	2066.78
653.227	2056.16
653.578	2049.16
653.93	2062.26
654.282	2080.11
654.633	2066.56
654.985	2110.4
655.337	2061.13
655.688	2090.51
656.039	2103.62
656.391	2107.01
656.742	2083.96
657.094	2064.97
657.445	2103.84
657.796	2125.54
658.147	2101.36
658.498	2094.8
658.849	2113.11
659.2	2109.04
659.551	2125.31
659.902	2130.06
660.253	2129.38
660.604	2126.67
660.955	2118.08
661.306	2140.23
661.656	2126.89
662.007	2114.24
662.358	2119.44
662.708	2126.22
663.059	2118.31
663.409	2135.03
663.76	2140
664.11	2124.41
664.461	2143.39
664.811	2146.1
665.161	2136.38
665.511	2109.27
665.862	2115.37
666.212	2154.92
666.562	2172.77
666.912	2134.58
667.262	2164.18
667.612	2139.32
667.962	2097.97
668.312	2164.41
668.662	2134.8
669.011	2119.66
669.361	2099.55
669.711	2137.06
670.06	2112.88
670.41	2133.45
670.76	2128.25
671.109	2114.46
671.459	2087.8
671.808	2110.85
672.157	2098.19
672.507	2137.06
672.856	2114.46
673.205	2118.53
673.554	2097.52
673.904	2100.23
674.253	2113.56
674.602	2077.4
674.951	2068.36
675.3	2079.89
675.649	2086.22
675.998	2089.61
676.346	2080.34
676.695	2096.16
677.044	2067.46
677.393	2062.26
677.741	2078.08
678.09	2105.65
678.438	2040.79
678.787	2045.31
679.135	2087.12
679.484	2061.13
679.832	2011.64
680.181	2035.6
680.529	2054.13
680.877	2057.29
681.225	2029.49
681.573	2042.15
681.922	2050.96
682.27	2053.45
682.618	2022.72
682.966	2000.57
683.314	2020.91
683.661	2017.07
684.009	1979.1
684.357	1982.72
684.705	2047.35
685.053	1965.99
685.4	1954.69
685.748	2004.64
686.095	1965.32
686.443	1970.29
686.79	1965.99
687.138	1954.24
687.485	1980.68
687.832	1957.41
688.18	1977.07
688.527	1953.79
688.874	1948.59
689.221	1918.76
689.568	1901.81
689.915	1917.63
690.262	1910.85
690.609	1915.6
690.956	1921.7
691.303	1914.24
691.65	1898.42
691.997	1908.37
692.344	1897.75
692.69	1862.04
693.037	1876.96
693.383	1883.51
693.73	1856.39
694.077	1849.16
694.423	1911.08
694.769	1896.62
695.116	1851.19
695.462	1886
695.808	1869.05
696.155	1839.22
696.501	1818.43
696.847	1844.87
697.193	1817.75
697.539	1841.03
697.885	1819.33
698.231	1796.73
698.577	1829.5
698.923	1815.26
699.269	1810.97
699.614	1830.63
699.96	1776.85
700.306	1798.09
700.651	1794.47
700.997	1781.82
701.342	1756.51
701.688	1773.68
702.033	1748.15
702.379	1759.45
702.724	1784.08
703.069	1755.6
703.415	1762.61
703.76	1743.4
704.105	1735.27
704.45	1755.6
704.795	1734.36
705.14	1705.21
705.485	1761.48
705.83	1737.07
706.175	1725.77
706.52	1727.81
706.865	1715.38
707.209	1736.17
707.554	1740.91
707.899	1752.89
708.243	1743.63
708.588	1725.55
708.932	1733.23
709.277	1721.93
709.621	1720.35
709.966	1712.67
710.31	1749.95
710.654	1732.55
710.998	1693.91
711.342	1702.05
711.687	1735.94
712.031	1713.57
712.375	1702.95
712.719	1704.53
713.063	1713.8
713.407	1703.85
713.75	1733.01
714.094	1717.19
714.438	1721.03
714.782	1726
715.125	1756.73
715.469	1723.29
715.812	1739.78
716.156	1707.02
716.499	1764.19
716.843	1768.94
717.186	1752.44
717.53	1717.19
717.873	1772.55
718.216	1746.34
718.559	1745.21
718.902	1777.52
719.246	1779.56
719.589	1781.37
719.932	1765.32
720.275	1788.15
720.617	1762.84
720.96	1771.2
721.303	1791.99
721.646	1789.95
721.989	1808.26
722.331	1789.95
722.674	1806.22
723.016	1773.46
723.359	1826.56
723.701	1815.49
724.044	1807.13
724.386	1797.18
724.729	1831.08
725.071	1802.83
725.413	1828.6
725.755	1834.7
726.097	1837.18
726.439	1838.99
726.782	1862.72
727.124	1899.1
727.465	1885.09
727.807	1856.62
728.149	1890.97
728.491	1890.97
728.833	1873.11
729.175	1904.07
729.516	1892.32
729.858	1887.13
730.199	1930.29
730.541	1923.51
730.882	1949.27
731.224	1951.76
731.565	1946.33
731.906	1977.29
732.248	1978.42
732.589	1979.33
732.93	2012.32
733.271	1984.98
733.612	1993.11
733.953	2038.76
734.294	2019.78
734.635	2029.27
734.976	2018.87
735.317	2030.4
735.658	2088.93
735.999	2090.28
736.339	2074.24
736.68	2113.79
737.021	2122.37
737.361	2101.58
737.702	2130.06
738.042	2115.59
738.383	2150.17
738.723	2212.09
739.063	2204.41
739.404	2212.31
739.744	2215.03
740.084	2260.68
740.424	2263.16
740.764	2263.16
741.104	2282.14
741.444	2311.97
741.784	2293.22
742.124	2334.8
742.464	2361.01
742.804	2374.34
743.143	2389.49
743.483	2421.12
743.823	2439.65
744.162	2470.84
744.502	2508.8
744.841	2499.09
745.181	2553.55
745.52	2553.1
745.86	2643.72
746.199	2611.63
746.538	2642.81
746.877	2726.43
747.216	2754.45
747.556	2749.02
747.895	2825.86
748.234	2847.55
748.573	2846.65
748.911	2892.97
749.25	2952.86
749.589	2980.43
749.928	2989.02
750.267	3059.52
750.605	3065.17
750.944	3134.78
751.283	3207.32
751.621	3195.79
751.96	3287.99
752.298	3292.29
752.636	3362.57
752.975	3419.51
753.313	3441.21
753.651	3489.34
753.989	3571.6
754.327	3597.59
754.666	3657.25
755.004	3641.88
755.342	3746.29
755.679	3831.26
756.017	3866.96
756.355	3897.02
756.693	3976.34
757.031	4042.32
757.368	4085.03
757.706	4150.79
758.044	4207.52
758.381	4290.23
758.719	4271.92
759.056	4362.77
759.394	4376.78
759.731	4468.98
760.068	4506.94
760.405	4551.24
760.743	4584.91
761.08	4679.82
761.417	4758.46
761.754	4759.59
762.091	4861.06
762.428	4897.22
762.765	4926.37
763.102	5038.91
763.438	5055.63
763.775	5106.48
764.112	5131.11
764.449	5179.02
764.785	5204.78
765.122	5291.1
765.458	5363.64
765.795	5398.67
766.131	5395.51
766.467	5523.19
766.804	5468.5
767.14	5513.47
767.476	5548.72
767.812	5586.69
768.148	5673.24
768.485	5750.53
768.821	5750.07
769.157	5745.56
769.492	5786.01
769.828	5821.71
770.164	5836.17
770.5	5868.04
770.836	5925.89
