Data from blue_chair_FLMS001491_00087.txt Node
Date: Wed Feb 08 10:31:55 GMT 2017
User: dcchb
Spectrometer: FLMS00149
Trigger mode: 0
Integration Time (sec): 2.000000E-2
Scans to average: 10
Electric dark correction enabled: true
Nonlinearity correction enabled: false
Boxcar width: 0
XAxis mode: Wavelengths
Number of Pixels in Spectrum: 2048
>>>>>Begin Spectral Data<<<<<
341.393	-24.62
341.776	-24.62
342.16	-24.62
342.543	-57.39
342.927	-63.26
343.31	-73.2
343.693	-71.62
344.077	-52.64
344.46	-81.34
344.843	-52.41
345.226	-30.49
345.61	-21.91
345.993	-26.2
346.376	-20.78
346.759	4.99
347.142	37.98
347.525	66.45
347.908	56.96
348.291	80.01
348.674	75.49
349.057	108.71
349.44	111.2
349.823	134.02
350.206	141.48
350.588	174.92
350.971	186
351.354	199.56
351.737	216.96
352.119	241.59
352.502	229.84
352.884	243.17
353.267	264.64
353.65	258.54
354.032	247.47
354.414	282.49
354.797	277.29
355.179	284.98
355.562	309.61
355.944	302.83
356.326	304.19
356.709	323.17
357.091	300.57
357.473	312.55
357.855	303.73
358.238	327.46
358.62	337.41
359.002	329.05
359.384	307.8
359.766	331.53
360.148	318.2
360.53	304.19
360.912	307.35
361.294	293.79
361.676	314.58
362.057	306.22
362.439	302.61
362.821	296.73
363.203	322.04
363.584	306.45
363.966	301.48
364.348	295.83
364.729	302.15
365.111	288.37
365.493	293.34
365.874	285.43
366.256	286.56
366.637	290.4
367.019	306.9
367.4	303.73
367.781	287.24
368.163	294.7
368.544	275.26
368.925	304.64
369.306	282.72
369.688	278.88
370.069	273
370.45	275.94
370.831	289.05
371.212	262.83
371.593	271.65
371.974	283.17
372.355	276.84
372.736	293.34
373.117	287.69
373.498	281.59
373.879	285.88
374.26	286.11
374.641	311.42
375.021	280.01
375.402	276.39
375.783	279.78
376.163	292.89
376.544	292.89
376.925	303.73
377.305	290.85
377.686	302.61
378.066	282.94
378.447	297.86
378.827	314.13
379.208	309.84
379.588	289.05
379.968	300.8
380.349	277.97
380.729	279.33
381.109	295.15
381.489	288.82
381.87	296.73
382.25	284.53
382.63	312.1
383.01	309.16
383.39	294.24
383.77	290.85
384.15	316.39
384.53	300.8
384.91	308.93
385.29	300.12
385.67	314.81
386.049	298.99
386.429	299.22
386.809	289.95
387.189	300.35
387.568	305.77
387.948	295.83
388.328	313.45
388.707	286.79
389.087	303.06
389.466	312.55
389.846	304.19
390.225	318.42
390.605	320.68
390.984	309.84
391.363	315.71
391.743	312.1
392.122	325.43
392.501	325.88
392.881	323.4
393.26	327.24
393.639	337.63
394.018	350.74
394.397	348.48
394.776	328.59
395.155	323.17
395.534	324.07
395.913	333.79
396.292	354.36
396.671	329.05
397.05	350.29
397.429	324.07
397.808	344.41
398.186	332.89
398.565	352.55
398.944	343.06
399.323	319.78
399.701	329.5
400.08	354.81
400.458	339.67
400.837	345.09
401.215	349.38
401.594	357.97
401.972	345.32
402.351	374.47
402.729	355.26
403.107	354.81
403.486	357.07
403.864	327.69
404.242	347.35
404.62	348.48
404.999	367.01
405.377	383.96
405.755	382.38
406.133	362.49
406.511	364.07
406.889	370.17
407.267	395.48
407.645	374.24
408.023	397.29
408.401	381.47
408.779	392.32
409.156	394.35
409.534	413.11
409.912	395.26
410.29	436.84
410.667	398.42
411.045	398.65
411.422	412.21
411.8	383.96
412.178	409.04
412.555	414.24
412.933	422.6
413.31	426.67
413.687	397.29
414.065	412.66
414.442	445.2
414.819	415.37
415.197	434.8
415.574	428.03
415.951	442.26
416.328	441.13
416.705	442.04
417.082	442.04
417.46	440.45
417.837	453.34
418.214	450.85
418.591	438.87
418.967	418.31
419.344	447.69
419.721	438.19
420.098	464.18
420.475	438.42
420.852	466.22
421.228	473.45
421.605	485.88
421.982	458.08
422.358	446.1
422.735	474.13
423.111	504.41
423.488	495.37
423.864	470.06
424.241	500.11
424.617	498.98
424.994	496.27
425.37	506.89
425.746	504.18
426.123	502.15
426.499	531.3
426.875	520
427.251	529.94
427.627	530.17
428.003	553.45
428.379	524.52
428.756	542.15
429.132	541.02
429.507	545.76
429.883	559.55
430.259	555.03
430.635	548.93
431.011	569.94
431.387	557.06
431.763	585.31
432.138	579.43
432.514	580.11
432.89	577.17
433.265	606.55
433.641	583.05
434.016	609.04
434.392	617.4
434.767	599.32
435.143	649.04
435.518	627.57
435.894	645.19
436.269	654.01
436.644	651.3
437.02	664.18
437.395	674.12
437.77	686.55
438.145	693.1
438.52	682.03
438.895	689.71
439.271	682.48
439.646	722.03
440.021	720.22
440.395	707.79
440.77	710.96
441.145	721.35
441.52	751.18
441.895	750.95
442.27	737.85
442.645	754.8
443.019	746.21
443.394	767.23
443.769	766.77
444.143	788.02
444.518	794.12
444.892	774.91
445.267	776.94
445.641	802.48
446.016	814.46
446.39	780.11
446.764	814.68
447.139	803.61
447.513	806.09
447.887	811.07
448.262	806.09
448.636	821.69
449.01	848.13
449.384	864.85
449.758	856.94
450.132	840.44
450.506	832.31
450.88	863.27
451.254	852.65
451.628	864.17
452.002	890.61
452.376	891.06
452.75	868.47
453.123	898.97
453.497	873.89
453.871	909.59
454.244	904.17
454.618	940.55
454.992	941.46
455.365	969.93
455.739	966.09
456.112	947.33
456.486	968.8
456.859	944.85
457.232	981.68
457.606	950.5
457.979	998.41
458.352	995.69
458.725	1005.64
459.099	1019.65
459.472	1047.67
459.845	1015.35
460.218	1020.78
460.591	1043.6
460.964	1070.49
461.337	1064.62
461.71	1079.76
462.083	1082.02
462.456	1075.47
462.829	1087.22
463.201	1095.35
463.574	1109.82
463.947	1110.72
464.32	1137.61
464.692	1123.83
465.065	1162.47
465.438	1154.33
465.81	1154.56
466.183	1173.54
466.555	1215.8
466.928	1210.83
467.3	1181.9
467.672	1215.35
468.045	1202.47
468.417	1202.02
468.789	1239.3
469.161	1250.6
469.534	1259.64
469.906	1265.97
470.278	1249.92
470.65	1281.34
471.022	1285.63
471.394	1322.69
471.766	1321.11
472.138	1327.89
472.51	1366.98
472.882	1374.44
473.253	1365.18
473.625	1390.71
473.997	1412.86
474.369	1376.93
474.74	1409.69
475.112	1439.3
475.484	1430.26
475.855	1429.13
476.227	1454.67
476.598	1477.72
476.97	1483.36
477.341	1517.49
477.713	1502.57
478.084	1539.86
478.455	1570.82
478.827	1557.49
479.198	1594.77
479.569	1574.21
479.94	1605.85
480.311	1613.31
480.682	1629.8
481.053	1672.74
481.424	1653.53
481.795	1688.78
482.166	1694.43
482.537	1700.31
482.908	1711.16
483.279	1741.21
483.65	1750.93
484.021	1797.03
484.391	1797.03
484.762	1788.89
485.133	1802
485.503	1826.86
485.874	1863.47
486.244	1830.02
486.615	1853.07
486.985	1885.39
487.356	1859.17
487.726	1857.82
488.097	1898.27
488.467	1886.52
488.837	1904.14
489.207	1919.06
489.578	1912.28
489.948	1960.41
490.318	1936.69
490.688	1970.81
491.058	2003.8
491.428	1983.01
491.798	1980.08
492.168	2037.02
492.538	1993.41
492.908	1993.18
493.278	2011.71
493.648	2019.4
494.017	1984.14
494.387	2001.32
494.757	2033.86
495.126	2056.23
495.496	2035.44
495.866	2056.68
496.235	2063.46
496.605	2044.93
496.974	2015.55
497.344	2029.79
497.713	2030.24
498.082	2045.38
498.452	2037.93
498.821	2056.23
499.19	2044.25
499.559	2053.97
499.928	2047.19
500.298	2023.24
500.667	2068.21
501.036	2046.97
501.405	2059.17
501.774	2023.24
502.143	2046.97
502.512	2023.92
502.88	2019.4
503.249	2028.21
503.618	2048.1
503.987	2053.52
504.356	1989.57
504.724	2022.56
505.093	2048.77
505.462	2016.91
505.83	2032.28
506.199	2027.08
506.567	2027.98
506.936	2029.11
507.304	2021.88
507.672	1998.83
508.041	2034.31
508.409	2027.31
508.777	2034.54
509.145	2033.63
509.514	2011.94
509.882	1988.89
510.25	1982.79
510.618	1993.18
510.986	2013.75
511.354	1997.02
511.722	1985.72
512.09	2001.09
512.458	1969
512.826	1992.5
513.193	1975.33
513.561	1997.48
513.929	1970.36
514.297	1996.8
514.664	1979.85
515.032	1984.59
515.4	1990.24
515.767	1949.57
516.135	1960.87
516.502	1921.77
516.869	1935.78
517.237	1940.08
517.604	1954.76
517.972	1942.11
518.339	1910.25
518.706	1937.36
519.073	1909.57
519.44	1905.27
519.808	1910.25
520.175	1914.99
520.542	1926.74
520.909	1920.87
521.276	1892.85
521.643	1887.87
522.009	1917.25
522.376	1935.56
522.743	1908.66
523.11	1883.13
523.477	1894.88
523.843	1908.66
524.21	1922.45
524.577	1889.46
524.943	1903.47
525.31	1924.94
525.676	1920.42
526.043	1927.2
526.409	1901.43
526.776	1945.5
527.142	1914.99
527.508	1882.9
527.874	1906.4
528.241	1885.61
528.607	1912.51
528.973	1922.45
529.339	1902.79
529.705	1909.12
530.071	1907.31
530.437	1921.09
530.803	1920.87
531.169	1882.68
531.535	1899.17
531.901	1914.99
532.267	1899.17
532.632	1906.86
532.998	1900.3
533.364	1923.81
533.73	1907.08
534.095	1922.9
534.461	1898.72
534.826	1890.36
535.192	1910.92
535.557	1895.11
535.923	1889.91
536.288	1877.48
536.653	1925.16
537.019	1899.4
537.384	1934.88
537.749	1907.53
538.114	1897.14
538.479	1901.21
538.845	1887.42
539.21	1870.93
539.575	1892.17
539.94	1908.21
540.305	1891.72
540.67	1872.51
541.034	1878.61
541.399	1880.87
541.764	1856.91
542.129	1862.11
542.494	1876.35
542.858	1893.3
543.223	1866.41
543.587	1890.59
543.952	1880.64
544.316	1871.6
544.681	1872.28
545.045	1870.25
545.41	1873.41
545.774	1860.3
546.138	1875.67
546.503	1901.66
546.867	1869.12
547.231	1846.75
547.595	1849.91
547.959	1848.1
548.324	1878.83
548.688	1834.32
549.052	1848.78
549.416	1858.04
549.779	1863.69
550.143	1862.34
550.507	1842.68
550.871	1870.47
551.235	1860.08
551.599	1817.59
551.962	1828.67
552.326	1861.89
552.689	1832.96
553.053	1833.19
553.417	1836.8
553.78	1821.21
554.143	1821.89
554.507	1819.4
554.87	1830.7
555.234	1825.5
555.597	1860.53
555.96	1832.06
556.323	1825.05
556.686	1798.16
557.05	1855.56
557.413	1821.89
557.776	1831.38
558.139	1837.71
558.502	1809.23
558.865	1814.66
559.228	1798.84
559.59	1807.65
559.953	1809.91
560.316	1834.99
560.679	1791.15
561.041	1837.25
561.404	1829.34
561.767	1837.25
562.129	1827.31
562.492	1834.32
562.854	1834.09
563.217	1820.08
563.579	1844.94
563.941	1843.58
564.304	1838.61
564.666	1861.21
565.028	1873.86
565.39	1856.24
565.753	1861.43
566.115	1862.34
566.477	1889.68
566.839	1869.8
567.201	1877.48
567.563	1871.38
567.925	1891.26
568.287	1856.69
568.648	1907.99
569.01	1903.47
569.372	1913.41
569.734	1913.64
570.095	1901.43
570.457	1924.48
570.819	1919.96
571.18	1929.45
571.542	1917.93
571.903	1909.57
572.265	1940.3
572.626	1933.07
572.987	1959.74
573.349	1939.4
573.71	1944.6
574.071	1971.26
574.432	1981.88
574.794	1995.22
575.155	1975.33
575.516	1969
575.877	1983.46
576.238	1988.66
576.599	2019.4
576.96	2020.75
577.32	2003.35
577.681	2028.21
578.042	2017.81
578.403	1995.67
578.763	2046.51
579.124	2032.05
579.485	2061.2
579.845	2058.72
580.206	2028.89
580.566	2079.28
580.927	2053.75
581.287	2065.95
581.648	2078.38
582.008	2036.34
582.368	2071.82
582.728	2087.19
583.089	2071.82
583.449	2071.15
583.809	2076.34
584.169	2109.11
584.529	2111.37
584.889	2121.31
585.249	2110.47
585.609	2107.76
585.969	2092.39
586.329	2100.75
586.688	2079.28
587.048	2091.03
587.408	2123.8
587.768	2110.24
588.127	2128.77
588.487	2154.53
588.846	2147.3
589.206	2134.65
589.565	2118.38
589.925	2129
590.284	2093.07
590.643	2128.09
591.003	2143.46
591.362	2119.05
591.721	2059.62
592.08	2116.34
592.44	2143.69
592.799	2105.95
593.158	2147.3
593.517	2142.33
593.876	2134.2
594.235	2110.92
594.593	2118.38
594.952	2121.54
595.311	2085.83
595.67	2137.13
596.029	2151.6
596.387	2165.38
596.746	2166.74
597.104	2126.96
597.463	2121.54
597.822	2156.12
598.18	2126.06
598.538	2154.76
598.897	2146.4
599.255	2086.96
599.613	2147.53
599.972	2151.82
600.33	2133.52
600.688	2105.5
601.046	2130.81
601.404	2136.46
601.762	2149.79
602.12	2132.16
602.478	2143.23
602.836	2141.88
603.194	2108.66
603.552	2145.72
603.91	2147.08
604.268	2140.97
604.625	2129
604.983	2132.61
605.341	2113.86
605.698	2157.02
606.056	2104.82
606.413	2129.45
606.771	2128.09
607.128	2110.92
607.485	2118.83
607.843	2103.01
608.2	2096.68
608.557	2158.6
608.914	2124.03
609.272	2123.57
609.629	2128.32
609.986	2147.3
610.343	2137.36
610.7	2152.95
611.057	2145.95
611.414	2157.47
611.771	2135.33
612.127	2175.55
612.484	2142.78
612.841	2127.87
613.198	2150.92
613.554	2137.81
613.911	2146.62
614.267	2113.18
614.624	2159.05
614.98	2140.75
615.337	2147.08
615.693	2146.62
616.05	2166.06
616.406	2172.16
616.762	2137.59
617.118	2149.79
617.475	2147.75
617.831	2157.47
618.187	2183.23
618.543	2192.72
618.899	2198.83
619.255	2141.65
619.611	2160.41
619.967	2181.43
620.323	2200.86
620.678	2177.36
621.034	2143.46
621.39	2182.56
621.746	2152.95
622.101	2211.26
622.457	2161.77
622.812	2170.8
623.168	2147.75
623.523	2172.39
623.879	2177.13
624.234	2185.95
624.589	2182.1
624.945	2167.64
625.3	2182.56
625.655	2181.2
626.01	2160.86
626.365	2205.38
626.72	2165.15
627.075	2184.82
627.43	2157.02
627.785	2173.74
628.14	2166.28
628.495	2178.26
628.85	2178.94
629.205	2169.22
629.559	2159.05
629.914	2172.16
630.269	2171.71
630.623	2166.51
630.978	2149.34
631.332	2200.86
631.687	2189.34
632.041	2150.24
632.396	2160.18
632.75	2160.41
633.104	2190.92
633.459	2144.14
633.813	2168.09
634.167	2153.4
634.521	2196.34
634.875	2189.79
635.229	2174.42
635.583	2184.82
635.937	2183.46
636.291	2173.97
636.645	2167.87
636.999	2212.16
637.352	2190.01
637.706	2198.83
638.06	2187.3
638.413	2117.25
638.767	2201.76
639.121	2156.12
639.474	2179.62
639.828	2183.91
640.181	2184.36
640.534	2175.78
640.888	2144.59
641.241	2166.96
641.594	2154.99
641.947	2166.74
642.301	2155.21
642.654	2162.67
643.007	2180.07
643.36	2180.07
643.713	2181.65
644.066	2180.75
644.419	2166.96
644.771	2183.23
645.124	2123.12
645.477	2182.78
645.83	2164.03
646.182	2098.49
646.535	2125.38
646.888	2144.14
647.24	2159.05
647.593	2132.61
647.945	2146.62
648.298	2160.18
648.65	2161.77
649.002	2145.27
649.355	2142.33
649.707	2135.55
650.059	2136.46
650.411	2164.03
650.763	2164.7
651.115	2206.06
651.467	2206.06
651.819	2200.86
652.171	2197.92
652.523	2206.28
652.875	2215.78
653.227	2229.11
653.578	2218.49
653.93	2240.18
654.282	2206.51
654.633	2168.54
654.985	2244.47
655.337	2177.13
655.688	2251.03
656.039	2213.97
656.391	2232.05
656.742	2243.57
657.094	2228.88
657.445	2220.97
657.796	2235.66
658.147	2251.71
658.498	2256
658.849	2255.77
659.2	2263.01
659.551	2248.09
659.902	2237.7
660.253	2271.37
660.604	2249.45
660.955	2241.76
661.306	2283.8
661.656	2245.83
662.007	2283.8
662.358	2234.76
662.708	2270.46
663.059	2245.83
663.409	2247.86
663.76	2258.71
664.11	2288.99
664.461	2274.08
664.811	2303.23
665.161	2280.41
665.511	2258.71
665.862	2278.15
666.212	2282.21
666.562	2290.35
666.912	2330.8
667.262	2270.91
667.612	2269.33
667.962	2270.01
668.312	2227.75
668.662	2298.71
669.011	2272.72
669.361	2262.55
669.711	2266.17
670.06	2242.44
670.41	2246.96
670.76	2230.92
671.109	2257.58
671.459	2272.95
671.808	2222.1
672.157	2237.24
672.507	2215.78
672.856	2224.59
673.205	2219.16
673.554	2200.86
673.904	2196.11
674.253	2238.6
674.602	2254.64
674.951	2159.96
675.3	2164.25
675.649	2211.26
675.998	2209.9
676.346	2213.74
676.695	2216
677.044	2209.67
677.393	2205.15
677.741	2227.3
678.09	2194.98
678.438	2183.46
678.787	2178.71
679.135	2169.22
679.484	2187.75
679.832	2158.15
680.181	2145.27
680.529	2164.25
680.877	2169.45
681.225	2135.55
681.573	2157.25
681.922	2151.82
682.27	2121.99
682.618	2166.74
682.966	2116.79
683.314	2139.17
683.661	2124.03
684.009	2143.91
684.357	2122.67
684.705	2078.38
685.053	2095.78
685.4	2105.27
685.748	2081.99
686.095	2077.25
686.443	2059.85
686.79	2055.55
687.138	2089.68
687.485	2098.72
687.832	2097.13
688.18	2073.18
688.527	2053.29
688.874	2057.14
689.221	2053.52
689.568	2070.47
689.915	2045.16
690.262	2053.75
690.609	2033.63
690.956	2002.67
691.303	2049.9
691.65	1993.63
691.997	2019.17
692.344	1974.2
692.69	2002.9
693.037	1982.11
693.383	1990.47
693.73	1994.09
694.077	1941.43
694.423	1981.2
694.769	1964.48
695.116	1956.12
695.462	1982.33
695.808	1933.75
696.155	1951.83
696.501	1941.43
696.847	1925.16
697.193	1901.43
697.539	1924.71
697.885	1888.1
698.231	1885.84
698.577	1894.65
698.923	1922.45
699.269	1874.99
699.614	1893.52
699.96	1870.93
700.306	1866.41
700.651	1873.41
700.997	1883.81
701.342	1891.26
701.688	1856.24
702.033	1866.86
702.379	1842
702.724	1826.63
703.069	1869.12
703.415	1863.92
703.76	1834.77
704.105	1858.27
704.45	1852.17
704.795	1850.13
705.14	1845.84
705.485	1821.44
705.83	1830.7
706.175	1816.69
706.52	1793.87
706.865	1813.3
707.209	1818.05
707.554	1815.11
707.899	1846.75
708.243	1835.22
708.588	1812.17
708.932	1823.69
709.277	1800.19
709.621	1840.19
709.966	1787.99
710.31	1826.63
710.654	1814.66
710.998	1810.36
711.342	1814.66
711.687	1816.46
712.031	1808.78
712.375	1773.53
712.719	1789.12
713.063	1834.09
713.407	1814.2
713.75	1811.72
714.094	1829.57
714.438	1839.74
714.782	1839.06
715.125	1822.79
715.469	1848.1
715.812	1844.49
716.156	1854.65
716.499	1839.97
716.843	1812.62
717.186	1825.05
717.53	1848.1
717.873	1856.46
718.216	1848.33
718.559	1854.2
718.902	1838.38
719.246	1858.04
719.589	1859.63
719.932	1852.62
720.275	1898.5
720.617	1868.44
720.96	1914.09
721.303	1886.52
721.646	1890.59
721.989	1905.27
722.331	1901.21
722.674	1927.65
723.016	1945.05
723.359	1927.65
723.701	1902.56
724.044	1930.36
724.386	1882.68
724.729	1936.01
725.071	1915.9
725.413	1929.91
725.755	1941.43
726.097	1957.7
726.439	1985.05
726.782	1998.83
727.124	2002.67
727.465	1973.52
727.807	1989.34
728.149	1995.67
728.491	2008.55
728.833	2015.1
729.175	2040.19
729.516	2028.66
729.858	2018.72
730.199	2072.28
730.541	2052.39
730.882	2044.03
731.224	2072.5
731.565	2034.54
731.906	2057.59
732.248	2059.17
732.589	2087.19
732.93	2122.22
733.271	2116.12
733.612	2116.34
733.953	2140.97
734.294	2140.97
734.635	2168.32
734.976	2170.13
735.317	2169.45
735.658	2218.03
735.999	2236.57
736.339	2206.06
736.68	2198.15
737.021	2228.43
737.361	2239.5
737.702	2259.84
738.042	2263.68
738.383	2258.49
738.723	2287.64
739.063	2279.05
739.404	2318.6
739.744	2338.71
740.084	2362.21
740.424	2432.49
740.764	2383.68
741.104	2432.27
741.444	2470.23
741.784	2500.29
742.124	2506.16
742.464	2502.32
742.804	2538.7
743.143	2536.9
743.483	2573.05
743.823	2589.32
744.162	2607.86
744.502	2698.7
744.841	2691.47
745.181	2732.37
745.52	2763.33
745.86	2772.82
746.199	2819.15
746.538	2837
746.877	2882.65
747.216	2907.06
747.556	2927.39
747.895	2978.92
748.234	3013.04
748.573	3044.45
748.911	3141.85
749.25	3152.02
749.589	3177.56
749.928	3231.12
750.267	3263.66
750.605	3292.13
750.944	3291
751.283	3415.07
751.621	3483.76
751.96	3493.71
752.298	3570.09
752.636	3598.34
752.975	3592.69
753.313	3710.65
753.651	3768.05
753.989	3789.74
754.327	3849.86
754.666	3891.21
755.004	4010.76
755.342	4050.08
755.679	4086.46
756.017	4121.04
756.355	4208.94
756.693	4241.94
757.031	4337.3
757.368	4376.17
757.706	4420.24
758.044	4491.42
758.381	4590.85
758.719	4604.64
759.056	4684.64
759.394	4717.86
759.731	4799.89
760.068	4821.36
760.405	4935.93
760.743	5017.28
761.08	5037.85
761.417	5099.09
761.754	5079.65
762.091	5186.09
762.428	5192.65
762.765	5281.23
763.102	5371.62
763.438	5382.02
763.775	5399.42
764.112	5528.46
764.449	5539.98
764.785	5598.51
765.122	5687.77
765.458	5686.64
765.795	5713.31
766.131	5755.34
766.467	5761.44
766.804	5818.62
767.14	5910.37
767.476	5924.6
767.812	5992.4
768.148	6035.11
768.485	6021.55
768.821	6085.28
769.157	6078.95
769.492	6162.11
769.828	6203.24
770.164	6167.54
770.5	6221.09
770.836	6241.66
771.171	6237.82
