Data from blue_chair_FLMS001491_00066.txt Node
Date: Wed Feb 08 10:31:34 GMT 2017
User: dcchb
Spectrometer: FLMS00149
Trigger mode: 0
Integration Time (sec): 2.000000E-2
Scans to average: 10
Electric dark correction enabled: true
Nonlinearity correction enabled: false
Boxcar width: 0
XAxis mode: Wavelengths
Number of Pixels in Spectrum: 2048
>>>>>Begin Spectral Data<<<<<
341.393	-12.53
341.776	-12.53
342.16	-12.53
342.543	-60.44
342.927	-73.09
343.31	-67.44
343.693	-70.61
344.077	-73.09
344.46	-56.59
344.843	-52.53
345.226	-39.42
345.61	-29.25
345.993	-12.3
346.376	-4.84
346.759	14.14
347.142	25.89
347.525	35.61
347.908	65.21
348.291	64.53
348.674	100.24
349.057	100.46
349.44	114.02
349.823	136.39
350.206	164.64
350.588	180.91
350.971	193.57
351.354	204.19
351.737	235.83
352.119	241.25
352.502	227.92
352.884	230.63
353.267	275.83
353.65	289.16
354.032	285.09
354.414	306.56
354.797	326.67
355.179	293.45
355.562	327.12
355.944	316.28
356.326	317.86
356.709	305.88
357.091	321.93
357.473	325.09
357.855	328.93
358.238	330.51
358.62	317.86
359.002	330.51
359.384	325.32
359.766	304.07
360.148	308.59
360.53	319.44
360.912	302.27
361.294	316.28
361.676	340.68
362.057	312.66
362.439	314.02
362.821	313.79
363.203	316.05
363.584	269.27
363.966	299.1
364.348	311.98
364.729	276.28
365.111	286.67
365.493	282.38
365.874	303.85
366.256	297.97
366.637	292.1
367.019	280.8
367.4	304.07
367.781	298.65
368.163	285.54
368.544	295.94
368.925	304.75
369.306	291.19
369.688	283.96
370.069	296.62
370.45	298.42
370.831	312.89
371.212	281.48
371.593	294.58
371.974	274.47
372.355	274.7
372.736	293
373.117	295.94
373.498	266.56
373.879	296.39
374.26	317.86
374.641	283.51
375.021	300.46
375.402	268.59
375.783	284.19
376.163	306.33
376.544	285.54
376.925	299.33
377.305	294.58
377.686	278.76
378.066	299.1
378.447	296.16
378.827	302.94
379.208	297.97
379.588	286.45
379.968	299.55
380.349	302.04
380.729	284.87
381.109	283.74
381.489	310.4
381.87	306.56
382.25	304.07
382.63	302.27
383.01	296.84
383.39	299.78
383.77	293
384.15	315.37
384.53	308.37
384.91	305.43
385.29	294.58
385.67	291.64
386.049	310.63
386.429	304.98
386.809	319.44
387.189	293.68
387.568	340.23
387.948	299.55
388.328	302.27
388.707	289.39
389.087	327.58
389.466	326.45
389.846	301.81
390.225	328.25
390.605	352.66
390.984	300.68
391.363	321.7
391.743	331.64
392.122	341.59
392.501	306.56
392.881	353.56
393.26	341.59
393.639	325.99
394.018	321.93
394.397	323.96
394.776	326.45
395.155	333
395.534	341.59
395.913	321.02
396.292	322.83
396.671	326.9
397.05	344.3
397.429	345.43
397.808	347.91
398.186	342.04
398.565	349.72
398.944	356.73
399.323	347.46
399.701	358.31
400.08	356.95
400.458	346.56
400.837	341.14
401.215	347.46
401.594	366.22
401.972	362.6
402.351	356.28
402.729	362.6
403.107	373.9
403.486	356.5
403.864	356.28
404.242	361.7
404.62	370.51
404.999	365.09
405.377	354.24
405.755	381.59
406.133	367.8
406.511	364.41
406.889	367.35
407.267	372.32
407.645	376.61
408.023	387.91
408.401	382.72
408.779	364.86
409.156	386.11
409.534	383.85
409.912	397.63
410.29	372.32
410.667	379.55
411.045	401.92
411.422	405.99
411.8	400.79
412.178	409.16
412.555	409.61
412.933	401.02
413.31	420.68
413.687	413.9
414.065	388.59
414.442	406.44
414.819	407.12
415.197	421.13
415.574	429.95
415.951	415.48
416.328	430.62
416.705	434.01
417.082	438.08
417.46	444.86
417.837	437.86
418.214	429.72
418.591	446.9
418.967	462.26
419.344	442.38
419.721	475.37
420.098	432.66
420.475	459.78
420.852	436.73
421.228	465.88
421.605	460
421.982	450.51
422.358	458.65
422.735	481.7
423.111	482.37
423.488	483.28
423.864	503.16
424.241	496.16
424.617	496.39
424.994	499.1
425.37	516.72
425.746	507.91
426.123	495.26
426.499	497.97
426.875	513.33
427.251	496.39
427.627	501.36
428.003	501.81
428.379	520.57
428.756	533.22
429.132	539.1
429.507	522.83
429.883	547.23
430.259	543.62
430.635	551.53
431.011	551.07
431.387	558.53
431.763	574.8
432.138	567.12
432.514	552.2
432.89	571.86
433.265	578.64
433.641	586.55
434.016	604.18
434.392	580.22
434.767	603.73
435.143	623.39
435.518	619.55
435.894	630.84
436.269	638.53
436.644	645.31
437.02	657.51
437.395	654.8
437.77	665.42
438.145	670.39
438.52	677.17
438.895	688.7
439.271	688.7
439.646	702.93
440.021	685.53
440.395	704.06
440.77	693.89
441.145	727.57
441.52	713.1
441.895	742.71
442.27	723.95
442.645	738.86
443.019	750.84
443.394	728.02
443.769	757.62
444.143	757.62
444.518	785.42
444.892	763.5
445.267	758.98
445.641	795.59
446.016	797.17
446.39	763.72
446.764	785.42
447.139	795.81
447.513	798.98
447.887	813.67
448.262	813.67
448.636	810.5
449.01	834.46
449.384	818.18
449.758	834.91
450.132	833.55
450.506	805.53
450.88	870.16
451.254	855.25
451.628	833.55
452.002	867.22
452.376	846.21
452.75	886.88
453.123	879.2
453.497	923.04
453.871	910.16
454.244	898.86
454.618	930.95
454.992	921.01
455.365	920.78
455.739	928.01
456.112	932.76
456.486	953.55
456.859	959.88
457.232	972.76
457.606	959.65
457.979	977.28
458.352	975.02
458.725	1019.31
459.099	999.42
459.472	1005.3
459.845	1012.98
460.218	1037.61
460.591	1034.22
460.964	1012.98
461.337	1058.86
461.71	1062.25
462.083	1064.28
462.456	1052.53
462.829	1079.65
463.201	1087.1
463.574	1083.71
463.947	1112.64
464.32	1115.13
464.692	1087.78
465.065	1119.87
465.438	1123.49
465.81	1146.99
466.183	1161.45
466.555	1159.42
466.928	1158.06
467.3	1177.05
467.672	1167.1
468.045	1186.99
468.417	1195.8
468.789	1224.5
469.161	1224.05
469.534	1223.15
469.906	1266.53
470.278	1255.91
470.65	1239.42
471.022	1257.72
471.394	1270.83
471.766	1289.13
472.138	1313.99
472.51	1314.44
472.882	1320.77
473.253	1339.3
473.625	1349.92
473.997	1362.35
474.369	1355.57
474.74	1350.83
475.112	1377.04
475.484	1388.79
475.855	1416.14
476.227	1445.51
476.598	1451.61
476.97	1461.78
477.341	1483.03
477.713	1485.51
478.084	1517.38
478.455	1530.71
478.827	1544.95
479.198	1570.48
479.569	1559.86
479.94	1609.58
480.311	1588.56
480.682	1608.45
481.053	1599.63
481.424	1631.72
481.795	1636.02
482.166	1662.91
482.537	1680.08
482.908	1693.64
483.279	1698.84
483.65	1717.37
484.021	1736.35
484.391	1758.05
484.762	1727.99
485.133	1769.57
485.503	1789.01
485.874	1806.18
486.244	1820.64
486.615	1782.91
486.985	1824.94
487.356	1821.32
487.726	1838.5
488.097	1845.05
488.467	1842.34
488.837	1867.87
489.207	1887.08
489.578	1895.9
489.948	1881.21
490.318	1930.47
490.688	1879.4
491.058	1888.21
491.428	1946.97
491.798	1935.67
492.168	1937.03
492.538	1934.09
492.908	1952.39
493.278	1953.3
493.648	1965.05
494.017	1959.4
494.387	1950.36
494.757	1978.15
495.126	1969.11
495.496	1967.76
495.866	1955.78
496.235	1985.84
496.605	1978.61
496.974	1969.34
497.344	1953.97
497.713	1999.85
498.082	1984.93
498.452	1968.89
498.821	1961.43
499.19	1957.82
499.559	1981.77
499.928	2010.7
500.298	1969.79
500.667	1948.32
501.036	1972.96
501.405	1951.26
501.774	1987.65
502.143	1956.01
502.512	1978.61
502.88	1952.62
503.249	1961.43
503.618	1983.13
503.987	1957.36
504.356	1963.01
504.724	1964.37
505.093	1958.49
505.462	1926.63
505.83	1947.65
506.199	1958.27
506.567	1951.26
506.936	1945.84
507.304	1958.49
507.672	1966.4
508.041	1951.26
508.409	1933.86
508.777	1932.73
509.145	1964.6
509.514	1918.72
509.882	1932.28
510.25	1930.25
510.618	1944.71
510.986	1907.2
511.354	1942.22
511.722	1926.86
512.09	1917.59
512.458	1899.96
512.826	1908.55
513.193	1904.48
513.561	1919.4
513.929	1922.79
514.297	1910.36
514.664	1925.73
515.032	1904.26
515.4	1892.28
515.767	1863.35
516.135	1882.11
516.502	1875.11
516.869	1865.61
517.237	1858.38
517.604	1847.99
517.972	1877.14
518.339	1854.09
518.706	1847.08
519.073	1842.56
519.44	1805.96
519.808	1842.11
520.175	1804.37
520.542	1836.69
520.909	1844.37
521.276	1837.82
521.643	1829.68
522.009	1812.73
522.376	1826.97
522.743	1806.63
523.11	1803.02
523.477	1827.88
523.843	1809.8
524.21	1811.6
524.577	1814.32
524.943	1806.63
525.31	1776.58
525.676	1794.88
526.043	1807.76
526.409	1811.83
526.776	1782.68
527.142	1764.37
527.508	1802.79
527.874	1834.2
528.241	1796.01
528.607	1803.92
528.973	1789.46
529.339	1790.81
529.705	1808.22
530.071	1802.57
530.437	1827.88
530.803	1776.8
531.169	1790.59
531.535	1809.35
531.901	1802.57
532.267	1774.09
532.632	1806.18
532.998	1815.67
533.364	1821.32
533.73	1804.83
534.095	1806.41
534.461	1831.94
534.826	1795.79
535.192	1818.84
535.557	1799.4
535.923	1791.27
536.288	1800.31
536.653	1789.23
537.019	1790.81
537.384	1765.73
537.749	1792.85
538.114	1793.07
538.479	1771.38
538.845	1826.29
539.21	1752.17
539.575	1785.84
539.94	1741.55
540.305	1782.91
540.67	1764.6
541.034	1751.49
541.399	1807.31
541.764	1765.05
542.129	1776.13
542.494	1761.21
542.858	1790.81
543.223	1768.89
543.587	1777.71
543.952	1765.5
544.316	1760.53
544.681	1761.66
545.045	1768.67
545.41	1732.74
545.774	1753.75
546.138	1727.99
546.503	1760.76
546.867	1755.11
547.231	1766.63
547.595	1747.43
547.959	1759.85
548.324	1758.27
548.688	1729.8
549.052	1709.46
549.416	1740.65
549.779	1716.24
550.143	1690.7
550.507	1727.09
550.871	1724.83
551.235	1709.01
551.599	1723.7
551.962	1710.36
552.326	1751.72
552.689	1696.13
553.053	1696.35
553.417	1701.1
553.78	1730.03
554.143	1702.68
554.507	1698.61
554.87	1696.35
555.234	1729.57
555.597	1707.88
555.96	1730.48
556.323	1710.14
556.686	1711.27
557.05	1710.14
557.413	1722.12
557.776	1699.07
558.139	1679.86
558.502	1732.51
558.865	1733.87
559.228	1720.99
559.59	1738.61
559.953	1723.02
560.316	1696.58
560.679	1737.03
561.041	1725.28
561.404	1703.59
561.767	1718.5
562.129	1691.38
562.492	1728.67
562.854	1732.28
563.217	1731.83
563.579	1721.44
563.941	1723.7
564.304	1733.41
564.666	1700.2
565.028	1756.92
565.39	1720.53
565.753	1750.59
566.115	1736.58
566.477	1739.74
566.839	1750.14
567.201	1770.48
567.563	1749.01
567.925	1788.1
568.287	1794.43
568.648	1750.36
569.01	1770.48
569.372	1748.56
569.734	1783.13
570.095	1804.37
570.457	1778.84
570.819	1752.62
571.18	1756.69
571.542	1803.02
571.903	1816.12
572.265	1824.03
572.626	1803.02
572.987	1798.27
573.349	1824.49
573.71	1827.2
574.071	1827.88
574.432	1814.99
574.794	1849.57
575.155	1838.27
575.516	1847.99
575.877	1834.2
576.238	1866.74
576.599	1840.53
576.96	1851.38
577.32	1848.44
577.681	1888.21
578.042	1866.74
578.403	1893.41
578.763	1891.83
579.124	1874.65
579.485	1897.25
579.845	1872.85
580.206	1898.83
580.566	1907.87
580.927	1880.98
581.287	1906.52
581.648	1905.84
582.008	1906.74
582.368	1900.64
582.728	1932.51
583.089	1909.68
583.449	1928.21
583.809	1924.14
584.169	1917.82
584.529	1903.13
584.889	1914.65
585.249	1929.79
585.609	1928.44
585.969	1944.48
586.329	1921.66
586.688	1947.65
587.048	1913.98
587.408	1955.1
587.768	1973.41
588.127	1936.57
588.487	1942.9
588.846	1950.81
589.206	1936.8
589.565	1945.61
589.925	1936.35
590.284	1972.96
590.643	1958.95
591.003	1928.44
591.362	1935.44
591.721	1951.04
592.08	1959.4
592.44	1954.65
592.799	1933.18
593.158	1929.34
593.517	1930.47
593.876	1930.02
594.235	1950.81
594.593	1937.93
594.952	1948.32
595.311	1946.74
595.67	1938.16
596.029	1993.75
596.387	1970.24
596.746	1967.08
597.104	1918.04
597.463	1965.73
597.822	1928.66
598.18	1949
598.538	1971.37
598.897	1938.38
599.255	1941.32
599.613	1979.51
599.972	1947.42
600.33	1948.32
600.688	1973.63
601.046	1945.16
601.404	1958.27
601.762	1971.6
602.12	1976.35
602.478	1936.57
602.836	1915.78
603.194	1933.64
603.552	1959.17
603.91	1974.54
604.268	1973.41
604.625	1939.06
604.983	1963.69
605.341	1959.4
605.698	1918.27
606.056	1964.6
606.413	1974.09
606.771	1966.86
607.128	1949
607.485	1977.48
607.843	1987.42
608.2	1968.21
608.557	1986.52
608.914	1912.85
609.272	1953.07
609.629	1959.17
609.986	1946.74
610.343	1976.12
610.7	1949.23
611.057	1983.13
611.414	1977.02
611.771	1963.47
612.127	1991.94
612.484	1984.03
612.841	2025.84
613.198	1996.46
613.554	1953.07
613.911	1998.27
614.267	1978.15
614.624	2000.75
614.98	1990.36
615.337	1974.09
615.693	1998.04
616.05	1999.4
616.406	1995.55
616.762	1995.55
617.118	1979.51
617.475	1970.02
617.831	1981.54
618.187	2008.21
618.543	2005.95
618.899	2065.38
619.255	1993.3
619.611	2019.28
619.967	2008.44
620.323	2037.81
620.678	2041.2
621.034	2006.4
621.39	2030.58
621.746	2011.37
622.101	2044.59
622.457	2015.67
622.812	2026.97
623.168	1985.61
623.523	2019.96
623.879	2043.01
624.234	2026.06
624.589	1990.81
624.945	2024.93
625.3	2025.61
625.655	2001.43
626.01	2020.64
626.365	1998.94
626.72	2020.64
627.075	2010.02
627.43	2012.05
627.785	2022.22
628.14	2008.44
628.495	2007.08
628.85	1986.29
629.205	2037.14
629.559	2017.25
629.914	2003.46
630.269	2055.67
630.623	2031.94
630.978	2011.15
631.332	2024.25
631.687	2035.1
632.041	2009.34
632.396	2034.2
632.75	2029.45
633.104	2044.82
633.459	2020.19
633.813	2057.7
634.167	2020.41
634.521	2006.18
634.875	2024.25
635.229	2026.74
635.583	1999.85
635.937	2018.83
636.291	2014.54
636.645	2023.8
636.999	2026.97
637.352	2042.79
637.706	2025.84
638.06	2025.84
638.413	2045.5
638.767	2036.68
639.121	2024.71
639.474	2037.14
639.828	2029.45
640.181	2015.89
640.534	2016.12
640.888	2010.24
641.241	2062.9
641.594	2022.9
641.947	2004.14
642.301	2016.35
642.654	2014.99
643.007	2044.37
643.36	2045.27
643.713	2050.24
644.066	2028.55
644.419	2007.76
644.771	2036.23
645.124	2027.42
645.477	2002.56
645.83	2002.11
646.182	2029
646.535	2002.79
646.888	1982.22
647.24	1990.36
647.593	1990.13
647.945	2009.79
648.298	1983.13
648.65	1970.02
649.002	2003.24
649.355	2019.51
649.707	2014.31
650.059	2011.83
650.411	2016.12
650.763	2042.56
651.115	2052.05
651.467	2055.21
651.819	2050.24
652.171	2099.05
652.523	2109.45
652.875	2064.03
653.227	2063.58
653.578	2061.32
653.93	2073.97
654.282	2095.67
654.633	2060.19
654.985	2088.43
655.337	2096.34
655.688	2063.35
656.039	2113.52
656.391	2095.21
656.742	2116.91
657.094	2082.56
657.445	2121.2
657.796	2114.87
658.147	2095.67
658.498	2120.52
658.849	2067.42
659.2	2094.76
659.551	2119.85
659.902	2107.64
660.253	2091.82
660.604	2122.33
660.955	2120.52
661.306	2121.88
661.656	2125.72
662.007	2117.59
662.358	2108.32
662.708	2139.73
663.059	2134.99
663.409	2116.68
663.76	2114.2
664.11	2157.13
664.461	2151.71
664.811	2135.89
665.161	2154.42
665.511	2145.83
665.862	2151.93
666.212	2139.05
666.562	2109
666.912	2118.94
667.262	2135.89
667.612	2132.5
667.962	2145.83
668.312	2118.26
668.662	2152.61
669.011	2130.01
669.361	2139.96
669.711	2106.96
670.06	2118.94
670.41	2123.91
670.76	2131.37
671.109	2140.41
671.459	2113.74
671.808	2112.61
672.157	2163.91
672.507	2127.53
672.856	2111.71
673.205	2123.91
673.554	2103.8
673.904	2070.13
674.253	2116
674.602	2118.04
674.951	2065.61
675.3	2086.85
675.649	2093.86
675.998	2108.09
676.346	2086.63
676.695	2120.3
677.044	2078.72
677.393	2062.45
677.741	2102.9
678.09	2065.84
678.438	2054.31
678.787	2082.56
679.135	2076.23
679.484	2052.28
679.832	2046.63
680.181	2017.48
680.529	2031.26
680.877	2050.02
681.225	2062.67
681.573	2040.75
681.922	2018.38
682.27	2037.36
682.618	2010.92
682.966	2038.27
683.314	2016.12
683.661	2046.18
684.009	1995.78
684.357	2021.09
684.705	2022.22
685.053	2017.93
685.4	2011.15
685.748	1987.19
686.095	1995.1
686.443	1980.64
686.79	1966.63
687.138	1940.64
687.485	1947.42
687.832	1971.6
688.18	1951.49
688.527	1980.87
688.874	1967.53
689.221	1940.87
689.568	1937.25
689.915	1914.2
690.262	1938.61
690.609	1930.02
690.956	1962.11
691.303	1932.28
691.65	1934.99
691.997	1910.13
692.344	1892.05
692.69	1894.77
693.037	1866.29
693.383	1848.89
693.73	1885.05
694.077	1857.48
694.423	1885.05
694.769	1863.81
695.116	1847.54
695.462	1876.69
695.808	1836.46
696.155	1848.67
696.501	1871.26
696.847	1858.84
697.193	1855.67
697.539	1816.58
697.885	1836.91
698.231	1810.7
698.577	1807.54
698.923	1784.04
699.269	1777.71
699.614	1780.87
699.96	1793.53
700.306	1775
700.651	1765.96
700.997	1774.32
701.342	1762.57
701.688	1782
702.033	1746.07
702.379	1765.5
702.724	1769.12
703.069	1756.69
703.415	1734.09
703.76	1719.18
704.105	1740.65
704.45	1758.5
704.795	1754.88
705.14	1735.22
705.485	1744.94
705.83	1743.13
706.175	1746.07
706.52	1740.19
706.865	1723.92
707.209	1734.77
707.554	1719.86
707.899	1723.92
708.243	1751.49
708.588	1707.43
708.932	1742.68
709.277	1721.89
709.621	1730.03
709.966	1760.76
710.31	1726.41
710.654	1706.97
710.998	1739.52
711.342	1708.33
711.687	1723.7
712.031	1746.97
712.375	1720.76
712.719	1761.44
713.063	1752.85
713.407	1736.13
713.75	1740.19
714.094	1750.36
714.438	1742.68
714.782	1752.85
715.125	1709.01
715.469	1738.39
715.812	1721.21
716.156	1735.9
716.499	1720.53
716.843	1762.11
717.186	1741.55
717.53	1742.91
717.873	1790.36
718.216	1759.63
718.559	1742.45
718.902	1766.86
719.246	1769.12
719.589	1763.02
719.932	1783.36
720.275	1782.45
720.617	1790.36
720.96	1788.1
721.303	1812.51
721.646	1806.41
721.989	1802.34
722.331	1797.59
722.674	1797.37
723.016	1819.97
723.359	1810.7
723.701	1817.25
724.044	1816.8
724.386	1825.39
724.729	1836.69
725.071	1816.35
725.413	1812.28
725.755	1868.1
726.097	1857.25
726.439	1813.41
726.782	1832.85
727.124	1886.41
727.465	1879.63
727.807	1845.28
728.149	1883.24
728.491	1892.28
728.833	1913.52
729.175	1885.05
729.516	1926.63
729.858	1914.2
730.199	1924.6
730.541	1989.23
730.882	1956.69
731.224	1924.6
731.565	1933.18
731.906	1947.42
732.248	1964.37
732.589	2005.95
732.93	1952.62
733.271	1996.23
733.612	1956.01
733.953	2008.44
734.294	2011.37
734.635	2010.24
734.976	2054.99
735.317	2025.16
735.658	2044.82
735.999	2091.82
736.339	2097.7
736.68	2104.93
737.021	2119.39
737.361	2143.57
737.702	2148.55
738.042	2157.13
738.383	2189
738.723	2174.08
739.063	2190.8
739.404	2205.04
739.744	2231.93
740.084	2244.59
740.424	2273.29
740.764	2282.33
741.104	2278.71
741.444	2273.29
741.784	2324.81
742.124	2312.38
742.464	2357.13
742.804	2387.18
743.143	2384.47
743.483	2438.26
743.823	2466.73
744.162	2485.49
744.502	2510.34
744.841	2479.38
745.181	2549.89
745.52	2591.92
745.86	2598.25
746.199	2624.46
746.538	2658.36
746.877	2710.34
747.216	2716.89
747.556	2769.32
747.895	2799.15
748.234	2842.31
748.573	2838.7
748.911	2927.96
749.25	2955.53
749.589	2960.28
749.928	2977.45
750.267	3078.01
750.605	3066.04
750.944	3147.39
751.283	3147.61
751.621	3220.61
751.96	3278.01
752.298	3343.77
752.636	3384.22
752.975	3421.73
753.313	3462.63
753.651	3524.1
753.989	3570.2
754.327	3600.03
754.666	3677.54
755.004	3717.32
755.342	3781.04
755.679	3826.69
756.017	3877.77
756.355	3932.68
756.693	3985.79
757.031	4059.68
757.368	4104.2
757.706	4136.06
758.044	4211.99
758.381	4225.55
758.719	4345.32
759.056	4369.73
759.394	4433.91
759.731	4505.77
760.068	4601.59
760.405	4616.5
760.743	4624.64
761.08	4703.51
761.417	4726.1
761.754	4785.99
762.091	4891.07
762.428	4903.28
762.765	4959.77
763.102	5013.78
763.438	5039.54
763.775	5113.89
764.112	5171.97
764.449	5235.47
764.785	5243.61
765.122	5272.98
765.458	5331.96
765.795	5437.95
766.131	5419.19
766.467	5458.06
766.804	5522.24
767.14	5524.05
767.476	5598.17
767.812	5587.78
768.148	5692.63
768.485	5740.77
768.821	5759.3
769.157	5841.33
769.492	5861.22
769.828	5834.1
770.164	5876.81
770.5	5893.53
770.836	5934.66
771.171	5943.47
