Data from blue_clamp_base_FLMS001491_00057.txt Node
Date: Wed Feb 08 15:16:13 GMT 2017
User: dcchb
Spectrometer: FLMS00149
Trigger mode: 0
Integration Time (sec): 2.000000E-2
Scans to average: 10
Electric dark correction enabled: true
Nonlinearity correction enabled: false
Boxcar width: 0
XAxis mode: Wavelengths
Number of Pixels in Spectrum: 2048
>>>>>Begin Spectral Data<<<<<
341.393	-0.48
341.776	-0.48
342.16	-0.48
342.543	-63.08
342.927	-79.57
343.31	-68.28
343.693	-84.32
344.077	-51.33
344.46	-78.9
344.843	-56.07
345.226	-43.42
345.61	-33.25
345.993	-16.98
346.376	9.46
346.759	17.82
347.142	32.29
347.525	13.76
347.908	57.6
348.291	65.51
348.674	124.94
349.057	111.16
349.44	105.96
349.823	145.5
350.206	169.68
350.588	189.57
350.971	205.84
351.354	224.6
351.737	215.33
352.119	219.18
352.502	259.63
352.884	272.73
353.267	263.24
353.65	283.13
354.032	297.82
354.414	300.3
354.797	296.91
355.179	306.4
355.562	309.57
355.944	308.44
356.326	315.44
356.709	322.45
357.091	344.82
357.473	319.74
357.855	326.97
358.238	309.79
358.62	322
359.002	319.96
359.384	326.97
359.766	310.7
360.148	320.42
360.53	319.29
360.912	326.06
361.294	323.58
361.676	308.44
362.057	335.33
362.439	331.94
362.821	314.09
363.203	306.18
363.584	311.83
363.966	299.85
364.348	307.08
364.729	321.77
365.111	305.27
365.493	322
365.874	310.7
366.256	318.16
366.637	306.18
367.019	303.69
367.4	304.82
367.781	300.08
368.163	297.37
368.544	305.95
368.925	315.9
369.306	291.04
369.688	291.49
370.069	300.98
370.45	301.66
370.831	299.85
371.212	297.14
371.593	294.88
371.974	311.6
372.355	312.05
372.736	311.83
373.117	295.11
373.498	313.18
373.879	329.91
374.26	317.93
374.641	317.48
375.021	330.81
375.402	285.84
375.783	308.89
376.163	317.93
376.544	331.26
376.925	328.32
377.305	320.42
377.686	315.9
378.066	330.36
378.447	328.1
378.827	312.96
379.208	322.45
379.588	327.42
379.968	333.97
380.349	333.97
380.729	325.39
381.109	317.03
381.489	329.23
381.87	312.96
382.25	323.13
382.63	337.82
383.01	374.43
383.39	330.36
383.77	343.01
384.15	336.23
384.53	344.14
384.91	324.71
385.29	350.7
385.67	349.57
386.049	332.62
386.429	349.12
386.809	328.55
387.189	345.95
387.568	341.88
387.948	351.83
388.328	342.79
388.707	351.83
389.087	362.22
389.466	376.69
389.846	378.49
390.225	368.1
390.605	358.61
390.984	363.8
391.363	379.62
391.743	397.25
392.122	406.06
392.501	400.64
392.881	397.93
393.26	399.28
393.639	392.73
394.018	368.78
394.397	398.83
394.776	413.29
395.155	421.43
395.534	411.94
395.913	405.38
396.292	418.72
396.671	429.34
397.05	419.4
397.429	428.89
397.808	428.89
398.186	457.81
398.565	447.87
398.944	459.17
399.323	452.16
399.701	457.59
400.08	462.56
400.458	474.76
400.837	475.21
401.215	458.94
401.594	474.08
401.972	475.21
402.351	487.87
402.729	494.42
403.107	500.98
403.486	485.61
403.864	504.82
404.242	506.4
404.62	530.58
404.999	541.65
405.377	537.36
405.755	526.74
406.133	523.35
406.511	531.48
406.889	554.08
407.267	543.69
407.645	560.18
408.023	560.18
408.401	598.15
408.779	597.92
409.156	570.35
409.534	618.71
409.912	597.24
410.29	609.22
410.667	617.81
411.045	632.72
411.422	634.53
411.8	640.86
412.178	641.76
412.555	678.37
412.933	671.82
413.31	668.2
413.687	671.37
414.065	705.72
414.442	673.63
414.819	701.87
415.197	706.17
415.574	733.96
415.951	722.44
416.328	720.63
416.705	732.83
417.082	741.42
417.46	744.13
417.837	752.72
418.214	752.72
418.591	785.94
418.967	759.27
419.344	758.6
419.721	758.37
420.098	809.44
420.475	813.51
420.852	808.54
421.228	806.05
421.605	829.55
421.982	825.03
422.358	849.21
422.735	863.23
423.111	873.85
423.488	880.85
423.864	872.04
424.241	887.41
424.617	898.48
424.994	921.3
425.37	921.53
425.746	927.86
426.123	928.31
426.499	921.98
426.875	972.83
427.251	987.74
427.627	978.93
428.003	998.36
428.379	1009.21
428.756	1018.02
429.132	1018.25
429.507	1069.55
429.883	1074.97
430.259	1075.88
430.635	1103.45
431.011	1074.97
431.387	1121.75
431.763	1135.31
432.138	1117.46
432.514	1153.39
432.89	1185.48
433.265	1192.71
433.641	1186.61
434.016	1221.63
434.392	1254.85
434.767	1259.6
435.143	1279.26
435.518	1308.64
435.894	1306.15
436.269	1294.18
436.644	1344.8
437.02	1340.28
437.395	1366.26
437.77	1390.9
438.145	1405.13
438.52	1451.01
438.895	1429.54
439.271	1435.41
439.646	1465.92
440.021	1491.23
440.395	1494.62
440.77	1475.64
441.145	1489.65
441.52	1535.52
441.895	1528.75
442.27	1575.07
442.645	1567.16
443.019	1587.95
443.394	1593.83
443.769	1586.82
444.143	1591.34
444.518	1616.2
444.892	1622.98
445.267	1649.87
445.641	1642.64
446.016	1670.89
446.39	1695.52
446.764	1695.52
447.139	1696.42
447.513	1688.06
447.887	1722.41
448.262	1732.13
448.636	1759.02
449.01	1799.02
449.384	1779.13
449.758	1792.24
450.132	1835.18
450.506	1849.87
450.88	1822.3
451.254	1867.49
451.628	1863.65
452.002	1889.41
452.376	1910.2
452.75	1971.22
453.123	1928.06
453.497	1989.3
453.871	1985.68
454.244	2057.77
454.618	2036.98
454.992	2064.55
455.365	2086.47
455.739	2141.16
456.112	2128.5
456.486	2177.54
456.859	2159.01
457.232	2246.92
457.606	2202.85
457.979	2249.63
458.352	2270.19
458.725	2310.19
459.099	2326.92
459.472	2367.59
459.845	2377.54
460.218	2386.12
460.591	2463.41
460.964	2447.37
461.337	2496.4
461.71	2526.46
462.083	2545.89
462.456	2583.41
462.829	2552
463.201	2607.59
463.574	2618.43
463.947	2671.77
464.32	2679
464.692	2731.88
465.065	2755.83
465.438	2781.82
465.81	2792.21
466.183	2839.45
466.555	2886.45
466.928	2895.49
467.3	2908.37
467.672	2936.17
468.045	2973.45
468.417	3003.73
468.789	3050.29
469.161	3081.25
469.534	3081.92
469.906	3170.74
470.278	3173.67
470.65	3224.97
471.022	3280.11
471.394	3281.92
471.766	3333.44
472.138	3369.37
472.51	3453.89
472.882	3506.77
473.253	3528.01
473.625	3566.66
473.997	3592.87
474.369	3612.53
474.74	3658.86
475.112	3752.87
475.484	3783.15
475.855	3855.69
476.227	3841.45
476.598	3911.28
476.97	3973.43
477.341	4011.39
477.713	4052.75
478.084	4105.85
478.455	4179.52
478.827	4231.95
479.198	4302.68
479.569	4295.23
479.94	4464.94
480.311	4464.26
480.682	4504.49
481.053	4632.39
481.424	4679.62
481.795	4706.51
482.166	4752.62
482.537	4800.75
482.908	4871.71
483.279	4906.51
483.65	4998.48
484.021	5055.43
484.391	5062.44
484.762	5114.64
485.133	5160.29
485.503	5206.16
485.874	5274.86
486.244	5305.14
486.615	5361.64
486.985	5460.85
487.356	5492.93
487.726	5556.44
488.097	5587.85
488.467	5592.37
488.837	5704.23
489.207	5745.58
489.578	5745.13
489.948	5846.15
490.318	5863.32
490.688	5905.81
491.058	5912.81
491.428	6048.85
491.798	6050.21
492.168	6135.63
492.538	6107.83
492.908	6172.46
493.278	6253.82
493.648	6204.55
494.017	6349.86
494.387	6316.87
494.757	6323.87
495.126	6315.51
495.496	6358
495.866	6388.96
496.235	6420.14
496.605	6495.17
496.974	6468.5
497.344	6520.48
497.713	6567.03
498.082	6588.73
498.452	6645.45
498.821	6606.13
499.19	6670.3
499.559	6709.63
499.928	6671.66
500.298	6701.26
500.667	6710.08
501.036	6684.77
501.405	6787.82
501.774	6800.7
502.143	6793.69
502.512	6826.68
502.88	6871.2
503.249	6839.11
503.618	6835.95
503.987	6877.53
504.356	6883.18
504.724	6976.29
505.093	6955.27
505.462	6975.61
505.83	6986.91
506.199	6982.39
506.567	7048.15
506.936	7040.92
507.304	7135.83
507.672	7122.95
508.041	7105.32
508.409	7190.07
508.777	7187.13
509.145	7198.88
509.514	7208.14
509.882	7206.79
510.25	7245.88
510.618	7246.79
510.986	7227.35
511.354	7312.1
511.722	7308.03
512.09	7373.79
512.458	7332.89
512.826	7373.56
513.193	7388.7
513.561	7363.62
513.929	7416.05
514.297	7466.44
514.664	7473.9
515.032	7444.07
515.4	7491.53
515.767	7479.78
516.135	7571.07
516.502	7519.32
516.869	7588.02
517.237	7571.75
517.604	7581.69
517.972	7616.72
518.339	7654.46
518.706	7710.28
519.073	7678.64
519.44	7690.39
519.808	7740.56
520.175	7712.76
520.542	7892.65
520.909	7814.46
521.276	7762.03
521.643	7922.93
522.009	7941.91
522.376	7900.78
522.743	7855.13
523.11	7919.76
523.477	7991.85
523.843	8039.53
524.21	8104.62
524.577	8111.62
524.943	8167.67
525.31	8135.13
525.676	8172.41
526.043	8183.49
526.409	8268.23
526.776	8290.15
527.142	8336.93
527.508	8306.87
527.874	8416.02
528.241	8404.95
528.607	8412.63
528.973	8372.86
529.339	8515.45
529.705	8521.78
530.071	8578.28
530.437	8609.91
530.803	8598.16
531.169	8665.05
531.535	8598.84
531.901	8628.45
532.267	8637.94
532.632	8683.59
532.998	8678.84
533.364	8697.37
533.73	8797.25
534.095	8821.89
534.461	8848.78
534.826	8846.52
535.192	8873.18
535.557	8966.29
535.923	8938.72
536.288	9007.87
536.653	9037.93
537.019	8992.96
537.384	9047.19
537.749	9049.9
538.114	9097.81
538.479	9070.47
538.845	9093.97
539.21	9089.45
539.575	9150.24
539.94	9222.78
540.305	9168.09
540.67	9176
541.034	9206.28
541.399	9232.95
541.764	9217.13
542.129	9330.57
542.494	9220.97
542.858	9287.86
543.223	9303
543.587	9373.28
543.952	9340.29
544.316	9324.02
544.681	9356.79
545.045	9349.78
545.41	9431.14
545.774	9406.96
546.138	9384.13
546.503	9434.53
546.867	9325.15
547.231	9545.71
547.595	9475.2
547.959	9524.69
548.324	9512.49
548.688	9512.04
549.052	9564.69
549.416	9562.43
549.779	9592.49
550.143	9540.96
550.507	9597.23
550.871	9579.15
551.235	9566.27
551.599	9613.73
551.962	9622.32
552.326	9612.6
552.689	9737.79
553.053	9678.81
553.417	9685.14
553.78	9792.71
554.143	9752.03
554.507	9806.95
554.87	9801.75
555.234	9784.8
555.597	9777.79
555.96	9828.19
556.323	9805.59
556.686	9844.91
557.05	9830
557.413	9854.4
557.776	9874.97
558.139	9959.26
558.502	9870.9
558.865	9850.33
559.228	9952.25
559.59	9966.04
559.953	9930.78
560.316	10062.76
560.679	10048.3
561.041	10029.54
561.404	10015.3
561.767	10105.24
562.129	10071.57
562.492	10233.15
562.854	10179.14
563.217	10167.16
563.579	10187.5
563.941	10217.33
564.304	10224.34
564.666	10239.48
565.028	10291.68
565.39	10309.31
565.753	10361.51
566.115	10407.38
566.477	10431.56
566.839	10396.76
567.201	10544.1
567.563	10531.9
567.925	10609.41
568.287	10554.95
568.648	10567.38
569.01	10641.73
569.372	10722.4
569.734	10628.39
570.095	10692.57
570.457	10817.31
570.819	10793.13
571.18	10761.04
571.542	10833.59
571.903	10847.37
572.265	10886.69
572.626	10870.65
572.987	10899.8
573.349	10935.73
573.71	10994.48
574.071	10994.48
574.432	11038.55
574.794	11060.92
575.155	11063.86
575.516	11016.63
575.877	11128.04
576.238	11136.4
576.599	11188.6
576.96	11151.54
577.32	11202.16
577.681	11304.53
578.042	11279.9
578.403	11204.65
578.763	11320.13
579.124	11368.03
579.485	11426.56
579.845	11359.22
580.206	11427.92
580.566	11358.77
580.927	11396.28
581.287	11416.85
581.648	11427.02
582.008	11454.36
582.368	11445.77
582.728	11476.28
583.089	11541.59
583.449	11497.3
583.809	11491.42
584.169	11569.16
584.529	11523.51
584.889	11582.94
585.249	11501.82
585.609	11557.86
585.969	11596.5
586.329	11568.26
586.688	11509.05
587.048	11616.84
587.408	11598.31
587.768	11543.85
588.127	11623.85
588.487	11544.98
588.846	11645.32
589.206	11572.77
589.565	11624.98
589.925	11611.19
590.284	11625.88
590.643	11673.79
591.003	11704.07
591.362	11645.77
591.721	11654.58
592.08	11633.56
592.44	11719.89
592.799	11717.4
593.158	11686.44
593.517	11701.81
593.876	11728.02
594.235	11713.56
594.593	11723.05
594.952	11782.71
595.311	11685.31
595.67	11775.93
596.029	11776.61
596.387	11865.42
596.746	11866.55
597.104	11807.12
597.463	11835.14
597.822	11820.45
598.18	11849.38
598.538	11818.87
598.897	11791.53
599.255	11832.88
599.613	11890.51
599.972	11830.62
600.33	11845.08
600.688	11838.3
601.046	11804.86
601.404	11886.66
601.762	11884.63
602.12	11941.8
602.478	12014.12
602.836	11926.44
603.194	11860.22
603.552	11928.7
603.91	11953.33
604.268	11928.02
604.625	11983.16
604.983	11921.24
605.341	11868.13
605.698	11954.01
606.056	11994.91
606.413	11983.84
606.771	11966.66
607.128	11994.91
607.485	11903.61
607.843	11974.12
608.2	12006.89
608.557	12087.11
608.914	11992.42
609.272	12041.24
609.629	12061.35
609.986	12156.94
610.343	12092.76
610.7	12121.46
611.057	12115.13
611.414	12132.99
611.771	12109.71
612.127	12191.29
612.484	12154.91
612.841	12301.57
613.198	12220.89
613.554	12163.49
613.911	12226.54
614.267	12253.21
614.624	12203.49
614.98	12290.72
615.337	12360.55
615.693	12395.35
616.05	12319.42
616.406	12438.06
616.762	12417.5
617.118	12408.23
617.475	12392.41
617.831	12349.48
618.187	12363.49
618.543	12393.32
618.899	12506.54
619.255	12536.14
619.611	12452.98
619.967	12568.91
620.323	12426.99
620.678	12450.49
621.034	12459.98
621.39	12498.17
621.746	12470.15
622.101	12630.37
622.457	12465.86
622.812	12547.89
623.168	12674.21
623.523	12583.37
623.879	12661.11
624.234	12583.37
624.589	12641
624.945	12738.85
625.3	12683.03
625.655	12739.75
626.01	12699.3
626.365	12704.72
626.72	12700.43
627.075	12701.11
627.43	12790.14
627.785	12704.27
628.14	12806.64
628.495	12784.49
628.85	12764.38
629.205	12773.2
629.559	12909.69
629.914	12767.55
630.269	12777.26
630.623	12810.48
630.978	12734.55
631.332	12862.01
631.687	12878.5
632.041	12813.65
632.396	12841.44
632.75	12797.83
633.104	12899.75
633.459	12840.54
633.813	12874.89
634.167	12882.8
634.521	12869.24
634.875	12920.76
635.229	12940.2
635.583	12857.71
635.937	12815.68
636.291	12957.15
636.645	12875.57
636.999	12876.02
637.352	12946.52
637.706	12938.39
638.06	12901.33
638.413	12988.33
638.767	12955.56
639.121	12949.46
639.474	12945.85
639.828	13040.08
640.181	12982
640.534	13120.3
640.888	12993.75
641.241	12952.4
641.594	13055.67
641.947	13093.64
642.301	13105.39
642.654	13054.77
643.007	13075.79
643.36	13137.48
643.713	13053.41
644.066	13139.74
644.419	13066.97
644.771	13093.19
645.124	13068.33
645.477	13060.42
645.83	13021.55
646.182	12862.23
646.535	12873.31
646.888	12911.5
647.24	12856.13
647.593	12941.1
647.945	12943.36
648.298	12825.85
648.65	12837.83
649.002	12888.45
649.355	12940.2
649.707	12989.01
650.059	13116.69
650.411	13238.95
650.763	13285.27
651.115	13384.48
651.467	13293.18
651.819	13423.12
652.171	13407.98
652.523	13380.86
652.875	13354.2
653.227	13374.31
653.578	13489.11
653.93	13458.15
654.282	13410.24
654.633	13479.17
654.985	13410.01
655.337	13513.74
655.688	13531.59
656.039	13600.52
656.391	13447.53
656.742	13539.28
657.094	13555.77
657.445	13625.6
657.796	13639.39
658.147	13589.22
658.498	13532.05
658.849	13543.34
659.2	13558.94
659.551	13620.4
659.902	13672.83
660.253	13653.4
660.604	13703.79
660.955	13663.12
661.306	13794.64
661.656	13721.64
662.007	13666.28
662.358	13665.6
662.708	13736.79
663.059	13759.61
663.409	13678.26
663.76	13704.7
664.11	13700.63
664.461	13742.89
664.811	13797.58
665.161	13708.54
665.511	13695.66
665.862	13726.62
666.212	13784.02
666.562	13808.65
666.912	13785.37
667.262	13785.6
667.612	13692.04
667.962	13803
668.312	13734.53
668.662	13759.84
669.011	13763.45
669.361	13679.39
669.711	13656.11
670.06	13561.88
670.41	13678.93
670.76	13599.39
671.109	13739.27
671.459	13546.28
671.808	13579.05
672.157	13503.35
672.507	13498.15
672.856	13389.68
673.205	13476.91
673.554	13440.52
673.904	13445.95
674.253	13474.87
674.602	13359.62
674.951	13109.01
675.3	13104.26
675.649	13331.6
675.998	13326.63
676.346	13299.96
676.695	13324.59
677.044	13211.83
677.393	13211.6
677.741	13233.52
678.09	13177.93
678.438	13179.06
678.787	13171.83
679.135	13178.61
679.484	13108.33
679.832	13091.6
680.181	13010.48
680.529	13012.06
680.877	12920.99
681.225	12808.9
681.573	12991.49
681.922	12800.77
682.27	12900.42
682.618	12924.6
682.966	12809.13
683.314	12826.75
683.661	12815.23
684.009	12725.06
684.357	12712.18
684.705	12655.46
685.053	12659.75
685.4	12657.04
685.748	12560.09
686.095	12683.48
686.443	12558.06
686.79	12507.89
687.138	12558.96
687.485	12484.84
687.832	12454.33
688.18	12433.54
688.527	12408.91
688.874	12413.2
689.221	12304.06
689.568	12337.73
689.915	12369.59
690.262	12339.99
690.609	12337.95
690.956	12266.77
691.303	12296.6
691.65	12203.49
691.997	12197.84
692.344	12104.29
692.69	12096.15
693.037	12234.68
693.383	12085.53
693.73	12157.62
694.077	12084.17
694.423	12045.53
694.769	11996.27
695.116	12082.82
695.462	12002.59
695.808	11959.21
696.155	11944.52
696.501	11911.52
696.847	11900.9
697.193	11881.02
697.539	11948.36
697.885	11837.63
698.231	11874.69
698.577	11909.94
698.923	11851.86
699.269	11778.87
699.614	11733.22
699.96	11790.62
700.306	11774.8
700.651	11769.83
700.997	11745.88
701.342	11694.58
701.688	11664.3
702.033	11673.11
702.379	11643.96
702.724	11647.12
703.069	11710.85
703.415	11516.05
703.76	11676.95
704.105	11625.2
704.45	11608.25
704.795	11559.22
705.14	11608.48
705.485	11507.92
705.83	11519.67
706.175	11511.53
706.52	11479.67
706.865	11423.4
707.209	11502.49
707.554	11508.6
707.899	11453.23
708.243	11489.39
708.588	11511.99
708.932	11322.84
709.277	11380.69
709.621	11434.7
709.966	11328.94
710.31	11390.41
710.654	11307.02
710.998	11338.43
711.342	11334.36
711.687	11367.58
712.031	11324.42
712.375	11346.34
712.719	11343.4
713.063	11352.89
713.407	11391.54
713.75	11345.44
714.094	11283.97
714.438	11274.25
714.782	11301.82
715.125	11304.99
715.469	11369.62
715.812	11270.64
716.156	11269.96
716.499	11313.8
716.843	11214.37
717.186	11228.15
717.53	11295.72
717.873	11351.31
718.216	11283.06
718.559	11255.27
718.902	11127.81
719.246	11231.77
719.589	11242.61
719.932	11090.98
720.275	11195.84
720.617	11191.54
720.96	11144.54
721.303	11130.3
721.646	11149.74
721.989	11117.19
722.331	11190.86
722.674	11179.56
723.016	11186.57
723.359	11229.96
723.701	11288.94
724.044	11068.83
724.386	11058.44
724.729	11186.34
725.071	11186.57
725.413	11095.27
725.755	11114.93
726.097	11092.34
726.439	11105.44
726.782	11068.83
727.124	11201.49
727.465	11163.75
727.807	11197.64
728.149	11153.58
728.491	11080.58
728.833	11187.93
729.175	11161.49
729.516	11145.22
729.858	11187.47
730.199	11135.95
730.541	11205.33
730.882	11216.17
731.224	11210.98
731.565	11158.77
731.906	11219.34
732.248	11219.56
732.589	11219.34
732.93	11203.52
733.271	11268.38
733.612	11269.96
733.953	11298.43
734.294	11245.33
734.635	11262.73
734.976	11356.96
735.317	11280.13
735.658	11290.07
735.999	11356.96
736.339	11318.77
736.68	11373.01
737.021	11305.44
737.361	11333.91
737.702	11403.29
738.042	11356.06
738.383	11427.69
738.723	11417.07
739.063	11416.17
739.404	11534.58
739.744	11414.36
740.084	11495.26
740.424	11567.13
740.764	11478.54
741.104	11563.96
741.444	11529.61
741.784	11534.13
742.124	11576.16
742.464	11659.55
742.804	11610.06
743.143	11661.36
743.483	11703.62
743.823	11624.3
744.162	11706.56
744.502	11790.85
744.841	11712.88
745.181	11830.62
745.52	11787.68
745.86	11870.17
746.199	11859.32
746.538	11921.92
746.877	12009.83
747.216	12038.98
747.556	12094.12
747.895	12033.55
748.234	12099.99
748.573	12106.77
748.911	12130.27
749.25	12194
749.589	12208.46
749.928	12287.33
750.267	12343.6
750.605	12416.14
750.944	12332.08
751.283	12393.54
751.621	12393.32
751.96	12502.24
752.298	12449.81
752.636	12525.97
752.975	12482.36
753.313	12546.53
753.651	12619.98
753.989	12635.57
754.327	12654.1
754.666	12665.63
755.004	12730.48
755.342	12802.12
755.679	12826.3
756.017	12798.28
756.355	12883.7
756.693	12875.11
757.031	12850.71
757.368	12869.92
757.706	12972.29
758.044	13055.67
