Data from blue_shiny_book_FLMS001491_00030.txt Node
Date: Wed Feb 08 15:26:45 GMT 2017
User: dcchb
Spectrometer: FLMS00149
Trigger mode: 0
Integration Time (sec): 2.000000E-2
Scans to average: 10
Electric dark correction enabled: true
Nonlinearity correction enabled: false
Boxcar width: 0
XAxis mode: Wavelengths
Number of Pixels in Spectrum: 2048
>>>>>Begin Spectral Data<<<<<
341.393	-4.46
341.776	-4.46
342.16	-4.46
342.543	-63.9
342.927	-80.85
343.31	-61.18
343.693	-49.66
344.077	-71.13
344.46	-50.56
344.843	-66.38
345.226	-51.92
345.61	-50.56
345.993	1.41
346.376	10.23
346.759	-0.62
347.142	22.88
347.525	45.03
347.908	49.09
348.291	79.6
348.674	83.22
349.057	110.56
349.44	134.29
349.823	152.14
350.206	180.16
350.588	221.52
350.971	222.42
351.354	217.68
351.737	260.61
352.119	257.68
352.502	258.13
352.884	284.34
353.267	287.73
353.65	312.36
354.032	325.25
354.414	329.77
354.797	332.7
355.179	345.36
355.562	358.92
355.944	365.92
356.326	342.87
356.709	346.71
357.091	358.92
357.473	380.39
357.855	354.17
358.238	381.06
358.62	356.43
359.002	351.01
359.384	347.62
359.766	368.18
360.148	358.47
360.53	362.31
360.912	367.05
361.294	366.15
361.676	361.63
362.057	359.14
362.439	357.56
362.821	356.43
363.203	347.84
363.584	351.69
363.966	328.64
364.348	329.09
364.729	326.83
365.111	325.25
365.493	350.78
365.874	330.22
366.256	358.01
366.637	341.52
367.019	326.15
367.4	326.6
367.781	349.65
368.163	357.34
368.544	358.01
368.925	351.69
369.306	354.4
369.688	319.82
370.069	329.99
370.45	354.4
370.831	333.38
371.212	332.25
371.593	355.98
371.974	347.84
372.355	357.56
372.736	348.07
373.117	338.35
373.498	363.89
373.879	352.82
374.26	363.89
374.641	367.96
375.021	372.48
375.402	347.39
375.783	364.34
376.163	387.16
376.544	388.52
376.925	410.44
377.305	382.42
377.686	387.39
378.066	377.45
378.447	393.94
378.827	403.89
379.208	406.15
379.588	370.89
379.968	391.46
380.349	392.59
380.729	398.46
381.109	393.72
381.489	423.32
381.87	399.82
382.25	415.86
382.63	413.15
383.01	416.09
383.39	438.46
383.77	428.97
384.15	416.09
384.53	434.85
384.91	428.29
385.29	443.66
385.67	425.36
386.049	444.34
386.429	461.74
386.809	453.38
387.189	450.67
387.568	462.42
387.948	465.35
388.328	467.39
388.707	453.6
389.087	482.08
389.466	474.39
389.846	476.2
390.225	475.75
390.605	494.28
390.984	484.11
391.363	497.44
391.743	518.23
392.122	506.48
392.501	509.2
392.881	536.77
393.26	540.61
393.639	552.13
394.018	539.48
394.397	546.48
394.776	532.25
395.155	546.71
395.534	557.1
395.913	563.21
396.292	585.35
396.671	580.61
397.05	607.05
397.429	602.75
397.808	597.1
398.186	579.7
398.565	586.03
398.944	621.28
399.323	624.22
399.701	626.71
400.08	618.12
400.458	650.89
400.837	662.86
401.215	657.44
401.594	633.71
401.972	661.06
402.351	656.08
402.729	647.05
403.107	680.04
403.486	691.79
403.864	686.59
404.242	712.35
404.62	738.57
404.999	701.73
405.377	722.98
405.755	726.37
406.133	758
406.511	735.86
406.889	779.02
407.267	781.05
407.645	791.9
408.023	790.32
408.401	804.78
408.779	800.26
409.156	821.5
409.534	835.51
409.912	867.15
410.29	866.25
410.667	897.89
411.045	900.82
411.422	925.46
411.8	926.81
412.178	909.41
412.555	955.96
412.933	953.7
413.31	991.22
413.687	1001.16
414.065	982.86
414.442	979.92
414.819	1043.19
415.197	1029.63
415.574	1066.92
415.951	1070.08
416.328	1095.85
416.705	1093.81
417.082	1118.67
417.46	1126.13
417.837	1117.99
418.214	1129.29
418.591	1156.86
418.967	1142.85
419.344	1158.9
419.721	1147.82
420.098	1174.49
420.475	1203.41
420.852	1242.06
421.228	1246.13
421.605	1274.37
421.982	1257.65
422.358	1285.9
422.735	1286.12
423.111	1301.49
423.488	1329.74
423.864	1313.92
424.241	1366.8
424.617	1384.88
424.994	1393.01
425.37	1392.11
425.746	1411.32
426.123	1487.02
426.499	1448.15
426.875	1485.44
427.251	1526.12
427.627	1545.33
428.003	1568.15
428.379	1539.68
428.756	1581.03
429.132	1596.85
429.507	1648.37
429.883	1667.58
430.259	1698.99
430.635	1721.82
431.011	1726.79
431.387	1794.13
431.763	1800.01
432.138	1838.65
432.514	1835.49
432.89	1851.99
433.265	1884.53
433.641	1905.32
434.016	1896.96
434.392	1965.88
434.767	1984.86
435.143	1990.29
435.518	2050.62
435.894	2078.42
436.269	2140.79
436.644	2122.71
437.02	2142.15
437.395	2168.14
437.77	2216.04
438.145	2212.43
438.52	2233.44
438.895	2276.15
439.271	2247.46
439.646	2352.99
440.021	2383.95
440.395	2408.58
440.77	2380.11
441.145	2434.12
441.52	2447
441.895	2479.99
442.27	2538.29
442.645	2484.28
443.019	2526.32
443.394	2529.71
443.769	2554.57
444.143	2554.34
444.518	2605.86
444.892	2610.61
445.267	2666.43
445.641	2709.14
446.016	2729.48
446.39	2732.64
446.764	2770.61
447.139	2772.19
447.513	2817.61
447.887	2780.55
448.262	2801.79
448.636	2849.7
449.01	2895.57
449.384	2906.42
449.758	2918.62
450.132	2972.86
450.506	3055.8
450.88	3034.55
451.254	3065.29
451.628	3093.99
452.002	3157.04
452.376	3182.12
452.75	3188.22
453.123	3204.72
453.497	3304.15
453.871	3277.26
454.244	3340.31
454.618	3359.06
454.992	3430.7
455.365	3444.03
455.739	3577.14
456.112	3592.5
456.486	3637.93
456.859	3694.65
457.232	3736
457.606	3749.56
457.979	3775.32
458.352	3871.37
458.725	3898.71
459.099	3935.77
459.472	4009.89
459.845	4052.83
460.218	4130.8
460.591	4134.19
460.964	4157.69
461.337	4293.28
461.71	4359.49
462.083	4454.4
462.456	4453.05
462.829	4495.31
463.201	4587.96
463.574	4617.79
463.947	4682.42
464.32	4763.55
464.692	4778.01
465.065	4815.98
465.438	4900.72
465.81	5015.74
466.183	5005.12
466.555	5143.42
466.928	5188.85
467.3	5183.87
467.672	5332.35
468.045	5479.46
468.417	5523.53
468.789	5514.71
469.161	5532.34
469.534	5700.7
469.906	5790.64
470.278	5830.86
470.65	5886.91
471.022	6003.97
471.394	6141.36
471.766	6182.04
472.138	6294.81
472.51	6385.43
472.882	6526.89
473.253	6603.27
473.625	6676.94
473.997	6881.01
474.369	6909.71
474.74	6993.54
475.112	7177.04
475.484	7244.16
475.855	7360.54
476.227	7428.79
476.598	7565.96
476.97	7705.62
477.341	7880.3
477.713	8027.19
478.084	8064.03
478.455	8319.84
478.827	8287.97
479.198	8627.85
479.569	8674.86
479.94	8895.87
480.311	9047.05
480.682	9241.62
481.053	9406.59
481.424	9587.15
481.795	9636.64
482.166	9775.62
482.537	9995.5
482.908	10200.01
483.279	10286.11
483.65	10460.12
484.021	10627.35
484.391	10767.91
484.762	10880.9
485.133	11048.35
485.503	11217.61
485.874	11392.3
486.244	11573.31
486.615	11763.36
486.985	11869.35
487.356	12166.97
487.726	12286.29
488.097	12600.63
488.467	12605.83
488.837	12856.44
489.207	13067.51
489.578	13268.18
489.948	13316.99
490.318	13631.79
490.688	13618.23
491.058	13864.55
491.428	14086.92
491.798	14262.51
492.168	14563.29
492.538	14604.19
492.908	14754.7
493.278	14848.48
493.648	14941.81
494.017	15143.16
494.387	15326.21
494.757	15580.66
495.126	15658.4
495.496	15725.74
495.866	15888.68
496.235	16104.27
496.605	16262.45
496.974	16383.35
497.344	16646.17
497.713	16565.5
498.082	16791.71
498.452	16985.82
498.821	17043.68
499.19	17040.51
499.559	17279.83
499.928	17464.46
500.298	17593.49
500.667	17718.01
501.036	17759.82
501.405	17909.87
501.774	18092.46
502.143	18202.97
502.512	18413.81
502.88	18527.48
503.249	18540.81
503.618	18722.05
503.987	18814.93
504.356	18910.29
504.724	19074.36
505.093	19139.44
505.462	19240
505.83	19350.96
506.199	19468.92
506.567	19728.35
506.936	19743.94
507.304	20086.76
507.672	20149.58
508.041	20279.98
508.409	20528.78
508.777	20653.98
509.145	20851.94
509.514	20844.03
509.882	21043.57
510.25	21221.19
510.618	21413.96
510.986	21401.53
511.354	21669.09
511.722	21817.11
512.09	21928.29
512.458	21818.69
512.826	22122.86
513.193	22139.36
513.561	22270.21
513.929	22498.22
514.297	22724.66
514.664	23027.25
515.032	22992.9
515.4	23326.22
515.767	23453.68
516.135	23601.92
516.502	23544.07
516.869	23996.49
517.237	24157.16
517.604	24169.82
517.972	24448.45
518.339	24452.52
518.706	24542.01
519.073	24754.89
519.44	24814.55
519.808	24983.58
520.175	25000.98
520.542	25494.3
520.909	25556.9
521.276	25595.99
521.643	25921.86
522.009	26111.91
522.376	26297.44
522.743	26599.81
523.11	26799.35
523.477	27136.74
523.843	27399.11
524.21	27657.18
524.577	27799.33
524.943	27858.53
525.31	28130.84
525.676	28199.09
526.043	28376.03
526.409	28529.48
526.776	28864.38
527.142	28850.15
527.508	29099.63
527.874	29330.58
528.241	29440.19
528.607	29537.13
528.973	29785.49
529.339	29918.37
529.705	30257.57
530.071	30636.77
530.437	30835.63
530.803	31067.49
531.169	31282.17
531.535	31193.59
531.901	31388.16
532.267	31556.97
532.632	31908.14
532.998	31900.23
533.364	32068.59
533.73	32140.68
534.095	32297.29
534.461	32296.38
534.826	32449.6
535.192	32696.82
535.557	32867.89
535.923	32935.24
536.288	33010.26
536.653	33261.78
537.019	33231.73
537.384	33469.68
537.749	33758.49
538.114	33934.98
538.479	33985.15
538.845	34225.82
539.21	34177.91
539.575	34423.78
539.94	34421.3
540.305	34642.99
540.67	34612.25
541.034	34695.42
541.399	34773.15
541.764	34856.54
542.129	34897.22
542.494	34951.23
542.858	35112.35
543.223	35056.54
543.587	35263.76
543.952	35358.67
544.316	35530.42
544.681	35583.3
545.045	35923.41
545.41	36110.75
545.774	36202.72
546.138	36323.85
546.503	36466.44
546.867	36386.67
547.231	36904.4
547.595	36859.2
547.959	36943.27
548.324	36960.21
548.688	37005.86
549.052	37089.25
549.416	37247.21
549.779	37113.66
550.143	37125.86
550.507	37295.12
550.871	37317.72
551.235	37230.26
551.599	37606.3
551.962	37658.5
552.326	37802
552.689	38043.58
553.053	37947.99
553.417	38166.51
553.78	38794.52
554.143	38595.43
554.507	38801.97
554.87	39028.41
555.234	39419.58
555.597	39223.66
555.96	39383.88
556.323	39483.76
556.686	39570.09
557.05	39795.39
557.413	39766.02
557.776	39616.64
558.139	40053.92
558.502	39841.49
558.865	39969.18
559.228	40164.65
559.59	40175.27
559.953	40411.42
560.316	40706.56
560.679	40689.61
561.041	40995.59
561.404	41274
561.767	41560.09
562.129	41626.53
562.492	41926.86
562.854	42066.75
563.217	41944.26
563.579	42363.46
563.941	42722.1
564.304	42721.87
564.666	42927.29
565.028	42920.51
565.39	42987.85
565.753	43049.09
566.115	43239.37
566.477	43250.22
566.839	43321.18
567.201	43314.85
567.563	43353.04
567.925	43625.58
568.287	43472.59
568.648	43709.42
569.01	43930.65
569.372	44283.64
569.734	44116.64
570.095	44674.36
570.457	44749.16
570.819	44786.9
571.18	45058.08
571.542	45208.59
571.903	45428.24
572.265	45492.65
572.626	45703.71
572.987	45811.51
573.349	46053.08
573.71	46203.14
574.071	46133.53
574.432	46189.12
574.794	46392.28
575.155	46139.63
575.516	46013.31
575.877	46157.49
576.238	46106.64
576.599	46222.57
576.96	46227.77
577.32	46192.29
577.681	46428.89
578.042	46625.72
578.403	46648.55
578.763	46813.51
579.124	46752.05
579.485	47055.54
579.845	47108.65
580.206	47270.68
580.566	47266.61
580.927	47492.82
581.287	47647.39
581.648	47492.37
582.008	47800.83
582.368	47914.5
582.728	47799.03
583.089	47727.62
583.449	47675.87
583.809	47724.9
584.169	47600.84
584.529	47611.69
584.889	47675.19
585.249	47447.85
585.609	47284.24
585.969	47477.23
586.329	47384.57
586.688	47426.38
587.048	47423.44
587.408	47449.66
587.768	47497.34
588.127	47423.89
588.487	47472.93
588.846	47876.54
589.206	47633.15
589.565	47818.01
589.925	47939.13
590.284	47966.93
590.643	48170.54
591.003	48119.24
591.362	48424.77
591.721	48263.87
592.08	48080.15
592.44	48287.37
592.799	48218.22
593.158	48232.46
593.517	48149.75
593.876	48086.25
594.235	47925.8
594.593	47989.76
594.952	47948.85
595.311	47773.49
595.67	47867.5
596.029	47995.86
596.387	47982.98
596.746	48006.25
597.104	47740.5
597.463	48073.82
597.822	48176.87
598.18	48201.73
598.538	48193.37
598.897	48408.73
599.255	48227.71
599.613	48643.3
599.972	48627.48
600.33	48685.1
600.688	48679.68
601.046	48813.01
601.404	48982.72
601.762	48776.85
602.12	49086.68
602.478	48949.05
602.836	48928.26
603.194	48647.59
603.552	48656.4
603.91	48555.84
604.268	48655.05
604.625	48458.67
604.983	48523.3
605.341	48295.96
605.698	48523.53
606.056	48449.86
606.413	48530.76
606.771	48732.11
607.128	48685.33
607.485	48494.6
607.843	48755.61
608.2	49058.88
608.557	49161.7
608.914	48959.22
609.272	49255.71
609.629	49328.7
609.986	49461.81
610.343	49455.93
610.7	49645.98
611.057	49624.97
611.414	49618.64
611.771	49825.41
612.127	49917.84
612.484	49798.07
612.841	49962.81
613.198	49745.19
613.554	49826.99
613.911	49878.07
614.267	49686.89
614.624	49639.88
614.98	49748.13
615.337	49899.08
615.693	49756.26
616.05	49633.55
616.406	49741.8
616.762	49703.61
617.118	49716.72
617.475	49507.91
617.831	49767.56
618.187	49889.14
618.543	49966.43
618.899	50118.29
619.255	50186.99
619.611	50223.59
619.967	50329.35
620.323	50464.49
620.678	50390.37
621.034	50438.73
621.39	50525.06
621.746	50363.03
622.101	50724.82
622.457	50404.83
622.812	50631.49
623.168	50658.61
623.523	50650.93
623.879	50703.36
624.234	50462.23
624.589	50417.71
624.945	50486.64
625.3	50371.16
625.655	50175.01
626.01	50214.33
626.365	50189.92
626.72	50222.69
627.075	50179.3
627.43	50089.81
627.785	49971.4
628.14	50159.42
628.495	50189.25
628.85	50091.17
629.205	50054.11
629.559	50311.05
629.914	50119.19
630.269	50252.97
630.623	50183.82
630.978	50231.96
631.332	50347.21
631.687	50585.17
632.041	50447.09
632.396	50610.03
632.75	50446.19
633.104	50401.9
633.459	50181.56
633.813	50246.87
634.167	50202.8
634.521	50133.88
634.875	50066.08
635.229	50034.9
635.583	49862.93
635.937	49783.83
636.291	49645.08
636.645	49663.61
636.999	49650.05
637.352	49576.61
637.706	49299.78
638.06	49374.35
638.413	49251.19
638.767	49073.57
639.121	49088.48
639.474	48867.25
639.828	48887.13
640.181	48943.4
640.534	48996.73
640.888	49084.19
641.241	48933.69
641.594	49097.75
641.947	49259.33
642.301	49314.92
642.654	49309.72
643.007	49255.26
643.36	49221.81
643.713	49172.55
644.066	49403.5
644.419	49239.67
644.771	49224.75
645.124	49007.58
645.477	49071.99
645.83	48627.25
646.182	48251.67
646.535	47992.47
646.888	47781.85
647.24	47382.31
647.593	47506.15
647.945	47238.81
648.298	46964.7
648.65	46959.95
649.002	46948.43
649.355	47066.39
649.707	47147.74
650.059	47277.46
650.411	47741.85
650.763	47841.28
651.115	48195.63
651.467	48094.61
651.819	47914.95
652.171	47949.08
652.523	47806.71
652.875	47898.23
653.227	47849.87
653.578	48184.78
653.93	48246.47
654.282	48117.21
654.633	47968.06
654.985	48104.1
655.337	48038.79
655.688	48211.22
656.039	48234.49
656.391	47988.4
656.742	47973.03
657.094	48052.8
657.445	48176.42
657.796	48145.01
658.147	47825.24
658.498	47932.81
658.849	47993.82
659.2	47833.38
659.551	47628.41
659.902	47749.76
660.253	47711.12
660.604	47676.32
660.955	47339.83
661.306	47673.83
661.656	47259.38
662.007	47375.53
662.358	47301.41
662.708	47290.34
663.059	47303.67
663.409	46960.4
663.76	47402.2
664.11	47278.81
664.461	47193.17
664.811	47329.21
665.161	47274.07
665.511	47364.69
665.862	47385.03
666.212	47582.76
666.562	47600.16
666.912	47610.78
667.262	47550.44
667.612	47719.71
667.962	47859.59
668.312	47721.51
668.662	47927.16
669.011	47917.89
669.361	47744.34
669.711	47786.6
670.06	47553.38
670.41	47479.94
670.76	47574.17
671.109	47585.25
671.459	47351.13
671.808	47099.61
672.157	47364.01
672.507	46943.45
672.856	46975.09
673.205	47012.61
673.554	47007.63
673.904	46723.12
674.253	46944.13
674.602	46764.02
674.951	46117.26
675.3	45768.8
675.649	46530.81
675.998	46446.74
676.346	46309.57
676.695	46513.41
677.044	46242.91
677.393	46446.52
677.741	46434.09
678.09	46281.55
678.438	46331.27
678.787	46420.08
679.135	46626.85
679.484	46163.59
679.832	46645.61
680.181	46373.75
680.529	46643.8
680.877	46637.47
681.225	46451.49
681.573	46609.9
681.922	46391.61
682.27	46273.42
682.618	46376.69
682.966	46316.58
683.314	46195.68
683.661	46013.99
684.009	45824.39
684.357	45768.8
684.705	45541.23
685.053	45627.11
685.4	45451.52
685.748	45173.11
686.095	45023.28
686.443	44745.32
686.79	44801.82
687.138	44628.26
687.485	44636.4
687.832	44477.31
688.18	44389.4
688.527	44244.09
688.874	44104.89
689.221	43971.56
689.568	43906.47
689.915	43953.03
690.262	43968.39
690.609	43805.68
690.956	43803.88
691.303	43795.52
691.65	43607.27
691.997	43697.89
692.344	43455.41
692.69	43575.41
693.037	43544
693.383	43461.51
693.73	43642.07
694.077	43342.65
694.423	43259.48
694.769	43155.76
695.116	42988.53
695.462	42871.47
695.808	42977.01
696.155	43005.71
696.501	42527.98
696.847	42467.64
697.193	42153.3
697.539	42180.42
697.885	41975.68
698.231	41728
698.577	41783.59
698.923	41530.72
699.269	41334.79
699.614	41005.98
699.96	40889.38
700.306	40914.69
700.651	40653.45
700.997	40353.8
701.342	40131.88
701.688	40164.42
702.033	40093.69
702.379	40061.15
702.724	39904.09
703.069	40093.92
703.415	39567.83
703.76	39715.85
704.105	39722.63
704.45	39686.47
704.795	39476.31
705.14	39389.53
705.485	39310.21
705.83	39287.84
706.175	39422.07
706.52	39354.5
706.865	39280.15
707.209	39332.81
707.554	39216.43
707.899	39350.43
708.243	39070.89
708.588	39124.68
708.932	38784.8
709.277	39013.95
709.621	38974.4
709.966	38582.54
710.31	38685.37
710.654	38275.66
710.998	38248.09
711.342	38266.17
711.687	38117.47
712.031	37892.39
712.375	37682.46
712.719	37782.34
713.063	37623.47
713.407	37580.76
713.75	37274.33
714.094	37069.59
714.438	37020.78
714.782	36999.31
715.125	36927.9
715.469	36816.72
715.812	36607
716.156	36421.02
716.499	36425.31
716.843	36440
717.186	36145.55
717.53	36290.18
717.873	36378.53
718.216	36114.14
718.559	36181.48
718.902	36017.64
719.246	36191.87
719.589	36312.55
719.932	36290.63
720.275	36131.54
720.617	36174.25
720.96	36006.12
721.303	36157.98
721.646	36125.21
721.989	36027.36
722.331	36226
722.674	36167.24
723.016	36193
723.359	36134.93
723.701	36126.11
724.044	35855.61
724.386	35647.93
724.729	35849.51
725.071	35808.61
725.413	35599.35
725.755	35657.42
726.097	35553.92
726.439	35265.12
726.782	35182.63
727.124	35220.15
727.465	35022.19
727.807	34895.41
728.149	34759.59
728.491	34662.2
728.833	34747.62
729.175	34589.88
729.516	34459.04
729.858	34468.75
730.199	34663.33
730.541	34453.84
730.882	34353.5
731.224	34558.02
731.565	34251.36
731.906	34247.74
732.248	34270.12
732.589	34172.04
732.93	34112.15
733.271	34313.5
733.612	34280.29
733.953	34372.94
734.294	34255.88
734.635	34408.64
734.976	34408.19
735.317	34277.57
735.658	34374.52
735.999	34606.6
736.339	34396.67
736.68	34721.86
737.021	34585.81
737.361	34548.07
737.702	34584.46
738.042	34414.52
738.383	34508.75
738.723	34540.39
739.063	34433.73
739.404	34544.46
739.744	34366.84
740.084	34231.47
740.424	34352.83
740.764	34219.04
741.104	34266.27
741.444	34099.72
741.784	33961.2
742.124	34104.7
742.464	33832.61
742.804	33740.86
743.143	33749.23
743.483	33739.51
743.823	33497.48
744.162	33652.05
744.502	33607.08
744.841	33381.1
745.181	33539.29
745.52	33510.36
745.86	33367.54
746.199	33429.23
746.538	33531.38
746.877	33606.18
747.216	33578.61
747.556	33404.38
747.895	33460.65
748.234	33480.08
748.573	33578.61
748.911	33475.11
749.25	33630.36
749.589	33680.98
749.928	33687.53
750.267	33782.67
750.605	33642.11
750.944	33783.8
751.283	33714.42
751.621	33800.98
751.96	33765.27
752.298	33813.4
752.636	33998.71
752.975	33804.59
753.313	33923.01
