Data from blue_surface_keyboard_FLMS001491_027.txt Node
Date: Tue Feb 07 11:12:51 GMT 2017
User: dcchb
Spectrometer: FLMS00149
Trigger mode: 0
Integration Time (sec): 2.000000E-2
Scans to average: 10
Electric dark correction enabled: true
Nonlinearity correction enabled: false
Boxcar width: 0
XAxis mode: Wavelengths
Number of Pixels in Spectrum: 2048
>>>>>Begin Spectral Data<<<<<
341.393	17.68
341.776	17.68
342.16	17.68
342.543	-55.54
342.927	-56.44
343.31	-48.3
343.693	-52.82
344.077	-79.72
344.46	-61.18
344.843	-68.19
345.226	-53.73
345.61	-23.45
345.993	-6.72
346.376	-7.85
346.759	2.77
347.142	3.67
347.525	54.07
347.908	52.26
348.291	73.5
348.674	101.75
349.057	113.95
349.44	142.88
349.823	143.56
350.206	154.4
350.588	191.69
350.971	201.41
351.354	195.08
351.737	220.39
352.119	226.27
352.502	230.56
352.884	246.83
353.267	255.64
353.65	287.96
354.032	285.7
354.414	308.07
354.797	270.33
355.179	322.53
355.562	314.4
355.944	289.99
356.326	320.95
356.709	341.29
357.091	325.02
357.473	322.76
357.855	333.16
358.238	333.61
358.62	335.41
359.002	318.47
359.384	318.47
359.766	314.85
360.148	298.81
360.53	321.63
360.912	325.02
361.294	311.46
361.676	313.49
362.057	313.49
362.439	299.48
362.821	342.87
363.203	311.23
363.584	312.82
363.966	304
364.348	306.04
364.729	289.31
365.111	291.12
365.493	288.86
365.874	300.39
366.256	296.32
366.637	290.44
367.019	289.99
367.4	301.07
367.781	297
368.163	297.9
368.544	311.46
368.925	309.43
369.306	286.15
369.688	287.28
370.069	292.7
370.45	302.42
370.831	271.69
371.212	284.57
371.593	278.69
371.974	283.89
372.355	265.59
372.736	281.63
373.117	289.54
373.498	290.67
373.879	290.44
374.26	290.67
374.641	282.08
375.021	294.74
375.402	302.65
375.783	284.79
376.163	309.65
376.544	293.38
376.925	277.79
377.305	295.19
377.686	293.61
378.066	308.3
378.447	280.5
378.827	293.61
379.208	290.22
379.588	299.94
379.968	295.19
380.349	301.29
380.729	316.66
381.109	296.09
381.489	301.07
381.87	302.87
382.25	307.39
382.63	334.06
383.01	310.33
383.39	290.22
383.77	318.69
384.15	316.21
384.53	295.42
384.91	333.16
385.29	320.95
385.67	308.52
386.049	327.73
386.429	311.46
386.809	298.35
387.189	298.58
387.568	304.91
387.948	312.14
388.328	301.97
388.707	334.96
389.087	335.19
389.466	339.26
389.846	331.35
390.225	315.08
390.605	325.7
390.984	334.28
391.363	322.76
391.743	316.21
392.122	318.47
392.501	317.11
392.881	331.8
393.26	334.28
393.639	320.05
394.018	332.48
394.397	322.08
394.776	334.74
395.155	337.67
395.534	333.16
395.913	326.83
396.292	349.43
396.671	341.74
397.05	352.14
397.429	350.56
397.808	324.57
398.186	338.35
398.565	340.39
398.944	308.07
399.323	330.9
399.701	346.04
400.08	331.12
400.458	346.94
400.837	358.47
401.215	351.23
401.594	338.35
401.972	342.65
402.351	324.57
402.729	363.66
403.107	335.87
403.486	340.39
403.864	370.22
404.242	346.26
404.62	365.47
404.999	357.34
405.377	343.78
405.755	363.89
406.133	345.58
406.511	353.95
406.889	354.85
407.267	361.18
407.645	349.88
408.023	367.5
408.401	372.7
408.779	347.17
409.156	368.41
409.534	381.97
409.912	391.23
410.29	357.79
410.667	362.76
411.045	371.35
411.422	378.13
411.8	380.84
412.178	378.35
412.555	387.62
412.933	375.64
413.31	388.29
413.687	375.64
414.065	391.01
414.442	375.87
414.819	395.07
415.197	386.71
415.574	391.46
415.951	400.27
416.328	380.39
416.705	377.45
417.082	382.65
417.46	407.5
417.837	387.39
418.214	374.28
418.591	418.58
418.967	388.75
419.344	384.45
419.721	391.23
420.098	404.34
420.475	396.88
420.852	398.46
421.228	393.27
421.605	410.67
421.982	421.74
422.358	424.68
422.735	428.07
423.111	398.01
423.488	397.33
423.864	425.36
424.241	423.1
424.617	428.29
424.994	417.45
425.37	448.18
425.746	431.46
426.123	426.94
426.499	440.72
426.875	439.37
427.251	436.43
427.627	447.05
428.003	418.12
428.379	456.54
428.756	440.27
429.132	442.76
429.507	466.03
429.883	455.19
430.259	452.93
430.635	437.11
431.011	443.43
431.387	463.77
431.763	453.38
432.138	451.8
432.514	449.76
432.89	476.43
433.265	456.54
433.641	447.5
434.016	485.69
434.392	468.97
434.767	473.72
435.143	498.12
435.518	465.81
435.894	479.82
436.269	469.87
436.644	497.22
437.02	467.16
437.395	472.81
437.77	503.32
438.145	506.94
438.52	491.34
438.895	496.54
439.271	473.94
439.646	491.12
440.021	511.46
440.395	508.52
440.77	504.68
441.145	512.81
441.52	508.97
441.895	520.04
442.27	494.51
442.645	535.18
443.019	535.41
443.394	556.43
443.769	510.55
444.143	536.09
444.518	528.4
444.892	543.77
445.267	531.79
445.641	539.7
446.016	561.4
446.39	551.68
446.764	540.83
447.139	561.62
447.513	526.82
447.887	541.96
448.262	554.84
448.636	536.99
449.01	560.27
449.384	550.32
449.758	535.41
450.132	569.31
450.506	568.63
450.88	577.44
451.254	550.32
451.628	576.54
452.002	575.86
452.376	583.54
452.75	559.36
453.123	556.88
453.497	588.06
453.871	594.62
454.244	593.26
454.618	579.25
454.992	597.55
455.365	584.9
455.739	600.94
456.112	614.28
456.486	610.44
456.859	616.54
457.232	619.25
457.606	607.72
457.979	616.54
458.352	633.49
458.725	633.71
459.099	636.2
459.472	652.02
459.845	641.4
460.218	639.14
460.591	645.92
460.964	648.4
461.337	640.72
461.71	680.04
462.083	652.47
462.456	672.58
462.829	653.6
463.201	692.92
463.574	674.39
463.947	695.41
464.32	684.56
464.692	700.15
465.065	674.39
465.438	687.27
465.81	703.54
466.183	708.06
466.555	729.98
466.928	699.7
467.3	733.6
467.672	746.93
468.045	723.43
468.417	731.34
468.789	752.13
469.161	730.88
469.534	762.97
469.906	764.33
470.278	779.02
470.65	757.55
471.022	767.04
471.394	794.16
471.766	785.8
472.138	790.09
472.51	801.39
472.882	803.43
473.253	804.56
473.625	810.2
473.997	833.48
474.369	822.18
474.74	820.37
475.112	836.19
475.484	847.49
475.855	870.09
476.227	870.09
476.598	868.06
476.97	879.13
477.341	894.04
477.713	894.72
478.084	895.17
478.455	918.45
478.827	902.41
479.198	922.29
479.569	933.82
479.94	945.12
480.311	948.51
480.682	966.58
481.053	957.55
481.424	985.12
481.795	970.43
482.166	979.47
482.537	1015.4
482.908	1014.72
483.279	1034.83
483.65	1033.02
484.021	1043.42
484.391	1045.68
484.762	1068.05
485.133	1042.51
485.503	1079.12
485.874	1085
486.244	1082.51
486.615	1074.15
486.985	1125.68
487.356	1121.61
487.726	1088.62
488.097	1136.75
488.467	1142.4
488.837	1129.07
489.207	1150.31
489.578	1179.91
489.948	1178.78
490.318	1156.64
490.688	1179.46
491.058	1179.91
491.428	1195.05
491.798	1222.85
492.168	1211.32
492.538	1211.55
492.908	1252.9
493.278	1246.35
493.648	1237.31
494.017	1217.2
494.387	1230.31
494.757	1269.4
495.126	1257.65
495.496	1245.22
495.866	1261.27
496.235	1266.01
496.605	1273.92
496.974	1267.82
497.344	1290.19
497.713	1308.72
498.082	1300.14
498.452	1291.55
498.821	1299.23
499.19	1301.27
499.559	1276.18
499.928	1297.42
500.298	1333.35
500.667	1293.58
501.036	1311.66
501.405	1318.44
501.774	1326.8
502.143	1336.74
502.512	1339.68
502.88	1343.98
503.249	1313.92
503.618	1345.33
503.987	1334.03
504.356	1332.9
504.724	1363.64
505.093	1320.7
505.462	1325.22
505.83	1361.6
506.199	1346.46
506.567	1362.96
506.936	1367.03
507.304	1376.29
507.672	1340.81
508.041	1371.55
508.409	1378.78
508.777	1390.75
509.145	1397.99
509.514	1380.13
509.882	1374.03
510.25	1379.91
510.618	1378.78
510.986	1405.44
511.354	1379.91
511.722	1409.74
512.09	1414.03
512.458	1400.92
512.826	1423.3
513.193	1386.69
513.561	1409.51
513.929	1419.68
514.297	1419.45
514.664	1421.04
515.032	1398.21
515.4	1448.83
515.767	1442.05
516.135	1421.71
516.502	1442.73
516.869	1433.69
517.237	1458.1
517.604	1444.31
517.972	1444.76
518.339	1442.5
518.706	1446.57
519.073	1469.4
519.44	1468.72
519.808	1465.33
520.175	1454.71
520.542	1473.92
520.909	1450.64
521.276	1459
521.643	1452
522.009	1483.18
522.376	1471.66
522.743	1459
523.11	1479.34
523.477	1498.1
523.843	1510.98
524.21	1490.86
524.577	1518.66
524.943	1504.2
525.31	1520.02
525.676	1549.39
526.043	1522.73
526.409	1515.95
526.776	1499.9
527.142	1537.19
527.508	1533.35
527.874	1546.68
528.241	1553.91
528.607	1542.16
528.973	1550.3
529.339	1536.74
529.705	1529.51
530.071	1571.31
530.437	1545.55
530.803	1532.22
531.169	1577.42
531.535	1562.05
531.901	1584.87
532.267	1580.13
532.632	1576.96
532.998	1589.39
533.364	1577.42
533.73	1594.82
534.095	1553.24
534.461	1583.07
534.826	1613.12
535.192	1601.6
535.557	1565.21
535.923	1608.15
536.288	1613.35
536.653	1596.85
537.019	1607.02
537.384	1596.17
537.749	1611.09
538.114	1582.39
538.479	1617.19
538.845	1599.79
539.21	1601.82
539.575	1598.21
539.94	1604.08
540.305	1638.66
540.67	1565.44
541.034	1612.44
541.399	1601.6
541.764	1605.89
542.129	1597.08
542.494	1645.21
542.858	1630.3
543.223	1622.39
543.587	1635.72
543.952	1619.22
544.316	1612.44
544.681	1629.62
545.045	1630.75
545.41	1617.87
545.774	1614.93
546.138	1601.37
546.503	1615.83
546.867	1601.6
547.231	1633.23
547.595	1611.54
547.959	1619.9
548.324	1635.72
548.688	1628.94
549.052	1624.42
549.416	1642.73
549.779	1628.04
550.143	1638.66
550.507	1629.39
550.871	1637.75
551.235	1651.31
551.599	1650.41
551.962	1631.2
552.326	1634.59
552.689	1683.18
553.053	1656.06
553.417	1641.37
553.78	1647.92
554.143	1656.28
554.507	1630.3
554.87	1679.11
555.234	1681.82
555.597	1648.37
555.96	1647.47
556.323	1645.21
556.686	1660.13
557.05	1666.23
557.413	1675.94
557.776	1656.28
558.139	1680.92
558.502	1656.51
558.865	1671.42
559.228	1664.42
559.59	1706.68
559.953	1675.94
560.316	1671.2
560.679	1674.59
561.041	1672.1
561.404	1698.32
561.767	1657.64
562.129	1712.1
562.492	1719.33
562.854	1708.26
563.217	1677.75
563.579	1669.84
563.941	1704.19
564.304	1737.19
564.666	1751.2
565.028	1704.42
565.39	1726.79
565.753	1715.72
566.115	1730.63
566.477	1727.69
566.839	1746
567.201	1735.6
567.563	1737.19
567.925	1742.16
568.287	1734.47
568.648	1780.12
569.01	1761.37
569.372	1764.3
569.734	1743.74
570.095	1771.31
570.457	1739.67
570.819	1744.87
571.18	1757.98
571.542	1742.38
571.903	1772.44
572.265	1777.64
572.626	1771.08
572.987	1772.67
573.349	1757.52
573.71	1809.27
574.071	1775.6
574.432	1811.31
574.794	1796.85
575.155	1805.88
575.516	1807.69
575.877	1769.95
576.238	1790.74
576.599	1817.18
576.96	1805.21
577.32	1802.27
577.681	1795.72
578.042	1820.35
578.403	1811.53
578.763	1835.94
579.124	1842.72
579.485	1834.36
579.845	1815.38
580.206	1827.81
580.566	1783.96
580.927	1821.93
581.287	1811.99
581.648	1840.01
582.008	1830.97
582.368	1847.92
582.728	1817.86
583.089	1838.43
583.449	1798.2
583.809	1838.2
584.169	1819.22
584.529	1836.62
584.889	1842.49
585.249	1818.31
585.609	1798.88
585.969	1827.35
586.329	1831.42
586.688	1816.73
587.048	1804.75
587.408	1843.62
587.768	1827.35
588.127	1827.58
588.487	1807.47
588.846	1858.99
589.206	1836.62
589.565	1823.51
589.925	1834.36
590.284	1856.28
590.643	1835.71
591.003	1867.13
591.362	1878.65
591.721	1840.69
592.08	1837.3
592.44	1842.04
592.799	1849.05
593.158	1837.97
593.517	1854.92
593.876	1846.34
594.235	1870.52
594.593	1863.96
594.952	1827.13
595.311	1870.52
595.67	1844.08
596.029	1872.55
596.387	1863.28
596.746	1890.85
597.104	1863.74
597.463	1868.48
597.822	1861.25
598.18	1896.05
598.538	1872.78
598.897	1886.11
599.255	1890.18
599.613	1891.31
599.972	1881.36
600.33	1892.66
600.688	1879.33
601.046	1882.04
601.404	1905.09
601.762	1872.32
602.12	1899.44
602.478	1881.36
602.836	1927.24
603.194	1871.87
603.552	1887.69
603.91	1887.01
604.268	1931.53
604.625	1908.25
604.983	1917.75
605.341	1891.53
605.698	1894.24
606.056	1947.58
606.413	1917.29
606.771	1918.42
607.128	1892.21
607.485	1898.99
607.843	1901.93
608.2	1910.06
608.557	1938.08
608.914	1934.92
609.272	1932.66
609.629	1938.99
609.986	1890.18
610.343	1949.38
610.7	1910.97
611.057	1956.39
611.414	1961.36
611.771	1960.91
612.127	1965.43
612.484	1957.07
612.841	1969.95
613.198	1954.36
613.554	1978.08
613.911	1978.08
614.267	1960.91
614.624	1941.7
614.98	1994.13
615.337	1958.88
615.693	1966.11
616.05	1974.69
616.406	1989.61
616.762	1960
617.118	2000.23
617.475	1967.69
617.831	1982.6
618.187	1997.52
618.543	1990.74
618.899	1994.13
619.255	2030.74
619.611	2008.14
619.967	1978.99
620.323	2010.4
620.678	1970.4
621.034	1993.22
621.39	2017.18
621.746	2006.11
622.101	2025.31
622.457	2038.42
622.812	2009.5
623.168	1994.13
623.523	2028.25
623.879	2027.35
624.234	2032.32
624.589	2044.75
624.945	2023.96
625.3	2033.9
625.655	2046.33
626.01	2044.07
626.365	2032.77
626.72	2047.91
627.075	2075.48
627.43	2038.87
627.785	2045.65
628.14	2058.99
628.495	2069.15
628.85	2026.22
629.205	2087.46
629.559	2057.18
629.914	2046.78
630.269	2080.23
630.623	2050.17
630.978	2076.61
631.332	2089.95
631.687	2092.66
632.041	2063.73
632.396	2089.95
632.75	2068.7
633.104	2071.87
633.459	2055.14
633.813	2091.75
634.167	2056.95
634.521	2102.15
634.875	2085.88
635.229	2105.31
635.583	2091.98
635.937	2131.07
636.291	2122.26
636.645	2114.13
636.999	2122.26
637.352	2130.17
637.706	2122.94
638.06	2127.68
638.413	2107.12
638.767	2138.98
639.121	2172.2
639.474	2141.7
639.828	2130.17
640.181	2150.73
640.534	2191.41
640.888	2151.64
641.241	2147.57
641.594	2161.58
641.947	2198.19
642.301	2185.08
642.654	2151.19
643.007	2170.17
643.36	2187.12
643.713	2208.13
644.066	2189.83
644.419	2200
644.771	2176.27
645.124	2174.91
645.477	2204.29
645.83	2162.49
646.182	2189.15
646.535	2216.5
646.888	2187.57
647.24	2175.37
647.593	2202.03
647.945	2164.52
648.298	2171.07
648.65	2209.26
649.002	2205.42
649.355	2219.43
649.707	2211.3
650.059	2256.95
650.411	2264.63
650.763	2303.05
651.115	2351.63
651.467	2339.2
651.819	2337.62
652.171	2343.95
652.523	2321.35
652.875	2351.86
653.227	2355.25
653.578	2362.93
653.93	2331.75
654.282	2369.94
654.633	2364.74
654.985	2381.01
655.337	2403.38
655.688	2425.98
656.039	2419.88
656.391	2411.52
656.742	2442.48
657.094	2462.59
657.445	2488.58
657.796	2437.28
658.147	2436.83
658.498	2483.83
658.849	2486.32
659.2	2517.73
659.551	2500.33
659.902	2514.11
660.253	2544.17
660.604	2561.8
660.955	2551.63
661.306	2553.89
661.656	2564.51
662.007	2608.35
662.358	2569.71
662.708	2606.77
663.059	2654.68
663.409	2656.26
663.76	2676.37
664.11	2648.8
664.461	2668.91
664.811	2677.95
665.161	2682.02
665.511	2686.54
665.862	2714.34
666.212	2713.21
666.562	2702.36
666.912	2741
667.262	2728.57
667.612	2751.17
667.962	2790.94
668.312	2739.19
668.662	2770.83
669.011	2799.08
669.361	2788.46
669.711	2818.06
670.06	2858.06
670.41	2832.52
670.76	2827.1
671.109	2860.09
671.459	2827.78
671.808	2867.55
672.157	2889.7
672.507	2901.68
672.856	2855.57
673.205	2878.4
673.554	2909.36
673.904	2933.99
674.253	2920.88
674.602	2959.75
674.951	2946.19
675.3	2938.51
675.649	2993.42
675.998	2988.9
676.346	3009.69
676.695	3028
677.044	3021.67
677.393	3071.16
677.741	3060.77
678.09	3036.36
678.438	3025.29
678.787	3052.63
679.135	3086.98
679.484	3062.12
679.832	3069.81
680.181	3066.64
680.529	3097.83
680.877	3136.47
681.225	3079.07
681.573	3133.08
681.922	3130.14
682.27	3112.29
682.618	3131.95
682.966	3146.41
683.314	3153.87
683.661	3185.06
684.009	3153.42
684.357	3106.87
684.705	3157.04
685.053	3205.17
685.4	3201.33
685.748	3188.22
686.095	3198.62
686.443	3193.42
686.79	3188.45
687.138	3210.37
687.485	3242.23
687.832	3220.99
688.18	3240.88
688.527	3231.16
688.874	3244.72
689.221	3215.11
689.568	3196.13
689.915	3251.04
690.262	3239.75
690.609	3220.99
690.956	3210.14
691.303	3223.47
691.65	3230.71
691.997	3205.17
692.344	3227.32
692.69	3264.6
693.037	3281.55
693.383	3246.75
693.73	3217.6
694.077	3224.38
694.423	3241.55
694.769	3260.31
695.116	3203.81
695.462	3238.62
695.808	3258.73
696.155	3236.13
696.501	3237.49
696.847	3233.64
697.193	3240.2
697.539	3212.4
697.885	3241.1
698.231	3222.8
698.577	3237.49
698.923	3254.43
699.269	3219.41
699.614	3185.28
699.96	3199.07
700.306	3202.91
700.651	3169.01
700.997	3227.32
701.342	3240.88
701.688	3202.23
702.033	3176.02
702.379	3180.99
702.724	3184.61
703.069	3198.62
703.415	3180.09
703.76	3161.1
704.105	3166.98
704.45	3174.66
704.795	3173.08
705.14	3144.83
705.485	3144.38
705.83	3138.96
706.175	3140.76
706.52	3171.95
706.865	3130.82
707.209	3121.33
707.554	3127.66
707.899	3126.3
708.243	3125.17
708.588	3131.27
708.932	3080.88
709.277	3104.61
709.621	3112.29
709.966	3098.28
710.31	3158.62
710.654	3094.44
710.998	3066.42
711.342	3111.16
711.687	3126.98
712.031	3074.55
712.375	3113.65
712.719	3122.91
713.063	3092.18
713.407	3109.13
713.75	3060.54
714.094	3112.52
714.438	3091.73
714.782	3069.58
715.125	3070.94
715.469	3076.81
715.812	3117.26
716.156	3067.77
716.499	3046.76
716.843	3107.32
717.186	3053.31
717.53	3113.65
717.873	3133.53
718.216	3080.65
718.559	3077.94
718.902	3099.86
719.246	3064.61
719.589	3070.94
719.932	3053.99
720.275	3084.95
720.617	3071.84
720.96	3080.88
721.303	3065.96
721.646	3028.45
721.989	3038.17
722.331	3063.7
722.674	3070.94
723.016	3064.16
723.359	3069.35
723.701	3089.47
724.044	3063.03
724.386	3084.5
724.729	3074.55
725.071	3085.85
725.413	3070.03
725.755	3068.9
726.097	3060.99
726.439	3051.73
726.782	3100.54
727.124	3087.88
727.465	3076.13
727.807	3130.6
728.149	3081.33
728.491	3093.76
728.833	3110.26
729.175	3076.36
729.516	3100.99
729.858	3090.37
730.199	3113.42
730.541	3091.95
730.882	3046.3
731.224	3113.42
731.565	3103.25
731.906	3091.95
732.248	3104.38
732.589	3080.2
732.93	3073.2
733.271	3094.66
733.612	3113.87
733.953	3144.38
734.294	3089.01
734.635	3083.82
734.976	3119.75
735.317	3091.05
735.658	3112.29
735.999	3151.84
736.339	3155.45
736.68	3170.37
737.021	3133.31
737.361	3127.88
737.702	3184.83
738.042	3173.08
738.383	3172.85
738.723	3168.56
739.063	3142.35
739.404	3169.92
739.744	3162.23
740.084	3196.13
740.424	3196.81
740.764	3218.05
741.104	3239.29
741.444	3217.6
741.784	3217.15
742.124	3231.61
742.464	3249.69
742.804	3285.39
743.143	3281.55
743.483	3253.53
743.823	3264.6
744.162	3290.82
744.502	3310.93
744.841	3338.95
745.181	3372.4
745.52	3332.62
745.86	3347.77
746.199	3387.76
746.538	3371.49
746.877	3395.22
747.216	3387.31
747.556	3437.48
747.895	3469.8
748.234	3489.23
748.573	3479.74
748.911	3489.91
749.25	3512.05
749.589	3568.1
749.928	3531.04
750.267	3578.95
750.605	3579.62
750.944	3584.6
751.283	3612.39
751.621	3650.13
751.96	3630.92
752.298	3629.79
752.636	3708.43
752.975	3686.97
753.313	3717.47
753.651	3701.43
753.989	3751.14
754.327	3743.46
754.666	3798.15
755.004	3802.22
755.342	3807.19
755.679	3858.49
756.017	3874.3
756.355	3881.99
756.693	3918.6
757.031	3946.17
757.368	3934.64
757.706	3956.34
758.044	3959.27
758.381	3998.6
758.719	4019.61
759.056	4032.72
759.394	4041.08
759.731	4063.23
760.068	4051.7
760.405	4054.41
760.743	4067.07
761.08	4121.98
761.417	4122.21
761.754	4145.48
762.091	4161.53
762.428	4140.29
762.765	4144.35
763.102	4173.05
763.438	4197.91
763.775	4206.05
764.112	4146.61
764.449	4204.01
764.785	4225.48
765.122	4207.86
765.458	4208.08
765.795	4197.01
766.131	4237.46
766.467	4243.56
766.804	4231.13
767.14	4211.02
767.476	4274.07
767.812	4221.41
768.148	4266.61
768.485	4271.58
768.821	4259.61
769.157	4261.64
769.492	4258.48
769.828	4271.81
770.164	4258.48
770.5	4251.24
770.836	4263.45
771.171	4223.22
771.507	4233.17
771.842	4262.54
772.178	4233.84
