Data from blue_chair_FLMS001491_00061.txt Node
Date: Wed Feb 08 10:31:33 GMT 2017
User: dcchb
Spectrometer: FLMS00149
Trigger mode: 0
Integration Time (sec): 2.000000E-2
Scans to average: 10
Electric dark correction enabled: true
Nonlinearity correction enabled: false
Boxcar width: 0
XAxis mode: Wavelengths
Number of Pixels in Spectrum: 2048
>>>>>Begin Spectral Data<<<<<
341.393	-22.88
341.776	-22.88
342.16	-22.88
342.543	-57.23
342.927	-67.17
343.31	-58.36
343.693	-67.17
344.077	-71.69
344.46	-63.33
344.843	-57.46
345.226	-33.5
345.61	-32.6
345.993	-1.64
346.376	-6.61
346.759	-7.29
347.142	17.12
347.525	57.34
347.908	54.63
348.291	60.96
348.674	99.6
349.057	110
349.44	125.14
349.823	126.27
350.206	143.22
350.588	179.6
350.971	193.61
351.354	189.77
351.737	221.18
352.119	220.73
352.502	237.45
352.884	247.39
353.267	237.23
353.65	264.34
354.032	290.78
354.414	283.33
354.797	275.64
355.179	287.17
355.562	286.49
355.944	312.25
356.326	288.98
356.709	297.56
357.091	300.05
357.473	314.06
357.855	302.08
358.238	313.38
358.62	315.87
359.002	329.43
359.384	307.51
359.766	318.81
360.148	313.83
360.53	305.25
360.912	308.64
361.294	297.56
361.676	319.94
362.057	316.77
362.439	312.48
362.821	295.75
363.203	298.92
363.584	297.11
363.966	277.68
364.348	284
364.729	284.46
365.111	285.59
365.493	278.13
365.874	300.95
366.256	295.75
366.637	300.05
367.019	267.28
367.4	286.94
367.781	267.28
368.163	294.17
368.544	279.26
368.925	274.06
369.306	281.97
369.688	274.06
370.069	264.8
370.45	290.33
370.831	282.2
371.212	272.03
371.593	286.49
371.974	296.21
372.355	292.14
372.736	275.42
373.117	254.17
373.498	265.7
373.879	278.58
374.26	294.63
374.641	272.03
375.021	311.35
375.402	277
375.783	309.54
376.163	309.09
376.544	306.38
376.925	296.66
377.305	287.62
377.686	285.36
378.066	296.88
378.447	279.26
378.827	311.35
379.208	302.53
379.588	293.5
379.968	260.73
380.349	283.1
380.729	285.13
381.109	289.65
381.489	298.47
381.87	298.69
382.25	293.04
382.63	304.12
383.01	291.24
383.39	308.64
383.77	302.99
384.15	294.4
384.53	298.47
384.91	298.47
385.29	312.7
385.67	305.02
386.049	307.28
386.429	309.54
386.809	315.42
387.189	319.03
387.568	324
387.948	298.24
388.328	293.04
388.707	304.34
389.087	324.45
389.466	296.21
389.846	296.66
390.225	316.55
390.605	331.69
390.984	324.45
391.363	315.42
391.743	318.13
392.122	332.59
392.501	329.65
392.881	348.86
393.26	339.6
393.639	311.8
394.018	319.94
394.397	317.68
394.776	326.04
395.155	326.49
395.534	337.34
395.913	331.01
396.292	333.27
396.671	327.62
397.05	319.94
397.429	301.18
397.808	314.74
398.186	327.39
398.565	337.56
398.944	328.52
399.323	342.53
399.701	315.42
400.08	357.22
400.458	357.22
400.837	376.88
401.215	345.47
401.594	353.83
401.972	328.97
402.351	335.53
402.729	352.02
403.107	362.87
403.486	360.61
403.864	346.15
404.242	371.69
404.62	351.35
404.999	373.72
405.377	370.56
405.755	365.36
406.133	384.57
406.511	359.71
406.889	375.07
407.267	373.27
407.645	372.82
408.023	392.93
408.401	380.5
408.779	387.73
409.156	389.76
409.534	386.6
409.912	380.05
410.29	387.05
410.667	394.28
411.045	412.36
411.422	397
411.8	375.07
412.178	388.41
412.555	405.36
412.933	410.33
413.31	404.68
413.687	402.64
414.065	411.01
414.442	407.39
414.819	408.75
415.197	413.04
415.574	445.81
415.951	424.57
416.328	425.7
416.705	417.79
417.082	420.5
417.46	432.7
417.837	427.5
418.214	420.05
418.591	429.99
418.967	438.12
419.344	437.9
419.721	440.84
420.098	438.35
420.475	460.27
420.852	463.21
421.228	454.85
421.605	455.75
421.982	481.06
422.358	478.57
422.735	472.47
423.111	474.96
423.488	468.63
423.864	472.02
424.241	490.1
424.617	473.38
424.994	494.17
425.37	487.39
425.746	473.6
426.123	505.69
426.499	488.29
426.875	506.82
427.251	511.57
427.627	505.69
428.003	517.22
428.379	542.75
428.756	516.54
429.132	520.61
429.507	510.66
429.883	537.1
430.259	521.96
430.635	545.01
431.011	541.62
431.387	546.37
431.763	561.06
432.138	562.41
432.514	563.54
432.89	583.88
433.265	573.71
433.641	587.72
434.016	574.39
434.392	594.73
434.767	609.42
435.143	607.39
435.518	640.6
435.894	632.7
436.269	639.7
436.644	622.53
437.02	665.46
437.395	662.07
437.77	688.96
438.145	652.58
438.52	686.25
438.895	666.37
439.271	688.06
439.646	694.39
440.021	674.28
440.395	687.16
440.77	711.11
441.145	711.34
441.52	713.82
441.895	721.28
442.27	724.67
442.645	734.39
443.019	728.74
443.394	733.26
443.769	764.22
444.143	734.39
444.518	741.17
444.892	782.97
445.267	764.22
445.641	766.93
446.016	783.43
446.39	795.4
446.764	808.51
447.139	796.98
447.513	818.45
447.887	805.12
448.262	792.24
448.636	816.87
449.01	807.38
449.384	841.73
449.758	817.32
450.132	836.08
450.506	842.41
450.88	833.37
451.254	855.51
451.628	852.12
452.002	887.83
452.376	878.11
452.75	879.92
453.123	881.73
453.497	880.15
453.871	904.55
454.244	905
454.618	900.03
454.992	923.54
455.365	934.83
455.739	934.38
456.112	978.9
456.486	928.28
456.859	954.49
457.232	966.47
457.606	968.05
457.979	974.61
458.352	960.37
458.725	991.1
459.099	986.13
459.472	983.65
459.845	1048.05
460.218	1028.17
460.591	1030.65
460.964	1031.78
461.337	1062.06
461.71	1037.66
462.083	1052.57
462.456	1086.02
462.829	1085.79
463.201	1082.63
463.574	1091.67
463.947	1099.8
464.32	1105.9
464.692	1123.53
465.065	1145.22
465.438	1121.27
465.81	1132.8
466.183	1142.51
466.555	1167.37
466.928	1180.7
467.3	1169.18
467.672	1177.77
468.045	1215.5
468.417	1169.86
468.789	1201.04
469.161	1193.81
469.534	1222.74
469.906	1242.85
470.278	1241.27
470.65	1241.72
471.022	1262.74
471.394	1264.99
471.766	1317.87
472.138	1319.91
472.51	1314.71
472.882	1347.25
473.253	1368.95
473.625	1365.56
473.997	1384.31
474.369	1358.33
474.74	1391.32
475.112	1370.98
475.484	1407.59
475.855	1429.28
476.227	1433.35
476.598	1457.53
476.97	1439.91
477.341	1478.55
477.713	1488.49
478.084	1505.44
478.455	1516.97
478.827	1521.03
479.198	1562.16
479.569	1539.34
479.94	1600.35
480.311	1580.47
480.682	1636.28
481.053	1620.47
481.424	1657.3
481.795	1672.22
482.166	1661.14
482.537	1675.83
482.908	1700.46
483.279	1706.11
483.65	1715.38
484.021	1737.07
484.391	1767.81
484.762	1766.68
485.133	1747.69
485.503	1766.9
485.874	1800.12
486.244	1805.77
486.615	1818.88
486.985	1822.95
487.356	1855.26
487.726	1829.05
488.097	1863.4
488.467	1860.23
488.837	1857.97
489.207	1897.75
489.578	1878.99
489.948	1908.14
490.318	1931.87
490.688	1942.72
491.058	1904.07
491.428	1926.67
491.798	1963.73
492.168	1958.54
492.538	1944.3
492.908	1924.86
493.278	1962.38
493.648	1973
494.017	1982.04
494.387	1953.34
494.757	1970.29
495.126	1985.88
495.496	1991.3
495.866	1966.9
496.235	1980
496.605	2009.61
496.974	1987.01
497.344	1986.11
497.713	1977.74
498.082	1971.64
498.452	1993.56
498.821	1993.79
499.19	1997.86
499.559	1933.45
499.928	1968.71
500.298	1986.33
500.667	1986.56
501.036	1996.05
501.405	1997.63
501.774	1946.11
502.143	1988.59
502.512	1973.45
502.88	2012.32
503.249	1968.25
503.618	1963.06
503.987	1948.82
504.356	1946.78
504.724	1954.24
505.093	1989.04
505.462	1933.9
505.83	1969.61
506.199	1968.03
506.567	1955.6
506.936	1959.67
507.304	1956.73
507.672	1936.84
508.041	1965.99
508.409	1946.56
508.777	1923.06
509.145	1925.77
509.514	1938.2
509.882	1955.6
510.25	1921.7
510.618	1918.99
510.986	1918.54
511.354	1898.42
511.722	1937.75
512.09	1939.78
512.458	1918.54
512.826	1940.23
513.193	1881.25
513.561	1929.38
513.929	1909.72
514.297	1918.09
514.664	1911.08
515.032	1914.7
515.4	1867.24
515.767	1900.46
516.135	1882.61
516.502	1874.7
516.869	1856.17
517.237	1856.39
517.604	1846.22
517.972	1857.3
518.339	1862.27
518.706	1848.03
519.073	1833.34
519.44	1814.13
519.808	1825.88
520.175	1839.67
520.542	1844.41
520.909	1854.81
521.276	1817.75
521.643	1811.65
522.009	1795.6
522.376	1821.36
522.743	1791.99
523.11	1844.64
523.477	1805.09
523.843	1798.77
524.21	1806.22
524.577	1807.81
524.943	1801.7
525.31	1812.1
525.676	1804.87
526.043	1820.91
526.409	1779.56
526.776	1827.47
527.142	1820.69
527.508	1837.64
527.874	1813.46
528.241	1799.44
528.607	1814.36
528.973	1837.86
529.339	1808.26
529.705	1818.2
530.071	1817.07
530.437	1820.23
530.803	1788.82
531.169	1801.48
531.535	1822.95
531.901	1785.89
532.267	1805.32
532.632	1797.64
532.998	1829.95
533.364	1795.83
533.73	1788.37
534.095	1804.64
534.461	1805.32
534.826	1840.12
535.192	1795.6
535.557	1806.9
535.923	1795.83
536.288	1799.9
536.653	1815.04
537.019	1777.3
537.384	1761.71
537.749	1783.4
538.114	1783.17
538.479	1809.16
538.845	1790.4
539.21	1782.04
539.575	1745.66
539.94	1761.25
540.305	1784.76
540.67	1779.11
541.034	1783.4
541.399	1807.58
541.764	1782.95
542.129	1793.57
542.494	1766.9
542.858	1771.65
543.223	1780.46
543.587	1791.53
543.952	1798.99
544.316	1759.45
544.681	1772.33
545.045	1739.33
545.41	1795.6
545.774	1738.88
546.138	1713.12
546.503	1729.39
546.867	1746.79
547.231	1738.2
547.595	1747.69
547.959	1763.51
548.324	1739.78
548.688	1731.2
549.052	1756.96
549.416	1743.63
549.779	1722.84
550.143	1709.73
550.507	1723.06
550.871	1731.65
551.235	1728.94
551.599	1743.63
551.962	1708.83
552.326	1730.07
552.689	1725.1
553.053	1720.8
553.417	1722.16
553.78	1694.14
554.143	1695.94
554.507	1708.37
554.87	1730.97
555.234	1723.74
555.597	1685.77
555.96	1692.78
556.323	1723.74
556.686	1731.42
557.05	1711.08
557.413	1708.83
557.776	1711.08
558.139	1702.05
558.502	1708.37
558.865	1714.25
559.228	1721.03
559.59	1705.21
559.953	1680.35
560.316	1735.49
560.679	1733.01
561.041	1720.58
561.404	1703.85
561.767	1726.9
562.129	1726.23
562.492	1708.83
562.854	1735.94
563.217	1723.29
563.579	1704.08
563.941	1737.75
564.304	1722.61
564.666	1735.27
565.028	1764.87
565.39	1746.56
565.753	1737.52
566.115	1747.92
566.477	1753.34
566.839	1748.82
567.201	1784.08
567.563	1775.04
567.925	1785.43
568.287	1776.39
568.648	1779.78
569.01	1801.25
569.372	1793.12
569.734	1776.62
570.095	1770.74
570.457	1777.3
570.819	1794.02
571.18	1807.81
571.542	1801.93
571.903	1798.54
572.265	1792.89
572.626	1799.44
572.987	1773.68
573.349	1784.98
573.71	1817.52
574.071	1814.13
574.432	1820.23
574.794	1851.87
575.155	1861.82
575.516	1836.05
575.877	1865.88
576.238	1848.26
576.599	1873.79
576.96	1880.8
577.32	1876.73
577.681	1871.31
578.042	1874.24
578.403	1872.21
578.763	1883.28
579.124	1923.28
579.485	1870.18
579.845	1912.44
580.206	1864.98
580.566	1915.83
580.927	1877.63
581.287	1883.28
581.648	1923.73
582.008	1913.57
582.368	1911.98
582.728	1917.41
583.089	1915.37
583.449	1906.56
583.809	1914.24
584.169	1961.7
584.529	1941.59
584.889	1952.21
585.249	1898.42
585.609	1924.41
585.969	1919.89
586.329	1917.86
586.688	1919.89
587.048	1947.91
587.408	1930.74
587.768	1918.99
588.127	1940.01
588.487	1917.41
588.846	1954.92
589.206	1944.75
589.565	1917.18
589.925	1942.04
590.284	1965.99
590.643	1951.3
591.003	1953.11
591.362	1973.45
591.721	1936.39
592.08	1943.4
592.44	1944.75
592.799	1979.78
593.158	1968.03
593.517	1981.13
593.876	1956.05
594.235	1962.6
594.593	1965.77
594.952	1962.6
595.311	1954.24
595.67	1959.89
596.029	1943.4
596.387	1964.64
596.746	1957.41
597.104	1970.97
597.463	1962.83
597.822	1959.67
598.18	1967.12
598.538	1915.83
598.897	1947.91
599.255	1944.3
599.613	1969.84
599.972	1980.91
600.33	1972.32
600.688	1951.3
601.046	1940.23
601.404	1955.6
601.762	1949.27
602.12	1940.46
602.478	1940.01
602.836	1937.07
603.194	1960.57
603.552	1932.32
603.91	1954.69
604.268	1959.89
604.625	1951.08
604.983	1954.47
605.341	1970.29
605.698	1939.1
606.056	1980.46
606.413	1974.35
606.771	1969.84
607.128	1950.17
607.485	1975.48
607.843	1956.73
608.2	1970.74
608.557	1958.08
608.914	1963.51
609.272	1977.52
609.629	1965.09
609.986	1982.26
610.343	1975.03
610.7	1964.41
611.057	1959.21
611.414	1955.37
611.771	1942.72
612.127	1978.2
612.484	1978.2
612.841	2003.51
613.198	1996.05
613.554	1952.89
613.911	1983.17
614.267	1976.16
614.624	1969.84
614.98	1991.98
615.337	1995.37
615.693	1974.81
616.05	2012.55
616.406	2007.12
616.762	1959.89
617.118	1986.56
617.475	1986.78
617.831	1987.69
618.187	1977.74
618.543	2037.4
618.899	2011.42
619.255	2024.75
619.611	2039.89
619.967	2033.11
620.323	2016.16
620.678	1988.59
621.034	1999.44
621.39	2007.35
621.746	1970.74
622.101	2041.25
622.457	2028.82
622.812	1995.82
623.168	2004.86
623.523	2050.74
623.879	2005.77
624.234	2005.09
624.589	2023.17
624.945	2041.02
625.3	2001.02
625.655	2028.82
626.01	1995.82
626.365	2024.98
626.72	2014.81
627.075	2005.99
627.43	2020.68
627.785	2040.79
628.14	2038.53
628.495	2013.9
628.85	2034.69
629.205	2006.22
629.559	2063.62
629.914	2028.36
630.269	2064.52
630.623	2012.55
630.978	2049.16
631.332	2026.56
631.687	2026.33
632.041	2036.05
632.396	2044.86
632.75	2008.7
633.104	2044.41
633.459	2007.12
633.813	2041.7
634.167	2022.72
634.521	2017.29
634.875	1997.18
635.229	1998.08
635.583	2028.82
635.937	2025.43
636.291	2048.93
636.645	2058.65
636.999	1985.43
637.352	2023.62
637.706	2048.93
638.06	2036.73
638.413	2026.33
638.767	2002.83
639.121	2026.33
639.474	2022.94
639.828	2033.56
640.181	2018.42
640.534	2031.3
640.888	2013.9
641.241	2020.23
641.594	2048.03
641.947	2043.96
642.301	2022.04
642.654	2037.86
643.007	2035.6
643.36	2032.88
643.713	2019.78
644.066	2052.77
644.419	2043.96
644.771	2008.03
645.124	2055.26
645.477	1976.39
645.83	1991.76
646.182	2001.02
646.535	2016.84
646.888	2001.92
647.24	1991.76
647.593	1980.23
647.945	2026.1
648.298	1994.92
648.65	2014.35
649.002	2013.68
649.355	1981.59
649.707	2023.85
650.059	1997.86
650.411	2011.19
650.763	2074.01
651.115	2082.83
651.467	2068.82
651.819	2070.62
652.171	2073.11
652.523	2078.31
652.875	2059.1
653.227	2082.15
653.578	2089.61
653.93	2093.67
654.282	2099.78
654.633	2060
654.985	2070.4
655.337	2085.54
655.688	2069.04
656.039	2107.68
656.391	2082.15
656.742	2100.68
657.094	2114.69
657.445	2125.31
657.796	2122.6
658.147	2129.61
658.498	2095.03
658.849	2093.22
659.2	2083.96
659.551	2150.85
659.902	2103.84
660.253	2115.82
660.604	2172.09
660.955	2114.46
661.306	2120.34
661.656	2138.19
662.007	2118.08
662.358	2107.46
662.708	2138.64
663.059	2140.45
663.409	2110.4
663.76	2133.67
664.11	2128.25
664.461	2109.94
664.811	2140.9
665.161	2153.11
665.511	2120.11
665.862	2155.59
666.212	2130.28
666.562	2137.97
666.912	2134.8
667.262	2137.74
667.612	2164.41
667.962	2124.63
668.312	2156.95
668.662	2129.61
669.011	2153.79
669.361	2172.77
669.711	2133.9
670.06	2114.24
670.41	2114.92
670.76	2133.22
671.109	2102.94
671.459	2126.22
671.808	2124.86
672.157	2125.31
672.507	2137.97
672.856	2100.45
673.205	2129.61
673.554	2097.97
673.904	2107.91
674.253	2105.2
674.602	2109.94
674.951	2063.17
675.3	2077.18
675.649	2074.47
675.998	2105.2
676.346	2091.41
676.695	2064.07
677.044	2056.16
677.393	2078.98
677.741	2057.74
678.09	2083.73
678.438	2071.3
678.787	2056.61
679.135	2075.6
679.484	2074.92
679.832	2094.35
680.181	2047.57
680.529	2041.25
680.877	2026.1
681.225	2045.54
681.573	2065.88
681.922	2002.38
682.27	1989.95
682.618	2012.32
682.966	2020
683.314	2008.03
683.661	2045.31
684.009	1956.95
684.357	1988.37
684.705	1969.16
685.053	2018.87
685.4	1990.17
685.748	2022.72
686.095	1995.6
686.443	2009.83
686.79	1953.56
687.138	1954.92
687.485	1928.93
687.832	1957.63
688.18	1916.28
688.527	1974.35
688.874	1970.97
689.221	1952.89
689.568	1932.1
689.915	1913.79
690.262	1947.01
690.609	1935.94
690.956	1932.77
691.303	1895.26
691.65	1878.31
691.997	1905.88
692.344	1904.53
692.69	1905.66
693.037	1890.74
693.383	1887.35
693.73	1864.3
694.077	1860.23
694.423	1886.22
694.769	1854.58
695.116	1868.59
695.462	1827.01
695.808	1862.49
696.155	1868.37
696.501	1838.09
696.847	1863.17
697.193	1813.23
697.539	1830.4
697.885	1816.62
698.231	1808.71
698.577	1842.38
698.923	1823.62
699.269	1801.93
699.614	1814.59
699.96	1836.28
700.306	1797.86
700.651	1784.3
700.997	1764.19
701.342	1766.68
701.688	1775.72
702.033	1769.39
702.379	1777.98
702.724	1769.84
703.069	1794.47
703.415	1738.2
703.76	1758.99
704.105	1747.24
704.45	1767.58
704.795	1747.02
705.14	1784.08
705.485	1740.69
705.83	1742.95
706.175	1713.34
706.52	1730.52
706.865	1725.77
707.209	1750.41
707.554	1748.82
707.899	1732.1
708.243	1746.11
708.588	1726
708.932	1738.43
709.277	1689.16
709.621	1718.32
709.966	1719.9
710.31	1718.54
710.654	1730.52
710.998	1740.24
711.342	1719.9
711.687	1758.54
712.031	1737.07
712.375	1735.04
712.719	1742.72
713.063	1727.81
713.407	1731.65
713.75	1735.49
714.094	1738.2
714.438	1756.51
714.782	1728.94
715.125	1733.68
715.469	1723.51
715.812	1730.52
716.156	1763.51
716.499	1749.28
716.843	1759.67
717.186	1729.39
717.53	1739.33
717.873	1773.68
718.216	1779.11
718.559	1758.77
718.902	1743.85
719.246	1750.18
719.589	1752.89
719.932	1799.22
720.275	1805.77
720.617	1789.73
720.96	1745.89
721.303	1795.38
721.646	1791.76
721.989	1791.76
722.331	1787.02
722.674	1798.54
723.016	1808.03
723.359	1827.24
723.701	1818.43
724.044	1808.48
724.386	1794.25
724.729	1821.82
725.071	1817.97
725.413	1831.53
725.755	1879.44
726.097	1825.66
726.439	1846
726.782	1833.79
727.124	1862.27
727.465	1854.36
727.807	1880.8
728.149	1886.9
728.491	1911.08
728.833	1898.88
729.175	1897.75
729.516	1898.2
729.858	1911.31
730.199	1932.77
730.541	1911.08
730.882	1922.38
731.224	1917.86
731.565	1924.19
731.906	1952.21
732.248	1963.73
732.589	1961.7
732.93	2025.65
733.271	1992.66
733.612	2032.66
733.953	2050.29
734.294	2029.95
734.635	2034.92
734.976	2092.54
735.317	2045.77
735.658	2067.23
735.999	2091.19
736.339	2113.56
736.68	2103.17
737.021	2106.55
737.361	2104.29
737.702	2189.72
738.042	2149.94
738.383	2146.78
738.723	2170.06
739.063	2188.59
739.404	2213.44
739.744	2191.07
740.084	2231.52
740.424	2239.43
740.764	2283.95
741.104	2287.57
741.444	2309.49
741.784	2321.24
742.124	2345.42
742.464	2398.98
742.804	2387
743.143	2407.56
743.483	2411.41
743.823	2437.62
744.162	2460.44
744.502	2502.25
744.841	2533.66
745.181	2568.92
745.52	2564.62
745.86	2583.6
746.199	2621.34
746.538	2706.76
746.877	2724.84
747.216	2727.1
747.556	2775.24
747.895	2815.69
748.234	2820.66
748.573	2859.3
748.911	2943.82
749.25	2966.65
749.589	2994.44
749.928	3038.28
750.267	3082.8
750.605	3102.23
750.944	3151.5
751.283	3163.02
751.621	3198.73
751.96	3277.37
752.298	3344.49
752.636	3375.9
752.975	3403.47
753.313	3480.53
753.651	3550.36
753.989	3596.23
754.327	3643.24
754.666	3661.09
755.004	3723.24
755.342	3827.41
755.679	3836
756.017	3882.1
756.355	3975.43
756.693	4014.08
757.031	4028.54
757.368	4151.47
757.706	4159.16
758.044	4261.53
758.381	4280.51
758.719	4327.51
759.056	4386.72
759.394	4434.18
759.731	4529.99
760.068	4568.18
760.405	4647.28
760.743	4698.8
761.08	4774.28
761.417	4813.83
761.754	4827.61
762.091	4905.8
762.428	4981.28
762.765	4972.02
763.102	5091.56
763.438	5060.15
763.775	5080.49
764.112	5218.11
764.449	5248.85
764.785	5273.48
765.122	5268.73
765.458	5340.37
765.795	5454.26
766.131	5494.04
766.467	5495.62
766.804	5583.75
767.14	5589.63
767.476	5661.26
767.812	5667.59
768.148	5706.46
768.485	5742.84
768.821	5811.32
769.157	5818.32
769.492	5889.73
769.828	5986.68
770.164	5908.49
770.5	5952.1
770.836	5997.07
771.171	6014.93
771.507	6014.93
