Data from blue_chair_FLMS001491_00097.txt Node
Date: Wed Feb 08 10:32:19 GMT 2017
User: dcchb
Spectrometer: FLMS00149
Trigger mode: 0
Integration Time (sec): 2.000000E-2
Scans to average: 10
Electric dark correction enabled: true
Nonlinearity correction enabled: false
Boxcar width: 0
XAxis mode: Wavelengths
Number of Pixels in Spectrum: 2048
>>>>>Begin Spectral Data<<<<<
341.393	-12.91
341.776	-12.91
342.16	-12.91
342.543	-30.54
342.927	-55.85
343.31	-70.31
343.693	-66.24
344.077	-72.57
344.46	-52.68
344.843	-52
345.226	-42.51
345.61	-21.27
345.993	-28.73
346.376	-3.42
346.759	26.19
347.142	11.95
347.525	44.49
347.908	65.73
348.291	77.26
348.674	82.68
349.057	101.44
349.44	125.17
349.823	138.27
350.206	163.13
350.588	177.14
350.971	183.02
351.354	192.51
351.737	230.47
352.119	224.6
352.502	243.13
352.884	245.39
353.267	267.31
353.65	270.47
354.032	284.94
354.414	275.44
354.797	292.17
355.179	292.85
355.562	282.9
355.944	305.95
356.326	315.22
356.709	316.12
357.091	317.03
357.473	299.17
357.855	329
358.238	308.66
358.62	320.64
359.002	333.07
359.384	318.61
359.766	321.77
360.148	319.96
360.53	318.61
360.912	334.43
361.294	309.57
361.676	328.78
362.057	310.25
362.439	295.33
362.821	316.8
363.203	307.31
363.584	304.37
363.966	300.75
364.348	310.25
364.729	280.87
365.111	321.09
365.493	287.65
365.874	299.4
366.256	325.61
366.637	259.63
367.019	270.02
367.4	292.85
367.781	289.68
368.163	308.44
368.544	281.09
368.925	277.03
369.306	311.38
369.688	268.89
370.069	284.03
370.45	284.94
370.831	305.27
371.212	291.72
371.593	287.2
371.974	271.15
372.355	281.32
372.736	288.1
373.117	293.3
373.498	290.59
373.879	285.61
374.26	290.13
374.641	274.31
375.021	270.25
375.402	310.02
375.783	295.78
376.163	299.85
376.544	299.17
376.925	286.52
377.305	278.83
377.686	294.43
378.066	303.24
378.447	317.93
378.827	301.66
379.208	317.93
379.588	299.62
379.968	283.81
380.349	302.11
380.729	287.42
381.109	294.2
381.489	277.48
381.87	315.67
382.25	305.73
382.63	300.08
383.01	287.87
383.39	315.9
383.77	302.79
384.15	319.29
384.53	292.17
384.91	303.24
385.29	315.67
385.67	322.9
386.049	306.18
386.429	306.86
386.809	301.66
387.189	308.21
387.568	302.56
387.948	327.42
388.328	324.26
388.707	311.38
389.087	310.02
389.466	328.55
389.846	307.53
390.225	320.19
390.605	327.87
390.984	314.09
391.363	312.05
391.743	320.64
392.122	317.7
392.501	318.83
392.881	322.9
393.26	331.71
393.639	307.31
394.018	346.63
394.397	313.86
394.776	334.65
395.155	319.96
395.534	329.23
395.913	305.73
396.292	336.69
396.671	331.04
397.05	357.7
397.429	328.32
397.808	331.49
398.186	342.79
398.565	333.3
398.944	335.1
399.323	330.58
399.701	338.95
400.08	344.37
400.458	315.44
400.837	327.65
401.215	341.66
401.594	339.85
401.972	358.15
402.351	335.1
402.729	343.24
403.107	345.05
403.486	331.26
403.864	343.92
404.242	366.52
404.62	356.12
404.999	369.23
405.377	351.6
405.755	356.8
406.133	379.62
406.511	368.32
406.889	342.56
407.267	363.35
407.645	361.09
408.023	364.93
408.401	362.67
408.779	364.93
409.156	389.57
409.534	361.09
409.912	363.8
410.29	387.53
410.667	372.17
411.045	372.17
411.422	375.1
411.8	390.24
412.178	399.28
412.555	392.96
412.933	370.58
413.31	387.76
413.687	404.48
414.065	393.41
414.442	405.84
414.819	397.7
415.197	392.5
415.574	399.51
415.951	416.68
416.328	413.75
416.705	405.16
417.082	411.94
417.46	403.35
417.837	417.81
418.214	420.07
418.591	392.05
418.967	405.61
419.344	413.29
419.721	433.63
420.098	423.92
420.475	413.52
420.852	420.53
421.228	413.29
421.605	414.2
421.982	440.41
422.358	449
422.735	437.47
423.111	436.12
423.488	442.9
423.864	446.51
424.241	450.13
424.617	453.75
424.994	470.69
425.37	449
425.746	480.41
426.123	464.59
426.499	465.95
426.875	460.52
427.251	488.09
427.627	469.56
428.003	490.81
428.379	466.17
428.756	474.31
429.132	491.26
429.507	463.91
429.883	482.9
430.259	500.75
430.635	505.27
431.011	532.16
431.387	524.48
431.763	529.9
432.138	532.39
432.514	538.26
432.89	529.22
433.265	533.07
433.641	525.83
434.016	526.06
434.392	543.46
434.767	566.06
435.143	534.65
435.518	550.47
435.894	569
436.269	557.7
436.644	561.09
437.02	580.52
437.395	584.82
437.77	591.59
438.145	609.67
438.52	612.39
438.895	619.84
439.271	606.06
439.646	621.2
440.021	630.24
440.395	619.84
440.77	613.51
441.145	613.51
441.52	648.32
441.895	654.64
442.27	644.02
442.645	631.37
443.019	636.79
443.394	668.43
443.769	676.79
444.143	662.78
444.518	670.24
444.892	671.37
445.267	682.67
445.641	701.87
446.016	687.19
446.39	707.07
446.764	706.39
447.139	685.83
447.513	703.23
447.887	700.29
448.262	715.89
448.636	703
449.01	732.16
449.384	710.46
449.758	731.7
450.132	729.9
450.506	709.78
450.88	766.28
451.254	728.31
451.628	743
452.002	770.35
452.376	762.66
452.75	777.8
453.123	745.26
453.497	776.45
453.871	781.87
454.244	768.31
454.618	798.14
454.992	813.96
455.365	795.88
455.739	814.19
456.112	823.23
456.486	823.68
456.859	833.17
457.232	828.2
457.606	840.63
457.979	859.38
458.352	868.2
458.725	861.64
459.099	850.34
459.472	875.2
459.845	879.72
460.218	889.44
460.591	888.08
460.964	889.44
461.337	921.3
461.71	907.29
462.083	934.64
462.456	929.21
462.829	938.25
463.201	928.31
463.574	919.27
463.947	947.52
464.32	972.38
464.692	984.58
465.065	949.55
465.438	1000.62
465.81	994.07
466.183	992.04
466.555	992.71
466.928	1001.3
467.3	1018.7
467.672	1028.42
468.045	1050.34
468.417	1037.91
468.789	1032.49
469.161	1046.05
469.534	1072.71
469.906	1083.11
470.278	1103.67
470.65	1087.63
471.022	1117
471.394	1124.01
471.766	1124.91
472.138	1139.15
472.51	1157.23
472.882	1186.61
473.253	1174.86
473.625	1144.57
473.997	1176.44
474.369	1188.19
474.74	1213.73
475.112	1222.54
475.484	1218.02
475.855	1260.96
476.227	1240.39
476.598	1264.35
476.97	1289.43
477.341	1296.89
477.713	1309.77
478.084	1315.19
478.455	1354.74
478.827	1327.39
479.198	1366.26
479.569	1360.84
479.94	1389.09
480.311	1396.09
480.682	1409.88
481.053	1418.01
481.424	1441.29
481.795	1446.26
482.166	1460.95
482.537	1474.06
482.908	1487.39
483.279	1507.73
483.65	1514.96
484.021	1540.5
484.391	1543.66
484.762	1558.12
485.133	1539.37
485.503	1564.68
485.874	1595.64
486.244	1612.13
486.615	1626.6
486.985	1613.04
487.356	1641.51
487.726	1677.89
488.097	1691.45
488.467	1655.52
488.837	1695.07
489.207	1689.87
489.578	1713.37
489.948	1706.82
490.318	1732.36
490.688	1755.18
491.058	1753.6
491.428	1774.16
491.798	1787.27
492.168	1792.69
492.538	1772.35
492.908	1802.18
493.278	1793.6
493.648	1818.46
494.017	1829.08
494.387	1808.74
494.757	1827.27
495.126	1829.75
495.496	1858.45
495.866	1849.19
496.235	1850.09
496.605	1850.32
496.974	1834.5
497.344	1875.85
497.713	1879.7
498.082	1848.96
498.452	1871.56
498.821	1879.02
499.19	1873.14
499.559	1855.06
499.928	1876.08
500.298	1889.87
500.667	1903.2
501.036	1898.68
501.405	1875.18
501.774	1853.03
502.143	1918.34
502.512	1882.63
502.88	1903.42
503.249	1874.5
503.618	1858.45
503.987	1888.96
504.356	1905.91
504.724	1876.53
505.093	1865.46
505.462	1874.72
505.83	1895.97
506.199	1890.54
506.567	1868.62
506.936	1871.79
507.304	1913.82
507.672	1882.18
508.041	1883.99
508.409	1894.16
508.777	1927.83
509.145	1918.57
509.514	1884.44
509.882	1928.06
510.25	1899.81
510.618	1902.97
510.986	1911.11
511.354	1932.12
511.722	1889.87
512.09	1900.03
512.458	1891.22
512.826	1901.39
513.193	1896.42
513.561	1858
513.929	1890.54
514.297	1877.21
514.664	1890.32
515.032	1889.41
515.4	1869.98
515.767	1853.03
516.135	1897.32
516.502	1851
516.869	1841.28
517.237	1867.72
517.604	1851.9
517.972	1843.77
518.339	1826.14
518.706	1858
519.073	1847.83
519.44	1854.61
519.808	1811.45
520.175	1834.73
520.542	1825.23
520.909	1799.47
521.276	1807.83
521.643	1842.41
522.009	1849.41
522.376	1832.92
522.743	1810.32
523.11	1803.99
523.477	1869.3
523.843	1854.16
524.21	1796.76
524.577	1831.79
524.943	1821.39
525.31	1849.64
525.676	1826.36
526.043	1822.97
526.409	1828.62
526.776	1812.58
527.142	1867.04
527.508	1837.21
527.874	1829.08
528.241	1801.51
528.607	1816.87
528.973	1797.66
529.339	1833.37
529.705	1806.93
530.071	1794.05
530.437	1802.18
530.803	1785.24
531.169	1800.83
531.535	1777.78
531.901	1796.08
532.267	1776.65
532.632	1740.04
532.998	1769.19
533.364	1771.68
533.73	1802.86
534.095	1780.04
534.461	1764.22
534.826	1752.92
535.192	1786.82
535.557	1767.61
535.923	1737.55
536.288	1755.86
536.653	1726.03
537.019	1728.06
537.384	1733.03
537.749	1726.48
538.114	1738.68
538.479	1707.05
538.845	1699.81
539.21	1690.32
539.575	1668.18
539.94	1708.85
540.305	1713.15
540.67	1697.78
541.034	1667.5
541.399	1688.06
541.764	1674.05
542.129	1671.79
542.494	1691.45
542.858	1670.21
543.223	1678.12
543.587	1661.17
543.952	1646.48
544.316	1645.35
544.681	1632.92
545.045	1649.19
545.41	1620.95
545.774	1644.22
546.138	1611
546.503	1580.27
546.867	1614.39
547.231	1585.92
547.595	1603.09
547.959	1575.07
548.324	1569.87
548.688	1590.21
549.052	1559.48
549.416	1605.58
549.779	1608.29
550.143	1570.78
550.507	1548.63
550.871	1571.23
551.235	1545.69
551.599	1583.66
551.962	1555.41
552.326	1531.46
552.689	1531
553.053	1528.52
553.417	1561.06
553.78	1538.46
554.143	1520.16
554.507	1502.31
554.87	1521.29
555.234	1521.06
555.597	1512.93
555.96	1535.3
556.323	1495.75
556.686	1466.83
557.05	1477.67
557.413	1493.72
557.776	1491.91
558.139	1487.39
558.502	1491.91
558.865	1462.98
559.228	1503.44
559.59	1459.59
559.953	1492.36
560.316	1491.23
560.679	1467.73
561.041	1448.3
561.404	1501.18
561.767	1464.57
562.129	1449.65
562.492	1478.35
562.854	1472.02
563.217	1467.05
563.579	1478.12
563.941	1461.18
564.304	1477
564.666	1492.36
565.028	1489.88
565.39	1515.64
565.753	1491.68
566.115	1503.44
566.477	1484.68
566.839	1483.77
567.201	1488.07
567.563	1508.41
567.925	1498.69
568.287	1526.71
568.648	1470.67
569.01	1493.49
569.372	1532.13
569.734	1521.74
570.095	1499.59
570.457	1531.91
570.819	1492.14
571.18	1504.34
571.542	1520.16
571.903	1509.08
572.265	1504.56
572.626	1498.92
572.987	1520.61
573.349	1522.87
573.71	1531.46
574.071	1525.81
574.432	1526.03
574.794	1560.38
575.155	1522.64
575.516	1539.14
575.877	1552.02
576.238	1573.04
576.599	1538.24
576.96	1545.02
577.32	1545.69
577.681	1538.01
578.042	1587.95
578.403	1552.7
578.763	1564.45
579.124	1564
579.485	1542.53
579.845	1580.72
580.206	1588.4
580.566	1583.66
580.927	1588.4
581.287	1585.24
581.648	1578.69
582.008	1587.05
582.368	1601.74
582.728	1592.25
583.089	1562.42
583.449	1594.51
583.809	1588.4
584.169	1586.6
584.529	1602.64
584.889	1618.69
585.249	1577.11
585.609	1606.94
585.969	1580.95
586.329	1572.59
586.688	1620.95
587.048	1599.03
587.408	1604.68
587.768	1610.78
588.127	1599.03
588.487	1589.99
588.846	1598.12
589.206	1593.15
589.565	1602.19
589.925	1622.53
590.284	1578.01
590.643	1602.19
591.003	1615.52
591.362	1595.41
591.721	1602.87
592.08	1606.48
592.44	1617.56
592.799	1590.44
593.158	1600.38
593.517	1602.87
593.876	1629.99
594.235	1609.42
594.593	1582.75
594.952	1611.23
595.311	1605.35
595.67	1596.99
596.029	1617.56
596.387	1636.76
596.746	1599.48
597.104	1607.16
597.463	1622.98
597.822	1580.95
598.18	1609.65
598.538	1618.01
598.897	1604.68
599.255	1587.5
599.613	1611.91
599.972	1616.65
600.33	1586.82
600.688	1621.4
601.046	1616.43
601.404	1594.28
601.762	1596.99
602.12	1596.31
602.478	1608.29
602.836	1605.13
603.194	1607.16
603.552	1569.87
603.91	1596.77
604.268	1612.81
604.625	1578.91
604.983	1605.35
605.341	1613.26
605.698	1591.79
606.056	1604.68
606.413	1587.27
606.771	1600.61
607.128	1608.07
607.485	1640.83
607.843	1618.23
608.2	1606.94
608.557	1614.84
608.914	1590.66
609.272	1609.19
609.629	1616.2
609.986	1639.48
610.343	1605.35
610.7	1627.05
611.057	1582.3
611.414	1581.85
611.771	1599.25
612.127	1606.03
612.484	1632.47
612.841	1638.8
613.198	1606.71
613.554	1601.06
613.911	1596.99
614.267	1636.76
614.624	1607.39
614.98	1615.97
615.337	1635.41
615.693	1612.58
616.05	1603.32
616.406	1617.78
616.762	1618.91
617.118	1618.01
617.475	1614.84
617.831	1642.87
618.187	1617.33
618.543	1604.9
618.899	1666.14
619.255	1634.73
619.611	1608.74
619.967	1637.67
620.323	1622.98
620.678	1630.44
621.034	1639.02
621.39	1640.83
621.746	1634.05
622.101	1628.63
622.457	1632.02
622.812	1647.84
623.168	1644.67
623.523	1653.94
623.879	1636.99
624.234	1625.69
624.589	1623.88
624.945	1639.02
625.3	1620.04
625.655	1636.54
626.01	1630.44
626.365	1654.62
626.72	1623.66
627.075	1632.25
627.43	1638.57
627.785	1653.71
628.14	1634.73
628.495	1624.79
628.85	1608.07
629.205	1639.48
629.559	1653.26
629.914	1606.26
630.269	1633.15
630.623	1644
630.978	1628.63
631.332	1645.35
631.687	1649.65
632.041	1622.08
632.396	1640.83
632.75	1614.17
633.104	1635.86
633.459	1666.37
633.813	1673.6
634.167	1651.23
634.521	1649.87
634.875	1638.8
635.229	1646.26
635.583	1644.9
635.937	1622.75
636.291	1625.01
636.645	1635.18
636.999	1639.02
637.352	1588.18
637.706	1659.14
638.06	1614.84
638.413	1648.52
638.767	1651.68
639.121	1630.66
639.474	1639.48
639.828	1617.33
640.181	1630.21
640.534	1649.87
640.888	1639.93
641.241	1626.82
641.594	1638.12
641.947	1621.17
642.301	1641.28
642.654	1613.04
643.007	1594.51
643.36	1612.58
643.713	1597.9
644.066	1646.03
644.419	1594.73
644.771	1622.98
645.124	1637.22
645.477	1609.42
645.83	1587.95
646.182	1601.51
646.535	1596.54
646.888	1603.55
647.24	1618.01
647.593	1599.48
647.945	1610.32
648.298	1599.03
648.65	1632.92
649.002	1600.61
649.355	1628.86
649.707	1599.25
650.059	1571.46
650.411	1636.76
650.763	1621.62
651.115	1656.2
651.467	1651.23
651.819	1658.23
652.171	1681.96
652.523	1643.54
652.875	1631.34
653.227	1630.89
653.578	1650.78
653.93	1650.1
654.282	1654.39
654.633	1646.26
654.985	1646.71
655.337	1685.13
655.688	1644.67
656.039	1653.71
656.391	1626.14
656.742	1678.35
657.094	1660.49
657.445	1669.31
657.796	1654.84
658.147	1666.59
658.498	1637.67
658.849	1661.62
659.2	1625.69
659.551	1660.49
659.902	1669.08
660.253	1643.77
660.604	1637.22
660.955	1646.03
661.306	1671.79
661.656	1633.6
662.007	1671.34
662.358	1653.71
662.708	1685.58
663.059	1698.01
663.409	1658.01
663.76	1686.93
664.11	1683.77
664.461	1680.61
664.811	1656.43
665.161	1677.44
665.511	1641.06
665.862	1665.69
666.212	1675.86
666.562	1659.14
666.912	1685.13
667.262	1661.17
667.612	1669.31
667.962	1672.24
668.312	1650.78
668.662	1667.72
669.011	1659.14
669.361	1656.43
669.711	1634.73
670.06	1642.41
670.41	1654.17
670.76	1630.21
671.109	1664.33
671.459	1640.61
671.808	1630.89
672.157	1675.41
672.507	1634.96
672.856	1617.56
673.205	1631.34
673.554	1643.54
673.904	1622.75
674.253	1634.73
674.602	1643.77
674.951	1600.61
675.3	1604.22
675.649	1641.74
675.998	1662.75
676.346	1606.94
676.695	1645.58
677.044	1620.95
677.393	1632.47
677.741	1617.1
678.09	1634.28
678.438	1623.43
678.787	1632.25
679.135	1610.78
679.484	1595.18
679.832	1595.64
680.181	1592.02
680.529	1627.27
680.877	1614.17
681.225	1610.32
681.573	1603.77
681.922	1588.4
682.27	1586.14
682.618	1581.4
682.966	1575.3
683.314	1597.44
683.661	1572.59
684.009	1561.06
684.357	1573.94
684.705	1587.5
685.053	1557.67
685.4	1560.16
685.748	1555.86
686.095	1550.67
686.443	1541.85
686.79	1578.69
687.138	1559.93
687.485	1565.58
687.832	1591.12
688.18	1538.01
688.527	1492.81
688.874	1531.91
689.221	1496.43
689.568	1520.84
689.915	1543.21
690.262	1520.16
690.609	1508.63
690.956	1502.76
691.303	1485.36
691.65	1531
691.997	1491.91
692.344	1518.12
692.69	1484.45
693.037	1495.3
693.383	1488.29
693.73	1500.27
694.077	1468.18
694.423	1473.61
694.769	1462.31
695.116	1478.12
695.462	1474.96
695.808	1499.82
696.155	1487.84
696.501	1448.52
696.847	1438.13
697.193	1460.72
697.539	1458.92
697.885	1453.27
698.231	1455.3
698.577	1452.81
698.923	1416.88
699.269	1424.79
699.614	1424.57
699.96	1439.71
700.306	1434.51
700.651	1417.56
700.997	1427.73
701.342	1423.21
701.688	1412.82
702.033	1419.37
702.379	1420.5
702.724	1404.23
703.069	1414.17
703.415	1386.15
703.76	1406.71
704.105	1363.78
704.45	1381.4
704.795	1375.75
705.14	1383.44
705.485	1377.79
705.83	1392.93
706.175	1378.24
706.52	1375.08
706.865	1392.25
707.209	1388.64
707.554	1366.04
707.899	1381.4
708.243	1385.02
708.588	1414.4
708.932	1379.37
709.277	1376.43
709.621	1410.33
709.966	1373.95
710.31	1362.2
710.654	1386.83
710.998	1387.96
711.342	1405.36
711.687	1364.68
712.031	1378.69
712.375	1387.28
712.719	1377.34
713.063	1390.67
713.407	1411.01
713.75	1373.27
714.094	1388.41
714.438	1355.64
714.782	1418.69
715.125	1395.19
715.469	1404.68
715.812	1379.82
716.156	1394.74
716.499	1396.77
716.843	1392.93
717.186	1399.71
717.53	1423.66
717.873	1409.43
718.216	1412.82
718.559	1401.97
718.902	1384.12
719.246	1400.61
719.589	1414.85
719.932	1378.92
720.275	1432.7
720.617	1425.25
720.96	1426.6
721.303	1415.08
721.646	1425.02
721.989	1435.64
722.331	1446.04
722.674	1427.28
723.016	1464.11
723.359	1474.74
723.701	1442.19
724.044	1469.09
724.386	1452.14
724.729	1448.52
725.071	1459.59
725.413	1471.8
725.755	1470.22
726.097	1469.76
726.439	1458.01
726.782	1468.41
727.124	1472.25
727.465	1497.11
727.807	1491.46
728.149	1486.94
728.491	1515.64
728.833	1495.07
729.175	1518.8
729.516	1531.23
729.858	1534.17
730.199	1525.81
730.541	1526.26
730.882	1540.95
731.224	1562.42
731.565	1540.72
731.906	1552.93
732.248	1553.38
732.589	1547.5
732.93	1585.69
733.271	1582.3
733.612	1590.66
733.953	1601.96
734.294	1599.03
734.635	1601.06
734.976	1592.92
735.317	1583.21
735.658	1642.64
735.999	1649.65
736.339	1636.09
736.68	1632.25
737.021	1653.04
737.361	1640.38
737.702	1662.98
738.042	1702.07
738.383	1699.81
738.723	1713.37
739.063	1710.66
739.404	1714.5
739.744	1744.11
740.084	1721.96
740.424	1745.24
740.764	1774.39
741.104	1780.04
741.444	1775.29
741.784	1804.22
742.124	1852.13
742.464	1851.22
742.804	1840.83
743.143	1830.43
743.483	1899.81
743.823	1908.62
744.162	1921.73
744.502	1955.4
744.841	1946.81
745.181	1970.99
745.52	1995.17
745.86	2060.71
746.199	2049.41
746.538	2066.36
746.877	2109.97
747.216	2120.59
747.556	2146.36
747.895	2197.88
748.234	2187.48
748.573	2254.6
748.911	2244.21
749.25	2296.41
749.589	2316.07
749.928	2318.1
750.267	2356.07
750.605	2387.71
750.944	2454.82
751.283	2450.53
751.621	2500.7
751.96	2550.41
752.298	2603.07
752.636	2618.66
752.975	2628.15
753.313	2686
753.651	2689.39
753.989	2800.12
754.327	2795.83
754.666	2833.12
755.004	2931.87
755.342	2968.71
755.679	2989.72
756.017	3014.36
756.355	3098.87
756.693	3122.15
757.031	3212.09
757.368	3248.02
757.706	3259.55
758.044	3312.2
758.381	3376.38
758.719	3429.49
759.056	3471.97
759.394	3537.28
759.731	3538.18
760.068	3602.14
760.405	3665.41
760.743	3704.51
761.08	3723.49
761.417	3772.75
761.754	3824.96
762.091	3858.85
762.428	3930.94
762.765	3986.53
763.102	4022.24
763.438	4096.36
763.775	4067.66
764.112	4156.7
764.449	4194.89
764.785	4242.57
765.122	4279.18
765.458	4322.34
765.795	4322.57
766.131	4424.26
766.467	4442.57
766.804	4467.2
767.14	4489.12
767.476	4492.06
767.812	4544.26
768.148	4615.44
768.485	4645.5
768.821	4677.59
769.157	4701.09
769.492	4737.7
769.828	4761.43
770.164	4793.74
770.5	4761.65
770.836	4878.94
771.171	4887.75
771.507	4891.82
