Data from blue_surface_keyboard_FLMS001491_041.txt Node
Date: Tue Feb 07 11:13:09 GMT 2017
User: dcchb
Spectrometer: FLMS00149
Trigger mode: 0
Integration Time (sec): 2.000000E-2
Scans to average: 10
Electric dark correction enabled: true
Nonlinearity correction enabled: false
Boxcar width: 0
XAxis mode: Wavelengths
Number of Pixels in Spectrum: 2048
>>>>>Begin Spectral Data<<<<<
341.393	-14.12
341.776	-14.12
342.16	-14.12
342.543	-59.09
342.927	-72.43
343.31	-65.42
343.693	-70.17
344.077	-70.17
344.46	-46.21
344.843	-34.24
345.226	-58.64
345.61	-25.88
345.993	-17.74
346.376	-0.34
346.759	14.12
347.142	21.13
347.525	25.2
347.908	52.54
348.291	70.85
348.674	89.83
349.057	115.14
349.44	120.56
349.823	147.91
350.206	150.84
350.588	186.77
350.971	181.8
351.354	198.75
351.737	216.38
352.119	219.77
352.502	215.93
352.884	296.6
353.267	260.45
353.65	272.2
354.032	284.17
354.414	275.81
354.797	302.7
355.179	297.05
355.562	286.89
355.944	296.15
356.326	305.87
356.709	293.21
357.091	332.53
357.473	312.42
357.855	325.3
358.238	310.16
358.62	316.26
359.002	308.81
359.384	295.92
359.766	325.75
360.148	340.89
360.53	319.43
360.912	315.81
361.294	297.51
361.676	318.07
362.057	298.41
362.439	312.87
362.821	314.91
363.203	292.53
363.584	307.45
363.966	292.53
364.348	296.6
364.729	301.12
365.111	276.04
365.493	259.99
365.874	310.16
366.256	302.25
366.637	284.85
367.019	302.03
367.4	300.67
367.781	287.11
368.163	290.95
368.544	290.05
368.925	292.76
369.306	290.95
369.688	281.91
370.069	300.9
370.45	296.6
370.831	286.89
371.212	279.2
371.593	274.23
371.974	285.53
372.355	283.04
372.736	293.21
373.117	278.3
373.498	273.55
373.879	305.42
374.26	286.89
374.641	284.63
375.021	305.87
375.402	298.64
375.783	315.13
376.163	296.83
376.544	275.81
376.925	298.41
377.305	287.11
377.686	306.77
378.066	303.16
378.447	289.14
378.827	302.03
379.208	297.28
379.588	312.65
379.968	297.51
380.349	288.69
380.729	311.52
381.109	281.91
381.489	290.5
381.87	321.23
382.25	298.64
382.63	298.18
383.01	325.08
383.39	285.98
383.77	299.09
384.15	315.13
384.53	310.84
384.91	306.09
385.29	307.22
385.67	316.04
386.049	320.1
386.429	309.71
386.809	305.64
387.189	299.31
387.568	319.88
387.948	300.9
388.328	296.83
388.707	314.91
389.087	311.07
389.466	303.38
389.846	303.61
390.225	304.29
390.605	306.32
390.984	318.07
391.363	293.44
391.743	315.36
392.122	333.44
392.501	333.89
392.881	316.71
393.26	322.82
393.639	324.17
394.018	338.18
394.397	319.88
394.776	330.05
395.155	321.23
395.534	312.65
395.913	328.24
396.292	319.65
396.671	329.6
397.05	333.44
397.429	331.86
397.808	330.95
398.186	336.15
398.565	361.01
398.944	318.75
399.323	330.27
399.701	320.78
400.08	322.14
400.458	324.4
400.837	340.89
401.215	321.69
401.594	346.32
401.972	331.86
402.351	327.79
402.729	359.88
403.107	334.79
403.486	347.22
403.864	337.51
404.242	347.45
404.62	335.92
404.999	345.41
405.377	376.15
405.755	334.79
406.133	356.04
406.511	340.67
406.889	356.26
407.267	351.06
407.645	348.8
408.023	356.49
408.401	365.3
408.779	348.35
409.156	358.97
409.534	368.24
409.912	374.79
410.29	372.31
410.667	366.21
411.045	374.11
411.422	362.14
411.8	376.37
412.178	352.65
412.555	379.99
412.933	388.13
413.31	380.67
413.687	382.93
414.065	382.02
414.442	369.37
414.819	382.93
415.197	368.01
415.574	389.93
415.951	399.88
416.328	392.42
416.705	369.37
417.082	391.29
417.46	372.08
417.837	405.98
418.214	419.54
418.591	391.97
418.967	388.8
419.344	383.38
419.721	405.07
420.098	397.84
420.475	391.52
420.852	383.38
421.228	398.07
421.605	404.85
421.982	416.83
422.358	417.73
422.735	391.29
423.111	411.18
423.488	401.23
423.864	413.21
424.241	415.47
424.617	403.49
424.994	414.57
425.37	421.12
425.746	417.96
426.123	414.34
426.499	416.83
426.875	403.94
427.251	423.38
427.627	408.46
428.003	435.58
428.379	450.5
428.756	425.19
429.132	449.59
429.507	427.67
429.883	424.96
430.259	447.78
430.635	435.36
431.011	436.03
431.387	460.21
431.763	442.59
432.138	457.05
432.514	454.79
432.89	476.71
433.265	455.92
433.641	475.13
434.016	492.53
434.392	485.07
434.767	481.91
435.143	494.79
435.518	474.45
435.894	476.48
436.269	480.33
436.644	468.58
437.02	472.19
437.395	480.78
437.77	501.79
438.145	462.02
438.52	502.47
438.895	492.98
439.271	500.89
439.646	512.19
440.021	502.92
440.395	496.37
440.77	527.33
441.145	500.44
441.52	507.67
441.895	500.21
442.27	520.1
442.645	531.17
443.019	514.22
443.394	530.04
443.769	515.35
444.143	511.06
444.518	512.42
444.892	525.52
445.267	512.19
445.641	515.58
446.016	546.09
446.39	526.65
446.764	539.08
447.139	510.38
447.513	539.99
447.887	540.66
448.262	530.49
448.636	544.51
449.01	566.88
449.384	559.65
449.758	554.45
450.132	568.01
450.506	574.11
450.88	545.86
451.254	540.89
451.628	573.43
452.002	573.43
452.376	587.89
452.75	571.62
453.123	562.36
453.497	584.96
453.871	572.53
454.244	578.63
454.618	589.7
454.992	605.97
455.365	587.44
455.739	579.53
456.112	589.48
456.486	587.22
456.859	607.78
457.232	622.7
457.606	597.16
457.979	620.89
458.352	634.67
458.725	613.2
459.099	631.73
459.472	625.86
459.845	621.57
460.218	632.19
460.591	648.91
460.964	648.46
461.337	639.19
461.71	652.3
462.083	650.72
462.456	655.69
462.829	643.26
463.201	662.02
463.574	667.67
463.947	669.02
464.32	697.95
464.692	692.52
465.065	696.14
465.438	688.91
465.81	706.31
466.183	721.22
466.555	679.87
466.928	701.11
467.3	705.41
467.672	700.21
468.045	750.38
468.417	734.33
468.789	730.26
469.161	738.62
469.534	742.69
469.906	756.25
470.278	760.09
470.65	784.73
471.022	766.87
471.394	788.11
471.766	772.52
472.138	785.86
472.51	803.71
472.882	784.95
473.253	811.17
473.625	824.72
473.997	829.47
474.369	814.1
474.74	819.3
475.112	831.73
475.484	836.48
475.855	879.86
476.227	858.62
476.598	902.01
476.97	891.39
477.341	883.93
477.713	873.76
478.084	883.71
478.455	930.26
478.827	932.29
479.198	946.98
479.569	932.29
479.94	938.62
480.311	956.25
480.682	964.61
481.053	941.11
481.424	988.79
481.795	999.41
482.166	999.41
482.537	1003.93
482.908	1025.4
483.279	1025.85
483.65	1041.44
484.021	1049.8
484.391	1058.62
484.762	1071.05
485.133	1078.95
485.503	1073.31
485.874	1104.72
486.244	1090.03
486.615	1120.08
486.985	1115.11
487.356	1128.9
487.726	1106.98
488.097	1157.82
488.467	1136.81
488.837	1156.24
489.207	1167.54
489.578	1175.9
489.948	1197.6
490.318	1190.36
490.688	1163.47
491.058	1192.4
491.428	1179.29
491.798	1220.19
492.168	1228.33
492.538	1223.13
492.908	1238.05
493.278	1261.1
493.648	1227.65
494.017	1230.36
494.387	1289.12
494.757	1247.99
495.126	1248.67
495.496	1266.75
495.866	1272.62
496.235	1288.21
496.605	1287.76
496.974	1283.02
497.344	1293.64
497.713	1304.03
498.082	1316.69
498.452	1299.51
498.821	1314.88
499.19	1316.24
499.559	1302.68
499.928	1351.94
500.298	1324.82
500.667	1336.35
501.036	1332.96
501.405	1306.75
501.774	1343.13
502.143	1332.28
502.512	1321.89
502.88	1335.9
503.249	1356.01
503.618	1357.82
503.987	1335.22
504.356	1356.01
504.724	1335.67
505.093	1365.73
505.462	1393.75
505.83	1371.6
506.199	1382.68
506.567	1402.79
506.936	1363.92
507.304	1377.93
507.672	1366.18
508.041	1389.68
508.409	1366.63
508.777	1409.34
509.145	1402.34
509.514	1406.86
509.882	1406.86
510.25	1414.77
510.618	1429.68
510.986	1385.61
511.354	1426.06
511.722	1415.22
512.09	1421.09
512.458	1423.58
512.826	1432.17
513.193	1436.91
513.561	1442.33
513.929	1433.3
514.297	1430.58
514.664	1429.91
515.032	1445.27
515.4	1456.8
515.767	1432.62
516.135	1429.45
516.502	1457.93
516.869	1469.9
517.237	1478.27
517.604	1420.87
517.972	1464.03
518.339	1493.41
518.706	1483.46
519.073	1467.87
519.44	1466.06
519.808	1462.9
520.175	1460.41
520.542	1476.68
520.909	1505.16
521.276	1472.84
521.643	1484.82
522.009	1475.33
522.376	1501.32
522.743	1506.06
523.11	1490.24
523.477	1534.31
523.843	1502.67
524.21	1501.32
524.577	1532.28
524.943	1524.14
525.31	1530.69
525.676	1537.02
526.043	1527.53
526.409	1553.07
526.776	1550.81
527.142	1540.41
527.508	1537.7
527.874	1532.73
528.241	1554.42
528.607	1578.38
528.973	1581.09
529.339	1572.5
529.705	1554.2
530.071	1551.03
530.437	1575.44
530.803	1582.22
531.169	1591.26
531.535	1578.15
531.901	1578.38
532.267	1581.99
532.632	1607.75
532.998	1604.59
533.364	1615.66
533.73	1592.84
534.095	1603.69
534.461	1599.62
534.826	1590.58
535.192	1587.87
535.557	1638.71
535.923	1614.76
536.288	1606.62
536.653	1584.03
537.019	1594.87
537.384	1622.9
537.749	1598.72
538.114	1623.57
538.479	1620.41
538.845	1619.73
539.21	1593.07
539.575	1607.98
539.94	1606.4
540.305	1641.65
540.67	1614.08
541.034	1624.7
541.399	1635.78
541.764	1621.54
542.129	1635.1
542.494	1610.92
542.858	1650.01
543.223	1642.33
543.587	1613.63
543.952	1625.38
544.316	1635.32
544.681	1619.28
545.045	1658.15
545.41	1635.1
545.774	1632.61
546.138	1621.77
546.503	1613.18
546.867	1620.41
547.231	1644.82
547.595	1629.9
547.959	1623.12
548.324	1621.77
548.688	1663.8
549.052	1637.13
549.416	1650.92
549.779	1611.82
550.143	1644.59
550.507	1649.56
550.871	1657.7
551.235	1658.6
551.599	1674.42
551.962	1620.86
552.326	1668.32
552.689	1626.28
553.053	1635.32
553.417	1605.49
553.78	1657.92
554.143	1646.62
554.507	1654.76
554.87	1670.35
555.234	1689.79
555.597	1658.15
555.96	1680.75
556.323	1679.84
556.686	1644.14
557.05	1654.98
557.413	1620.41
557.776	1671.26
558.139	1657.02
558.502	1683.46
558.865	1666.96
559.228	1675.78
559.59	1667.64
559.953	1697.7
560.316	1687.75
560.679	1673.74
561.041	1694.31
561.404	1671.26
561.767	1709.22
562.129	1725.94
562.492	1724.14
562.854	1711.25
563.217	1727.53
563.579	1714.42
563.941	1699.73
564.304	1726.85
564.666	1726.85
565.028	1768.88
565.39	1703.57
565.753	1719.16
566.115	1710.35
566.477	1730.24
566.839	1746.51
567.201	1751.03
567.563	1744.47
567.925	1755.77
568.287	1760.52
568.648	1756.45
569.01	1742.89
569.372	1744.25
569.734	1748.32
570.095	1763.91
570.457	1757.13
570.819	1781.31
571.18	1760.52
571.542	1784.02
571.903	1746.06
572.265	1788.54
572.626	1786.28
572.987	1774.76
573.349	1751.93
573.71	1785.15
574.071	1788.99
574.432	1799.16
574.794	1816.11
575.155	1842.55
575.516	1796.22
575.877	1803
576.238	1790.57
576.599	1822.89
576.96	1840.06
577.32	1817.24
577.681	1823.57
578.042	1811.14
578.403	1806.62
578.763	1804.59
579.124	1821.08
579.485	1820.18
579.845	1805.49
580.206	1831.25
580.566	1800.07
580.927	1799.84
581.287	1812.72
581.648	1852.72
582.008	1834.19
582.368	1840.06
582.728	1822.44
583.089	1849.1
583.449	1821.08
583.809	1833.51
584.169	1849.78
584.529	1850.69
584.889	1854.3
585.249	1854.75
585.609	1820.63
585.969	1847.97
586.329	1820.18
586.688	1814.98
587.048	1869.67
587.408	1833.06
587.768	1832.16
588.127	1837.8
588.487	1807.52
588.846	1826.51
589.206	1844.36
589.565	1859.5
589.925	1844.81
590.284	1834.64
590.643	1836.22
591.003	1845.71
591.362	1869.22
591.721	1863.11
592.08	1845.94
592.44	1847.75
592.799	1821.76
593.158	1860.18
593.517	1841.42
593.876	1861.08
594.235	1864.02
594.593	1856.34
594.952	1838.03
595.311	1864.47
595.67	1876.45
596.029	1882.1
596.387	1892.04
596.746	1883.91
597.104	1885.26
597.463	1878.26
597.822	1839.61
598.18	1869.44
598.538	1879.39
598.897	1884.58
599.255	1879.84
599.613	1878.93
599.972	1879.39
600.33	1897.46
600.688	1879.39
601.046	1880.74
601.404	1887.3
601.762	1885.04
602.12	1920.06
602.478	1888.65
602.836	1890.46
603.194	1895.43
603.552	1890.23
603.91	1892.94
604.268	1879.16
604.625	1900.18
604.983	1906.28
605.341	1915.09
605.698	1912.15
606.056	1880.97
606.413	1914.64
606.771	1935.88
607.128	1944.69
607.485	1910.8
607.843	1903.79
608.2	1933.85
608.557	1915.77
608.914	1929.78
609.272	1962.1
609.629	1935.43
609.986	1941.98
610.343	1920.29
610.7	1972.72
611.057	1947.63
611.414	1923.23
611.771	1934.98
612.127	1947.86
612.484	1976.33
612.841	1958.03
613.198	1951.25
613.554	1957.58
613.911	1999.83
614.267	2000.74
614.624	1985.15
614.98	1958.71
615.337	2000.96
615.693	1962.32
616.05	1976.78
616.406	2013.39
616.762	2003.68
617.118	1995.09
617.475	2001.42
617.831	1999.83
618.187	2009.55
618.543	1996.9
618.899	1982.89
619.255	2053.84
619.611	1998.7
619.967	2017.24
620.323	2006.84
620.678	2044.58
621.034	2010.46
621.39	2027.18
621.746	2034.86
622.101	2047.97
622.457	2028.76
622.812	2020.17
623.168	2057.91
623.523	2066.95
623.879	2045.93
624.234	2031.25
624.589	2058.82
624.945	2072.83
625.3	2074.18
625.655	2047.97
626.01	2062.21
626.365	2059.49
626.72	2063.34
627.075	2060.85
627.43	2074.86
627.785	2056.33
628.14	2108.31
628.495	2058.36
628.85	2082.54
629.205	2108.76
629.559	2080.51
629.914	2086.16
630.269	2108.98
630.623	2058.36
630.978	2070.34
631.332	2097.68
631.687	2110.57
632.041	2104.24
632.396	2112.37
632.75	2120.74
633.104	2111.47
633.459	2150.34
633.813	2121.64
634.167	2127.06
634.521	2138.59
634.875	2106.5
635.229	2141.3
635.583	2151.02
635.937	2134.52
636.291	2117.57
636.645	2161.19
636.999	2133.16
637.352	2148.98
637.706	2158.47
638.06	2199.83
638.413	2171.58
638.767	2182.88
639.121	2185.14
639.474	2155.54
639.828	2189.21
640.181	2194.86
640.534	2185.37
640.888	2197.8
641.241	2197.34
641.594	2196.89
641.947	2222.43
642.301	2209.55
642.654	2205.7
643.007	2203.44
643.36	2216.55
643.713	2219.94
644.066	2260.39
644.419	2221.52
644.771	2253.39
645.124	2252.71
645.477	2229.88
645.83	2251.35
646.182	2206.83
646.535	2206.83
646.888	2254.07
647.24	2238.25
647.593	2274.18
647.945	2253.16
648.298	2247.96
648.65	2244.35
649.002	2268.98
649.355	2276.66
649.707	2301.97
650.059	2317.57
650.411	2309.66
650.763	2377.23
651.115	2402.31
651.467	2363.44
651.819	2397.11
652.171	2402.54
652.523	2429.2
652.875	2387.62
653.227	2429.88
653.578	2418.58
653.93	2457.45
654.282	2456.32
654.633	2479.82
654.985	2459.26
655.337	2486.6
655.688	2489.31
656.039	2465.58
656.391	2505.13
656.742	2516.88
657.094	2519.82
657.445	2532.48
657.796	2567.28
658.147	2570.67
658.498	2554.62
658.849	2600.27
659.2	2601.85
659.551	2597.33
659.902	2577.22
660.253	2644.11
660.604	2608.63
660.955	2641.85
661.306	2660.38
661.656	2670.33
662.007	2676.2
662.358	2726.82
662.708	2741.06
663.059	2745.58
663.409	2717.1
663.76	2725.24
664.11	2731.57
664.461	2769.98
664.811	2769.08
665.161	2775.18
665.511	2806.37
665.862	2792.36
666.212	2836.42
666.562	2839.13
666.912	2854.05
667.262	2843.88
667.612	2860.83
667.962	2889.53
668.312	2894.73
668.662	2906.48
669.011	2948.96
669.361	2962.29
669.711	2951.22
670.06	2955.29
670.41	2946.93
670.76	2999.36
671.109	3030.54
671.459	3018.56
671.808	3026.7
672.157	3042.07
672.507	3022.18
672.856	3052.69
673.205	3068.51
673.554	3091.11
673.904	3077.55
674.253	3090.2
674.602	3110.54
674.951	3074.83
675.3	3086.36
675.649	3146.24
675.998	3157.54
676.346	3200.71
676.695	3187.37
677.044	3208.62
677.393	3196.19
677.741	3261.72
678.09	3222.4
678.438	3258.33
678.787	3233.47
679.135	3253.36
679.484	3257.43
679.832	3297.2
680.181	3284.77
680.529	3290.42
680.877	3341.49
681.225	3308.5
681.573	3366.58
681.922	3364.32
682.27	3317.77
682.618	3356.63
682.966	3340.59
683.314	3398.22
683.661	3379.69
684.009	3417.65
684.357	3365.22
684.705	3379.69
685.053	3375.17
685.4	3414.26
685.748	3411.1
686.095	3416.07
686.443	3424.66
686.79	3447.25
687.138	3467.82
687.485	3452
687.832	3456.75
688.18	3450.64
688.527	3467.82
688.874	3482.51
689.221	3487.48
689.568	3498.33
689.915	3481.6
690.262	3474.6
690.609	3502.39
690.956	3483.19
691.303	3519.34
691.65	3513.24
691.997	3487.7
692.344	3541.49
692.69	3496.29
693.037	3517.31
693.383	3509.17
693.73	3501.49
694.077	3510.76
694.423	3528.38
694.769	3486.57
695.116	3520.02
695.462	3542.84
695.808	3524.77
696.155	3538.33
696.501	3563.18
696.847	3548.95
697.193	3554.37
697.539	3510.3
697.885	3529.51
698.231	3507.59
698.577	3552.11
698.923	3519.79
699.269	3512.11
699.614	3504.43
699.96	3506.24
700.306	3529.06
700.651	3542.17
700.997	3517.31
701.342	3507.37
701.688	3471.66
702.033	3477.99
702.379	3497.65
702.724	3496.07
703.069	3515.73
703.415	3472.11
703.76	3491.55
704.105	3466.46
704.45	3487.93
704.795	3464.88
705.14	3425.33
705.485	3483.19
705.83	3474.37
706.175	3473.47
706.52	3473.02
706.865	3438.44
707.209	3430.08
707.554	3423.53
707.899	3461.72
708.243	3457.2
708.588	3430.98
708.932	3400.48
709.277	3420.81
709.621	3446.58
709.966	3388.95
710.31	3391.89
710.654	3406.13
710.998	3398.44
711.342	3407.26
711.687	3422.17
712.031	3423.98
712.375	3371.55
712.719	3409.51
713.063	3369.52
713.407	3398.67
713.75	3419.23
714.094	3429.18
714.438	3365.9
714.782	3396.41
715.125	3402.96
715.469	3356.41
715.812	3426.24
716.156	3400.25
716.499	3361.38
716.843	3425.11
717.186	3380.36
717.53	3379.01
717.873	3391.44
718.216	3378.1
718.559	3362.06
718.902	3368.84
719.246	3374.49
719.589	3401.61
719.932	3380.59
720.275	3343.98
720.617	3379.46
720.96	3405.9
721.303	3391.21
721.646	3385.11
721.989	3381.72
722.331	3363.19
722.674	3368.39
723.016	3386.01
723.359	3391.89
723.701	3400.48
724.044	3405.9
724.386	3396.18
724.729	3400.48
725.071	3395.05
725.413	3366.35
725.755	3421.27
726.097	3375.39
726.439	3371.1
726.782	3387.82
727.124	3378.1
727.465	3411.32
727.807	3388.95
728.149	3444.32
728.491	3405
728.833	3397.54
729.175	3434.6
729.516	3403.41
729.858	3390.53
730.199	3404.09
730.541	3398.44
730.882	3393.02
731.224	3397.31
731.565	3424.43
731.906	3402.96
732.248	3432.11
732.589	3390.98
732.93	3402.28
733.271	3424.88
733.612	3429.63
733.953	3409.29
734.294	3422.17
734.635	3383.3
734.976	3450.19
735.317	3448.61
735.658	3457.2
735.999	3475.05
736.339	3423.53
736.68	3506.01
737.021	3395.73
737.361	3512.79
737.702	3470.76
738.042	3486.35
738.383	3492.45
738.723	3528.38
739.063	3490.64
739.404	3541.94
739.744	3482.28
740.084	3517.99
740.424	3494.26
740.764	3546.46
741.104	3543.97
741.444	3575.61
741.784	3564.54
742.124	3593.69
742.464	3566.12
742.804	3558.89
743.143	3533.58
743.483	3562.28
743.823	3576.97
744.162	3605.22
744.502	3598.21
744.841	3595.5
745.181	3624.2
745.52	3622.62
745.86	3635.95
746.199	3665.1
746.538	3679.11
746.877	3709.85
747.216	3738.09
747.556	3705.78
747.895	3762.73
748.234	3748.49
748.573	3788.04
748.911	3757.08
749.25	3813.57
749.589	3814.93
749.928	3822.16
750.267	3833.68
750.605	3850.63
750.944	3915.04
751.283	3899.45
751.621	3887.92
751.96	3912.78
752.298	3930.63
752.636	3983.96
752.975	3952.78
753.313	3957.07
753.651	4040.23
753.989	4042.27
754.327	4089.95
754.666	4055.6
755.004	4077.52
755.342	4098.76
755.679	4142.6
756.017	4153
756.355	4114.81
756.693	4153
757.031	4197.97
757.368	4188.7
757.706	4236.39
758.044	4215.82
758.381	4247.68
758.719	4230.96
759.056	4303.28
759.394	4315.25
759.731	4292.66
760.068	4333.56
760.405	4352.54
760.743	4321.36
761.08	4383.73
761.417	4371.3
761.754	4351.41
762.091	4402.03
762.428	4446.78
762.765	4410.39
763.102	4415.36
763.438	4428.7
763.775	4449.26
764.112	4430.5
764.449	4472.76
764.785	4469.15
765.122	4411.75
765.458	4452.88
765.795	4427.12
766.131	4471.63
766.467	4471.41
766.804	4464.18
767.14	4476.38
767.476	4454.91
767.812	4479.09
768.148	4466.44
768.485	4508.24
768.821	4424.86
769.157	4494.46
769.492	4481.8
769.828	4482.48
770.164	4423.05
770.5	4474.57
770.836	4435.93
771.171	4409.71
771.507	4472.31
