Data from blue_surface_keyboard_FLMS001491_067.txt Node
Date: Tue Feb 07 11:13:30 GMT 2017
User: dcchb
Spectrometer: FLMS00149
Trigger mode: 0
Integration Time (sec): 2.000000E-2
Scans to average: 10
Electric dark correction enabled: true
Nonlinearity correction enabled: false
Boxcar width: 0
XAxis mode: Wavelengths
Number of Pixels in Spectrum: 2048
>>>>>Begin Spectral Data<<<<<
341.393	12.53
341.776	12.53
342.16	12.53
342.543	-47.81
342.927	-60.24
343.31	-72.44
343.693	-63.85
344.077	-59.11
344.46	-52.56
344.843	-66.79
345.226	-42.16
345.61	-34.02
345.993	-20.47
346.376	-17.3
346.759	13.88
347.142	32.19
347.525	31.51
347.908	57.5
348.291	80.77
348.674	105.63
349.057	107.21
349.44	142.24
349.823	135.91
350.206	151.51
350.588	194.9
350.971	194.9
351.354	209.36
351.737	227.21
352.119	218.85
352.502	234.22
352.884	252.97
353.267	253.65
353.65	271.28
354.032	290.49
354.414	285.74
354.797	293.2
355.179	296.36
355.562	296.59
355.944	315.34
356.326	328.68
356.709	307.89
357.091	320.32
357.473	318.06
357.855	337.49
358.238	293.65
358.62	337.04
359.002	334.55
359.384	317.83
359.766	326.64
360.148	322.35
360.53	327.55
360.912	309.47
361.294	313.54
361.676	310.37
362.057	322.12
362.439	327.55
362.821	318.06
363.203	322.8
363.584	304.95
363.966	313.54
364.348	301.79
364.729	314.21
365.111	283.71
365.493	300.88
365.874	292.07
366.256	286.19
366.637	300.88
367.019	303.59
367.4	288.45
367.781	298.85
368.163	297.27
368.544	286.42
368.925	293.42
369.306	285.52
369.688	287.55
370.069	309.02
370.45	303.59
370.831	295.91
371.212	285.06
371.593	288.9
371.974	311.73
372.355	298.17
372.736	290.26
373.117	312.41
373.498	281.9
373.879	289.58
374.26	305.4
374.641	289.81
375.021	275.12
375.402	295.23
375.783	293.65
376.163	294.78
376.544	301.79
376.925	283.48
377.305	306.31
377.686	307.21
378.066	302.92
378.447	303.82
378.827	288.23
379.208	303.37
379.588	294.55
379.968	293.88
380.349	286.42
380.729	276.02
381.109	302.69
381.489	304.72
381.87	305.4
382.25	304.72
382.63	306.98
383.01	290.71
383.39	309.92
383.77	292.97
384.15	311.96
384.53	313.76
384.91	290.26
385.29	317.83
385.67	315.57
386.049	311.73
386.429	315.8
386.809	333.2
387.189	332.52
387.568	312.18
387.948	310.6
388.328	323.71
388.707	324.61
389.087	304.05
389.466	335.91
389.846	324.61
390.225	328
390.605	311.5
390.984	306.31
391.363	310.6
391.743	336.36
392.122	334.78
392.501	338.85
392.881	331.84
393.26	352.41
393.639	308.11
394.018	318.06
394.397	307.44
394.776	328.68
395.155	320.32
395.534	347.43
395.913	335.68
396.292	333.42
396.671	341.78
397.05	328.68
397.429	349.02
397.808	324.38
398.186	326.64
398.565	338.85
398.944	347.89
399.323	349.02
399.701	337.27
400.08	356.02
400.458	344.27
400.837	351.28
401.215	339.75
401.594	347.89
401.972	359.19
402.351	342.24
402.729	367.09
403.107	350.37
403.486	362.35
403.864	358.51
404.242	356.7
404.62	360.54
404.999	353.54
405.377	352.18
405.755	364.84
406.133	352.18
406.511	362.58
406.889	348.11
407.267	364.61
407.645	362.58
408.023	370.26
408.401	374.55
408.779	367.09
409.156	357.83
409.534	360.09
409.912	377.26
410.29	370.26
410.667	366.64
411.045	366.64
411.422	362.12
411.8	353.08
412.178	369.58
412.555	388.56
412.933	367.32
413.31	400.31
413.687	392.63
414.065	384.72
414.442	377.72
414.819	399.41
415.197	385.4
415.574	372.52
415.951	380.43
416.328	379.98
416.705	401.22
417.082	394.89
417.46	389.24
417.837	393.08
418.214	396.47
418.591	391.5
418.967	392.86
419.344	412.29
419.721	420.65
420.098	411.61
420.475	415
420.852	413.2
421.228	406.42
421.605	407.55
421.982	397.15
422.358	404.61
422.735	412.52
423.111	420.2
423.488	399.18
423.864	431.73
424.241	426.53
424.617	428.34
424.994	424.04
425.37	431.05
425.746	429.92
426.123	426.98
426.499	410.94
426.875	432.4
427.251	430.82
427.627	441.9
428.003	443.03
428.379	438.05
428.756	425.17
429.132	428.56
429.507	433.99
429.883	452.52
430.259	453.42
430.635	450.93
431.011	469.01
431.387	449.13
431.763	479.41
432.138	450.71
432.514	458.17
432.89	464.27
433.265	467.66
433.641	473.53
434.016	480.99
434.392	476.92
434.767	480.99
435.143	484.15
435.518	473.76
435.894	490.48
436.269	479.63
436.644	498.39
437.02	487.09
437.395	489.8
437.77	503.36
438.145	495.91
438.52	491.61
438.895	500.88
439.271	509.01
439.646	523.93
440.021	518.73
440.395	534.77
440.77	534.55
441.145	509.01
441.52	511.27
441.895	514.21
442.27	521.89
442.645	531.16
443.019	541.55
443.394	540.42
443.769	537.26
444.143	519.18
444.518	530.03
444.892	525.28
445.267	519.86
445.641	527.09
446.016	538.62
446.39	548.79
446.764	535.9
447.139	552.85
447.513	541.33
447.887	550.14
448.262	566.86
448.636	552.63
449.01	579.97
449.384	562.8
449.758	587.88
450.132	545.4
450.506	561.44
450.88	599.18
451.254	560.08
451.628	568.45
452.002	593.08
452.376	584.49
452.75	590.14
453.123	603.47
453.497	581.33
453.871	589.91
454.244	602.57
454.618	598.28
454.992	605.73
455.365	599.86
455.739	607.09
456.112	595.79
456.486	619.52
456.859	608.22
457.232	631.27
457.606	630.82
457.979	615.45
458.352	643.7
458.725	661.55
459.099	643.47
459.472	650.48
459.845	643.25
460.218	655
460.591	669.23
460.964	672.85
461.337	680.53
461.71	698.16
462.083	697.48
462.456	656.13
462.829	692.06
463.201	695.9
463.574	704.04
463.947	690.7
464.32	691.38
464.692	731.38
465.065	708.78
465.438	700.19
465.81	734.77
466.183	721.66
466.555	719.18
466.928	724.37
467.3	741.1
467.672	734.32
468.045	767.08
468.417	752.17
468.789	730.02
469.161	761.66
469.534	753.98
469.906	783.13
470.278	782.9
470.65	777.71
471.022	788.33
471.394	793.3
471.766	799.4
472.138	794.88
472.51	817.03
472.882	814.99
473.253	837.36
473.625	838.49
473.997	854.31
474.369	831.72
474.74	882.11
475.112	892.05
475.484	869.45
475.855	894.99
476.227	899.96
476.598	866.97
476.97	900.41
477.341	889.34
477.713	897.93
478.084	946.06
478.455	938.15
478.827	958.72
479.198	951.49
479.569	936.8
479.94	964.37
480.311	999.39
480.682	1008.43
481.053	1017.02
481.424	1033.07
481.795	1037.81
482.166	1024.03
482.537	1017.02
482.908	1066.29
483.279	1074.87
483.65	1080.3
484.021	1062.22
484.391	1094.31
484.762	1099.28
485.133	1112.61
485.503	1113.29
485.874	1103.8
486.244	1156
486.615	1149.22
486.985	1139.05
487.356	1149.22
487.726	1161.42
488.097	1182.44
488.467	1173.63
488.837	1181.99
489.207	1190.12
489.578	1228.99
489.948	1217.02
490.318	1223.57
490.688	1252.04
491.058	1229.22
491.428	1246.17
491.798	1254.98
492.168	1282.55
492.538	1277.58
492.908	1257.69
493.278	1285.49
493.648	1286.62
494.017	1264.92
494.387	1335.88
494.757	1308.99
495.126	1298.82
495.496	1304.7
495.866	1305.6
496.235	1311.48
496.605	1310.12
496.974	1317.58
497.344	1329.1
497.713	1323
498.082	1313.51
498.452	1358.93
498.821	1324.58
499.19	1350.35
499.559	1363.45
499.928	1352.38
500.298	1389.67
500.667	1375.88
501.036	1381.08
501.405	1361.42
501.774	1407.29
502.143	1393.73
502.512	1413.4
502.88	1367.29
503.249	1386.96
503.618	1387.41
503.987	1386.28
504.356	1426.73
504.724	1394.19
505.093	1407.52
505.462	1395.99
505.83	1429.67
506.199	1427.18
506.567	1424.47
506.936	1414.75
507.304	1419.27
507.672	1437.58
508.041	1437.8
508.409	1437.12
508.777	1437.8
509.145	1435.54
509.514	1446.39
509.882	1446.39
510.25	1461.53
510.618	1460.63
510.986	1446.39
511.354	1479.61
511.722	1454.52
512.09	1461.08
512.458	1494.07
512.826	1490.46
513.193	1475.99
513.561	1469.66
513.929	1455.43
514.297	1468.53
514.664	1475.99
515.032	1482.77
515.4	1511.47
515.767	1491.81
516.135	1517.12
516.502	1456.78
516.869	1489.78
517.237	1503.56
517.604	1490.23
517.972	1500.4
518.339	1479.83
518.706	1534.97
519.073	1514.41
519.44	1499.49
519.808	1525.03
520.175	1493.84
520.542	1534.75
520.909	1533.17
521.276	1551.02
521.643	1558.25
522.009	1530
522.376	1550.79
522.743	1547.4
523.11	1542.21
523.477	1552.83
523.843	1559.61
524.21	1562.32
524.577	1565.03
524.943	1572.94
525.31	1565.48
525.676	1576.33
526.043	1581.98
526.409	1576.1
526.776	1587.18
527.142	1587.18
527.508	1605.48
527.874	1576.33
528.241	1574.29
528.607	1599.38
528.973	1610.23
529.339	1623.56
529.705	1591.24
530.071	1609.77
530.437	1627.17
530.803	1631.02
531.169	1635.99
531.535	1623.11
531.901	1608.87
532.267	1635.76
532.632	1620.62
532.998	1638.47
533.364	1654.07
533.73	1631.92
534.095	1647.29
534.461	1635.76
534.826	1659.04
535.192	1647.97
535.557	1656.33
535.923	1634.18
536.288	1627.63
536.653	1658.36
537.019	1648.19
537.384	1618.36
537.749	1648.64
538.114	1664.46
538.479	1653.16
538.845	1653.16
539.21	1657.68
539.575	1674.41
539.94	1662.2
540.305	1651.13
540.67	1671.47
541.034	1642.09
541.399	1658.81
541.764	1672.6
542.129	1671.02
542.494	1648.87
542.858	1668.53
543.223	1664.24
543.587	1648.42
543.952	1667.17
544.316	1663.56
544.681	1684.57
545.045	1653.16
545.41	1675.08
545.774	1701.3
546.138	1697.46
546.503	1661.75
546.867	1669.89
547.231	1699.72
547.595	1667.17
547.959	1667.17
548.324	1673.73
548.688	1665.14
549.052	1671.02
549.416	1657.23
549.779	1666.95
550.143	1672.15
550.507	1698.36
550.871	1699.26
551.235	1678.02
551.599	1694.74
551.962	1690.68
552.326	1668.76
552.689	1661.75
553.053	1721.41
553.417	1684.57
553.78	1692.94
554.143	1720.05
554.507	1685.48
554.87	1725.25
555.234	1699.72
555.597	1678.47
555.96	1692.03
556.323	1710.79
556.686	1705.82
557.05	1695.87
557.413	1694.52
557.776	1708.75
558.139	1741.52
558.502	1713.73
558.865	1741.97
559.228	1728.19
559.59	1737.68
559.953	1707.85
560.316	1735.19
560.679	1741.3
561.041	1738.58
561.404	1722.77
561.767	1748.08
562.129	1729.54
562.492	1752.6
562.854	1743.33
563.217	1760.73
563.579	1743.78
563.941	1778.58
564.304	1764.12
564.666	1775.42
565.028	1781.75
565.39	1775.65
565.753	1770.9
566.115	1781.97
566.477	1765.02
566.839	1779.04
567.201	1800.28
567.563	1792.82
567.925	1801.63
568.287	1784.46
568.648	1783.33
569.01	1786.49
569.372	1785.81
569.734	1773.39
570.095	1803.22
570.457	1827.17
570.819	1803.89
571.18	1836.66
571.542	1818.36
571.903	1779.71
572.265	1828.3
572.626	1824.46
572.987	1811.35
573.349	1816.55
573.71	1832.59
574.071	1829.66
574.432	1831.01
574.794	1827.62
575.155	1840.95
575.516	1811.12
575.877	1846.6
576.238	1837.11
576.599	1846.15
576.96	1835.98
577.32	1899.03
577.681	1884.12
578.042	1834.4
578.403	1843.67
578.763	1835.08
579.124	1852.03
579.485	1859.94
579.845	1839.15
580.206	1841.41
580.566	1847.73
580.927	1858.36
581.287	1844.8
581.648	1843.44
582.008	1844.57
582.368	1866.04
582.728	1869.2
583.089	1901.29
583.449	1904
583.809	1871.91
584.169	1875.76
584.529	1865.81
584.889	1896.55
585.249	1859.26
585.609	1877.34
585.969	1865.81
586.329	1862.65
586.688	1888.41
587.048	1921.63
587.408	1887.28
587.768	1860.61
588.127	1895.64
588.487	1883.21
588.846	1918.69
589.206	1884.8
589.565	1871.24
589.925	1915.08
590.284	1863.33
590.643	1904.46
591.003	1919.14
591.362	1912.14
591.721	1911.24
592.08	1899.26
592.44	1897.9
592.799	1887.05
593.158	1887.05
593.517	1892.03
593.876	1881.86
594.235	1900.61
594.593	1911.01
594.952	1907.85
595.311	1906.04
595.67	1925.47
596.029	1891.12
596.387	1905.81
596.746	1945.36
597.104	1913.04
597.463	1918.24
597.822	1927.96
598.18	1940.39
598.538	1904.23
598.897	1911.69
599.255	1886.83
599.613	1938.35
599.972	1923.89
600.33	1960.27
600.688	1959.82
601.046	1933.83
601.404	1930.67
601.762	1939.93
602.12	1965.92
602.478	1928.86
602.836	1933.61
603.194	1909.88
603.552	1940.16
603.91	1955.08
604.268	1944.45
604.625	1934.29
604.983	1949.88
605.341	1937.68
605.698	1961.63
606.056	1988.3
606.413	1978.58
606.771	1943.78
607.128	1976.09
607.485	1938.13
607.843	1993.94
608.2	1986.94
608.557	1972.93
608.914	1962.31
609.272	1991.46
609.629	1977.22
609.986	2015.64
610.343	1993.94
610.7	2017.9
611.057	2006.15
611.414	2004.79
611.771	1992.81
612.127	1998.24
612.484	1998.92
612.841	2014.96
613.198	2007.5
613.554	1991.91
613.911	2005.24
614.267	2030.33
614.624	2004.57
614.98	2049.54
615.337	2038.92
615.693	2028.29
616.05	2021.97
616.406	2058.12
616.762	2031.46
617.118	2045.47
617.475	2040.72
617.831	2045.92
618.187	2039.82
618.543	2048.18
618.899	2054.51
619.255	2067.16
619.611	2063.77
619.967	2049.76
620.323	2081.17
620.678	2065.36
621.034	2042.53
621.39	2082.76
621.746	2094.51
622.101	2093.6
622.457	2115.07
622.812	2092.02
623.168	2106.48
623.523	2086.37
623.879	2075.75
624.234	2117.11
624.589	2116.43
624.945	2116.88
625.3	2100.83
625.655	2096.54
626.01	2112.13
626.365	2093.15
626.72	2090.67
627.075	2134.73
627.43	2104.9
627.785	2106.71
628.14	2141.74
628.495	2142.42
628.85	2155.75
629.205	2152.81
629.559	2120.72
629.914	2127.27
630.269	2130.66
630.623	2143.77
630.978	2153.26
631.332	2162.75
631.687	2146.71
632.041	2140.61
632.396	2136.99
632.75	2144.9
633.104	2177.44
633.459	2153.94
633.813	2194.39
634.167	2162.08
634.521	2170.21
634.875	2205.01
635.229	2186.93
635.583	2185.35
635.937	2196.2
636.291	2194.17
636.645	2188.97
636.999	2204.79
637.352	2221.74
637.706	2196.43
638.06	2262.41
638.413	2195.52
638.767	2226.03
639.121	2222.64
639.474	2215.18
639.828	2254.73
640.181	2255.18
640.534	2245.24
640.888	2276.2
641.241	2249.98
641.594	2254.95
641.947	2264.22
642.301	2285.91
642.654	2271.68
643.007	2289.08
643.36	2295.18
643.713	2297.44
644.066	2321.17
644.419	2325.24
644.771	2305.35
645.124	2297.21
645.477	2318.23
645.83	2290.66
646.182	2266.93
646.535	2317.78
646.888	2296.31
647.24	2308.74
647.593	2301.96
647.945	2340.15
648.298	2324.56
648.65	2314.61
649.002	2350.32
649.355	2361.62
649.707	2376.99
650.059	2397.32
650.411	2409.3
650.763	2455.4
651.115	2457.89
651.467	2467.15
651.819	2429.64
652.171	2479.13
652.523	2503.08
652.875	2489.75
653.227	2486.36
653.578	2497.66
653.93	2514.61
654.282	2483.42
654.633	2512.58
654.985	2556.42
655.337	2546.7
655.688	2564.33
656.039	2585.12
656.391	2598.67
656.742	2599.35
657.094	2608.62
657.445	2643.42
657.796	2627.15
658.147	2641.84
658.498	2640.48
658.849	2651.1
659.2	2650.65
659.551	2706.24
659.902	2676.41
660.253	2704.66
660.604	2743.76
660.955	2738.78
661.306	2741.95
661.656	2744.21
662.007	2761.61
662.358	2783.08
662.708	2805
663.059	2807.03
663.409	2805
663.76	2833.02
664.11	2842.74
664.461	2842.96
664.811	2857.2
665.161	2866.24
665.511	2863.75
665.862	2912.56
666.212	2918.44
666.562	2951.21
666.912	2942.85
667.262	2972.22
667.612	2999.12
667.962	3003.41
668.312	3017.65
668.662	3049.74
669.011	3036.86
669.361	3062.84
669.711	3088.38
670.06	3035.73
670.41	3065.33
670.76	3105.1
671.109	3101.94
671.459	3110.75
671.808	3139.23
672.157	3160.02
672.507	3167.93
672.856	3172.67
673.205	3177.19
673.554	3191.43
673.904	3233.01
674.253	3220.81
674.602	3241.37
674.951	3210.64
675.3	3204.31
675.649	3280.69
675.998	3271.88
676.346	3285.21
676.695	3316.4
677.044	3294.7
677.393	3330.18
677.741	3344.19
678.09	3341.48
678.438	3363.85
678.787	3396.17
679.135	3402.5
679.484	3356.39
679.832	3365.43
680.181	3419.67
680.529	3426.22
680.877	3416.28
681.225	3442.04
681.573	3519.55
681.922	3435.04
682.27	3468.03
682.618	3484.75
682.966	3508.71
683.314	3526.11
683.661	3528.14
684.009	3526.56
684.357	3564.52
684.705	3542.6
685.053	3510.97
685.4	3513.68
685.748	3576.5
686.095	3548.48
686.443	3566.33
686.79	3574.92
687.138	3555.26
687.485	3623.73
687.832	3653.56
688.18	3619.89
688.527	3603.17
688.874	3668.25
689.221	3620.34
689.568	3648.82
689.915	3638.87
690.262	3609.27
690.609	3630.51
690.956	3665.99
691.303	3633.22
691.65	3625.77
691.997	3684.75
692.344	3626.44
692.69	3626.67
693.037	3651.08
693.383	3649.95
693.73	3672.54
694.077	3659.66
694.423	3640.68
694.769	3651.3
695.116	3687.46
695.462	3709.61
695.808	3726.78
696.155	3685.43
696.501	3692.66
696.847	3662.15
697.193	3605.65
697.539	3675.26
697.885	3666.9
698.231	3667.8
698.577	3703.28
698.923	3637.29
699.269	3647.46
699.614	3644.3
699.96	3635.03
700.306	3654.47
700.651	3654.24
700.997	3643.17
701.342	3647.46
701.688	3665.77
702.033	3666.44
702.379	3661.25
702.724	3629.83
703.069	3669.61
703.415	3632.32
703.76	3629.83
704.105	3614.92
704.45	3593
704.795	3592.32
705.14	3612.21
705.485	3623.51
705.83	3595.94
706.175	3617.86
706.52	3619.89
706.865	3574.92
707.209	3599.55
707.554	3586.22
707.899	3561.14
708.243	3609.27
708.588	3575.37
708.932	3553
709.277	3540.8
709.621	3611.76
709.966	3574.24
710.31	3544.41
710.654	3559.55
710.998	3560.01
711.342	3525.66
711.687	3524.75
712.031	3537.41
712.375	3535.6
712.719	3546.9
713.063	3578.76
713.407	3534.24
713.75	3569.72
714.094	3513.45
714.438	3535.37
714.782	3566.11
715.125	3533.57
715.469	3564.75
715.812	3529.5
716.156	3493.57
716.499	3506.67
716.843	3588.71
717.186	3542.6
717.53	3517.97
717.873	3522.04
718.216	3551.19
718.559	3570.63
718.902	3502.83
719.246	3497.63
719.589	3544.19
719.932	3488.14
720.275	3560.91
720.617	3485.66
720.96	3526.56
721.303	3511.87
721.646	3576.95
721.989	3542.6
722.331	3513.45
722.674	3551.19
723.016	3501.7
723.359	3494.47
723.701	3554.81
724.044	3484.75
724.386	3510.29
724.729	3538.08
725.071	3511.19
725.413	3532.21
725.755	3513.45
726.097	3547.58
726.439	3526.33
726.782	3525.43
727.124	3523.17
727.465	3547.12
727.807	3545.09
728.149	3526.33
728.491	3560.01
728.833	3556.62
729.175	3548.71
729.516	3550.74
729.858	3542.15
730.199	3545.09
730.541	3548.03
730.882	3522.94
731.224	3543.28
731.565	3521.81
731.906	3537.41
732.248	3544.19
732.589	3565.65
732.93	3547.12
733.271	3543.51
733.612	3555.71
733.953	3597.52
734.294	3611.76
734.635	3585.77
734.976	3600.23
735.317	3629.38
735.658	3607.91
735.999	3590.51
736.339	3583.28
736.68	3606.78
737.021	3606.33
737.361	3609.27
737.702	3610.17
738.042	3576.73
738.383	3617.18
738.723	3611.98
739.063	3616.05
739.404	3636.39
739.744	3667.12
740.084	3664.41
740.424	3637.97
740.764	3672.32
741.104	3712.32
741.444	3684.07
741.784	3696.5
742.124	3736.05
742.464	3715.48
742.804	3725.88
743.143	3698.31
743.483	3745.54
743.823	3718.65
744.162	3759.1
744.502	3750.28
744.841	3794.35
745.181	3794.35
745.52	3792.09
745.86	3816.5
746.199	3837.96
746.538	3820.79
746.877	3856.72
747.216	3894.91
747.556	3855.59
747.895	3889.71
748.234	3833.22
748.573	3927.45
748.911	3910.28
749.25	3949.37
749.589	3952.09
749.928	3988.24
750.267	4033.21
750.605	4049.71
750.944	3999.09
751.283	3997.96
751.621	4107.56
751.96	4135.58
752.298	4082.7
752.636	4089.71
752.975	4079.99
753.313	4124.06
753.651	4162.7
753.989	4213.77
754.327	4142.14
754.666	4213.55
755.004	4238.86
755.342	4259.65
755.679	4314.56
756.017	4318.4
756.355	4297.84
756.693	4356.82
757.031	4355.69
757.368	4340.78
757.706	4365.18
758.044	4411.51
758.381	4391.62
758.719	4387.1
759.056	4480.21
759.394	4482.92
759.731	4471.39
760.068	4459.64
760.405	4458.51
760.743	4491.28
761.08	4575.35
761.417	4558.4
761.754	4560.2
762.091	4583.48
762.428	4555.01
762.765	4616.7
763.102	4571.28
763.438	4612.18
763.775	4616.47
764.112	4602.01
764.449	4607.44
764.785	4605.85
765.122	4561.33
765.458	4587.55
765.795	4664.38
766.131	4670.71
766.467	4650.6
766.804	4601.33
767.14	4622.35
767.476	4628.68
767.812	4665.96
768.148	4628
768.485	4617.6
768.821	4648.79
769.157	4627.32
769.492	4694.89
769.828	4650.37
770.164	4612.63
770.5	4602.24
770.836	4623.25
771.171	4610.15
771.507	4582.8
771.842	4594.33
