Data from blue_surface_keyboard_FLMS001491_001.txt Node
Date: Tue Feb 07 11:12:32 GMT 2017
User: dcchb
Spectrometer: FLMS00149
Trigger mode: 0
Integration Time (sec): 2.000000E-2
Scans to average: 10
Electric dark correction enabled: true
Nonlinearity correction enabled: false
Boxcar width: 0
XAxis mode: Wavelengths
Number of Pixels in Spectrum: 2048
>>>>>Begin Spectral Data<<<<<
341.393	-7.84
341.776	-7.84
342.16	-7.84
342.543	-73.37
342.927	-80.38
343.31	-57.55
343.693	-92.81
344.077	-45.58
344.46	-52.58
344.843	-39.02
345.226	-29.76
345.61	-30.89
345.993	-30.21
346.376	-8.29
346.759	13.18
347.142	27.87
347.525	22.67
347.908	43.46
348.291	70.58
348.674	99.95
349.057	108.99
349.44	120.07
349.823	145.38
350.206	146.51
350.588	178.37
350.971	178.15
351.354	203.46
351.737	236.67
352.119	231.48
352.502	250.46
352.884	231.02
353.267	264.47
353.65	256.79
354.032	266.28
354.414	279.61
354.797	286.39
355.179	285.94
355.562	294.98
355.944	305.37
356.326	298.82
356.709	316.67
357.091	326.39
357.473	331.36
357.855	304.92
358.238	312.15
358.62	309.67
359.002	318.71
359.384	302.66
359.766	295.2
360.148	325.49
360.53	304.24
360.912	319.16
361.294	286.39
361.676	301.53
362.057	298.82
362.439	290.23
362.821	302.66
363.203	290.46
363.584	304.92
363.966	286.62
364.348	290.68
364.729	300.85
365.111	307.86
365.493	276.45
365.874	288.42
366.256	280.74
366.637	272.83
367.019	296.11
367.4	278.71
367.781	296.11
368.163	290.68
368.544	278.93
368.925	320.29
369.306	295.2
369.688	300.4
370.069	277.13
370.45	262.21
370.831	283.23
371.212	278.71
371.593	280.52
371.974	285.03
372.355	261.08
372.736	295.88
373.117	270.35
373.498	271.7
373.879	295.88
374.26	271.48
374.641	273.96
375.021	291.59
375.402	291.59
375.783	283.23
376.163	298.14
376.544	284.36
376.925	304.47
377.305	289.55
377.686	273.96
378.066	282.78
378.447	304.02
378.827	290.23
379.208	276.22
379.588	310.8
379.968	294.07
380.349	314.64
380.729	289.33
381.109	325.49
381.489	302.66
381.87	279.61
382.25	297.01
382.63	289.55
383.01	299.72
383.39	311.7
383.77	295.43
384.15	302.21
384.53	303.57
384.91	280.29
385.29	296.11
385.67	307.41
386.049	298.82
386.429	313.73
386.809	311.47
387.189	314.64
387.568	318.03
387.948	306.96
388.328	313.06
388.707	308.76
389.087	312.15
389.466	313.96
389.846	314.86
390.225	298.14
390.605	315.54
390.984	313.28
391.363	314.86
391.743	311.7
392.122	321.87
392.501	310.34
392.881	310.57
393.26	323.9
393.639	324.81
394.018	320.29
394.397	323.68
394.776	320.06
395.155	333.17
395.534	347.18
395.913	328.42
396.292	338.14
396.671	320.29
397.05	330.23
397.429	334.3
397.808	314.19
398.186	333.4
398.565	321.42
398.944	346.5
399.323	334.75
399.701	320.06
400.08	320.74
400.458	325.49
400.837	336.78
401.215	351.02
401.594	351.47
401.972	335.88
402.351	351.47
402.729	337.01
403.107	356.9
403.486	346.95
403.864	337.69
404.242	353.28
404.62	359.84
404.999	346.95
405.377	370.68
405.755	353.73
406.133	374.98
406.511	348.99
406.889	351.47
407.267	352.83
407.645	362.09
408.023	330.91
408.401	364.35
408.779	351.93
409.156	376.11
409.534	363
409.912	364.58
410.29	358.03
410.667	361.19
411.045	364.81
411.422	363.22
411.8	368.42
412.178	380.4
412.555	371.13
412.933	355.09
413.31	375.88
413.687	364.58
414.065	381.76
414.442	370.68
414.819	372.49
415.197	365.26
415.574	413.17
415.951	388.31
416.328	396.22
416.705	394.86
417.082	370
417.46	377.91
417.837	390.57
418.214	394.18
418.591	383.34
418.967	385.6
419.344	381.76
419.721	378.59
420.098	382.43
420.475	383.11
420.852	401.64
421.228	406.61
421.605	393.73
421.982	422.43
422.358	392.38
422.735	412.94
423.111	406.16
423.488	403.9
423.864	405.48
424.241	412.72
424.617	405.71
424.994	409.33
425.37	405.26
425.746	406.16
426.123	410.68
426.499	416.56
426.875	439.38
427.251	437.12
427.627	459.95
428.003	438.25
428.379	434.41
428.756	424.01
429.132	420.4
429.507	436.9
429.883	450
430.259	463.79
430.635	429.21
431.011	440.51
431.387	443.45
431.763	439.61
432.138	444.13
432.514	457.69
432.89	448.87
433.265	468.08
433.641	463.11
434.016	455.2
434.392	455.65
434.767	454.75
435.143	481.64
435.518	473.96
435.894	470.11
436.269	474.41
436.644	471.02
437.02	500.17
437.395	470.34
437.77	491.58
438.145	492.94
438.52	502.2
438.895	490.45
439.271	510.79
439.646	528.87
440.021	490.91
440.395	492.71
440.77	501.98
441.145	528.19
441.52	503.11
441.895	510.34
442.27	518.48
442.645	507.85
443.019	525.03
443.394	511.02
443.769	515.09
444.143	512.15
444.518	516.67
444.892	506.95
445.267	543.56
445.641	525.71
446.016	541.3
446.39	524.35
446.764	517.35
447.139	508.31
447.513	542.2
447.887	515.31
448.262	538.36
448.636	541.53
449.01	527.29
449.384	546.27
449.758	556.89
450.132	563.45
450.506	566.16
450.88	543.56
451.254	554.86
451.628	555.31
452.002	573.61
452.376	595.54
452.75	570.68
453.123	561.41
453.497	567.06
453.871	573.16
454.244	568.64
454.618	583.78
454.992	602.77
455.365	598.02
455.739	594.18
456.112	600.51
456.486	604.12
456.859	611.35
457.232	617.23
457.606	595.08
457.979	607.06
458.352	624.23
458.725	626.95
459.099	626.72
459.472	636.44
459.845	642.77
460.218	652.93
460.591	655.42
460.964	639.15
461.337	651.35
461.71	642.77
462.083	656.55
462.456	650
462.829	664.01
463.201	657.45
463.574	671.69
463.947	658.13
464.32	688.41
464.692	676.44
465.065	678.47
465.438	699.26
465.81	669.88
466.183	707.17
466.555	708.07
466.928	719.37
467.3	747.4
467.672	729.99
468.045	732.25
468.417	744.01
468.789	734.51
469.161	714.18
469.534	730.67
469.906	739.49
470.278	749.2
470.65	755.76
471.022	780.62
471.394	783.33
471.766	761.63
472.138	805.47
472.51	801.18
472.882	804.34
473.253	793.72
473.625	815.87
473.997	813.38
474.369	832.37
474.74	831.91
475.112	845.47
475.484	828.07
475.855	855.87
476.227	859.48
476.598	875.3
476.97	872.82
477.341	888.18
477.713	887.96
478.084	892.7
478.455	932.25
478.827	932.25
479.198	957.33
479.569	932.25
479.94	970.89
480.311	951.46
480.682	945.81
481.053	986.03
481.424	995.3
481.795	1005.92
482.166	1008.86
482.537	1010.89
482.908	1024
483.279	1052.7
483.65	1017.67
484.021	1068.97
484.391	1060.83
484.762	1066.03
485.133	1059.25
485.503	1107.61
485.874	1081.62
486.244	1080.72
486.615	1117.56
486.985	1108.29
487.356	1121.4
487.726	1129.53
488.097	1153.71
488.467	1147.16
488.837	1169.76
489.207	1151.45
489.578	1188.74
489.948	1195.07
490.318	1201.17
490.688	1190.77
491.058	1207.72
491.428	1213.6
491.798	1220.83
492.168	1219.7
492.538	1228.06
492.908	1247.95
493.278	1254.95
493.648	1276.2
494.017	1282.52
494.387	1247.72
494.757	1263.77
495.126	1270.09
495.496	1279.13
495.866	1309.19
496.235	1302.86
496.605	1288.17
496.974	1288.17
497.344	1298.12
497.713	1313.03
498.082	1302.64
498.452	1290.88
498.821	1334.05
499.19	1331.56
499.559	1363.42
499.928	1306.02
500.298	1302.86
500.667	1327.04
501.036	1337.44
501.405	1357.32
501.774	1306.93
502.143	1339.92
502.512	1356.42
502.88	1376.53
503.249	1361.62
503.618	1377.44
503.987	1334.05
504.356	1354.39
504.724	1360.49
505.093	1391.9
505.462	1351.22
505.83	1379.92
506.199	1392.58
506.567	1390.32
506.936	1378.79
507.304	1405.68
507.672	1400.49
508.041	1423.31
508.409	1423.54
508.777	1365.68
509.145	1423.08
509.514	1402.29
509.882	1444.78
510.25	1433.03
510.618	1399.36
510.986	1430.54
511.354	1435.06
511.722	1452.46
512.09	1422.86
512.458	1445
512.826	1442.07
513.193	1447.72
513.561	1470.77
513.929	1456.3
514.297	1441.61
514.664	1447.49
515.032	1448.85
515.4	1449.98
515.767	1454.27
516.135	1447.94
516.502	1480.48
516.869	1472.12
517.237	1452.01
517.604	1438.68
517.972	1456.3
518.339	1483.87
518.706	1477.77
519.073	1475.96
519.44	1467.38
519.808	1516.19
520.175	1486.13
520.542	1501.95
520.909	1518.22
521.276	1500.6
521.643	1465.79
522.009	1518
522.376	1509.86
522.743	1489.07
523.11	1526.58
523.477	1522.97
523.843	1527.71
524.21	1511.44
524.577	1532.46
524.943	1515.29
525.31	1537.66
525.676	1546.92
526.043	1562.97
526.409	1536.98
526.776	1550.99
527.142	1565
527.508	1540.14
527.874	1589.18
528.241	1580.82
528.607	1552.35
528.973	1582.63
529.339	1608.16
529.705	1569.75
530.071	1589.41
530.437	1581.27
530.803	1583.98
531.169	1590.09
531.535	1581.05
531.901	1586.7
532.267	1591.22
532.632	1602.74
532.998	1614.72
533.364	1623.53
533.73	1604.55
534.095	1593.93
534.461	1617.43
534.826	1585.11
535.192	1602.06
535.557	1621.72
535.923	1596.64
536.288	1597.77
536.653	1623.98
537.019	1628.28
537.384	1609.29
537.749	1621.95
538.114	1595.96
538.479	1617.88
538.845	1613.36
539.21	1617.88
539.575	1630.99
539.94	1601.84
540.305	1625.11
540.67	1621.27
541.034	1627.6
541.399	1637.32
541.764	1614.94
542.129	1616.75
542.494	1609.29
542.858	1629.86
543.223	1623.98
543.587	1598.45
543.952	1635.51
544.316	1646.81
544.681	1614.04
545.045	1603.19
545.41	1646.81
545.774	1619.24
546.138	1633.25
546.503	1640.25
546.867	1642.51
547.231	1641.38
547.595	1643.42
547.959	1634.6
548.324	1618.11
548.688	1602.97
549.052	1622.17
549.416	1636.64
549.779	1637.54
550.143	1645.68
550.507	1637.99
550.871	1666.02
551.235	1631.21
551.599	1635.73
551.962	1634.6
552.326	1665.34
552.689	1647.26
553.053	1626.92
553.417	1617.66
553.78	1636.41
554.143	1633.25
554.507	1670.76
554.87	1644.55
555.234	1679.12
555.597	1623.08
555.96	1646.81
556.323	1663.08
556.686	1658.11
557.05	1659.46
557.413	1635.28
557.776	1646.36
558.139	1647.94
558.502	1661.95
558.865	1669.18
559.228	1671.44
559.59	1654.72
559.953	1646.36
560.316	1674.38
560.679	1661.27
561.041	1677.31
561.404	1686.13
561.767	1687.26
562.129	1671.89
562.492	1666.24
562.854	1666.02
563.217	1684.32
563.579	1680.25
563.941	1694.04
564.304	1701.04
564.666	1728.61
565.028	1708.95
565.39	1682.96
565.753	1710.31
566.115	1717.77
566.477	1706.24
566.839	1754.37
567.201	1706.69
567.563	1728.39
567.925	1750.76
568.287	1720.48
568.648	1756.18
569.01	1744.88
569.372	1719.35
569.734	1715.96
570.095	1743.3
570.457	1769.97
570.819	1739.69
571.18	1732.68
571.542	1757.31
571.903	1736.97
572.265	1732.45
572.626	1755.05
572.987	1770.42
573.349	1785.33
573.71	1747.14
574.071	1757.99
574.432	1756.63
574.794	1766.13
575.155	1798.22
575.516	1752.34
575.877	1784.43
576.238	1795.96
576.599	1760.25
576.96	1768.61
577.32	1764.32
577.681	1785.79
578.042	1773.81
578.403	1762.28
578.763	1813.13
579.124	1793.7
579.485	1779.01
579.845	1795.28
580.206	1789.18
580.566	1798.89
580.927	1791.66
581.287	1809.29
581.648	1788.72
582.008	1808.61
582.368	1811.77
582.728	1793.92
583.089	1820.59
583.449	1795.5
583.809	1815.84
584.169	1787.59
584.529	1762.51
584.889	1824.2
585.249	1802.06
585.609	1789.18
585.969	1799.57
586.329	1829.4
586.688	1821.27
587.048	1789.85
587.408	1797.54
587.768	1800.48
588.127	1823.75
588.487	1783.07
588.846	1823.3
589.206	1795.5
589.565	1804.54
589.925	1829.85
590.284	1815.84
590.643	1813.58
591.003	1805.45
591.362	1822.85
591.721	1804.99
592.08	1836.86
592.44	1811.55
592.799	1837.08
593.158	1806.12
593.517	1803.86
593.876	1828.05
594.235	1842.51
594.593	1865.78
594.952	1807.71
595.311	1842.96
595.67	1843.64
596.029	1802.96
596.387	1848.16
596.746	1825.79
597.104	1831.21
597.463	1849.29
597.822	1854.26
598.18	1860.81
598.538	1862.17
598.897	1822.4
599.255	1851.1
599.613	1834.6
599.972	1837.54
600.33	1869.4
600.688	1825.11
601.046	1867.14
601.404	1871.66
601.762	1864.43
602.12	1894.03
602.478	1897.87
602.836	1869.85
603.194	1821.94
603.552	1855.39
603.91	1857.87
604.268	1878.21
604.625	1899
604.983	1881.83
605.341	1863.3
605.698	1859
606.056	1897.2
606.413	1901.26
606.771	1901.72
607.128	1873.69
607.485	1904.2
607.843	1894.48
608.2	1911.66
608.557	1928.61
608.914	1891.32
609.272	1940.81
609.629	1923.18
609.986	1937.87
610.343	1913.24
610.7	1920.47
611.057	1915.73
611.414	1929.96
611.771	1918.44
612.127	1940.13
612.484	1917.53
612.841	1910.53
613.198	1904.2
613.554	1934.26
613.911	1956.18
614.267	1949.85
614.624	1926.57
614.98	1968.38
615.337	1953.24
615.693	1960.7
616.05	1978.78
616.406	1958.44
616.762	1957.08
617.118	1972.22
617.475	1998.66
617.831	2000.92
618.187	1986.91
618.543	2000.92
618.899	1999.11
619.255	1971.54
619.611	1986.69
619.967	2000.92
620.323	2023.75
620.678	2016.51
621.034	1997.98
621.39	1995.05
621.746	2024.88
622.101	1984.65
622.457	2025.33
622.812	2013.13
623.168	2015.61
623.523	1999.34
623.879	2008.15
624.234	2027.36
624.589	2006.8
624.945	2019.23
625.3	2053.8
625.655	2065.55
626.01	2046.34
626.365	2035.72
626.72	2050.64
627.075	2036.63
627.43	2072.56
627.785	2053.35
628.14	2037.31
628.495	2063.75
628.85	2076.63
629.205	2072.56
629.559	2090.64
629.914	2082.95
630.269	2094.48
630.623	2072.33
630.978	2066.68
631.332	2082.5
631.687	2084.99
632.041	2070.52
632.396	2104.65
632.75	2120.01
633.104	2112.78
633.459	2065.1
633.813	2107.59
634.167	2132.9
634.521	2118.88
634.875	2121.37
635.229	2096.96
635.583	2127.47
635.937	2101.48
636.291	2133.12
636.645	2140.35
636.999	2103.07
637.352	2164.76
637.706	2126.57
638.06	2170.64
638.413	2171.09
638.767	2150.07
639.121	2174.25
639.474	2149.62
639.828	2171.09
640.181	2146.45
640.534	2197.3
640.888	2167.02
641.241	2180.58
641.594	2178.77
641.947	2190.97
642.301	2193.91
642.654	2208.6
643.007	2214.93
643.36	2204.31
643.713	2233.23
644.066	2251.31
644.419	2240.69
644.771	2247.92
645.124	2256.73
645.477	2262.84
645.83	2224.42
646.182	2222.39
646.535	2249.95
646.888	2231.42
647.24	2236.17
647.593	2233.91
647.945	2251.54
648.298	2301.25
648.65	2225.55
649.002	2219.45
649.355	2285.66
649.707	2308.71
650.059	2268.26
650.411	2359.33
650.763	2334.02
651.115	2366.56
651.467	2361.82
651.819	2390.74
652.171	2431.87
652.523	2426.9
652.875	2420.35
653.227	2425.77
653.578	2449.27
653.93	2480.46
654.282	2439.1
654.633	2472.1
654.985	2485.2
655.337	2456.28
655.688	2509.61
656.039	2526.56
656.391	2513.68
656.742	2525.65
657.094	2512.77
657.445	2544.64
657.796	2554.58
658.147	2563.17
658.498	2553.22
658.849	2579.66
659.2	2628.02
659.551	2581.02
659.902	2649.27
660.253	2641.81
660.604	2662.37
660.955	2626.22
661.306	2665.54
661.656	2704.18
662.007	2701.69
662.358	2685.88
662.708	2755.93
663.059	2705.99
663.409	2725.87
663.76	2752.31
664.11	2767.46
664.461	2792.09
664.811	2773.11
665.161	2820.11
665.511	2814.46
665.862	2820.56
666.212	2833.89
666.562	2864.85
666.912	2861.24
667.262	2821.01
667.612	2879.99
667.962	2910.95
668.312	2914.34
668.662	2950.05
669.011	2953.89
669.361	2947.11
669.711	2964.51
670.06	2961.8
670.41	2994.12
670.76	2994.12
671.109	3032.99
671.459	3039.54
671.808	3014.23
672.157	3041.57
672.507	3044.96
672.856	3027.11
673.205	3094
673.554	3095.13
673.904	3160.89
674.253	3140.55
674.602	3148.91
674.951	3070.95
675.3	3114.79
675.649	3171.06
675.998	3200.21
676.346	3208.12
676.695	3242.47
677.044	3220.1
677.393	3223.94
677.741	3225.07
678.09	3228.01
678.438	3245.41
678.787	3235.92
679.135	3259.42
679.484	3268.01
679.832	3297.61
680.181	3265.97
680.529	3315.46
680.877	3335.58
681.225	3323.83
681.573	3355.46
681.922	3353.2
682.27	3336.03
682.618	3369.93
682.966	3400.66
683.314	3371.73
683.661	3416.48
684.009	3398.63
684.357	3396.59
684.705	3416.93
685.053	3420.55
685.4	3445.18
685.748	3396.37
686.095	3437.95
686.443	3410.6
686.79	3446.53
687.138	3460.32
687.485	3447.44
687.832	3471.39
688.18	3501.9
688.527	3524.05
688.874	3469.36
689.221	3519.3
689.568	3481.56
689.915	3498.74
690.262	3483.82
690.609	3497.83
690.956	3506.42
691.303	3516.81
691.65	3512.07
691.997	3569.69
692.344	3509.13
692.69	3543.71
693.037	3514.33
693.383	3493.99
693.73	3559.07
694.077	3543.71
694.423	3536.7
694.769	3557.72
695.116	3539.19
695.462	3524.05
695.808	3566.08
696.155	3576.7
696.501	3517.49
696.847	3558.62
697.193	3524.95
697.539	3493.76
697.885	3504.39
698.231	3508.23
698.577	3565.17
698.923	3531.73
699.269	3519.3
699.614	3487.44
699.96	3540.32
700.306	3470.26
700.651	3509.36
700.997	3510.26
701.342	3516.81
701.688	3499.19
702.033	3481.79
702.379	3502.8
702.724	3507.77
703.069	3508.68
703.415	3499.87
703.76	3469.81
704.105	3494.89
704.45	3458.74
704.795	3466.87
705.14	3448.79
705.485	3468.91
705.83	3438.17
706.175	3456.25
706.52	3429.81
706.865	3438.4
707.209	3442.24
707.554	3425.07
707.899	3415.35
708.243	3437.49
708.588	3454.67
708.932	3383.03
709.277	3421.68
709.621	3406.99
709.966	3404.73
710.31	3430.94
710.654	3414.44
710.998	3432.97
711.342	3380.32
711.687	3399.53
712.031	3366.76
712.375	3386.87
712.719	3380.32
713.063	3393.65
713.407	3430.71
713.75	3350.72
714.094	3414.44
714.438	3410.38
714.782	3412.41
715.125	3374.67
715.469	3395.69
715.812	3388.23
716.156	3404.05
716.499	3380.55
716.843	3389.36
717.186	3343.03
717.53	3397.5
717.873	3385.07
718.216	3373.77
718.559	3386.87
718.902	3368.57
719.246	3337.38
719.589	3329.93
719.932	3352.52
720.275	3398.17
720.617	3362.47
720.96	3371.28
721.303	3371.96
721.646	3365.86
721.989	3349.59
722.331	3398.63
722.674	3334.22
723.016	3387.33
723.359	3385.07
723.701	3378.51
724.044	3391.85
724.386	3352.98
724.729	3419.19
725.071	3332.19
725.413	3384.16
725.755	3376.7
726.097	3381.45
726.439	3305.97
726.782	3306.42
727.124	3363.15
727.465	3348.46
727.807	3367.44
728.149	3362.69
728.491	3363.82
728.833	3375.35
729.175	3319.53
729.516	3348.23
729.858	3363.15
730.199	3357.27
730.541	3370.15
730.882	3381.22
731.224	3406.99
731.565	3369.93
731.906	3391.17
732.248	3373.09
732.589	3360.89
732.93	3365.86
733.271	3362.69
733.612	3377.61
733.953	3367.67
734.294	3405.86
734.635	3357.95
734.976	3388.46
735.317	3406.08
735.658	3407.44
735.999	3440.88
736.339	3449.25
736.68	3453.77
737.021	3419.42
737.361	3406.53
737.702	3451.96
738.042	3456.93
738.383	3481.56
738.723	3468.91
739.063	3456.48
739.404	3458.51
739.744	3467.1
740.084	3473.43
740.424	3468
740.764	3466.19
741.104	3486.98
741.444	3502.8
741.784	3474.56
742.124	3483.14
742.464	3575.57
742.804	3509.81
743.143	3533.76
743.483	3526.31
743.823	3573.99
744.162	3554.1
744.502	3548.68
744.841	3550.03
745.181	3587.77
745.52	3576.47
745.86	3635.68
746.199	3627.32
746.538	3634.78
746.877	3675.45
747.216	3657.38
747.556	3665.74
747.895	3712.52
748.234	3661.9
748.573	3712.97
748.911	3711.61
749.25	3747.54
749.589	3777.82
749.928	3766.75
750.267	3826.86
750.605	3816.02
750.944	3825.96
751.283	3824.15
751.621	3839.52
751.96	3870.03
752.298	3866.64
752.636	3907.09
752.975	3888.1
753.313	3872.74
753.651	3979.85
753.989	3983.24
754.327	3976.92
754.666	4009.23
755.004	4036.8
755.342	4070.92
755.679	4052.39
756.017	4061.21
756.355	4096.23
756.693	4098.27
757.031	4107.31
757.368	4135.1
757.706	4144.82
758.044	4179.17
758.381	4161.32
758.719	4212.39
759.056	4244.03
759.394	4229.34
759.731	4219.62
760.068	4220.75
760.405	4206.06
760.743	4284.93
761.08	4291.48
761.417	4281.77
761.754	4299.84
762.091	4347.07
762.428	4312.05
762.765	4305.95
763.102	4340.97
763.438	4366.96
763.775	4302.33
764.112	4331.48
764.449	4349.79
764.785	4380.97
765.122	4388.66
765.458	4368.32
765.795	4398.6
766.131	4376.23
766.467	4361.76
766.804	4404.7
767.14	4356.57
767.476	4427.75
767.812	4358.6
768.148	4437.69
768.485	4428.65
768.821	4383.91
769.157	4362.44
769.492	4413.97
769.828	4387.3
770.164	4354.98
770.5	4387.53
770.836	4391.14
771.171	4381.88
771.507	4382.33
771.842	4345.72
