Data from blue_clamp_base_FLMS001491_00031.txt Node
Date: Wed Feb 08 15:15:54 GMT 2017
User: dcchb
Spectrometer: FLMS00149
Trigger mode: 0
Integration Time (sec): 2.000000E-2
Scans to average: 10
Electric dark correction enabled: true
Nonlinearity correction enabled: false
Boxcar width: 0
XAxis mode: Wavelengths
Number of Pixels in Spectrum: 2048
>>>>>Begin Spectral Data<<<<<
341.393	-6.38
341.776	-6.38
342.16	-6.38
342.543	-82.99
342.927	-66.27
343.31	-64.46
343.693	-76.89
344.077	-47.06
344.46	-33.73
344.843	-56.1
345.226	-44.12
345.61	-34.18
345.993	-39.83
346.376	-12.26
346.759	6.72
347.142	46.04
347.525	39.72
347.908	42.65
348.291	76.55
348.674	85.59
349.057	111.35
349.44	126.72
349.823	134.4
350.206	172.59
350.588	188.64
350.971	207.62
351.354	222.08
351.737	236.1
352.119	235.64
352.502	246.04
352.884	260.73
353.267	254.4
353.65	291.24
354.032	295.08
354.414	296.43
354.797	309.77
355.179	303.89
355.562	331.23
355.944	331.69
356.326	351.35
356.709	338.69
357.091	325.58
357.473	352.48
357.855	348.41
358.238	339.82
358.62	336.88
359.002	347.96
359.384	348.86
359.766	321.97
360.148	330.78
360.53	338.47
360.912	335.3
361.294	316.09
361.676	326.04
362.057	332.59
362.439	345.25
362.821	341.18
363.203	335.3
363.584	336.43
363.966	316.77
364.348	309.77
364.729	309.54
365.111	321.07
365.493	313.83
365.874	321.52
366.256	300.27
366.637	313.83
367.019	299.37
367.4	328.07
367.781	311.8
368.163	340.73
368.544	313.61
368.925	317.22
369.306	331.01
369.688	308.41
370.069	331.91
370.45	324.91
370.831	303.89
371.212	312.03
371.593	291.91
371.974	322.87
372.355	330.78
372.736	321.07
373.117	315.64
373.498	327.84
373.879	317.22
374.26	326.94
374.641	298.69
375.021	309.54
375.402	328.07
375.783	336.43
376.163	331.01
376.544	349.09
376.925	346.15
377.305	366.94
377.686	350.89
378.066	346.38
378.447	362.19
378.827	339.14
379.208	349.76
379.588	366.04
379.968	340.27
380.349	358.35
380.729	355.41
381.109	342.31
381.489	336.21
381.87	362.65
382.25	353.61
382.63	354.74
383.01	385.24
383.39	359.71
383.77	350.44
384.15	351.35
384.53	359.48
384.91	352.7
385.29	380.72
385.67	378.46
386.049	367.39
386.429	378.01
386.809	361.74
387.189	376.43
387.568	372.14
387.948	387.05
388.328	399.26
388.707	387.28
389.087	406.03
389.466	384.79
389.846	402.64
390.225	408.52
390.605	390.44
390.984	396.32
391.363	435.64
391.743	401.06
392.122	407.39
392.501	416.2
392.881	408.75
393.26	421.18
393.639	429.76
394.018	423.44
394.397	432.25
394.776	421.63
395.155	460.5
395.534	436.09
395.913	445.58
396.292	461.85
396.671	454.85
397.05	458.46
397.429	460.04
397.808	483.09
398.186	466.37
398.565	478.8
398.944	478.8
399.323	484
399.701	482.64
400.08	498.69
400.458	475.19
400.837	505.69
401.215	521.51
401.594	532.58
401.972	517.44
402.351	525.81
402.729	515.41
403.107	547.27
403.486	526.94
403.864	573.71
404.242	544.56
404.62	559.48
404.999	551.12
405.377	554.73
405.755	554.96
406.133	583.66
406.511	594.96
406.889	582.75
407.267	592.24
407.645	608.74
408.023	594.96
408.401	634.5
408.779	636.99
409.156	640.83
409.534	647.38
409.912	643.09
410.29	645.35
410.667	661.4
411.045	659.36
411.422	683.32
411.8	693.48
412.178	696.87
412.555	711.34
412.933	730.77
413.31	703.65
413.687	747.72
414.065	723.09
414.442	740.71
414.819	752.01
415.197	768.06
415.574	794.5
415.951	773.48
416.328	787.72
416.705	791.56
417.082	792.92
417.46	785.69
417.837	816.42
418.214	810.09
418.591	824.78
418.967	824.78
419.344	843.76
419.721	840.15
420.098	844.22
420.475	861.84
420.852	878.56
421.228	885.12
421.605	893.03
421.982	902.29
422.358	891.22
422.735	916.98
423.111	906.36
423.488	942.97
423.864	940.03
424.241	954.27
424.617	941.61
424.994	952.46
425.37	963.08
425.746	989.52
426.123	991.1
426.499	1025
426.875	996.3
427.251	1051.89
427.627	1042.85
428.003	1062.97
428.379	1087.37
428.756	1075.62
429.132	1082.4
429.507	1105.68
429.883	1105.9
430.259	1170.76
430.635	1145.9
431.011	1197.2
431.387	1190.87
431.763	1196.07
432.138	1199.91
432.514	1221.61
432.89	1229.74
433.265	1266.12
433.641	1260.7
434.016	1265.9
434.392	1317.65
434.767	1355.39
435.143	1321.49
435.518	1329.4
435.894	1342.06
436.269	1354.26
436.644	1385.44
437.02	1368.27
437.395	1435.39
437.77	1436.52
438.145	1443.97
438.52	1495.72
438.895	1494.14
439.271	1490.53
439.646	1528.26
440.021	1539.34
440.395	1551.54
440.77	1570.07
441.145	1549.06
441.52	1581.6
441.895	1575.27
442.27	1584.53
442.645	1603.07
443.019	1605.55
443.394	1662.27
443.769	1646
444.143	1643.06
444.518	1655.72
444.892	1684.87
445.267	1729.16
445.641	1721.71
446.016	1718.32
446.39	1714.02
446.764	1735.27
447.139	1735.27
447.513	1782.95
447.887	1764.42
448.262	1790.63
448.636	1796.51
449.01	1824.75
449.384	1850.06
449.758	1853.23
450.132	1871.76
450.506	1897.07
450.88	1869.05
451.254	1905.43
451.628	1930.74
452.002	1933
452.376	1987.69
452.75	1995.15
453.123	1990.85
453.497	2036.27
453.871	2055.03
454.244	2086.22
454.618	2102.71
454.992	2100.23
455.365	2107.23
455.739	2180
456.112	2204.41
456.486	2227
456.859	2251.18
457.232	2259.09
457.606	2252.31
457.979	2286.21
458.352	2331.63
458.725	2371.41
459.099	2381.8
459.472	2426.77
459.845	2447.56
460.218	2481.01
460.591	2483.95
460.964	2530.72
461.337	2582.93
461.71	2589.93
462.083	2611.63
462.456	2615.47
462.829	2571.18
463.201	2676.94
463.574	2685.75
463.947	2723.49
464.32	2780.66
464.692	2815.24
465.065	2786.08
465.438	2856.82
465.81	2909.7
466.183	2899.98
466.555	2951.05
466.928	2994.44
467.3	2961.45
467.672	3001.67
468.045	3075.79
468.417	3079.41
468.789	3116.47
469.161	3144.27
469.534	3183.36
469.906	3264.72
470.278	3245.96
470.65	3263.59
471.022	3361.44
471.394	3404.83
471.766	3453.64
472.138	3487.76
472.51	3539.06
472.882	3570.25
473.253	3615.44
473.625	3610.47
473.997	3703.8
474.369	3751.26
474.74	3779.51
475.112	3815.66
475.484	3895.43
475.855	3951.93
476.227	3954.64
476.598	4023.79
476.97	4068.09
477.341	4177.69
477.713	4210
478.084	4247.06
478.455	4348.76
478.827	4378.36
479.198	4421.07
479.569	4465.59
479.94	4548.75
480.311	4579.48
480.682	4718.01
481.053	4735.64
481.424	4825.35
481.795	4898.8
482.166	4862.87
482.537	5011.11
482.908	5041.17
483.279	5097.89
483.65	5131.11
484.021	5264.21
484.391	5246.13
484.762	5306.02
485.133	5362.51
485.503	5393.93
485.874	5499.91
486.244	5553.7
486.615	5617.65
486.985	5689.51
487.356	5783.75
487.726	5766.35
488.097	5795.05
488.467	5860.35
488.837	5934.48
489.207	5973.35
489.578	6030.07
489.948	6070.29
490.318	6128.82
490.688	6179.67
491.058	6241.59
491.428	6311.64
491.798	6360.23
492.168	6447.46
492.538	6435.03
492.908	6491.07
493.278	6571.75
493.648	6600.9
494.017	6557.96
494.387	6648.81
494.757	6687.68
495.126	6734.91
495.496	6706.21
495.866	6727.45
496.235	6788.24
496.605	6823.04
496.974	6827.33
497.344	6936.94
497.713	6944.17
498.082	6941.91
498.452	7024.84
498.821	7013.54
499.19	7093.54
499.559	7074.79
499.928	7079.76
500.298	7102.36
500.667	7182.13
501.036	7171.05
501.405	7180.77
501.774	7234.56
502.143	7220.54
502.512	7272.75
502.88	7296.02
503.249	7322.01
503.618	7335.8
503.987	7413.08
504.356	7390.03
504.724	7386.19
505.093	7444.72
505.462	7478.16
505.83	7531.95
506.199	7562.91
506.567	7677.26
506.936	7568.78
507.304	7610.36
507.672	7640.19
508.041	7654.21
508.409	7699.85
508.777	7750.93
509.145	7825.27
509.514	7802.9
509.882	7823.47
510.25	7812.39
510.618	7899.17
510.986	7882.22
511.354	7944.82
511.722	7982.33
512.09	8034.53
512.458	8039.28
512.826	8112.95
513.193	8093.74
513.561	8086.96
513.929	8158.15
514.297	8177.13
514.664	8265.26
515.032	8291.48
515.4	8342.77
515.767	8331.48
516.135	8368.99
516.502	8257.81
516.869	8431.36
517.237	8454.18
517.604	8411.02
517.972	8452.83
518.339	8507.97
518.706	8529.44
519.073	8496.9
519.44	8582.77
519.808	8580.96
520.175	8613.05
520.542	8725.59
520.909	8704.8
521.276	8637
521.643	8761.07
522.009	8833.61
522.376	8842.42
522.743	8871.35
523.11	8979.14
523.477	9043.1
523.843	9141.62
524.21	9098.69
524.577	9206.93
524.943	9192.47
525.31	9196.31
525.676	9296.87
526.043	9328.74
526.409	9324.44
526.776	9370.54
527.142	9398.34
527.508	9490.09
527.874	9521.5
528.241	9481.73
528.607	9552.23
528.973	9626.81
529.339	9605.11
529.705	9707.03
530.071	9726.69
530.437	9740.03
530.803	9911.1
531.169	9917.42
531.535	9860.93
531.901	9953.58
532.267	9956.07
532.632	10063.63
532.998	10027.93
533.364	10128.04
533.73	10057.08
534.095	10224.99
534.461	10182.5
534.826	10242.84
535.192	10238.32
535.557	10333.46
535.923	10256.4
536.288	10369.16
536.653	10383.17
537.019	10375.26
537.384	10410.52
537.749	10450.06
538.114	10517.18
538.479	10502.04
538.845	10596.5
539.21	10559.67
539.575	10607.35
539.94	10608.03
540.305	10639.44
540.67	10657.06
541.034	10657.97
541.399	10709.04
541.764	10780.45
542.129	10774.35
542.494	10815.25
542.858	10839.88
543.223	10797.17
543.587	10937.06
543.952	10922.14
544.316	10935.02
544.681	11013.89
545.045	11042.37
545.41	11060.22
545.774	11059.99
546.138	11065.42
546.503	11119.88
546.867	11122.36
547.231	11176.15
547.595	11148.12
547.959	11209.82
548.324	11246.88
548.688	11249.37
549.052	11280.32
549.416	11289.59
549.779	11296.37
550.143	11346.31
550.507	11474.44
550.871	11433.54
551.235	11425.41
551.599	11566.42
551.962	11530.49
552.326	11529.58
552.689	11603.25
553.053	11525.97
553.417	11559.87
553.78	11735.23
554.143	11658.85
554.507	11754.66
554.87	11793.08
555.234	11856.35
555.597	11747.21
555.96	11926.18
556.323	11869.69
556.686	11832.4
557.05	11899.29
557.413	11949.69
557.776	12015.45
558.139	12080.53
558.502	11994.66
558.865	12134.54
559.228	12161.88
559.59	12206.4
559.953	12249.79
560.316	12371.82
560.679	12296.8
561.041	12374.76
561.404	12399.62
561.767	12433.97
562.129	12442.1
562.492	12615.21
562.854	12530.69
563.217	12557.81
563.579	12672.83
563.941	12710.8
564.304	12784.01
564.666	12790.34
565.028	12812.49
565.39	12834.86
565.753	12894.52
566.115	12919.38
566.477	12962.09
566.839	13033.5
567.201	13145.36
567.563	13093.61
567.925	13150.78
568.287	13260.84
568.648	13263.78
569.01	13282.98
569.372	13364.79
569.734	13315.53
570.095	13482.07
570.457	13454.05
570.819	13512.81
571.18	13508.29
571.542	13544.67
571.903	13681.17
572.265	13697.44
572.626	13727.94
572.987	13745.57
573.349	13758.9
573.71	13843.87
574.071	13882.74
574.432	13961.38
574.794	14030.54
575.155	14017.2
575.516	13906.47
575.877	14083.42
576.238	14067.14
576.599	14101.49
576.96	14061.27
577.32	14082.74
577.681	14228.95
578.042	14195.05
578.403	14204.54
578.763	14200.93
579.124	14217.87
579.485	14361.37
579.845	14353.24
580.206	14264.2
580.566	14269.62
580.927	14463.97
581.287	14468.26
581.648	14377.19
582.008	14526.34
582.368	14406.8
582.728	14552.33
583.089	14490.18
583.449	14506.45
583.809	14533.35
584.169	14532.67
584.529	14532.22
584.889	14716.84
585.249	14576.06
585.609	14510.75
585.969	14706.9
586.329	14613.12
586.688	14654.47
587.048	14566.11
587.408	14617.86
587.768	14617.41
588.127	14564.31
588.487	14654.02
588.846	14622.84
589.206	14655.15
589.565	14658.54
589.925	14796.84
590.284	14661.7
590.643	14553.91
591.003	14743.06
591.362	14754.13
591.721	14758.43
592.08	14800.91
592.44	14748.48
592.799	14715.94
593.158	14794.13
593.517	14788.03
593.876	14839.78
594.235	14762.04
594.593	14847.01
594.952	14886.11
595.311	14800.23
595.67	14863.28
596.029	14863.28
596.387	14961.36
596.746	14951.41
597.104	14814.92
597.463	14849.27
597.822	14927.01
598.18	14828.25
598.538	14841.81
598.897	14878.2
599.255	14790.29
599.613	14967.46
599.972	14884.98
600.33	14990.96
600.688	14950.06
601.046	14952.32
601.404	15014.01
601.762	15054.91
602.12	14996.61
602.478	15107.12
602.836	14938.53
603.194	15013.11
603.552	14951.41
603.91	14970.62
604.268	15065.08
604.625	14992.54
604.983	15059.89
605.341	15034.12
605.698	15119.55
606.056	15129.72
606.413	15082.71
606.771	15223.5
607.128	15112.77
607.485	15195.93
607.843	15213.55
608.2	15259.2
608.557	15305.08
608.914	15226.66
609.272	15229.37
609.629	15333.78
609.986	15372.19
610.343	15268.24
610.7	15348.92
611.057	15375.13
611.414	15366.55
611.771	15416.04
612.127	15456.26
612.484	15439.99
612.841	15440.22
613.198	15455.13
613.554	15383.95
613.911	15514.34
614.267	15435.7
614.624	15482.47
614.98	15464.17
615.337	15665.75
615.693	15519.99
616.05	15510.95
616.406	15667.55
616.762	15581.91
617.118	15593.66
617.475	15606.99
617.831	15685.86
618.187	15702.58
618.543	15727.21
618.899	15718.17
619.255	15738.96
619.611	15747.1
619.967	15796.36
620.323	15868.68
620.678	15828.45
621.034	15672.07
621.39	15778.51
621.746	15787.1
622.101	16007.66
622.457	15811.05
622.812	15832.3
623.168	15902.35
623.523	15905.51
623.879	15872.75
624.234	15824.61
624.589	15923.14
624.945	15928.11
625.3	16025.74
625.655	16018.05
626.01	15959.75
626.365	15953.87
626.72	15979.86
627.075	15978.96
627.43	16044.72
627.785	16027.09
628.14	15985.06
628.495	16054.21
628.85	16026.19
629.205	15946.42
629.559	16152.06
629.914	15975.79
630.269	15957.94
630.623	16105.28
630.978	16102.57
631.332	16026.19
631.687	16153.42
632.041	16198.84
632.396	16079.97
632.75	16056.24
633.104	16115.68
633.459	16017.6
633.813	16122.01
634.167	16206.97
634.521	16144.38
634.875	16111.84
635.229	16197.03
635.583	16062.57
635.937	16126.3
636.291	16169.01
636.645	16138.28
636.999	16097.83
637.352	16197.26
637.706	15978.51
638.06	16134.43
638.413	16132.63
638.767	16129.46
639.121	16195.22
639.474	16042.69
639.828	16114.77
640.181	16149.58
640.534	16149.12
640.888	16075
641.241	16093.53
641.594	16077.03
641.947	16221.44
642.301	16115
642.654	16202.68
643.007	16220.08
643.36	16155
643.713	16099.41
644.066	16249.91
644.419	16240.19
644.771	16170.37
645.124	16061.67
645.477	15923.82
645.83	15821.45
646.182	15809.25
646.535	15754.56
646.888	15853.76
647.24	15880.2
647.593	15923.37
647.945	15930.82
648.298	15892.18
648.65	15851.73
649.002	15838.62
649.355	15912.52
649.707	15865.74
650.059	15923.37
650.411	16175.34
650.763	16277.93
651.115	16383.47
651.467	16380.3
651.819	16327.2
652.171	16345.05
652.523	16286.52
652.875	16371.72
653.227	16323.13
653.578	16438.83
653.93	16420.53
654.282	16343.24
654.633	16393.86
654.985	16375.11
655.337	16416.01
655.688	16439.51
656.039	16554.76
656.391	16381.66
656.742	16360.19
657.094	16423.47
657.445	16524.71
657.796	16522.22
658.147	16507.31
658.498	16447.87
658.849	16487.19
659.2	16425.95
659.551	16530.13
659.902	16528.77
660.253	16510.02
660.604	16580.52
660.955	16502.79
661.306	16502.11
661.656	16561.32
662.007	16575.1
662.358	16508.21
662.708	16618.94
663.059	16560.86
663.409	16394.09
663.76	16566.06
664.11	16602.44
664.461	16499.17
664.811	16613.07
665.161	16597.25
665.511	16537.59
665.862	16562.9
666.212	16563.58
666.562	16577.81
666.912	16564.48
667.262	16577.13
667.612	16491.71
667.962	16535.1
668.312	16605.38
668.662	16564.71
669.011	16517.7
669.361	16491.94
669.711	16463.24
670.06	16440.87
670.41	16436.8
670.76	16411.04
671.109	16476.12
671.459	16314.54
671.808	16400.87
672.157	16402.9
672.507	16181.66
672.856	16264.15
673.205	16279.29
673.554	16278.84
673.904	16146.19
674.253	16244.49
674.602	16206.3
674.951	15963.82
675.3	15927.43
675.649	16079.07
675.998	16130.37
676.346	16020.09
676.695	16074.32
677.044	15975.12
677.393	16033.19
677.741	15975.57
678.09	15936.25
678.438	15952.29
678.787	15929.02
679.135	15879.07
679.484	15855.12
679.832	15867.55
680.181	15712.07
680.529	15791.84
680.877	15757.04
681.225	15713.88
681.573	15786.65
681.922	15675.01
682.27	15625.52
682.618	15560.44
682.966	15596.14
683.314	15647.22
683.661	15450.61
684.009	15526.77
684.357	15405.87
684.705	15468.69
685.053	15421.46
685.4	15329.03
685.748	15331.07
686.095	15445.41
686.443	15322.93
686.79	15278.86
687.138	15283.16
687.485	15191.41
687.832	15178.98
688.18	15173.78
688.527	15136.95
688.874	15116.38
689.221	15082.26
689.568	15011.3
689.915	15039.77
690.262	15076.38
690.609	14942.15
690.956	14875.03
691.303	14936.5
691.65	14918.65
691.997	14880
692.344	14818.08
692.69	14825.77
693.037	14820.8
693.383	14695.38
693.73	14837.52
694.077	14717.97
694.423	14733.79
694.769	14718.65
695.116	14686.11
695.462	14616.96
695.808	14609.73
696.155	14589.16
696.501	14542.61
696.847	14480.24
697.193	14400.92
697.539	14500.58
697.885	14432.56
698.231	14402.28
698.577	14351.43
698.923	14368.15
699.269	14354.82
699.614	14273.01
699.96	14283.41
700.306	14347.81
700.651	14251.77
700.997	14191.43
701.342	14247.7
701.688	14181.04
702.033	14245.44
702.379	14169.51
702.724	14181.49
703.069	14210.87
703.415	14033.47
703.76	14060.82
704.105	14106.01
704.45	14031.44
704.795	13917.09
705.14	13910.99
705.485	13964.1
705.83	13923.19
706.175	13959.35
706.52	13911.22
706.865	13815.63
707.209	13856.98
707.554	13866.47
707.899	13873.7
708.243	13779.47
708.588	13827.15
708.932	13712.35
709.277	13816.76
709.621	13736.31
709.966	13675.06
710.31	13737.44
710.654	13620.6
710.998	13722.97
711.342	13750.09
711.687	13728.85
712.031	13702.86
712.375	13612.69
712.719	13682.52
713.063	13664.67
713.407	13692.92
713.75	13613.6
714.094	13620.83
714.438	13593.71
714.782	13551.9
715.125	13587.83
715.469	13582.19
715.812	13499.93
716.156	13489.76
716.499	13501.51
716.843	13508.51
717.186	13400.72
717.53	13532.47
717.873	13477.33
718.216	13501.06
718.559	13353.26
718.902	13478.46
719.246	13463.32
719.589	13362.98
719.932	13374.51
720.275	13365.69
720.617	13359.82
720.96	13324.11
721.303	13262.65
721.646	13313.94
721.989	13354.85
722.331	13324.56
722.674	13285.02
723.016	13253.61
723.359	13334.73
723.701	13332.02
724.044	13339.48
724.386	13270.56
724.729	13261.06
725.071	13219.26
725.413	13224
725.755	13257.9
726.097	13144.68
726.439	13075.98
726.782	13094.51
727.124	13233.72
727.465	13237.11
727.807	13250.67
728.149	13077.57
728.491	13135.19
728.833	13195.53
729.175	13169.54
729.516	13144
729.858	13160.73
730.199	13160.73
730.541	13141.74
730.882	13168.64
731.224	13115.08
731.565	13132.71
731.906	13115.98
732.248	13084.35
732.589	13133.61
732.93	13072.14
733.271	13099.26
733.612	13185.59
733.953	13166.83
734.294	13119.37
734.635	13135.42
734.976	13180.39
735.317	13133.84
735.658	13197.56
735.999	13171.8
736.339	13149.88
736.68	13284.79
737.021	13240.5
737.361	13157.56
737.702	13264.91
738.042	13208.64
738.383	13257.22
738.723	13274.17
739.063	13279.14
739.404	13373.83
739.744	13306.71
740.084	13273.27
740.424	13267.39
740.764	13383.09
741.104	13399.37
741.444	13358.46
741.784	13352.13
742.124	13467.61
742.464	13480.72
742.804	13479.36
743.143	13458.35
743.483	13580.6
743.823	13525.24
744.162	13599.13
744.502	13555.75
744.841	13453.15
745.181	13535.86
745.52	13571.79
745.86	13623.31
746.199	13616.08
746.538	13640.71
746.877	13661.96
747.216	13738.79
747.556	13718.9
747.895	13788.73
748.234	13696.76
748.573	13737.44
748.911	13698.79
749.25	13819.02
749.589	13708.51
749.928	13820.37
750.267	13894.95
750.605	13914.83
750.944	13871.22
751.283	13946.47
751.621	14002.06
751.96	13906.47
752.298	13942.85
752.636	13992.34
752.975	13932.01
753.313	13957.32
753.651	14091.55
753.989	14024.66
754.327	14018.33
754.666	14005.68
755.004	14124.32
755.342	14109.18
755.679	14119.35
756.017	14107.6
756.355	14188.95
