Data from blue_clamp_base_FLMS001491_00046.txt Node
Date: Wed Feb 08 15:16:04 GMT 2017
User: dcchb
Spectrometer: FLMS00149
Trigger mode: 0
Integration Time (sec): 2.000000E-2
Scans to average: 10
Electric dark correction enabled: true
Nonlinearity correction enabled: false
Boxcar width: 0
XAxis mode: Wavelengths
Number of Pixels in Spectrum: 2048
>>>>>Begin Spectral Data<<<<<
341.393	9.69
341.776	9.69
342.16	9.69
342.543	-60.37
342.927	-72.12
343.31	-85.68
343.693	-68.95
344.077	-66.69
344.46	-52.23
344.843	-42.06
345.226	-37.09
345.61	-20.82
345.993	-29.18
346.376	-6.81
346.759	29.58
347.142	21.44
347.525	42.23
347.908	58.95
348.291	78.16
348.674	73.42
349.057	105.73
349.44	133.3
349.823	135.79
350.206	171.72
350.588	207.65
350.971	215.11
351.354	234.32
351.737	242.45
352.119	254.88
352.502	288.78
352.884	290.13
353.267	275.9
353.65	296.24
354.032	312.51
354.414	311.6
354.797	320.42
355.179	312.96
355.562	340.3
355.944	346.86
356.326	342.56
356.709	354.54
357.091	343.47
357.473	362.67
357.855	370.58
358.238	360.19
358.62	350.25
359.002	350.47
359.384	348.21
359.766	340.98
360.148	346.63
360.53	358.83
360.912	346.86
361.294	345.95
361.676	352.28
362.057	340.98
362.439	341.43
362.821	343.01
363.203	334.65
363.584	343.47
363.966	349.57
364.348	342.34
364.729	324.26
365.111	357.25
365.493	331.04
365.874	322
366.256	317.03
366.637	341.66
367.019	347.76
367.4	330.13
367.781	346.4
368.163	353.63
368.544	340.53
368.925	358.61
369.306	357.48
369.688	336.91
370.069	333.3
370.45	345.27
370.831	350.25
371.212	340.53
371.593	346.18
371.974	321.55
372.355	343.24
372.736	346.63
373.117	358.15
373.498	358.83
373.879	345.73
374.26	352.05
374.641	344.37
375.021	360.87
375.402	352.05
375.783	353.41
376.163	346.4
376.544	363.8
376.925	360.19
377.305	368.32
377.686	378.49
378.066	353.86
378.447	350.25
378.827	362.9
379.208	361.77
379.588	351.6
379.968	352.05
380.349	384.82
380.729	354.76
381.109	384.14
381.489	368.78
381.87	368.1
382.25	381.88
382.63	396.12
383.01	380.98
383.39	388.89
383.77	390.47
384.15	365.16
384.53	373.75
384.91	429.79
385.29	390.47
385.67	397.48
386.049	406.51
386.429	408.1
386.809	411.71
387.189	424.59
387.568	416.46
387.948	413.07
388.328	410.36
388.707	426.63
389.087	398.61
389.466	432.5
389.846	417.81
390.225	458.49
390.605	458.26
390.984	465.27
391.363	432.73
391.743	458.94
392.122	456.68
392.501	480.41
392.881	471.15
393.26	465.04
393.639	481.77
394.018	474.31
394.397	493.74
394.776	484.03
395.155	486.06
395.534	503.01
395.913	494.2
396.292	489.45
396.671	495.55
397.05	515.89
397.429	524.25
397.808	517.47
398.186	507.3
398.565	519.51
398.944	538.26
399.323	532.39
399.701	530.58
400.08	554.76
400.458	558.6
400.837	594.53
401.215	574.87
401.594	563.35
401.972	565.38
402.351	593.85
402.729	601.76
403.107	612.39
403.486	593.85
403.864	618.49
404.242	623.01
404.62	620.29
404.999	624.36
405.377	640.41
405.755	651.71
406.133	652.38
406.511	664.81
406.889	660.52
407.267	659.39
407.645	671.82
408.023	692.16
408.401	698.48
408.779	708.2
409.156	721.53
409.534	717.92
409.912	736.45
410.29	756.79
410.667	757.01
411.045	757.47
411.422	766.51
411.8	775.54
412.178	770.12
412.555	796.56
412.933	815.09
413.31	806.73
413.687	835.43
414.065	834.98
414.442	863.23
414.819	850.12
415.197	868.88
415.574	863.9
415.951	888.76
416.328	900.29
416.705	926.28
417.082	922.66
417.46	918.37
417.837	917.01
418.214	952.04
418.591	940.06
418.967	946.16
419.344	956.56
419.721	956.1
420.098	954.07
420.475	983.45
420.852	994.97
421.228	1000.4
421.605	1013.73
421.982	1012.83
422.358	1027.74
422.735	1049.44
423.111	1072.71
423.488	1087.4
423.864	1060.06
424.241	1082.2
424.617	1093.5
424.994	1095.99
425.37	1131.24
425.746	1134.41
426.123	1150
426.499	1162.88
426.875	1152.48
427.251	1182.99
427.627	1174.18
428.003	1216.89
428.379	1231.8
428.756	1255.76
429.132	1271.35
429.507	1319.49
429.883	1304.34
430.259	1319.49
430.635	1318.58
431.011	1336.43
431.387	1377.79
431.763	1396.55
432.138	1413.04
432.514	1427.28
432.89	1434.28
433.265	1470.44
433.641	1489.42
434.016	1490.78
434.392	1534.62
434.767	1512.7
435.143	1547.5
435.518	1569.2
435.894	1585.92
436.269	1618.23
436.644	1627.95
437.02	1614.62
437.395	1636.31
437.77	1663.2
438.145	1675.63
438.52	1701.85
438.895	1709.76
439.271	1749.53
439.646	1782.98
440.021	1771
440.395	1781.85
440.77	1782.75
441.145	1836.08
441.52	1833.6
441.895	1866.82
442.27	1888.74
442.645	1885.57
443.019	1923.76
443.394	1925.12
443.769	1926.47
444.143	1929.41
444.518	1956.76
444.892	1926.7
445.267	1957.21
445.641	1981.39
446.016	2008.51
446.39	2030.2
446.764	1991.78
447.139	2051.9
447.513	2060.26
447.887	2077.43
448.262	2072.46
448.636	2111.78
449.01	2128.05
449.384	2146.36
449.758	2179.12
450.132	2168.5
450.506	2212.12
450.88	2208.73
451.254	2188.84
451.628	2218.44
452.002	2295.73
452.376	2313.81
452.75	2324.43
453.123	2313.36
453.497	2361.72
453.871	2357.65
454.244	2447.82
454.618	2442.17
454.992	2485.78
455.365	2471.77
455.739	2586.8
456.112	2558.77
456.486	2571.43
456.859	2601.03
457.232	2626.34
457.606	2652.33
457.979	2680.58
458.352	2722.84
458.725	2744.08
459.099	2755.38
459.472	2820.69
459.845	2862.72
460.218	2909.05
460.591	2863.85
460.964	2892.33
461.337	2962.61
461.71	2996.05
462.083	3047.8
462.456	3047.35
462.829	3029.5
463.201	3104.75
463.574	3101.81
463.947	3139.32
464.32	3240.34
464.692	3262.03
465.065	3269.72
465.438	3330.28
465.81	3357.62
466.183	3389.71
466.555	3464.51
466.928	3466.55
467.3	3455.02
467.672	3500.22
468.045	3619.54
468.417	3602.14
468.789	3620.89
469.161	3640.33
469.534	3724.85
469.906	3763.71
470.278	3868.8
470.65	3856.37
471.022	3915.8
471.394	3982.24
471.766	4005.97
472.138	4038.74
472.51	4132.29
472.882	4180.88
473.253	4204.83
473.625	4243.48
473.997	4357.15
474.369	4329.12
474.74	4388.1
475.112	4463.13
475.484	4537.48
475.855	4589.68
476.227	4641.43
476.598	4746.74
476.97	4739.73
477.341	4845.49
477.713	4924.81
478.084	4901.99
478.455	5040.07
478.827	5059.27
479.198	5176.56
479.569	5200.74
479.94	5365.25
480.311	5291.58
480.682	5463.78
481.053	5525.7
481.424	5611.35
481.795	5670.78
482.166	5681.63
482.537	5790.55
482.908	5832.59
483.279	5929.99
483.65	6009.31
484.021	6048.63
484.391	6184.44
484.762	6107.83
485.133	6250.65
485.503	6292.46
485.874	6433.7
486.244	6387.15
486.615	6551.89
486.985	6562.29
487.356	6658.55
487.726	6694.71
488.097	6856.74
488.467	6816.29
488.837	6918.21
489.207	7007.25
489.578	7081.59
489.948	7139.22
490.318	7116.62
490.688	7229.84
491.058	7291.53
491.428	7300.8
491.798	7414.01
492.168	7427.12
492.538	7463.28
492.908	7532.43
493.278	7594.8
493.648	7602.48
494.017	7693.78
494.387	7690.17
494.757	7771.52
495.126	7831.86
495.496	7832.76
495.866	7927.45
496.235	7943.94
496.605	8018.74
496.974	7969.71
497.344	8057.16
497.713	8037.73
498.082	8096.93
498.452	8147.55
498.821	8148.91
499.19	8152.53
499.559	8291.96
499.928	8250.83
500.298	8273.2
500.667	8371.05
501.036	8323.37
501.405	8392.07
501.774	8374.89
502.143	8422.8
502.512	8415.12
502.88	8524.49
503.249	8464.61
503.618	8507.54
503.987	8535.79
504.356	8646.07
504.724	8603.81
505.093	8682.46
505.462	8681.1
505.83	8657.37
506.199	8729.01
506.567	8804.71
506.936	8788.89
507.304	8840.87
507.672	8868.67
508.041	8869.57
508.409	8984.14
508.777	8982.33
509.145	9000.64
509.514	9058.72
509.882	9065.72
510.25	9026.18
510.618	9065.04
510.986	9159.96
511.354	9194.98
511.722	9260.52
512.09	9248.09
512.458	9257.36
512.826	9285.6
513.193	9350.46
513.561	9362.66
513.929	9367.64
514.297	9474.07
514.664	9514.07
515.032	9530.12
515.4	9558.36
515.767	9547.97
516.135	9615.76
516.502	9544.13
516.869	9693.95
517.237	9751.13
517.604	9664.8
517.972	9741.86
518.339	9766.72
518.706	9750.68
519.073	9711.58
519.44	9869.77
519.808	9927.17
520.175	9958.13
520.542	10035.41
520.909	10060.95
521.276	10028.41
521.643	10128.07
522.009	10148.18
522.376	10175.3
522.743	10211.23
523.11	10342.07
523.477	10306.82
523.843	10441.28
524.21	10506.59
524.577	10522.86
524.943	10538
525.31	10521.05
525.676	10684.89
526.043	10684.44
526.409	10776.41
526.776	10757.65
527.142	10744.55
527.508	10891.89
527.874	10887.6
528.241	10936.41
528.607	10982.06
528.973	11068.61
529.339	11041.26
529.705	11117.42
530.071	11260.24
530.437	11254.82
530.803	11342.95
531.169	11380.92
531.535	11307.7
531.901	11440.12
532.267	11344.31
532.632	11514.25
532.998	11456.39
533.364	11530.52
533.73	11626.56
534.095	11724.41
534.461	11780.45
534.826	11784.52
535.192	11765.99
535.557	11808.7
535.923	11888.25
536.288	11935.25
536.653	11950.17
537.019	11936.16
537.384	11941.35
537.749	12023.38
538.114	12047.56
538.479	12063.16
538.845	12078.75
539.21	12094.57
539.575	12221.12
539.94	12127.56
540.305	12258.18
540.67	12208.46
541.034	12313.77
541.399	12344.51
541.764	12297.73
542.129	12412.3
542.494	12505.86
542.858	12479.42
543.223	12517.61
543.587	12615.91
543.952	12522.35
544.316	12571.62
544.681	12598.06
545.045	12665.4
545.41	12676.93
545.774	12712.41
546.138	12748.79
546.503	12677.83
546.867	12809.35
547.231	12885.51
547.595	12888.9
547.959	12944.26
548.324	12866.98
548.688	13013.41
549.052	12956.47
549.416	12995.79
549.779	13006.41
550.143	13058.16
550.507	13060.87
550.871	13116.46
551.235	13127.31
551.599	13195.78
551.962	13261.54
552.326	13287.98
552.689	13376.12
553.053	13241.88
553.417	13386.29
553.78	13457.25
554.143	13408.66
554.507	13452.27
554.87	13521.2
555.234	13633.29
555.597	13503.8
555.96	13592.16
556.323	13624.02
556.686	13633.74
557.05	13699.95
557.413	13779.04
557.776	13788.76
558.139	13834.64
558.502	13826.05
558.865	13913.5
559.228	13991.92
559.59	14052.71
559.953	14034.4
560.316	14106.04
560.679	14106.27
561.041	14207.28
561.404	14252.93
561.767	14346.94
562.129	14276.21
562.492	14376.54
562.854	14321.18
563.217	14388.29
563.579	14440.72
563.941	14561.4
564.304	14542.19
564.666	14607.27
565.028	14717.55
565.39	14711.9
565.753	14799.13
566.115	14911.67
566.477	14908.05
566.839	15075.28
567.201	15047.26
567.563	15086.81
567.925	15188.95
568.287	15144.21
568.648	15228.72
569.01	15348.49
569.372	15391.21
569.734	15357.08
570.095	15459.23
570.457	15440.7
570.819	15510.07
571.18	15527.7
571.542	15594.14
571.903	15618.77
572.265	15732.21
572.626	15753.46
572.987	15920.68
573.349	15882.72
573.71	15920.68
574.071	16024.64
574.432	16057.85
574.794	16199.32
575.155	16137.85
575.516	16161.58
575.877	16214.46
576.238	16166.1
576.599	16297.4
576.96	16367.9
577.32	16366.77
577.681	16392.31
578.042	16447.45
578.403	16475.7
578.763	16448.58
579.124	16550.72
579.485	16603.6
579.845	16599.54
580.206	16622.13
580.566	16663.26
580.927	16648.12
581.287	16779.64
581.648	16642.7
582.008	16707.78
582.368	16750.94
582.728	16798.4
583.089	16631.62
583.449	16641.57
583.809	16712.07
584.169	16845.86
584.529	16790.26
584.889	16922.24
585.249	16779.64
585.609	16709.14
585.969	16935.12
586.329	16917.49
586.688	16855.35
587.048	16882.01
587.408	16857.83
587.768	16913.88
588.127	16922.01
588.487	16886.76
588.846	17008.11
589.206	16883.82
589.565	16920.43
589.925	16979.86
590.284	16974.67
590.643	17034.78
591.003	17017.6
591.362	17072.52
591.721	17110.48
592.08	17121.33
592.44	17073.42
592.799	17087.43
593.158	17085.4
593.517	17103.02
593.876	17046.98
594.235	17087.88
594.593	17093.99
594.952	17101.67
595.311	17082.46
595.67	17180.76
596.029	17146.41
596.387	17230.25
596.746	17347.99
597.104	17231.38
597.463	17178.96
597.822	17253.53
598.18	17136.7
598.538	17209.46
598.897	17334.43
599.255	17255.79
599.613	17415.79
599.972	17268.9
600.33	17392.51
600.688	17284.94
601.046	17364.71
601.404	17395.45
601.762	17404.94
602.12	17423.02
602.478	17308.44
602.836	17402.45
603.194	17270.93
603.552	17443.13
603.91	17361.32
604.268	17452.62
604.625	17363.13
604.983	17471.6
605.341	17416.24
605.698	17542.11
606.056	17567.19
606.413	17484.48
606.771	17559.74
607.128	17637.7
607.485	17506.63
607.843	17532.62
608.2	17545.95
608.557	17711.37
608.914	17533.52
609.272	17703.69
609.629	17721.77
609.986	17697.13
610.343	17687.87
610.7	17782.78
611.057	17756.12
611.414	17792.5
611.771	17735.1
612.127	17791.14
612.484	17819.16
612.841	17823.23
613.198	17741.2
613.554	17899.61
613.911	17866.85
614.267	17952.49
614.624	17961.08
614.98	17969.22
615.337	18027.52
615.693	18004.47
616.05	17988.2
616.406	18136.9
616.762	18017.58
617.118	18015.77
617.475	18073.17
617.831	18173.51
618.187	18156.78
618.543	18116.11
618.899	18246.05
619.255	18236.1
619.611	18166.05
619.967	18321.98
620.323	18273.39
620.678	18227.74
621.034	18210.79
621.39	18166.73
621.746	18199.04
622.101	18435.42
622.457	18285.14
622.812	18353.16
623.168	18395.42
623.523	18456.89
623.879	18533.27
624.234	18345.7
624.589	18437
624.945	18427.96
625.3	18467.73
625.655	18456.89
626.01	18432.93
626.365	18544.57
626.72	18488.75
627.075	18507.28
627.43	18500.5
627.785	18483.55
628.14	18475.64
628.495	18478.36
628.85	18515.19
629.205	18531.46
629.559	18578.24
629.914	18526.94
630.269	18661.63
630.623	18501.18
630.978	18583.21
631.332	18550.9
631.687	18618.01
632.041	18521.52
632.396	18660.27
632.75	18574.4
633.104	18642.65
633.459	18668.86
633.813	18542.31
634.167	18621.85
634.521	18624.79
634.875	18590.9
635.229	18678.12
635.583	18532.14
635.937	18506.15
636.291	18640.84
636.645	18680.61
636.999	18545.7
637.352	18705.02
637.706	18689.65
638.06	18719.48
638.413	18687.16
638.767	18528.52
639.121	18739.37
639.474	18622.98
639.828	18618.92
640.181	18703.21
640.534	18682.19
640.888	18586.15
641.241	18568.98
641.594	18559.03
641.947	18674.28
642.301	18674.51
642.654	18627.5
643.007	18690.78
643.36	18730.78
643.713	18721.97
644.066	18833.15
644.419	18625.7
644.771	18565.13
645.124	18328.53
645.477	18427.51
645.83	18279.49
646.182	18246.05
646.535	18208.08
646.888	18283.33
647.24	18306.38
647.593	18423.89
647.945	18433.39
648.298	18437.45
648.65	18435.42
649.002	18270.23
649.355	18417.34
649.707	18339.83
650.059	18450.33
650.411	18730.55
650.763	18760.83
651.115	18962.41
651.467	18954.95
651.819	18873.15
652.171	19004.44
652.523	18991.11
652.875	18979.59
653.227	18919.47
653.578	18976.2
653.93	18952.92
654.282	18907.72
654.633	18875.18
654.985	18933.49
655.337	19034.27
655.688	19103.65
656.039	19029.98
656.391	18980.49
656.742	19061.62
657.094	19053.71
657.445	19117.89
657.796	19047.38
658.147	19015.97
658.498	19001.28
658.849	19138
659.2	19100.71
659.551	18938
659.902	19074.72
660.253	19108.62
660.604	19141.39
660.955	19078.34
661.306	19144.33
661.656	19109.07
662.007	19144.78
662.358	19166.7
662.708	19202.18
663.059	19108.17
663.409	19023.88
663.76	19199.69
664.11	19140.26
664.461	19162.41
664.811	19184.78
665.161	19144.33
665.511	19122.41
665.862	19142.75
666.212	19175.06
666.562	19295.06
666.912	19197.89
667.262	19176.87
667.612	19123.99
667.962	19162.18
668.312	19072.01
668.662	19219.81
669.011	19125.8
669.361	19159.92
669.711	19121.73
670.06	19126.93
670.41	19014.61
670.76	18954.95
671.109	18945.01
671.459	18919.47
671.808	19036.76
672.157	19011.68
672.507	18848.74
672.856	18816.65
673.205	18820.04
673.554	18891.23
673.904	18833.37
674.253	18893.94
674.602	18718.58
674.951	18474.97
675.3	18381.64
675.649	18658.92
675.998	18606.04
676.346	18659.82
676.695	18702.98
677.044	18492.82
677.393	18452.82
677.741	18526.26
678.09	18501.86
678.438	18379.6
678.787	18407.4
679.135	18420.96
679.484	18251.7
679.832	18412.82
680.181	18250.11
680.529	18247.18
680.877	18084.02
681.225	18123.34
681.573	18250.34
681.922	17991.14
682.27	18047.86
682.618	18165.37
682.966	18020.97
683.314	18036.11
683.661	18000.85
684.009	17877.24
684.357	17852.84
684.705	17763.35
685.053	17763.12
685.4	17928.99
685.748	17695.33
686.095	17750.01
686.443	17662.33
686.79	17661.88
687.138	17686.29
687.485	17595.89
687.832	17630.69
688.18	17603.58
688.527	17458.72
688.874	17459.17
689.221	17538.95
689.568	17378.72
689.915	17407.88
690.262	17419.63
690.609	17342.34
690.956	17291.72
691.303	17348.22
691.65	17138.96
691.997	17260.31
692.344	17101.67
692.69	17163.14
693.037	17271.16
693.383	16966.08
693.73	17139.41
694.077	17005.63
694.423	17033.2
694.769	16947.77
695.116	16874.1
695.462	16912.97
695.808	16818.51
696.155	16907.78
696.501	16792.52
696.847	16757.5
697.193	16690.61
697.539	16762.69
697.885	16742.58
698.231	16642.02
698.577	16646.77
698.923	16625.52
699.269	16600.67
699.614	16539.42
699.96	16518.63
700.306	16556.6
700.651	16422.59
700.997	16367.45
701.342	16394.34
701.688	16430.5
702.033	16324.74
702.379	16459.65
702.724	16343.04
703.069	16369.26
703.415	16197.96
703.76	16285.42
704.105	16179.21
704.45	16173.11
704.795	16107.8
705.14	16115.25
705.485	16081.36
705.83	16103.73
706.175	16035.03
706.52	16068.7
706.865	16100.11
707.209	16109.6
707.554	16016.5
707.899	16011.98
708.243	15915.71
708.588	15956.39
708.932	15825.09
709.277	15831.19
709.621	15833.91
709.966	15771.08
710.31	15782.83
710.654	15702.38
710.998	15783.06
711.342	15876.39
711.687	15773.34
712.031	15698.54
712.375	15711.2
712.719	15745.32
713.063	15716.62
713.407	15799.33
713.75	15657.19
714.094	15619
714.438	15627.13
714.782	15674.59
715.125	15672.55
715.469	15565.21
715.812	15614.93
716.156	15496.97
716.499	15506.68
716.843	15505.1
717.186	15526.34
717.53	15570.86
717.873	15531.77
718.216	15488.83
718.559	15486.8
718.902	15369.96
719.246	15513.24
719.589	15355.95
719.932	15353.47
720.275	15437.31
720.617	15275.05
720.96	15317.99
721.303	15368.61
721.646	15317.08
721.989	15277.76
722.331	15315.95
722.674	15275.28
723.016	15359.57
723.359	15301.72
723.701	15345.33
724.044	15231.44
724.386	15173.36
724.729	15335.16
725.071	15270.53
725.413	15174.26
725.755	15297.65
726.097	15228.5
726.439	15113.7
726.782	15159.8
727.124	15264.88
727.465	15148.73
727.807	15148.05
728.149	15169.74
728.491	15099.46
728.833	15137.65
729.175	15123.19
729.516	15171.1
729.858	15101.27
730.199	15115.73
730.541	15115.05
730.882	15165.9
731.224	15220.36
731.565	15085
731.906	15170.19
732.248	15226.01
732.589	15100.37
732.93	15056.3
733.271	15096.52
733.612	15176.52
733.953	15202.28
734.294	15188.72
734.635	15138.78
734.976	15138.33
735.317	15162.96
735.658	15196.18
735.999	15186.01
736.339	15262.85
736.68	15245.22
737.021	15155.96
737.361	15203.87
737.702	15308.27
738.042	15219.91
738.383	15329.74
738.723	15312.34
739.063	15270.76
739.404	15347.59
739.744	15422.17
740.084	15292.68
740.424	15407.93
740.764	15347.59
741.104	15404.54
741.444	15308.04
741.784	15354.6
742.124	15456.97
742.464	15457.87
742.804	15444.99
743.143	15444.99
743.483	15510.75
743.823	15496.97
744.162	15512.56
744.502	15573.57
744.841	15581.26
745.181	15708.71
745.52	15637.75
745.86	15679.79
746.199	15813.79
746.538	15679.33
746.877	15772.44
747.216	15816.96
747.556	15872.32
747.895	15873.23
748.234	15807.47
748.573	15913.45
748.911	15934.02
749.25	15912.1
749.589	15944.86
749.928	15974.02
750.267	16081.36
750.605	16052.66
750.944	16015.37
751.283	15993.22
751.621	16128.59
751.96	16036.61
752.298	16084.75
752.636	16135.59
752.975	16040.68
753.313	16147.8
753.651	16222.6
753.989	16228.25
754.327	16272.54
754.666	16193.44
755.004	16235.48
755.342	16236.83
755.679	16345.3
756.017	16290.16
