Data from blue_clamp_base_FLMS001491_00043.txt Node
Date: Wed Feb 08 15:16:03 GMT 2017
User: dcchb
Spectrometer: FLMS00149
Trigger mode: 0
Integration Time (sec): 2.000000E-2
Scans to average: 10
Electric dark correction enabled: true
Nonlinearity correction enabled: false
Boxcar width: 0
XAxis mode: Wavelengths
Number of Pixels in Spectrum: 2048
>>>>>Begin Spectral Data<<<<<
341.393	7.57
341.776	7.57
342.16	7.57
342.543	-37.4
342.927	-47.8
343.31	-92.09
343.693	-80.56
344.077	-50.51
344.46	-55.25
344.843	-62.03
345.226	-40.34
345.61	-31.07
345.993	-41.24
346.376	4.63
346.759	13.22
347.142	28.13
347.525	36.27
347.908	57.51
348.291	87.79
348.674	98.87
349.057	126.66
349.44	111.52
349.823	146.32
350.206	161.24
350.588	179.77
350.971	212.31
351.354	239.65
351.737	227.23
352.119	265.64
352.502	242.82
352.884	284.63
353.267	284.4
353.65	315.36
354.032	301.8
354.414	324.17
354.797	316.26
355.179	313.33
355.562	338.86
355.944	310.16
356.326	341.8
356.709	326.88
357.091	350.16
357.473	363.95
357.855	338.86
358.238	343.15
358.62	349.71
359.002	347.22
359.384	337.73
359.766	363.27
360.148	349.93
360.53	364.85
360.912	341.35
361.294	354
361.676	350.16
362.057	326.66
362.439	334.12
362.821	340.44
363.203	346.32
363.584	320.78
363.966	337.96
364.348	336.15
364.729	331.4
365.111	323.95
365.493	331.18
365.874	343.61
366.256	339.77
366.637	337.05
367.019	338.41
367.4	323.04
367.781	315.13
368.163	334.57
368.544	344.96
368.925	330.5
369.306	338.41
369.688	345.87
370.069	337.51
370.45	349.71
370.831	323.72
371.212	346.54
371.593	330.27
371.974	340.67
372.355	347
372.736	338.86
373.117	332.99
373.498	319.2
373.879	333.66
374.26	339.54
374.641	326.43
375.021	334.12
375.402	365.53
375.783	370.72
376.163	369.14
376.544	339.31
376.925	357.39
377.305	383.38
377.686	356.49
378.066	360.33
378.447	377.73
378.827	362.14
379.208	347.22
379.588	355.36
379.968	364.85
380.349	370.05
380.729	357.62
381.109	358.52
381.489	363.95
381.87	371.4
382.25	369.14
382.63	394.45
383.01	384.28
383.39	393.77
383.77	391.29
384.15	402.36
384.53	397.62
384.91	412.31
385.29	417.5
385.67	400.78
386.049	394.68
386.429	408.46
386.809	411.18
387.189	423.83
387.568	407.79
387.948	433.77
388.328	409.59
388.707	429.71
389.087	413.66
389.466	435.81
389.846	413.44
390.225	440.55
390.605	444.17
390.984	440.55
391.363	461.34
391.743	450.5
392.122	447.11
392.501	448.46
392.881	452.76
393.26	466.77
393.639	475.81
394.018	471.51
394.397	478.74
394.776	476.94
395.155	498.63
395.534	498.4
395.913	497.5
396.292	485.98
396.671	506.54
397.05	535.47
397.429	499.31
397.808	524.84
398.186	518.97
398.565	535.47
398.944	530.49
399.323	533.88
399.701	534.79
400.08	547.9
400.458	533.21
400.837	549.03
401.215	589.02
401.594	568.01
401.972	565.3
402.351	583.83
402.729	610.49
403.107	593.32
403.486	611.17
403.864	615.01
404.242	613.66
404.62	622.92
404.999	622.47
405.377	649.14
405.755	646.2
406.133	650.72
406.511	666.08
406.889	689.36
407.267	679.64
407.645	700.66
408.023	693.65
408.401	717.61
408.779	690.49
409.156	712.18
409.534	695.69
409.912	741.34
410.29	745.86
410.667	759.19
411.045	757.16
411.422	750.38
411.8	782.24
412.178	777.95
412.555	781.56
412.933	823.59
413.31	804.84
413.687	803.48
414.065	845.51
414.442	868.56
414.819	848.68
415.197	842.35
415.574	874.21
415.951	895.68
416.328	889.81
416.705	874.67
417.082	902.91
417.46	915.34
417.837	925.06
418.214	938.17
418.591	931.39
418.967	954.89
419.344	963.7
419.721	976.36
420.098	973.19
420.475	998.05
420.852	960.54
421.228	1009.58
421.605	1015.91
421.982	1012.29
422.358	1038.96
422.735	1064.04
423.111	1063.14
423.488	1059.97
423.864	1062.46
424.241	1101.55
424.617	1097.03
424.994	1120.08
425.37	1122.8
425.746	1137.94
426.123	1149.69
426.499	1154.88
426.875	1168.67
427.251	1188.33
427.627	1193.53
428.003	1224.26
428.379	1249.57
428.756	1245.28
429.132	1282.34
429.507	1285.73
429.883	1282.11
430.259	1329.57
430.635	1343.81
431.011	1355.78
431.387	1374.77
431.763	1397.36
432.138	1412.73
432.514	1422
432.89	1418.38
433.265	1455.67
433.641	1466.74
434.016	1477.81
434.392	1499.06
434.767	1549
435.143	1525.04
435.518	1569.56
435.894	1572.73
436.269	1589.68
436.644	1610.69
437.02	1645.04
437.395	1640.52
437.77	1662.89
438.145	1695.21
438.52	1723.68
438.895	1719.16
439.271	1704.93
439.646	1778.15
440.021	1804.13
440.395	1803.91
440.77	1789.22
441.145	1802.78
441.52	1832.83
441.895	1835.09
442.27	1881.42
442.645	1864.92
443.019	1898.37
443.394	1885.94
443.769	1945.37
444.143	1921.64
444.518	1958.03
444.892	1953.51
445.267	1992.38
445.641	2009.78
446.016	1999.83
446.39	2044.35
446.764	2028.08
447.139	2023.79
447.513	2050.45
447.887	2102.43
448.262	2064.24
448.636	2114.41
449.01	2094.3
449.384	2154.63
449.758	2184.01
450.132	2195.54
450.506	2196.21
450.88	2236.89
451.254	2231.92
451.628	2236.89
452.002	2296.55
452.376	2299.49
452.75	2315.31
453.123	2304.23
453.497	2384.91
453.871	2391.69
454.244	2421.07
454.618	2436.66
454.992	2479.37
455.365	2474.62
455.739	2550.78
456.112	2602.76
456.486	2611.34
456.859	2599.14
457.232	2658.12
457.606	2650.44
457.979	2649.99
458.352	2728.63
458.725	2745.8
459.099	2793.26
459.472	2859.92
459.845	2861.05
460.218	2860.6
460.591	2899.25
460.964	2950.77
461.337	2970.43
461.71	2973.59
462.083	3077.55
462.456	3041.61
462.829	3070.09
463.201	3098.79
463.574	3099.92
463.947	3171.33
464.32	3230.76
464.692	3249.52
465.065	3259.24
465.438	3284.77
465.81	3346.69
466.183	3397.76
466.555	3487.93
466.928	3484.32
467.3	3457.2
467.672	3501.72
468.045	3610.41
468.417	3597.31
468.789	3602.73
469.161	3676.17
469.534	3722.05
469.906	3800.01
470.278	3829.39
470.65	3823.52
471.022	3888.6
471.394	3980.57
471.766	4015.83
472.138	4022.61
472.51	4137.86
472.882	4181.7
473.253	4194.13
473.625	4242.04
473.997	4318.19
474.369	4355.03
474.74	4366.78
475.112	4489.26
475.484	4517.73
475.855	4585.53
476.227	4638.64
476.598	4774.68
476.97	4722.47
477.341	4850.38
477.713	4875.47
478.084	4866.2
478.455	5099.19
478.827	5049.7
479.198	5201.33
479.569	5188
479.94	5300.09
480.311	5372.85
480.682	5418.73
481.053	5574.66
481.424	5589.8
481.795	5696.01
482.166	5682.22
482.537	5742.79
482.908	5881.99
483.279	5931.93
483.65	6026.17
484.021	6108.43
484.391	6149.33
484.762	6173.74
485.133	6181.65
485.503	6271.81
485.874	6403.11
486.244	6465.48
486.615	6504.57
486.985	6528.08
487.356	6718.35
487.726	6720.61
488.097	6785.02
488.467	6803.32
488.837	6919.03
489.207	7048.29
489.578	7028.18
489.948	7112.47
490.318	7137.55
490.688	7158.57
491.058	7314.5
491.428	7303.2
491.798	7386.13
492.168	7513.59
492.538	7519.46
492.908	7516.07
493.278	7631.55
493.648	7612.57
494.017	7759.68
494.387	7701.15
494.757	7845.78
495.126	7841.94
495.496	7887.59
495.866	7844.88
496.235	7931.43
496.605	7949.73
496.974	7989.96
497.344	8062.05
497.713	8093.23
498.082	8108.83
498.452	8171.88
498.821	8210.74
499.19	8164.87
499.559	8220.24
499.928	8338.2
500.298	8291.19
500.667	8331.42
501.036	8330.52
501.405	8472.66
501.774	8380.46
502.143	8426.56
502.512	8436.5
502.88	8515.6
503.249	8495.26
503.618	8578.19
503.987	8559.89
504.356	8556.72
504.724	8602.6
505.093	8631.75
505.462	8594.69
505.83	8741.8
506.199	8763.27
506.567	8833.78
506.936	8794.01
507.304	8863.61
507.672	8810.28
508.041	8897.51
508.409	8951.06
508.777	8986.54
509.145	9077.39
509.514	9000.33
509.882	9031.97
510.25	9065.41
510.618	9159.65
510.986	9176.82
511.354	9190.83
511.722	9220.44
512.09	9272.64
512.458	9207.1
512.826	9251.85
513.193	9415.01
513.561	9366.65
513.929	9492.74
514.297	9478.28
514.664	9600.31
515.032	9520.99
515.4	9617.94
515.767	9584.49
516.135	9628.79
516.502	9572.06
516.869	9700.65
517.237	9719.63
517.604	9684.83
517.972	9790.36
518.339	9767.31
518.706	9780.42
519.073	9842.79
519.44	9798.95
519.808	9915.56
520.175	9949.68
520.542	10048.21
520.909	10115.78
521.276	9966.86
521.643	10094.31
522.009	10191.48
522.376	10204.59
522.743	10263.35
523.11	10260.41
523.477	10357.81
523.843	10375.89
524.21	10433.06
524.577	10536.56
524.943	10473.51
525.31	10538.59
525.676	10664.47
526.043	10668.53
526.409	10734.52
526.776	10775.65
527.142	10771.36
527.508	10797.12
527.874	10978.81
528.241	10951.46
528.607	10956.89
528.973	11056.09
529.339	10987.39
529.705	11202.98
530.071	11324.79
530.437	11211.57
530.803	11338.12
531.169	11282.3
531.535	11292.92
531.901	11388.74
532.267	11480.04
532.632	11462.64
532.998	11504.44
533.364	11628.51
533.73	11656.76
534.095	11656.98
534.461	11716.64
534.826	11790.99
535.192	11747.37
535.557	11866.24
535.923	11833.7
536.288	11915.51
536.653	11960.25
537.019	11885
537.384	12000.48
537.749	12037.54
538.114	12041.15
538.479	12073.47
538.845	12173.8
539.21	12127.25
539.575	12129.96
539.94	12180.13
540.305	12381.03
540.67	12190.3
541.034	12347.81
541.399	12310.98
541.764	12451.09
542.129	12396.85
542.494	12477.07
542.858	12460.8
543.223	12421.93
543.587	12538.09
543.952	12598.43
544.316	12591.42
544.681	12617.63
545.045	12607.92
545.41	12722.04
545.774	12719.33
546.138	12727.69
546.503	12738.08
546.867	12712.77
547.231	12892.2
547.595	12823.28
547.959	12901.92
548.324	12909.38
548.688	12999.77
549.052	12990.51
549.416	12946.21
549.779	13025.31
550.143	12978.53
550.507	13081.12
550.871	13118.64
551.235	13139.43
551.599	13225.98
551.962	13264.62
552.326	13257.17
552.689	13356.15
553.053	13319.08
553.417	13341.68
553.78	13457.39
554.143	13435.69
554.507	13439.99
554.87	13470.72
555.234	13590.26
555.597	13581.9
555.96	13609.02
556.323	13643.14
556.686	13651.51
557.05	13747.1
557.413	13806.98
557.776	13775.8
558.139	13997.71
558.502	13905.51
558.865	13928.11
559.228	14023.7
559.59	13925.85
559.953	13999.74
560.316	14206.07
560.679	14118.16
561.041	14225.05
561.404	14227.08
561.767	14315.22
562.129	14332.84
562.492	14349.79
562.854	14503.91
563.217	14396.57
563.579	14440.86
563.941	14513.63
564.304	14599.96
564.666	14686.28
565.028	14738.93
565.39	14723.57
565.753	14816.9
566.115	14975.31
566.477	14878.82
566.839	14994.97
567.201	15071.13
567.563	15059.6
567.925	15198.58
568.287	15206.72
568.648	15200.39
569.01	15348.64
569.372	15420.05
569.734	15371.91
570.095	15488.75
570.457	15467.5
570.819	15561.51
571.18	15555.86
571.542	15682.64
571.903	15762.18
572.265	15731.22
572.626	15720.38
572.987	15863.88
573.349	15953.82
573.71	15910.2
574.071	16001.95
574.432	16082.18
574.794	16204.43
575.155	16106.36
575.516	16117.66
575.877	16200.59
576.238	16221.61
576.599	16278.78
576.96	16346.35
577.32	16324.66
577.681	16352.45
578.042	16396.97
578.403	16480.58
578.763	16447.36
579.124	16537.31
579.485	16525.33
579.845	16718.77
580.206	16696.17
580.566	16626.34
580.927	16650.07
581.287	16647.13
581.648	16600.35
582.008	16730.29
582.368	16783.85
582.728	16788.37
583.089	16762.16
583.449	16702.27
583.809	16781.82
584.169	16867.92
584.529	16806.68
584.889	16942.27
585.249	16780.69
585.609	16745.44
585.969	16961.02
586.329	16871.99
586.688	16889.61
587.048	16871.76
587.408	16766.23
587.768	16905.66
588.127	16887.13
588.487	16795.38
588.846	17028.82
589.206	16901.59
589.565	16857.75
589.925	17031.3
590.284	16874.92
590.643	16987.69
591.003	17070.62
591.362	17056.61
591.721	17062.94
592.08	17026.56
592.44	17092.54
592.799	17148.59
593.158	17083.05
593.517	17119.89
593.876	17191.3
594.235	17103.39
594.593	17190.17
594.952	17100
595.311	17070.4
595.67	17140.23
596.029	17268.81
596.387	17130.74
596.746	17332.76
597.104	17195.59
597.463	17128.7
597.822	17264.52
598.18	17148.14
598.538	17271.3
598.897	17365.08
599.255	17174.35
599.613	17404.63
599.972	17338.64
600.33	17297.06
600.688	17231.07
601.046	17357.85
601.404	17472.87
601.762	17349.49
602.12	17387.23
602.478	17477.85
602.836	17430.16
603.194	17357.85
603.552	17442.59
603.91	17357.17
604.268	17460.67
604.625	17421.58
604.983	17564.4
605.341	17377.51
605.698	17554.45
606.056	17539.99
606.413	17462.93
606.771	17550.61
607.128	17695.47
607.485	17544.06
607.843	17492.76
608.2	17668.12
608.557	17662.47
608.914	17594.45
609.272	17652.98
609.629	17736.6
609.986	17784.05
610.343	17721.23
610.7	17832.19
611.057	17605.53
611.414	17707.67
611.771	17813.2
612.127	17796.93
612.484	17788.8
612.841	17953.77
613.198	17810.27
613.554	17928.68
613.911	17986.98
614.267	18008.23
614.624	17909.92
614.98	18061.11
615.337	18094.78
615.693	18041.22
616.05	17977.72
616.406	18084.16
616.762	18091.84
617.118	18037.83
617.475	18032.63
617.831	18141.78
618.187	18089.58
618.543	18146.3
618.899	18281.21
619.255	18173.65
619.611	18245.96
619.967	18329.35
620.323	18257.94
620.678	18183.14
621.034	18158.05
621.39	18198.28
621.746	18233.53
622.101	18409.57
622.457	18267.88
622.812	18291.16
623.168	18391.72
623.523	18355.11
623.879	18485.28
624.234	18330.25
624.589	18429.46
624.945	18462.9
625.3	18509.91
625.655	18442.34
626.01	18458.61
626.365	18565.27
626.72	18492.96
627.075	18459.29
627.43	18561.66
627.785	18445.5
628.14	18485.73
628.495	18534.77
628.85	18513.52
629.205	18462.9
629.559	18597.36
629.914	18507.42
630.269	18642.79
630.623	18573.86
630.978	18541.77
631.332	18538.83
631.687	18689.11
632.041	18637.36
632.396	18686.4
632.75	18560.3
633.104	18672.84
633.459	18510.13
633.813	18701.77
634.167	18530.02
634.521	18534.77
634.875	18569.34
635.229	18594.43
635.583	18634.2
635.937	18508.78
636.291	18620.41
636.645	18599.62
636.999	18618.15
637.352	18656.12
637.706	18631.71
638.06	18722.33
638.413	18673.07
638.767	18666.74
639.121	18718.72
639.474	18620.64
639.828	18591.49
640.181	18655.22
640.534	18725.5
640.888	18549
641.241	18633.3
641.594	18663.58
641.947	18681.2
642.301	18644.37
642.654	18704.25
643.007	18721.65
643.36	18810.01
643.713	18760.75
644.066	18755.1
644.419	18656.57
644.771	18532.06
645.124	18341.33
645.477	18307.88
645.83	18296.81
646.182	18299.52
646.535	18346.98
646.888	18352.17
647.24	18376.58
647.593	18531.38
647.945	18568.44
648.298	18333.19
648.65	18330.03
649.002	18405.73
649.355	18376.13
649.707	18311.72
650.059	18408.89
650.411	18700.64
650.763	18720.3
651.115	18963.46
651.467	18833.52
651.819	18936.56
652.171	19026.73
652.523	18971.37
652.875	18994.64
653.227	18821.99
653.578	19086.39
653.93	19060.63
654.282	18976.11
654.633	18924.14
654.985	19065.15
655.337	18966.39
655.688	19107.63
656.039	19260.17
656.391	18958.48
656.742	19094.75
657.094	19052.27
657.445	19121.64
657.796	19050.01
658.147	19040.52
658.498	19078.93
658.849	19113.73
659.2	19109.67
659.551	19066.5
659.902	19095.2
660.253	19043.68
660.604	19095.43
660.955	19152.15
661.306	19129.78
661.656	19052.72
662.007	19130.46
662.358	19183.79
662.708	19125.03
663.059	19107.63
663.409	18953.74
663.76	19140.63
664.11	19155.99
664.461	19123.45
664.811	19194.18
665.161	19111.02
665.511	19100.63
665.862	19128.65
666.212	19217.91
666.562	19206.84
666.912	19248.87
667.262	19131.59
667.612	19107.41
667.962	19132.72
668.312	19191.92
668.662	19239.38
669.011	19127.07
669.361	19107.63
669.711	19106.96
670.06	19072.38
670.41	18961.42
670.76	19040.74
671.109	19007.07
671.459	18976.56
671.808	18877.36
672.157	18996
672.507	18839.17
672.856	18743.8
673.205	18859.96
673.554	18762.11
673.904	18657.48
674.253	18818.15
674.602	18718.72
674.951	18483.24
675.3	18375.68
675.649	18644.14
675.998	18633.97
676.346	18668.55
676.695	18586.52
677.044	18491.6
677.393	18534.31
677.741	18571.38
678.09	18562.56
678.438	18445.5
678.787	18418.39
679.135	18504.26
679.484	18263.36
679.832	18350.14
680.181	18203.48
680.529	18206.41
680.877	18172.29
681.225	18133.65
681.573	18221.55
681.922	18064.95
682.27	18035.8
682.618	18165.74
682.966	18064.72
683.314	18078.73
683.661	17865.18
684.009	17869.93
684.357	17820.44
684.705	17785.86
685.053	17755.58
685.4	17787.44
685.748	17726.2
686.095	17706.09
686.443	17651.85
686.79	17716.71
687.138	17704.96
687.485	17675.13
687.832	17586.77
688.18	17599.65
688.527	17500.44
688.874	17477.85
689.221	17473.33
689.568	17391.52
689.915	17381.12
690.262	17457.51
690.609	17341.35
690.956	17254.8
691.303	17281.47
691.65	17284.18
691.997	17218.87
692.344	17161.92
692.69	17076.73
693.037	17177.51
693.383	17117.85
693.73	17164.63
694.077	17013
694.423	16906.79
694.769	17000.57
695.116	17048.93
695.462	16923.28
695.808	16807.35
696.155	16904.3
696.501	16833.57
696.847	16878.09
697.193	16542.05
697.539	16752.21
697.885	16669.51
698.231	16570.52
698.577	16708.15
698.923	16641.26
699.269	16570.75
699.614	16522.84
699.96	16381.83
700.306	16552.9
700.651	16497.53
700.997	16432.45
701.342	16403.07
701.688	16425.9
702.033	16385.22
702.379	16393.35
702.724	16335.73
703.069	16445.56
703.415	16181.16
703.76	16305.67
704.105	16297.76
704.45	16265.22
704.795	16129.18
705.14	16054.38
705.485	16192.46
705.83	16034.04
706.175	16070.42
706.52	16129.18
706.865	16075.4
707.209	16047.6
707.554	16013.25
707.899	15934.84
708.243	15893.03
708.588	15922.41
708.932	15861.16
709.277	15868.85
709.621	15890.09
709.966	15697.55
710.31	15782.07
710.654	15666.37
710.998	15845.35
711.342	15911.79
711.687	15796.31
712.031	15777.78
712.375	15665.46
712.719	15728.74
713.063	15671.57
713.407	15809.64
713.75	15738.68
714.094	15707.72
714.438	15641.06
714.782	15621.17
715.125	15580.49
715.469	15641.74
715.812	15548.63
716.156	15435.19
716.499	15496.65
716.843	15571
717.186	15472.47
717.53	15532.36
717.873	15543.21
718.216	15484
718.559	15386.83
718.902	15394.51
719.246	15396.09
719.589	15377.56
719.932	15393.61
720.275	15417.79
720.617	15371.01
720.96	15360.61
721.303	15369.65
721.646	15384.57
721.989	15306.83
722.331	15299.6
722.674	15295.3
723.016	15325.13
723.359	15370.33
723.701	15339.14
724.044	15217.34
724.386	15189.09
724.729	15261.41
725.071	15283.33
725.413	15185.48
725.755	15256.89
726.097	15124.69
726.439	15201.07
726.782	15139.38
727.124	15204.01
727.465	15218.24
727.807	15213.72
728.149	15122.2
728.491	15129.66
728.833	15196.32
729.175	15067.29
729.516	15079.49
729.858	15140.51
730.199	15162.43
730.541	15066.16
730.882	15109.55
731.224	15244.01
731.565	15051.24
731.906	15182.54
732.248	15084.46
732.589	15155.87
732.93	15127.85
733.271	15150.45
733.612	15221.86
733.953	15184.12
734.294	15144.57
734.635	15214.85
734.976	15231.35
735.317	15138.92
735.658	15107.06
735.999	15136.44
736.339	15211.24
736.68	15243.78
737.021	15173.5
737.361	15159.26
737.702	15382.08
738.042	15307.51
738.383	15273.61
738.723	15329.65
739.063	15234.97
739.404	15380.73
739.744	15327.17
740.084	15296.21
740.424	15277.9
740.764	15333.5
741.104	15356.55
741.444	15401.97
741.784	15295.98
742.124	15537.56
742.464	15442.19
742.804	15452.14
743.143	15458.01
743.483	15445.13
743.823	15511.57
744.162	15595.41
744.502	15577.1
744.841	15517.45
745.181	15691.9
745.52	15616.2
745.86	15680.15
746.199	15779.59
746.538	15802.86
746.877	15781.84
747.216	15770.32
747.556	15846.25
747.895	15832.69
748.234	15833.82
748.573	15860.71
748.911	15949.3
749.25	15978.45
749.589	15932.58
749.928	15935.06
750.267	15985.91
750.605	15993.82
750.944	16036.08
751.283	16102.51
751.621	16100.03
751.96	16025
752.298	16091.89
752.636	16133.7
752.975	16146.36
753.313	16062.97
753.651	16148.39
753.989	16260.48
754.327	16248.27
754.666	16268.39
755.004	16307.48
755.342	16328.95
755.679	16319.91
