Data from blue_shiny_book_FLMS001491_00066.txt Node
Date: Wed Feb 08 15:27:22 GMT 2017
User: dcchb
Spectrometer: FLMS00149
Trigger mode: 0
Integration Time (sec): 2.000000E-2
Scans to average: 10
Electric dark correction enabled: true
Nonlinearity correction enabled: false
Boxcar width: 0
XAxis mode: Wavelengths
Number of Pixels in Spectrum: 2048
>>>>>Begin Spectral Data<<<<<
341.393	-10.34
341.776	-10.34
342.16	-10.34
342.543	-66.16
342.927	-57.12
343.31	-66.16
343.693	-78.59
344.077	-93.95
344.46	-51.69
344.843	-50.34
345.226	-34.29
345.61	-36.78
345.993	-10.56
346.376	0.51
346.759	17.91
347.142	28.98
347.525	45.71
347.908	52.94
348.291	79.83
348.674	94.74
349.057	101.75
349.44	129.09
349.823	130.22
350.206	155.76
350.588	190.79
350.971	202.76
351.354	253.84
351.737	245.25
352.119	243.44
352.502	263.78
352.884	268.98
353.267	310.78
353.65	304.68
354.032	305.13
354.414	321.4
354.797	301.52
355.179	318.69
355.562	327.51
355.944	325.92
356.326	328.41
356.709	353.27
357.091	325.25
357.473	375.19
357.855	338.58
358.238	370.44
358.62	352.82
359.002	322.08
359.384	335.19
359.766	344.91
360.148	361.85
360.53	328.64
360.912	348.52
361.294	334.74
361.676	353.95
362.057	342.42
362.439	345.81
362.821	354.17
363.203	353.04
363.584	338.58
363.966	337.9
364.348	358.92
364.729	313.95
365.111	332.7
365.493	346.49
365.874	329.31
366.256	327.05
366.637	341.74
367.019	328.41
367.4	321.63
367.781	339.93
368.163	337
368.544	338.58
368.925	318.92
369.306	341.74
369.688	348.52
370.069	344.45
370.45	353.72
370.831	334.74
371.212	343.32
371.593	341.97
371.974	341.29
372.355	371.57
372.736	351.69
373.117	341.52
373.498	349.2
373.879	354.17
374.26	359.37
374.641	346.94
375.021	351.91
375.402	358.92
375.783	344
376.163	365.24
376.544	388.75
376.925	388.97
377.305	374.96
377.686	392.59
378.066	351.69
378.447	372.7
378.827	372.7
379.208	383.1
379.588	368.63
379.968	390.55
380.349	392.14
380.729	377.22
381.109	386.71
381.489	389.42
381.87	410.22
382.25	409.31
382.63	404.34
383.01	412.7
383.39	396.43
383.77	401.4
384.15	419.25
384.53	409.31
384.91	413.6
385.29	436.88
385.67	414.73
386.049	415.64
386.429	421.97
386.809	474.17
387.189	438.01
387.568	437.79
387.948	439.82
388.328	439.14
388.707	446.15
389.087	482.3
389.466	450.44
389.846	472.81
390.225	454.28
390.605	473.26
390.984	483.21
391.363	492.47
391.743	509.65
392.122	505.58
392.501	488.86
392.881	518.23
393.26	500.83
393.639	514.39
394.018	535.18
394.397	517.78
394.776	531.57
395.155	527.73
395.534	525.92
395.913	549.19
396.292	544.67
396.671	566.6
397.05	565.69
397.429	562.75
397.808	575.41
398.186	564.56
398.565	574.96
398.944	596.88
399.323	561.85
399.701	588.29
400.08	603.66
400.458	607.72
400.837	609.31
401.215	623.32
401.594	627.16
401.972	640.72
402.351	657.89
402.729	628.51
403.107	655.86
403.486	674.16
403.864	678
404.242	680.26
404.62	690.89
404.999	710.09
405.377	705.35
405.755	725.91
406.133	735.18
406.511	724.78
406.889	760.71
407.267	773.14
407.645	769.3
408.023	763.2
408.401	795.52
408.779	788.06
409.156	818.79
409.534	823.76
409.912	813.14
410.29	839.13
410.667	854.95
411.045	860.15
411.422	862.18
411.8	900.37
412.178	905.12
412.555	926.13
412.933	941.95
413.31	933.82
413.687	942.18
414.065	957.55
414.442	979.69
414.819	988.51
415.197	1004.32
415.574	1025.11
415.951	1038.45
416.328	1022.18
416.705	1058.79
417.082	1053.81
417.46	1075.73
417.837	1080.03
418.214	1116.19
418.591	1114.6
418.967	1122.29
419.344	1148.5
419.721	1145.79
420.098	1155.05
420.475	1169.07
420.852	1186.69
421.228	1201.83
421.605	1241.38
421.982	1231.44
422.358	1266.69
422.735	1259.46
423.111	1277.99
423.488	1276.18
423.864	1297.42
424.241	1328.61
424.617	1346.69
424.994	1368.83
425.37	1387.14
425.746	1405.44
426.123	1407.03
426.499	1440.47
426.875	1459.91
427.251	1469.62
427.627	1502.62
428.003	1529.51
428.379	1510.3
428.756	1546
429.132	1554.59
429.507	1583.97
429.883	1627.58
430.259	1675.49
430.635	1660.8
431.011	1670.97
431.387	1710.29
431.763	1747.36
432.138	1758.65
432.514	1753.23
432.89	1778.54
433.265	1860.8
433.641	1882.72
434.016	1898.76
434.392	1903.96
434.767	1956.16
435.143	1950.06
435.518	2013.34
435.894	2053.56
436.269	2071.41
436.644	2108.48
437.02	2126.1
437.395	2120.9
437.77	2163.62
438.145	2195.48
438.52	2223.05
438.895	2237.29
439.271	2221.92
439.646	2319.09
440.021	2352.76
440.395	2373.78
440.77	2353.44
441.145	2427.56
441.52	2446.55
441.895	2414.68
442.27	2479.99
442.645	2465.75
443.019	2479.77
443.394	2538.97
443.769	2526.54
444.143	2515.92
444.518	2595.92
444.892	2595.92
445.267	2661.46
445.641	2655.13
446.016	2667.56
446.39	2722.92
446.764	2740.32
447.139	2711.85
447.513	2753.2
447.887	2754.56
448.262	2764.5
448.636	2792.75
449.01	2857.38
449.384	2866.2
449.758	2910.71
450.132	2975.12
450.506	3024.61
450.88	2982.35
451.254	3039.07
451.628	3069.13
452.002	3076.81
452.376	3100.54
452.75	3151.16
453.123	3170.37
453.497	3220.76
453.871	3257.37
454.244	3302.79
454.618	3338.27
454.992	3413.98
455.365	3443.13
455.739	3536.23
456.112	3578.49
456.486	3580.3
456.859	3663.01
457.232	3697.36
457.606	3716.57
457.979	3779.84
458.352	3800.41
458.725	3840.63
459.099	3855.1
459.472	3924.7
459.845	3976.22
460.218	4088.08
460.591	4150.46
460.964	4154.3
461.337	4238.59
461.71	4355.65
462.083	4447.85
462.456	4425.25
462.829	4411.24
463.201	4505.02
463.574	4541.18
463.947	4630.44
464.32	4687.84
464.692	4708.41
465.065	4792.92
465.438	4829.31
465.81	4915.86
466.183	4967.38
466.555	5092.35
466.928	5177.1
467.3	5173.03
467.672	5248.73
468.045	5453.92
468.417	5420.25
468.789	5502.96
469.161	5557.88
469.534	5595.39
469.906	5673.58
470.278	5738.44
470.65	5829.51
471.022	5972.33
471.394	6048.03
471.766	6113.12
472.138	6214.58
472.51	6365.76
472.882	6518.3
473.253	6572.31
473.625	6677.85
473.997	6771.4
474.369	6820.67
474.74	6915.13
475.112	7057.5
475.484	7185.4
475.855	7278.06
476.227	7338.39
476.598	7513.98
476.97	7604.15
477.341	7776.58
477.713	7938.15
478.084	7994.2
478.455	8217.47
478.827	8313.51
479.198	8558.93
479.569	8656.55
479.94	8797.34
480.311	8943.55
480.682	9132.47
481.053	9355.06
481.424	9383.54
481.795	9527.26
482.166	9600.71
482.537	9787.14
482.908	9997.53
483.279	10116.85
483.65	10300.8
484.021	10647.01
484.391	10715.93
484.762	10822.82
485.133	10944.18
485.503	11132.19
485.874	11416.93
486.244	11462.35
486.615	11642.01
486.985	11836.81
487.356	12026.18
487.726	12170.81
488.097	12355.66
488.467	12496.9
488.837	12729.21
489.207	12851.24
489.578	13072.93
489.948	13189.99
490.318	13453.49
490.688	13494.84
491.058	13807.83
491.428	14049.86
491.798	14147.71
492.168	14414.59
492.538	14433.8
492.908	14628.37
493.278	14841.93
493.648	14813.68
494.017	15118.08
494.387	15206.66
494.757	15382.7
495.126	15573.43
495.496	15748.12
495.866	15758.29
496.235	15991.05
496.605	16156.24
496.974	16262.91
497.344	16408.44
497.713	16556.68
498.082	16668.77
498.452	16908.76
498.821	16994.19
499.19	17075.77
499.559	17229.21
499.928	17337.23
500.298	17499.48
500.667	17573.15
501.036	17636.88
501.405	17945.57
501.774	17962.75
502.143	18094.27
502.512	18243.64
502.88	18508.04
503.249	18468.05
503.618	18544.2
503.987	18773.8
504.356	18965.89
504.724	19065.77
505.093	19106.67
505.462	19188.03
505.83	19304.86
506.199	19421.01
506.567	19721.57
506.936	19599.99
507.304	19920.21
507.672	20049.7
508.041	20309.58
508.409	20369.46
508.777	20635.45
509.145	20846.51
509.514	20803.13
509.882	20968.09
510.25	21047.19
510.618	21141.87
510.986	21210.12
511.354	21431.81
511.722	21659.6
512.09	21787.96
512.458	21861.85
512.826	22072.24
513.193	22133.49
513.561	22275.4
513.929	22491.67
514.297	22708.39
514.664	22837.65
515.032	22917.87
515.4	23204.19
515.767	23332.78
516.135	23463.85
516.502	23399.22
516.869	23863.84
517.237	23899.09
517.604	23907.45
517.972	24163.94
518.339	24310.38
518.706	24184.05
519.073	24378.85
519.44	24654.32
519.808	24897.71
520.175	24970.47
520.542	25380.41
520.909	25517.58
521.276	25558.03
521.643	25910.79
522.009	26001.63
522.376	26293.6
522.743	26396.2
523.11	26787.6
523.477	26951.21
523.843	27052.68
524.21	27298.77
524.577	27463.52
524.943	27603.85
525.31	27817.63
525.676	27969.26
526.043	28109.6
526.409	28218.52
526.776	28656.48
527.142	28613.77
527.508	28993.64
527.874	29230.93
528.241	29284.26
528.607	29479.28
528.973	29863.9
529.339	29767.41
529.705	30265.25
530.071	30418.24
530.437	30505.7
530.803	30685.35
531.169	30947.49
531.535	30927.6
531.901	31096.87
532.267	31101.61
532.632	31293.47
532.998	31428.16
533.364	31583.86
533.73	31691.88
534.095	31875.38
534.461	32000.57
534.826	32215.93
535.192	32413.89
535.557	32709.25
535.923	32837.16
536.288	32926.87
536.653	33054.78
537.019	33032.63
537.384	33344.72
537.749	33543.13
538.114	33644.14
538.479	33554.2
538.845	33741.77
539.21	33633.52
539.575	33734.08
539.94	33890.46
540.305	34000.97
540.67	33953.29
541.034	33904.7
541.399	34196.22
541.764	34219.5
542.129	34312.15
542.494	34448.87
542.858	34718.92
543.223	34826.49
543.587	35014.28
543.952	35175.4
544.316	35245.23
544.681	35376.08
545.045	35564.09
545.41	35710.08
545.774	35713.69
546.138	35704.43
546.503	35761.6
546.867	35591.66
547.231	35966.79
547.595	35904.65
547.959	36078.2
548.324	36032.56
548.688	36077.3
549.052	36217.64
549.416	36236.84
549.779	36351.64
550.143	36448.14
550.507	36696.94
550.871	36792.76
551.235	36767.9
551.599	37241.56
551.962	37188.23
552.326	37430.26
552.689	37628.67
553.053	37464.83
553.417	37589.35
553.78	38048.32
554.143	37763.81
554.507	37940.75
554.87	37960.19
555.234	38389.33
555.597	37973.07
555.96	38215.32
556.323	38160.64
556.686	38293.74
557.05	38451.25
557.413	38481.3
557.776	38501.19
558.139	38878.58
558.502	38913.38
558.865	39176.88
559.228	39510.66
559.59	39505.46
559.953	39643.76
560.316	40185.44
560.679	40140.7
561.041	40403.97
561.404	40527.8
561.767	40805.99
562.129	40730.06
562.492	41041.92
562.854	40911.07
563.217	40802.15
563.579	40969.15
563.941	41169.82
564.304	41087.34
564.666	41388.57
565.028	41335.47
565.39	41340.66
565.753	41617.49
566.115	41772.29
566.477	41852.06
566.839	42012.96
567.201	42406.4
567.563	42429.22
567.925	42874.86
568.287	42913.28
568.648	43076.21
569.01	43373.38
569.372	43713.94
569.734	43479.14
570.095	43800.71
570.457	43775.85
570.819	43741.05
571.18	43851.78
571.542	43924.33
571.903	44066.92
572.265	44002.52
572.626	43941.5
572.987	43949.86
573.349	44110.76
573.71	44296.07
574.071	44204.77
574.432	44486.8
574.794	44675.04
575.155	44665.55
575.516	44631.2
575.877	44903.28
576.238	44991.64
576.599	45355.02
576.96	45323.16
577.32	45458.07
577.681	45612.64
578.042	46099.86
578.403	45943.71
578.763	46060.09
579.124	46057.6
579.485	46166.3
579.845	46217.15
580.206	46216.92
580.566	46142.12
580.927	46027.32
581.287	46134.21
581.648	45888.79
582.008	45961.79
582.368	45983.03
582.728	45930.37
583.089	45985.51
583.449	46034.33
583.809	46111.84
584.169	46123.36
584.529	46107.09
584.889	46423.24
585.249	46375.33
585.609	46393.86
585.969	46678.83
586.329	46578.04
586.688	46792.5
587.048	46785.49
587.408	46800.86
587.768	46828.88
588.127	46915.66
588.487	46806.28
588.846	47068.65
589.206	46908.2
589.565	46806.28
589.925	46937.58
590.284	46597.48
590.643	46648.32
591.003	46706.4
591.362	46677.93
591.721	46546.4
592.08	46632.05
592.44	46572.39
592.799	46616.23
593.158	46474.09
593.517	46720.41
593.876	46672.5
594.235	46729
594.593	46757.25
594.952	46913.63
595.311	46869.33
595.67	47030.46
596.029	47233.62
596.387	47524.23
596.746	47540.28
597.104	47368.98
597.463	47438.81
597.822	47557.68
598.18	47436.32
598.538	47476.55
598.897	47624.79
599.255	47154.97
599.613	47593.61
599.972	47467.96
600.33	47340.05
600.688	47084.24
601.046	47258.7
601.404	47211.7
601.762	47095.99
602.12	47402.2
602.478	47388.41
602.836	47357.68
603.194	47208.53
603.552	47369.88
603.91	47314.97
604.268	47579.37
604.625	47555.42
604.983	47668.63
605.341	47602.87
605.698	47863.88
606.056	47969.87
606.413	48034.27
606.771	48179.35
607.128	48245.34
607.485	48066.59
607.843	48154.27
608.2	48505.22
608.557	48568.72
608.914	48255.96
609.272	48279.01
609.629	48316.98
609.986	48458.67
610.343	48039.47
610.7	48338.22
611.057	48105.23
611.414	48146.59
611.771	48239.01
612.127	48286.92
612.484	48223.2
612.841	48349.75
613.198	48220.71
613.554	48352.91
613.911	48585.22
614.267	48701.37
614.624	48681.26
614.98	48747.02
615.337	49019.56
615.693	48851.88
616.05	49083.51
616.406	49334.8
616.762	49129.16
617.118	49245.54
617.475	49311.75
617.831	49420
618.187	49460.45
618.543	49436.95
618.899	49491.18
619.255	49447.34
619.611	49311.98
619.967	49356.5
620.323	49318.76
620.678	49199.21
621.034	49097.3
621.39	49166.67
621.746	48937.07
622.101	49321.02
622.457	48950.86
622.812	49035.15
623.168	49131.42
623.523	49080.57
623.879	49195.83
624.234	49034.47
624.589	49354.01
624.945	49414.12
625.3	49490.28
625.655	49389.72
626.01	49475.59
626.365	49535.48
626.72	49500
627.075	49545.42
627.43	49704.74
627.785	49606.89
628.14	49753.55
628.495	49751.74
628.85	49609.37
629.205	49577.28
629.559	49728.47
629.914	49411.19
630.269	49515.36
630.623	49355.59
630.978	49172.32
631.332	49263.85
631.687	49417.29
632.041	49109.5
632.396	49102.49
632.75	48737.76
633.104	48940.92
633.459	48622.51
633.813	48724.65
634.167	48631.55
634.521	48591.77
634.875	48702.73
635.229	48577.99
635.583	48459.57
635.937	48673.8
636.291	48630.19
636.645	48667.93
636.999	48596.74
637.352	48827.47
637.706	48628.61
638.06	48793.35
638.413	48791.54
638.767	48716.74
639.121	48687.82
639.474	48508.84
639.828	48596.74
640.181	48545.22
640.534	48467.71
640.888	48330.54
641.241	48234.72
641.594	48107.72
641.947	48121.05
642.301	48007.38
642.654	48005.35
643.007	47998.57
643.36	47744.56
643.713	47717.22
644.066	47757.67
644.419	47643.55
644.771	47489.2
645.124	47285.82
645.477	47389.54
645.83	47100.74
646.182	46797.24
646.535	46439.97
646.888	46355.22
647.24	45943.93
647.593	46080.88
647.945	46044.27
648.298	45853.77
648.65	45977.6
649.002	45949.13
649.355	46270.25
649.707	46391.38
650.059	46778.49
650.411	47255.99
650.763	47367.85
651.115	47562.42
651.467	47450.33
651.819	47371.47
652.171	47225.26
652.523	47301.19
652.875	47069.55
653.227	46819.62
653.578	47285.82
653.93	47072.72
654.282	46874.76
654.633	46540.08
654.985	46503.69
655.337	46609.23
655.688	46516.8
656.039	46511.6
656.391	46272.06
656.742	46224.6
657.094	46437.48
657.445	46522.45
657.796	46527.65
658.147	46333.75
658.498	46354.77
658.849	46460.08
659.2	46426.41
659.551	46352.74
659.902	46657.81
660.253	46732.84
660.604	46764.02
660.955	46628.66
661.306	46750.92
661.656	46607.19
662.007	46646.06
662.358	46655.55
662.708	46599.96
663.059	46726.74
663.409	46497.14
663.76	46597.02
664.11	46466.63
664.461	46418.05
664.811	46513.64
665.161	46208.11
665.511	46206.07
665.862	46323.58
666.212	46427.31
666.562	46220.54
666.912	46206.75
667.262	46161.78
667.612	46104.38
667.962	45999.3
668.312	45855.12
668.662	46038.39
669.011	45985.74
669.361	45848.34
669.711	45799.3
670.06	45747.55
670.41	45786.88
670.76	45781.23
671.109	45823.26
671.459	45658.29
671.808	45610.38
672.157	45885.4
672.507	45663.71
672.856	45625.98
673.205	45818.06
673.554	45986.42
673.904	45927.44
674.253	46107.77
674.602	46038.85
674.951	45420.56
675.3	45134.69
675.649	45938.28
675.998	45808.8
676.346	45719.98
676.695	45852.86
677.044	45537.84
677.393	45549.14
677.741	45539.2
678.09	45299.66
678.438	45183.95
678.787	45002.49
679.135	44936.5
679.484	44632.1
679.832	44790.07
680.181	44351.43
680.529	44595.27
680.877	44294.94
681.225	44220.81
681.573	44465.33
681.922	44246.12
682.27	44181.49
682.618	44289.74
682.966	43997.54
683.314	44004.55
683.661	44015.17
684.009	43907.6
684.357	43826.7
684.705	43976.53
685.053	43853.37
685.4	43821.73
685.748	43835.29
686.095	43933.36
686.443	43660.6
686.79	43666.03
687.138	43874.61
687.485	43931.56
687.832	43648.4
688.18	43726.59
688.527	43394.85
688.874	43307.84
689.221	43193.27
689.568	43141.97
689.915	43058.36
690.262	42977.68
690.609	42947.63
690.956	42663.57
691.303	42428.09
691.65	42291.83
691.997	42129.8
692.344	41963.47
692.69	41812.29
693.037	41736.81
693.383	41291.85
693.73	41422.7
694.077	41214.57
694.423	41007.11
694.769	40954.46
695.116	40806.44
695.462	40510.63
695.808	40543.85
696.155	40585.43
696.501	40288.49
696.847	40381.37
697.193	40268.15
697.539	40387.24
697.885	40012.56
698.231	40041.94
698.577	40111.32
698.923	40105.67
699.269	39920.81
699.614	39765.79
699.96	39943.41
700.306	40080.81
700.651	39804.89
700.997	39694.38
701.342	39587.26
701.688	39470.43
702.033	39367.61
702.379	39234.28
702.724	39253.71
703.069	39272.92
703.415	38676.78
703.76	38768.75
704.105	38788.87
704.45	38612.15
704.795	38304.13
705.14	38081.99
705.485	37983.24
705.83	37658.5
706.175	37758.84
706.52	37441.33
706.865	37235.24
707.209	37172.64
707.554	36998.41
707.899	36955.92
708.243	36730.16
708.588	36691.97
708.932	36575.37
709.277	36625.53
709.621	36604.29
709.966	36273.9
710.31	36504.18
710.654	36151.65
710.998	36416.05
711.342	36384.18
711.687	36342.6
712.031	36229.61
712.375	36183.06
712.719	36199.78
713.063	36290.4
713.407	36279.1
713.75	36231.87
714.094	36249.05
714.438	36209.5
714.782	36350.29
715.125	36123.85
715.469	36259.89
715.812	36113.91
716.156	35883.41
716.499	35946.68
716.843	35697.42
717.186	35428.28
717.53	35612.68
717.873	35356.19
718.216	35272.12
718.559	35184.44
718.902	34966.59
719.246	35054.73
719.589	34850.44
719.932	34768.41
720.275	34751.69
720.617	34546.72
720.96	34508.3
721.303	34407.74
721.646	34332.49
721.989	34045.26
722.331	34016.79
722.674	33979.28
723.016	34030.57
723.359	33870.8
723.701	34089.56
724.044	33731.15
724.386	33658.15
724.729	33821.99
725.071	33852.27
725.413	33847.75
725.755	33865.61
726.097	33810.47
726.439	33760.52
726.782	33684.59
727.124	33842.33
727.465	33872.84
727.807	33942.44
728.149	33878.94
728.491	33892.27
728.833	33887.98
729.175	33926.4
729.516	33903.12
729.858	33899.73
730.199	34070.8
730.541	33838.49
730.882	33946.28
731.224	33918.26
731.565	33805.95
731.906	33669.91
732.248	33729.79
732.589	33497.48
732.93	33326.86
733.271	33306.07
733.612	33294.77
733.953	33318.05
734.294	33219.75
734.635	33126.64
734.976	33052.97
735.317	32999.64
735.658	32895.91
735.999	32746.77
736.339	32751.51
736.68	32736.82
737.021	32683.04
737.361	32625.19
737.702	32709.93
738.042	32674
738.383	32596.26
738.723	32637.62
739.063	32525.75
739.404	32730.27
739.744	32771.17
740.084	32573.89
740.424	32789.7
740.764	32693.66
741.104	32904.28
741.444	32776.37
741.784	32685.75
742.124	32853.43
742.464	33013.65
742.804	32901.79
743.143	32858.63
743.483	33095.01
743.823	32820.44
744.162	33002.13
744.502	33099.75
744.841	32887.1
745.181	33179.52
745.52	33006.19
745.86	33059.07
746.199	33036.02
746.538	33016.14
746.877	33258.62
747.216	33206.19
747.556	33027.21
747.895	32959.87
748.234	32732.98
748.573	32692.98
748.911	32630.38
749.25	32741.12
749.589	32673.77
749.928	32674.45
750.267	32708.35
750.605	32624.96
750.944	32567.34
751.283	32555.13
751.621	32683.72
751.96	32455.02
752.298	32503.83
752.636	32543.61
752.975	32426.32
753.313	32266.55
