Data from blue_chair_FLMS001491_00047.txt Node
Date: Wed Feb 08 10:30:54 GMT 2017
User: dcchb
Spectrometer: FLMS00149
Trigger mode: 0
Integration Time (sec): 2.000000E-2
Scans to average: 10
Electric dark correction enabled: true
Nonlinearity correction enabled: false
Boxcar width: 0
XAxis mode: Wavelengths
Number of Pixels in Spectrum: 2048
>>>>>Begin Spectral Data<<<<<
341.393	-23.64
341.776	-23.64
342.16	-23.64
342.543	-71.1
342.927	-55.96
343.31	-65
343.693	-71.78
344.077	-66.81
344.46	-61.38
344.843	-54.83
345.226	-27.26
345.61	-41.95
345.993	-14.6
346.376	1.89
346.759	23.13
347.142	24.26
347.525	32.17
347.908	42.57
348.291	72.17
348.674	92.51
349.057	114.88
349.44	118.5
349.823	132.96
350.206	156.69
350.588	180.87
350.971	200.98
351.354	200.76
351.737	220.19
352.119	219.74
352.502	229.91
352.884	247.54
353.267	250.93
353.65	267.2
354.032	270.13
354.414	293.64
354.797	297.93
355.179	304.94
355.562	313.07
355.944	301.77
356.326	318.95
356.709	286.4
357.091	313.75
357.473	312.62
357.855	306.97
358.238	314.2
358.62	304.26
359.002	309.46
359.384	319.62
359.766	315.56
360.148	319.85
360.53	300.19
360.912	304.26
361.294	319.62
361.676	298.61
362.057	315.1
362.439	295.9
362.821	304.26
363.203	284.15
363.584	304.94
363.966	298.61
364.348	298.83
364.729	297.7
365.111	296.8
365.493	284.37
365.874	320.3
366.256	294.31
366.637	279.17
367.019	295.67
367.4	289.34
367.781	272.39
368.163	289.57
368.544	293.18
368.925	267.42
369.306	290.47
369.688	278.04
370.069	281.21
370.45	287.76
370.831	288.44
371.212	286.63
371.593	272.62
371.974	270.59
372.355	291.15
372.736	283.47
373.117	297.7
373.498	288.21
373.879	289.12
374.26	286.4
374.641	271.72
375.021	268.55
375.402	284.37
375.783	276.46
376.163	303.13
376.544	292.96
376.925	288.89
377.305	295.9
377.686	295.9
378.066	302
378.447	297.48
378.827	283.24
379.208	274.65
379.588	311.71
379.968	297.93
380.349	311.49
380.729	292.73
381.109	284.6
381.489	272.85
381.87	292.96
382.25	297.03
382.63	323.01
383.01	295.22
383.39	307.42
383.77	302.9
384.15	292.96
384.53	328.21
384.91	294.99
385.29	311.04
385.67	313.07
386.049	310.59
386.429	319.85
386.809	321.88
387.189	320.75
387.568	318.72
387.948	314.65
388.328	294.31
388.707	311.04
389.087	325.27
389.466	319.62
389.846	316.01
390.225	315.1
390.605	326.4
390.984	329.34
391.363	313.97
391.743	334.77
392.122	330.92
392.501	330.7
392.881	339.74
393.26	325.95
393.639	328.89
394.018	320.98
394.397	332.73
394.776	341.32
395.155	337.7
395.534	346.74
395.913	332.28
396.292	346.97
396.671	347.19
397.05	349.23
397.429	347.65
397.808	339.28
398.186	365.5
398.565	362.11
398.944	341.54
399.323	352.17
399.701	346.29
400.08	343.13
400.458	375.67
400.837	364.59
401.215	358.27
401.594	341.54
401.972	353.75
402.351	362.56
402.729	372.73
403.107	376.57
403.486	369.57
403.864	388.55
404.242	378.15
404.62	378.83
404.999	371.37
405.377	391.03
405.755	379.28
406.133	380.64
406.511	392.62
406.889	406.63
407.267	416.57
407.645	423.12
408.023	396.68
408.401	419.51
408.779	401.66
409.156	412.73
409.534	423.58
409.912	419.06
410.29	420.19
410.667	424.93
411.045	449.56
411.422	438.04
411.8	432.62
412.178	415.67
412.555	449.79
412.933	458.83
413.31	459.06
413.687	457.47
414.065	456.34
414.442	464.71
414.819	459.73
415.197	456.57
415.574	478.26
415.951	458.38
416.328	480.75
416.705	481.88
417.082	466.06
417.46	477.36
417.837	487.53
418.214	483.24
418.591	486.4
418.967	492.5
419.344	476.91
419.721	495.89
420.098	485.72
420.475	515.1
420.852	518.26
421.228	511.48
421.605	529.11
421.982	532.27
422.358	517.59
422.735	532.05
423.111	519.17
423.488	537.92
423.864	542.67
424.241	560.75
424.617	574.98
424.994	532.73
425.37	548.09
425.746	564.14
426.123	574.53
426.499	581.99
426.875	574.31
427.251	578.37
427.627	595.1
428.003	595.55
428.379	598.71
428.756	607.07
429.132	607.53
429.507	619.05
429.883	608.2
430.259	641.65
430.635	632.38
431.011	643.68
431.387	635.77
431.763	647.07
432.138	648.66
432.514	702.21
432.89	668.32
433.265	703.57
433.641	688.65
434.016	696.79
434.392	708.31
434.767	724.36
435.143	725.49
435.518	742.21
435.894	744.7
436.269	757.35
436.644	740.63
437.02	796
437.395	778.82
437.77	782.66
438.145	806.84
438.52	807.75
438.895	828.99
439.271	816.79
439.646	835.09
440.021	869.21
440.395	870.8
440.77	845.49
441.145	845.03
441.52	885.03
441.895	901.98
442.27	890.23
442.645	892.72
443.019	905.6
443.394	902.66
443.769	938.59
444.143	948.08
444.518	946.95
444.892	927.97
445.267	944.69
445.641	962.77
446.016	985.14
446.39	996.44
446.764	986.5
447.139	985.37
447.513	997.35
447.887	1008.87
448.262	996.89
448.636	1018.36
449.01	1045.26
449.384	1056.78
449.758	1045.03
450.132	1039.38
450.506	1044.8
450.88	1061.07
451.254	1066.5
451.628	1079.83
452.002	1097.01
452.376	1099.04
452.75	1103.11
453.123	1103.33
453.497	1156.21
453.871	1134.29
454.244	1156.21
454.618	1129.09
454.992	1166.61
455.365	1198.25
455.739	1208.87
456.112	1219.49
456.486	1207.74
456.859	1256.55
457.232	1268.3
457.606	1255.19
457.979	1266.72
458.352	1277.57
458.725	1293.61
459.099	1332.03
459.472	1351.24
459.845	1329.32
460.218	1352.82
460.591	1358.47
460.964	1357.34
461.337	1382.87
461.71	1409.31
462.083	1444.34
462.456	1406.38
462.829	1420.84
463.201	1443.21
463.574	1455.19
463.947	1475.3
464.32	1495.41
464.692	1480.05
465.065	1495.19
465.438	1527.5
465.81	1538.35
466.183	1556.2
466.555	1554.85
466.928	1581.29
467.3	1574.73
467.672	1596.2
468.045	1622.87
468.417	1685.69
468.789	1653.15
469.161	1666.71
469.534	1711.68
469.906	1724.33
470.278	1761.85
470.65	1758.46
471.022	1766.82
471.394	1801.62
471.766	1795.97
472.138	1831.9
472.51	1822.86
472.882	1851.56
473.253	1877.78
473.625	1915.74
473.997	1897.21
474.369	1936.53
474.74	1953.48
475.112	1968.17
475.484	2002.07
475.855	2016.3
476.227	2075.74
476.598	2103.53
476.97	2144.44
477.341	2149.86
477.713	2159.58
478.084	2158.22
478.455	2203.87
478.827	2236.86
479.198	2298.1
479.569	2293.58
479.94	2341.04
480.311	2346.01
480.682	2395.73
481.053	2412.9
481.424	2470.98
481.795	2428.04
482.166	2448.16
482.537	2499.23
482.908	2569.51
483.279	2598.21
483.65	2581.49
484.021	2607.25
484.391	2668.26
484.762	2660.81
485.133	2698.77
485.503	2683.18
485.874	2734.7
486.244	2761.14
486.615	2841.59
486.985	2812.44
487.356	2875.94
487.726	2853.34
488.097	2919.33
488.467	2897.41
488.837	2998.2
489.207	2964.3
489.578	3023.28
489.948	3028.71
490.318	3053.34
490.688	3041.36
491.058	3073.68
491.428	3127.91
491.798	3114.81
492.168	3179.66
492.538	3172.66
492.908	3178.76
493.278	3214.46
493.648	3202.49
494.017	3232.09
494.387	3240.45
494.757	3279.09
495.126	3282.03
495.496	3268.93
495.866	3310.96
496.235	3294.91
496.605	3313.44
496.974	3348.25
497.344	3363.16
497.713	3320.68
498.082	3339.66
498.452	3343.5
498.821	3369.71
499.19	3394.8
499.559	3368.81
499.928	3381.24
500.298	3354.57
500.667	3404.97
501.036	3382.59
501.405	3385.98
501.774	3388.7
502.143	3403.16
502.512	3431.41
502.88	3424.63
503.249	3449.49
503.618	3428.92
503.987	3384.4
504.356	3403.39
504.724	3462.14
505.093	3412.42
505.462	3480.9
505.83	3466.89
506.199	3442.03
506.567	3446.77
506.936	3469.82
507.304	3502.59
507.672	3481.35
508.041	3449.03
508.409	3453.33
508.777	3460.11
509.145	3471.86
509.514	3477.96
509.882	3456.94
510.25	3463.5
510.618	3439.09
510.986	3475.25
511.354	3454.46
511.722	3472.99
512.09	3458.75
512.458	3428.92
512.826	3469.37
513.193	3442.03
513.561	3468.02
513.929	3461.69
514.297	3469.82
514.664	3453.1
515.032	3445.87
515.4	3465.08
515.767	3417.85
516.135	3431.18
516.502	3418.07
516.869	3472.76
517.237	3437.73
517.604	3382.59
517.972	3461.46
518.339	3424.63
518.706	3398.19
519.073	3380.33
519.44	3447.45
519.808	3391.41
520.175	3416.49
520.542	3397.51
520.909	3426.66
521.276	3383.72
521.643	3398.41
522.009	3385.53
522.376	3387.11
522.743	3382.82
523.11	3382.82
523.477	3454.01
523.843	3415.36
524.21	3426.89
524.577	3409.94
524.943	3377.17
525.31	3355.02
525.676	3391.63
526.043	3385.98
526.409	3359.32
526.776	3423.27
527.142	3337.4
527.508	3347.34
527.874	3372.88
528.241	3385.98
528.607	3388.47
528.973	3424.4
529.339	3305.76
529.705	3349.38
530.071	3374.23
530.437	3339.21
530.803	3336.04
531.169	3325.42
531.535	3334.91
531.901	3312.77
532.267	3315.25
532.632	3337.85
532.998	3289.94
533.364	3272.99
533.73	3291.75
534.095	3299.88
534.461	3293.56
534.826	3268.02
535.192	3261.47
535.557	3256.95
535.923	3251.98
536.288	3233.45
536.653	3240
537.019	3204.75
537.384	3195.03
537.749	3200.45
538.114	3181.7
538.479	3174.92
538.845	3180.57
539.21	3123.84
539.575	3180.11
539.94	3158.42
540.305	3134.01
540.67	3074.35
541.034	3134.47
541.399	3121.81
541.764	3089.04
542.129	3040.23
542.494	3053.56
542.858	3049.04
543.223	3078.2
543.587	3036.62
543.952	3035.94
544.316	3038.42
544.681	2966.79
545.045	3010.63
545.41	2997.75
545.774	2985.77
546.138	2958.88
546.503	2952.32
546.867	2921.82
547.231	2945.77
547.595	2935.15
547.959	2878.43
548.324	2898.54
548.688	2849.95
549.052	2874.36
549.416	2878.88
549.779	2863.74
550.143	2846.11
550.507	2849.95
550.871	2851.08
551.235	2822.84
551.599	2829.84
551.962	2865.77
552.326	2782.16
552.689	2816.28
553.053	2807.47
553.417	2756.4
553.78	2790.75
554.143	2771.09
554.507	2737.64
554.87	2752.55
555.234	2796.62
555.597	2755.94
555.96	2729.73
556.323	2722.73
556.686	2704.65
557.05	2705.78
557.413	2736.28
557.776	2712.78
558.139	2730.41
558.502	2683.63
558.865	2683.63
559.228	2692.44
559.59	2671.2
559.953	2675.72
560.316	2718.43
560.679	2680.01
561.041	2685.44
561.404	2650.18
561.767	2678.43
562.129	2643.63
562.492	2702.39
562.854	2646.79
563.217	2648.6
563.579	2667.13
563.941	2663.97
564.304	2687.47
564.666	2696.51
565.028	2712.56
565.39	2699.45
565.753	2669.62
566.115	2696.96
566.477	2715.04
566.839	2711.43
567.201	2664.65
567.563	2689.73
567.925	2687.92
568.287	2712.78
568.648	2692.9
569.01	2735.83
569.372	2710.3
569.734	2689.28
570.095	2707.81
570.457	2752.1
570.819	2736.51
571.18	2728.83
571.542	2751.42
571.903	2701.26
572.265	2741.93
572.626	2771.31
572.987	2744.42
573.349	2768.83
573.71	2786
574.071	2775.15
574.432	2768.83
574.794	2815.83
575.155	2815.38
575.516	2810.18
575.877	2796.17
576.238	2823.06
576.599	2808.82
576.96	2836.39
577.32	2841.59
577.681	2867.58
578.042	2833.68
578.403	2849.73
578.763	2877.75
579.124	2821.25
579.485	2918.88
579.845	2880.24
580.206	2896.96
580.566	2916.39
580.927	2889.5
581.287	2896.73
581.648	2909.39
582.008	2895.15
582.368	2892.44
582.728	2879.78
583.089	2905.09
583.449	2945.54
583.809	2912.1
584.169	2901.93
584.529	2906.45
584.889	2938.54
585.249	2946.22
585.609	2918.65
585.969	2962.04
586.329	2957.52
586.688	2978.54
587.048	2939.67
587.408	2962.04
587.768	2955.94
588.127	2969.05
588.487	2951.87
588.846	2969.05
589.206	2997.52
589.565	2964.07
589.925	2980.35
590.284	2986.67
590.643	2953.23
591.003	2993.23
591.362	2975.37
591.721	2983.96
592.08	2963.4
592.44	2961.81
592.799	2952.78
593.158	3003.17
593.517	2962.49
593.876	2959.78
594.235	2971.53
594.593	2976.28
594.952	2981.25
595.311	2958.88
595.67	2944.87
596.029	2965.2
596.387	3000.68
596.746	2986.9
597.104	2967.46
597.463	2989.16
597.822	2936.73
598.18	2955.26
598.538	2965.2
598.897	3000.23
599.255	2976.05
599.613	3014.92
599.972	2980.12
600.33	2970.18
600.688	2962.04
601.046	2975.6
601.404	2983.96
601.762	2977.63
602.12	3023.06
602.478	2991.19
602.836	2973.11
603.194	2952.1
603.552	2960.46
603.91	2970.4
604.268	3007.92
604.625	2944.41
604.983	2984.64
605.341	2953.23
605.698	2960.23
606.056	2960.68
606.413	2972.89
606.771	3018.31
607.128	2968.37
607.485	2934.92
607.843	2949.61
608.2	2952.1
608.557	2951.65
608.914	3000.46
609.272	2972.66
609.629	2969.95
609.986	2967.46
610.343	2962.49
610.7	3017.63
611.057	2994.58
611.414	3004.07
611.771	2994.13
612.127	2982.15
612.484	2977.18
612.841	3011.08
613.198	2964.3
613.554	2974.7
613.911	3010.85
614.267	2985.77
614.624	2979.44
614.98	3010.85
615.337	3027.58
615.693	3011.31
616.05	3042.94
616.406	3034.81
616.762	3032.77
617.118	3027.8
617.475	3005.66
617.831	3051.98
618.187	3009.27
618.543	3039.55
618.899	3035.71
619.255	3001.36
619.611	3041.13
619.967	3038.65
620.323	3045.43
620.678	3029.16
621.034	3023.28
621.39	3021.02
621.746	3058.08
622.101	3072.55
622.457	3049.95
622.812	3033.9
623.168	3014.24
623.523	3011.08
623.879	3047.01
624.234	3040.68
624.589	3027.35
624.945	3036.39
625.3	3045.43
625.655	3001.14
626.01	2982.38
626.365	3031.64
626.72	3042.49
627.075	3022.83
627.43	3005.2
627.785	3045.88
628.14	3024.19
628.495	3040.91
628.85	3042.49
629.205	3040.23
629.559	3052.43
629.914	3003.62
630.269	3070.06
630.623	3022.38
630.978	2980.57
631.332	3020.8
631.687	3028.93
632.041	3003.4
632.396	3071.87
632.75	3000.23
633.104	2998.42
633.459	3026.22
633.813	2995.26
634.167	3084.3
634.521	2980.8
634.875	2952.32
635.229	2964.98
635.583	3016.05
635.937	3024.86
636.291	2965.66
636.645	2977.18
636.999	2946.45
637.352	2992.55
637.706	2967.46
638.06	2994.58
638.413	2958.65
638.767	2978.31
639.121	2975.6
639.474	2968.59
639.828	2963.62
640.181	2970.63
640.534	2994.81
640.888	2998.65
641.241	2971.08
641.594	2961.59
641.947	2976.05
642.301	2950.97
642.654	2993.68
643.007	2975.15
643.36	2985.99
643.713	2935.6
644.066	2980.8
644.419	2971.08
644.771	2945.09
645.124	2940.57
645.477	2926.56
645.83	2888.14
646.182	2870.74
646.535	2911.87
646.888	2906.9
647.24	2876.17
647.593	2905.77
647.945	2871.2
648.298	2887.92
648.65	2871.87
649.002	2874.36
649.355	2907.13
649.707	2875.72
650.059	2886.79
650.411	2916.39
650.763	2936.28
651.115	2961.36
651.467	2970.85
651.819	2950.52
652.171	2970.18
652.523	2877.07
652.875	2951.19
653.227	2959.1
653.578	2945.32
653.93	2955.04
654.282	2936.5
654.633	2968.59
654.985	2932.66
655.337	2923.4
655.688	2945.32
656.039	2959.78
656.391	2896.96
656.742	2929.5
657.094	2984.87
657.445	2958.65
657.796	2939.22
658.147	2970.4
658.498	2961.59
658.849	2962.49
659.2	2966.33
659.551	2959.1
659.902	2979.44
660.253	2950.52
660.604	2979.89
660.955	2956.84
661.306	2988.71
661.656	3001.14
662.007	3000.46
662.358	2960.01
662.708	2979.44
663.059	2970.18
663.409	2995.26
663.76	3001.36
664.11	2992.55
664.461	2987.35
664.811	2972.66
665.161	2953.23
665.511	2946.9
665.862	2962.94
666.212	2952.32
666.562	2988.93
666.912	2967.92
667.262	2935.6
667.612	2985.32
667.962	2938.99
668.312	2972.89
668.662	2968.82
669.011	2983.51
669.361	2939.44
669.711	2972.66
670.06	2934.7
670.41	2973.34
670.76	2943.06
671.109	2939.44
671.459	2930.18
671.808	2915.26
672.157	2927.01
672.507	2907.13
672.856	2933.57
673.205	2933.34
673.554	2930.63
673.904	2945.77
674.253	2901.48
674.602	2908.71
674.951	2870.74
675.3	2861.25
675.649	2902.83
675.998	2889.95
676.346	2891.31
676.695	2886.34
677.044	2874.81
677.393	2889.95
677.741	2877.07
678.09	2912.32
678.438	2828.94
678.787	2874.13
679.135	2876.85
679.484	2837.98
679.832	2833.91
680.181	2849.5
680.529	2838.88
680.877	2850.41
681.225	2821.03
681.573	2839.11
681.922	2855.6
682.27	2779.67
682.618	2847.24
682.966	2748.26
683.314	2811.08
683.661	2781.03
684.009	2780.12
684.357	2775.15
684.705	2748.04
685.053	2807.47
685.4	2776.96
685.748	2756.4
686.095	2741.03
686.443	2722.73
686.79	2744.42
687.138	2721.6
687.485	2714.82
687.832	2672.56
688.18	2709.39
688.527	2685.21
688.874	2705.32
689.221	2725.44
689.568	2669.85
689.915	2675.72
690.262	2684.53
690.609	2679.79
690.956	2656.74
691.303	2674.82
691.65	2614.71
691.997	2658.09
692.344	2619.9
692.69	2594.82
693.037	2615.84
693.383	2600.24
693.73	2615.38
694.077	2595.5
694.423	2594.82
694.769	2586.91
695.116	2560.47
695.462	2575.16
695.808	2566.12
696.155	2557.31
696.501	2546.91
696.847	2541.94
697.193	2538.1
697.539	2564.54
697.885	2517.98
698.231	2517.31
698.577	2466.23
698.923	2508.49
699.269	2471.21
699.614	2470.3
699.96	2484.99
700.306	2502.39
700.651	2450.19
700.997	2466.01
701.342	2494.93
701.688	2465.78
702.033	2471.66
702.379	2470.75
702.724	2433.02
703.069	2442.96
703.415	2440.92
703.76	2423.3
704.105	2449.29
704.45	2470.98
704.795	2453.35
705.14	2393.02
705.485	2393.02
705.83	2382.17
706.175	2429.4
706.52	2429.63
706.865	2401.15
707.209	2383.98
707.554	2400.25
707.899	2418.33
708.243	2390.53
708.588	2418.78
708.932	2392.79
709.277	2433.02
709.621	2409.96
709.966	2410.87
710.31	2411.77
710.654	2402.28
710.998	2410.19
711.342	2407.25
711.687	2410.19
712.031	2403.19
712.375	2398.21
712.719	2403.64
713.063	2400.47
713.407	2390.98
713.75	2419.46
714.094	2412.9
714.438	2380.81
714.782	2425.33
715.125	2442.73
715.469	2404.32
715.812	2410.42
716.156	2418.78
716.499	2417.2
716.843	2448.61
717.186	2437.08
717.53	2440.02
717.873	2436.86
718.216	2464.43
718.559	2429.4
718.902	2425.56
719.246	2436.18
719.589	2419.46
719.932	2393.92
720.275	2440.25
720.617	2451.77
720.96	2453.13
721.303	2477.53
721.646	2465.1
721.989	2446.57
722.331	2474.37
722.674	2487.03
723.016	2470.3
723.359	2487.93
723.701	2515.95
724.044	2526.12
724.386	2502.17
724.729	2494.03
725.071	2525.22
725.413	2529.51
725.755	2513.01
726.097	2538.32
726.439	2508.72
726.782	2545.55
727.124	2541.71
727.465	2549.85
727.807	2528.15
728.149	2580.36
728.491	2559.79
728.833	2558.21
729.175	2599.79
729.516	2579.9
729.858	2609.06
730.199	2606.12
730.541	2631.88
730.882	2639.34
731.224	2659.22
731.565	2640.92
731.906	2611.99
732.248	2632.78
732.589	2645.21
732.93	2657.64
733.271	2664.65
733.612	2653.8
733.953	2674.59
734.294	2704.87
734.635	2703.29
734.976	2735.15
735.317	2746.68
735.658	2738.54
735.999	2751.42
736.339	2745.32
736.68	2811.54
737.021	2808.15
737.361	2786.9
737.702	2833.23
738.042	2822.84
738.383	2826.9
738.723	2857.86
739.063	2878.88
739.404	2879.11
739.744	2925.66
740.084	2906.22
740.424	2948.48
740.764	2970.4
741.104	2983.28
741.444	3000.68
741.784	3034.36
742.124	3045.88
742.464	3059.67
742.804	3091.53
743.143	3088.59
743.483	3132.88
743.823	3148.25
744.162	3197.74
744.502	3227.57
744.841	3268.02
745.181	3269.83
745.52	3350.05
745.86	3349.15
746.199	3407.9
746.538	3463.27
746.877	3442.71
747.216	3536.04
747.556	3547.11
747.895	3609.03
748.234	3617.84
748.573	3657.84
748.911	3766.31
749.25	3850.83
749.589	3824.16
749.928	3876.14
750.267	3915.01
750.605	3991.84
750.944	4069.36
751.283	4093.99
751.621	4202.01
751.96	4234.1
752.298	4297.6
752.636	4342.57
752.975	4399.74
753.313	4441.55
753.651	4527.88
753.989	4611.94
754.327	4726.06
754.666	4759.28
755.004	4827.53
755.342	4942.55
755.679	5023.46
756.017	5098.93
756.355	5165.82
756.693	5251.02
757.031	5390.9
757.368	5426.61
757.706	5550.45
758.044	5635.87
758.381	5654.63
758.719	5766.03
759.056	5897.1
759.394	5948.4
759.731	6035.18
760.068	6107.27
760.405	6221.39
760.743	6327.6
761.08	6409.63
761.417	6474.49
761.754	6549.07
762.091	6623.41
762.428	6736.4
762.765	6742.28
763.102	6883.97
763.438	6939.11
763.775	7014.82
764.112	7105.43
764.449	7202.83
764.785	7239.89
765.122	7330.97
765.458	7420.23
765.795	7450.74
766.131	7582.03
766.467	7622.71
766.804	7653.44
767.14	7737.28
767.476	7803.5
767.812	7822.93
768.148	7910.61
768.485	7999.2
768.821	8043.94
769.157	8106.31
769.492	8135.24
769.828	8198.29
770.164	8239.87
770.5	8303.6
