Data from blue_clamp_base_FLMS001491_00085.txt Node
Date: Wed Feb 08 15:16:38 GMT 2017
User: dcchb
Spectrometer: FLMS00149
Trigger mode: 0
Integration Time (sec): 2.000000E-2
Scans to average: 10
Electric dark correction enabled: true
Nonlinearity correction enabled: false
Boxcar width: 0
XAxis mode: Wavelengths
Number of Pixels in Spectrum: 2048
>>>>>Begin Spectral Data<<<<<
341.393	-1.53
341.776	-1.53
342.16	-1.53
342.543	-56.21
342.927	-76.78
343.31	-77
343.693	-72.94
344.077	-61.41
344.46	-38.59
344.843	-52.15
345.226	-45.14
345.61	-22.54
345.993	4.8
346.376	1.64
346.759	10.45
347.142	17.46
347.525	29.21
347.908	64.91
348.291	52.71
348.674	94.74
349.057	93.84
349.44	124.57
349.823	124.8
350.206	181.75
350.588	202.76
350.971	209.99
351.354	244.8
351.737	233.72
352.119	264.23
352.502	266.49
352.884	300.84
353.267	307.17
353.65	298.13
354.032	293.38
354.414	322.99
354.797	315.98
355.179	339.71
355.562	329.77
355.944	332.48
356.326	345.36
356.709	349.2
357.091	348.75
357.473	360.5
357.855	351.91
358.238	352.14
358.62	363.44
359.002	338.8
359.384	363.89
359.766	371.57
360.148	337.22
360.53	369.54
360.912	357.34
361.294	366.6
361.676	337.9
362.057	344.23
362.439	340.39
362.821	328.41
363.203	326.38
363.584	344.45
363.966	351.46
364.348	346.71
364.729	344.45
365.111	332.93
365.493	324.79
365.874	329.99
366.256	343.78
366.637	348.52
367.019	347.62
367.4	321.18
367.781	360.05
368.163	344.68
368.544	313.27
368.925	340.84
369.306	323.66
369.688	364.57
370.069	359.14
370.45	340.16
370.831	353.72
371.212	350.1
371.593	335.41
371.974	350.1
372.355	339.71
372.736	332.48
373.117	347.39
373.498	357.79
373.879	354.85
374.26	352.36
374.641	333.83
375.021	372.93
375.402	348.75
375.783	355.53
376.163	368.86
376.544	360.72
376.925	367.05
377.305	377.9
377.686	358.92
378.066	358.92
378.447	382.42
378.827	372.48
379.208	362.31
379.588	370.89
379.968	395.07
380.349	389.88
380.729	370.44
381.109	389.65
381.489	397.56
381.87	398.01
382.25	397.33
382.63	411.12
383.01	405.7
383.39	393.94
383.77	391.23
384.15	407.5
384.53	388.07
384.91	409.09
385.29	413.15
385.67	434.62
386.049	395.3
386.429	439.59
386.809	424.23
387.189	433.27
387.568	414.51
387.948	414.51
388.328	453.6
388.707	452.25
389.087	440.95
389.466	475.3
389.846	429.65
390.225	460.38
390.605	465.35
390.984	480.27
391.363	459.03
391.743	481.85
392.122	479.37
392.501	492.92
392.881	497.44
393.26	485.47
393.639	523.43
394.018	503.32
394.397	506.71
394.776	501.74
395.155	527.73
395.534	533.15
395.913	522.53
396.292	521.62
396.671	536.77
397.05	541.51
397.429	545.13
397.808	574.73
398.186	557.1
398.565	565.69
398.944	553.94
399.323	553.49
399.701	564.79
400.08	587.16
400.458	586.93
400.837	590.55
401.215	618.35
401.594	603.43
401.972	616.09
402.351	614.5
402.729	625.8
403.107	643.88
403.486	628.06
403.864	641.85
404.242	656.99
404.62	650.89
404.999	683.2
405.377	682.75
405.755	692.24
406.133	696.76
406.511	706.48
406.889	724.11
407.267	737.44
407.645	730.66
408.023	725.24
408.401	769.75
408.779	757.32
409.156	770.88
409.534	775.86
409.912	776.99
410.29	797.32
410.667	806.81
411.045	831.67
411.422	847.04
411.8	823.31
412.178	842.97
412.555	873.93
412.933	865.12
413.31	891.33
413.687	900.6
414.065	923.87
414.442	901.95
414.819	923.87
415.197	931.11
415.574	929.98
415.951	932.46
416.328	981.27
416.705	937.88
417.082	948.96
417.46	979.24
417.837	984.44
418.214	1020.14
418.591	1018.33
418.967	1014.72
419.344	1035.74
419.721	1048.84
420.098	1054.94
420.475	1072.8
420.852	1073.47
421.228	1077.99
421.605	1069.63
421.982	1102.63
422.358	1132.91
422.735	1122.74
423.111	1161.16
423.488	1184.88
423.864	1169.97
424.241	1171.78
424.617	1205.67
424.994	1190.08
425.37	1224.43
425.746	1227.59
426.123	1221.04
426.499	1231.66
426.875	1239.8
427.251	1298.33
427.627	1328.84
428.003	1328.84
428.379	1353.47
428.756	1357.99
429.132	1402.05
429.507	1386.01
429.883	1417.19
430.259	1432.79
430.635	1447.7
431.011	1480.7
431.387	1547.59
431.763	1508.04
432.138	1512.79
432.514	1553.91
432.89	1568.6
433.265	1627.58
433.641	1614.48
434.016	1625.78
434.392	1651.54
434.767	1692.44
435.143	1682.05
435.518	1728.6
435.894	1743.51
436.269	1757.52
436.644	1773.34
437.02	1819.67
437.395	1805.88
437.77	1824.87
438.145	1862.83
438.52	1897.18
438.895	1868.03
439.271	1910.51
439.646	1931.98
440.021	1979.67
440.395	1974.47
440.77	1941.47
441.145	2002.04
441.52	2019.21
441.895	2025.09
442.27	2025.31
442.645	2041.36
443.019	2075.03
443.394	2086.78
443.769	2123.39
444.143	2095.59
444.518	2153.9
444.892	2133.11
445.267	2175.37
445.641	2199.09
446.016	2199.55
446.39	2248.58
446.764	2244.29
447.139	2240
447.513	2264.4
447.887	2302.14
448.262	2296.72
448.636	2307.79
449.01	2327
449.384	2367
449.758	2384.4
450.132	2433.21
450.506	2413.55
450.88	2458.97
451.254	2452.42
451.628	2489.26
452.002	2520.22
452.376	2522.93
452.75	2578.52
453.123	2549.59
453.497	2613.32
453.871	2668.69
454.244	2680.89
454.618	2711.62
454.992	2722.02
455.365	2737.61
455.739	2825.07
456.112	2837.72
456.486	2865.52
456.859	2875.24
457.232	2918.62
457.606	2943.26
457.979	2973.09
458.352	3053.31
458.725	3069.58
459.099	3081.78
459.472	3166.98
459.845	3166.98
460.218	3240.2
460.591	3231.84
460.964	3228.9
461.337	3337.14
461.71	3374.21
462.083	3406.97
462.456	3387.99
462.829	3449.46
463.201	3490.81
463.574	3487.42
463.947	3533.75
464.32	3597.48
464.692	3649
465.065	3635.44
465.438	3736.68
465.81	3757.47
466.183	3811.03
466.555	3892.61
466.928	3929.9
467.3	3870.24
467.672	3961.08
468.045	4065.49
468.417	4079.5
468.789	4083.11
469.161	4148.87
469.534	4206.05
469.906	4254.18
470.278	4330.56
470.65	4383.22
471.022	4435.65
471.394	4535.08
471.766	4520.39
472.138	4556.32
472.51	4635.64
472.882	4747.5
473.253	4763.1
473.625	4811
473.997	4916.31
474.369	4954.5
474.74	5003.54
475.112	5076.08
475.484	5147.27
475.855	5245.12
476.227	5260.26
476.598	5403.53
476.97	5459.12
477.341	5556.97
477.713	5622.73
478.084	5671.77
478.455	5742.96
478.827	5791.32
479.198	5980.92
479.569	5961.03
479.94	6105.21
480.311	6138.43
480.682	6278.76
481.053	6459.1
481.424	6516.04
481.795	6521.24
482.166	6691.41
482.537	6702.71
482.908	6824.96
483.279	6882.59
483.65	6963.49
484.021	7103.6
484.391	7116.25
484.762	7196.93
485.133	7263.59
485.503	7335.46
485.874	7485.74
486.244	7536.58
486.615	7681.21
486.985	7702.68
487.356	7884.37
487.726	7852.96
488.097	8036.46
488.467	8008.89
488.837	8151.03
489.207	8212.95
489.578	8349.67
489.948	8408.42
490.318	8499.95
490.688	8484.13
491.058	8623.33
491.428	8693.84
491.798	8758.47
492.168	8914.17
492.538	8913.49
492.908	9020.38
493.278	9067.61
493.648	9131.79
494.017	9243.88
494.387	9280.94
494.757	9336.53
495.126	9386.25
495.496	9456.53
495.866	9458.11
496.235	9555.06
496.605	9550.99
496.974	9613.82
497.344	9694.72
497.713	9721.61
498.082	9814.49
498.452	9823.3
498.821	9909.85
499.19	9903.52
499.559	9965.67
499.928	10090.86
500.298	10037.31
500.667	10126.12
501.036	10166.12
501.405	10176.51
501.774	10165.89
502.143	10318.88
502.512	10350.74
502.88	10327.24
503.249	10323.17
503.618	10434.13
503.987	10412.66
504.356	10554.81
504.724	10569.95
505.093	10608.59
505.462	10558.65
505.83	10656.95
506.199	10730.4
506.567	10820.56
506.936	10783.5
507.304	10899.43
507.672	10965.87
508.041	10970.62
508.409	11071.18
508.777	11029.15
509.145	11169.48
509.514	11098.3
509.882	11152.08
510.25	11274.11
510.618	11321.34
510.986	11302.58
511.354	11400.89
511.722	11435.24
512.09	11517.27
512.458	11580.77
512.826	11624.16
513.193	11707.32
513.561	11708.68
513.929	11776.02
514.297	11821.67
514.664	11976.69
515.032	11924.49
515.4	11982.34
515.767	12089.68
516.135	12088.1
516.502	12019.85
516.869	12180.75
517.237	12239.96
517.604	12189.34
517.972	12345.72
518.339	12330.58
518.706	12515.89
519.073	12425.27
519.44	12503.23
519.808	12597.01
520.175	12646.73
520.542	12795.88
520.909	12789.55
521.276	12840.85
521.643	12890.79
522.009	12922.88
522.376	12985.25
522.743	13048.98
523.11	13195.19
523.477	13241.74
523.843	13366.71
524.21	13507.27
524.577	13546.14
524.943	13626.36
525.31	13585.01
525.676	13753.59
526.043	13886.47
526.409	13839.24
526.776	14016.41
527.142	14069.07
527.508	14043.3
527.874	14182.73
528.241	14181.6
528.607	14316.52
528.973	14316.29
529.339	14316.52
529.705	14507.47
530.071	14604.19
530.437	14653.68
530.803	14680.57
531.169	14800.12
531.535	14771.65
531.901	14811.19
532.267	14855.71
532.632	14938.42
532.998	15061.36
533.364	15059.77
533.73	15082.82
534.095	15150.39
534.461	15256.15
534.826	15367.34
535.192	15430.84
535.557	15469.93
535.923	15438.97
536.288	15480.1
536.653	15704.95
537.019	15581.57
537.384	15640.32
537.749	15763.26
538.114	15785.18
538.479	15757.16
538.845	15850.26
539.21	15895.68
539.575	15880.54
539.94	16016.58
540.305	16069.46
540.67	16019.75
541.034	16129.35
541.399	16189.91
541.764	16241.44
542.129	16206.86
542.494	16303.36
542.858	16251.83
543.223	16335.45
543.587	16461.77
543.952	16381.09
544.316	16514.65
544.681	16512.84
545.045	16584.48
545.41	16688.43
545.774	16701.31
546.138	16603.46
546.503	16735.89
546.867	16733.63
547.231	16917.13
547.595	16922.32
547.959	17017.24
548.324	17050
548.688	17015.43
549.052	17093.84
549.416	17189.66
549.779	17078.48
550.143	17105.14
550.507	17301.07
550.871	17317.79
551.235	17290.45
551.599	17456.32
551.962	17525.25
552.326	17479.37
552.689	17685.24
553.053	17513.04
553.417	17591.01
553.78	17806.37
554.143	17612.93
554.507	17865.58
554.87	17842.3
555.234	18057.21
555.597	17943.54
555.96	18006.81
556.323	17999.81
556.686	18007.04
557.05	18128.39
557.413	18125.91
557.776	18208.39
558.139	18315.73
558.502	18340.37
558.865	18387.82
559.228	18397.09
559.59	18547.82
559.953	18553.47
560.316	18706.23
560.679	18720.02
561.041	18798.43
561.404	18909.62
561.767	18974.7
562.129	19019.44
562.492	19176.95
562.854	19117.29
563.217	19165.43
563.579	19213.56
563.941	19281.13
564.304	19457.85
564.666	19561.58
565.028	19618.3
565.39	19506.21
565.753	19749.59
566.115	19694.91
566.477	19841.79
566.839	19819.87
567.201	19957.72
567.563	19949.14
567.925	20145.06
568.287	20123.6
568.648	20200.88
569.01	20210.37
569.372	20389.8
569.734	20270.26
570.095	20582.34
570.457	20598.38
570.819	20625.05
571.18	20634.77
571.542	20830.02
571.903	20676.57
572.265	20858.04
572.626	21038.83
572.987	20952.5
573.349	21007.19
573.71	21061.42
574.071	21204.47
574.432	21173.29
574.794	21389.32
575.155	21224.81
575.516	21233.4
575.877	21362.21
576.238	21408.99
576.599	21544.12
576.96	21488.31
577.32	21483.11
577.681	21768.98
578.042	21665.25
578.403	21662.76
578.763	21691.92
579.124	21855.08
579.485	21900.5
579.845	22031.34
580.206	21828.86
580.566	21904.79
580.927	21843.55
581.287	22053.49
581.648	21934.62
582.008	22149.98
582.368	22090.78
582.728	22103.43
583.089	22115.86
583.449	22059.36
583.809	22153.82
584.169	22160.83
584.529	22121.96
584.889	22384.33
585.249	22133.94
585.609	22189.3
585.969	22254.84
586.329	22196.08
586.688	22148.63
587.048	22235.18
587.408	22241.96
587.768	22208.96
588.127	22187.72
588.487	22193.82
588.846	22330.32
589.206	22292.58
589.565	22267.72
589.925	22384.33
590.284	22285.57
590.643	22319.92
591.003	22373.71
591.362	22433.82
591.721	22494.83
592.08	22442.4
592.44	22479.92
592.799	22462.97
593.158	22398.56
593.517	22440.37
593.876	22517.43
594.235	22410.77
594.593	22484.21
594.952	22543.64
595.311	22494.83
595.67	22512.91
596.029	22557.43
596.387	22631.33
596.746	22708.61
597.104	22617.99
597.463	22595.62
597.822	22635.39
598.18	22617.77
598.538	22617.77
598.897	22783.64
599.255	22504.55
599.613	22882.84
599.972	22663.64
600.33	22787.03
600.688	22764.2
601.046	22751.32
601.404	22854.6
601.762	22794.94
602.12	22846.24
602.478	22975.05
602.836	22991.77
603.194	22657.77
603.552	22804.88
603.91	22709.52
604.268	22879.68
604.625	22791.1
604.983	22950.19
605.341	22763.53
605.698	22927.59
606.056	22974.37
606.413	23011.65
606.771	23135.95
607.128	23133.46
607.485	22996.97
607.843	23121.26
608.2	23058.66
608.557	23211.2
608.914	23116.96
609.272	23105.44
609.629	23302.27
609.986	23276.05
610.343	23159.67
610.7	23530.74
611.057	23332.1
611.414	23278.99
611.771	23263.63
612.127	23471.3
612.484	23321.93
612.841	23473.34
613.198	23294.59
613.554	23315.83
613.911	23517.63
614.267	23601.02
614.624	23477.63
614.98	23576.61
615.337	23591.3
615.693	23646.44
616.05	23536.16
616.406	23714.91
616.762	23608.48
617.118	23623.39
617.475	23649.15
617.831	23764.18
618.187	23731.18
618.543	23700.22
618.899	23840.11
619.255	23718.53
619.611	23643.95
619.967	23890.28
620.323	23908.35
620.678	23827.9
621.034	23798.98
621.39	23750.39
621.746	23807.11
622.101	24091.85
622.457	24008.24
622.812	23897.28
623.168	24006.2
623.523	23998.97
623.879	24046.43
624.234	23890.05
624.589	24021.35
624.945	24034.45
625.3	24090.72
625.655	24089.37
626.01	24063.15
626.365	24120.33
626.72	23896.15
627.075	24109.48
627.43	24131.4
627.785	24021.35
628.14	23974.34
628.495	24082.36
628.85	24031.29
629.205	24078.52
629.559	24190.38
629.914	24026.32
630.269	24182.47
630.623	24038.29
630.978	24126.88
631.332	24188.35
631.687	24215.24
632.041	24116.26
632.396	24088.01
632.75	24121.46
633.104	24134.79
633.459	23996.71
633.813	24046.88
634.167	24141.79
634.521	24029.26
634.875	24072.64
635.229	24081.23
635.583	23928.69
635.937	23983.83
636.291	24021.57
636.645	23954
636.999	23969.14
637.352	24047.11
637.706	23819.77
638.06	24024.51
638.413	23800.11
638.767	23957.39
639.121	23979.76
639.474	23924.85
639.828	23893.67
640.181	23955.36
640.534	23854.34
640.888	23904.29
641.241	23822.48
641.594	23868.13
641.947	23965.53
642.301	23926.88
642.654	23891.18
643.007	23958.52
643.36	23752.65
643.713	23858.41
644.066	23984.74
644.419	23812.54
644.771	23780.67
645.124	23448.48
645.477	23523.28
645.83	23395.15
646.182	23319.22
646.535	23293.46
646.888	23316.73
647.24	23313.12
647.593	23329.84
647.945	23328.48
648.298	23369.61
648.65	23256.85
649.002	23150.86
649.355	23320.12
649.707	23321.48
650.059	23351.98
650.411	23579.32
650.763	23749.49
651.115	23971.4
651.467	23824.06
651.819	23952.2
652.171	23923.5
652.523	24017.28
652.875	23897.73
653.227	23827.9
653.578	24012.31
653.93	23912.42
654.282	23767.12
654.633	23810.05
654.985	23870.62
655.337	23928.47
655.688	23854.57
656.039	23968.47
656.391	23733.67
656.742	23845.53
657.094	23917.17
657.445	23985.19
657.796	23961.69
658.147	23933.44
658.498	23950.39
658.849	23943.38
659.2	23988.13
659.551	23941.12
659.902	24012.31
660.253	24007.11
660.604	24018.41
660.955	23762.6
661.306	23948.58
661.656	23901.8
662.007	23943.83
662.358	24030.61
662.708	23906.77
663.059	23951.74
663.409	23775.7
663.76	23918.98
664.11	23878.98
664.461	23862.25
664.811	23910.84
665.161	23947.9
665.511	23748.81
665.862	23785.87
666.212	23798.53
666.562	23852.99
666.912	23755.59
667.262	23804.18
667.612	23837.62
667.962	23793.56
668.312	23727.57
668.662	23889.15
669.011	23845.76
669.361	23660.68
669.711	23710.85
670.06	23732.31
670.41	23591.98
670.76	23552.88
671.109	23661.13
671.459	23532.77
671.808	23593.33
672.157	23635.59
672.507	23457.74
672.856	23476.95
673.205	23352.89
673.554	23415.94
673.904	23415.94
674.253	23523.96
674.602	23343.85
674.951	23002.84
675.3	22842.17
675.649	23146.79
675.998	23213.46
676.346	23130.52
676.695	23352.66
677.044	23153.12
677.393	23194.47
677.741	23211.88
678.09	22978.21
678.438	22909.28
678.787	22976.18
679.135	22916.29
679.484	22802.62
679.832	22913.35
680.181	22626.58
680.529	22774.15
680.877	22639.46
681.225	22662.51
681.573	22770.31
681.922	22629.07
682.27	22582.97
682.618	22674.94
682.966	22547.26
683.314	22523.98
683.661	22412.8
684.009	22310.66
684.357	22239.47
684.705	22312.69
685.053	22284.22
685.4	22291.45
685.748	22181.39
686.095	22058.46
686.443	22084.9
686.79	21965.81
687.138	22022.3
687.485	22014.62
687.832	21986.6
688.18	21971.23
688.527	21812.59
688.874	21828.18
689.221	21688.07
689.568	21680.62
689.915	21748.41
690.262	21645.36
690.609	21572.6
690.956	21597.68
691.303	21483.11
691.65	21537.12
691.997	21552.48
692.344	21303
692.69	21281.76
693.037	21325.37
693.383	21187.3
693.73	21303.9
694.077	21178.03
694.423	21159.95
694.769	21103.91
695.116	21041.76
695.462	21083.57
695.808	20966.06
696.155	21189.33
696.501	20907.53
696.847	20863.69
697.193	20772.17
697.539	20873.18
697.885	20733.97
698.231	20763.13
698.577	20652.17
698.923	20679.51
699.269	20620.53
699.614	20431.38
699.96	20495.34
700.306	20431.38
700.651	20342.57
700.997	20318.84
701.342	20336.92
701.688	20293.53
702.033	20205.63
702.379	20250.37
702.724	20171.73
703.069	20212.18
703.415	20008.8
703.76	19985.97
704.105	20001.79
704.45	20050.15
704.795	19865.07
705.14	19773.77
705.485	19757.5
705.83	19727.22
706.175	19737.16
706.52	19790.27
706.865	19743.27
707.209	19669.14
707.554	19679.54
707.899	19598.64
708.243	19558.86
708.588	19514.12
708.932	19476.83
709.277	19457.17
709.621	19484.74
709.966	19386.21
710.31	19431.86
710.654	19298.53
710.998	19347.34
711.342	19403.16
711.687	19307.57
712.031	19179.67
712.375	19176.05
712.719	19284.52
713.063	19220.34
713.407	19324.52
713.75	19227.35
714.094	19229.83
714.438	19039.1
714.782	19170.63
715.125	19048.82
715.469	19114.81
715.812	19006.34
716.156	18901.93
716.499	18880.01
716.843	18918.66
717.186	18863.52
717.53	18935.6
717.873	19026.67
718.216	18910.52
718.559	18818.32
718.902	18701.03
719.246	18805.21
719.589	18823.29
719.932	18660.36
720.275	18646.57
720.617	18652.45
720.96	18677.98
721.303	18554.14
721.646	18695.84
721.989	18567.7
722.331	18654.93
722.674	18515.73
723.016	18596.63
723.359	18502.62
723.701	18534.94
724.044	18457.88
724.386	18487.03
724.729	18584.2
725.071	18585.1
725.413	18512.34
725.755	18423.75
726.097	18407.71
726.439	18261.72
726.782	18318.44
727.124	18305.34
727.465	18313.93
727.807	18335.17
728.149	18285.9
728.491	18262.4
728.833	18251.33
729.175	18195.06
729.516	18249.29
729.858	18219.46
730.199	18273.93
730.541	18212.23
730.882	18188.28
731.224	18334.49
731.565	18223.53
731.906	18188.5
732.248	18215.4
732.589	18138.79
732.93	18120.94
733.271	18131.78
733.612	18218.33
733.953	18226.47
734.294	18162.97
734.635	18094.95
734.976	18230.99
735.317	18078
735.658	18102.41
735.999	18173.36
736.339	18065.12
736.68	18139.01
737.021	18129.52
737.361	18045.68
737.702	18182.63
738.042	18180.6
738.383	18180.6
738.723	18180.14
739.063	18172.01
739.404	18202.52
739.744	18182.18
740.084	18163.19
740.424	18182.18
740.764	18236.64
741.104	18224.89
741.444	18211.1
741.784	18134.49
742.124	18245.68
742.464	18224.44
742.804	18214.49
743.143	18279.35
743.483	18348.5
743.823	18272.12
744.162	18273.7
744.502	18364.55
744.841	18379.46
745.181	18481.83
745.52	18342.4
745.86	18512.56
746.199	18442.51
746.538	18426.46
746.877	18624.2
747.216	18562.73
747.556	18563.18
747.895	18572
748.234	18550.53
748.573	18539.68
748.911	18507.37
749.25	18601.83
749.589	18574.26
749.928	18694.25
750.267	18752.33
750.605	18621.49
750.944	18671.2
751.283	18684.31
751.621	18603.41
751.96	18642.28
752.298	18646.8
752.636	18784.2
752.975	18651.09
753.313	18611.54
753.651	18801.6
753.989	18664.2
754.327	18764.08
754.666	18698.1
