Data from blue_clamp_base_FLMS001491_00019.txt Node
Date: Wed Feb 08 15:15:38 GMT 2017
User: dcchb
Spectrometer: FLMS00149
Trigger mode: 0
Integration Time (sec): 2.000000E-2
Scans to average: 10
Electric dark correction enabled: true
Nonlinearity correction enabled: false
Boxcar width: 0
XAxis mode: Wavelengths
Number of Pixels in Spectrum: 2048
>>>>>Begin Spectral Data<<<<<
341.393	-11.89
341.776	-11.89
342.16	-11.89
342.543	-53.02
342.927	-53.7
343.31	-65.22
343.693	-53.93
344.077	-65
344.46	-59.8
344.843	-45.79
345.226	-21.84
345.61	-28.62
345.993	-22.97
346.376	-24.32
346.759	0.08
347.142	26.52
347.525	58.39
347.908	66.07
348.291	72.85
348.674	68.56
349.057	95
349.44	114.21
349.823	141.32
350.206	167.76
350.588	191.72
350.971	202.79
351.354	222.9
351.737	231.49
352.119	243.92
352.502	264.26
352.884	256.58
353.267	274.2
353.65	283.02
354.032	299.96
354.414	303.81
354.797	302.9
355.179	325.5
355.562	315.1
355.944	317.59
356.326	315.78
356.709	316.01
357.091	331.38
357.473	343.8
357.855	326.4
358.238	337.93
358.62	330.7
359.002	327.76
359.384	345.16
359.766	334.77
360.148	332.05
360.53	310.36
360.912	334.99
361.294	343.58
361.676	339.74
362.057	317.36
362.439	322.11
362.821	312.39
363.203	336.57
363.584	317.36
363.966	333.86
364.348	312.39
364.729	320.53
365.111	314.88
365.493	332.28
365.874	323.47
366.256	321.21
366.637	334.54
367.019	308.55
367.4	311.71
367.781	317.59
368.163	311.71
368.544	299.74
368.925	301.32
369.306	313.3
369.688	308.78
370.069	318.49
370.45	312.17
370.831	319.17
371.212	332.73
371.593	336.8
371.974	329.12
372.355	320.53
372.736	305.61
373.117	301.32
373.498	319.85
373.879	321.21
374.26	320.53
374.641	316.23
375.021	318.95
375.402	324.37
375.783	333.86
376.163	335.44
376.544	340.19
376.925	342.67
377.305	310.36
377.686	337.7
378.066	331.6
378.447	337.48
378.827	351.71
379.208	325.73
379.588	343.58
379.968	332.73
380.349	342.9
380.729	332.51
381.109	342.9
381.489	343.58
381.87	373.86
382.25	346.29
382.63	353.07
383.01	354.65
383.39	349.68
383.77	346.74
384.15	379.06
384.53	353.97
384.91	356.01
385.29	343.13
385.67	367.08
386.049	364.37
386.429	377.93
386.809	382.67
387.189	369.57
387.568	378.15
387.948	393.29
388.328	405.72
388.707	387.19
389.087	384.71
389.466	404.59
389.846	403.24
390.225	405.05
390.605	413.63
390.984	390.81
391.363	393.29
391.743	400.07
392.122	403.01
392.501	409.79
392.881	426.29
393.26	433.52
393.639	423.12
394.018	418.38
394.397	438.49
394.776	419.73
395.155	440.3
395.534	429.9
395.913	429.9
396.292	443.91
396.671	453.18
397.05	459.51
397.429	466.74
397.808	478.26
398.186	465.16
398.565	473.97
398.944	469.9
399.323	450.69
399.701	481.65
400.08	497.02
400.458	490.24
400.837	493.18
401.215	482.11
401.594	502.67
401.972	525.72
402.351	531.14
402.729	520.52
403.107	562.33
403.486	550.58
403.864	555.78
404.242	540.64
404.62	563.91
404.999	578.6
405.377	559.17
405.755	562.33
406.133	578.6
406.511	589.45
406.889	569.34
407.267	578.15
407.645	605.04
408.023	614.98
408.401	578.37
408.779	611.59
409.156	635.55
409.534	631.25
409.912	627.41
410.29	680.52
410.667	673.97
411.045	684.36
411.422	680.97
411.8	684.13
412.178	680.52
412.555	719.84
412.933	745.38
413.31	715.09
413.687	732.04
414.065	724.13
414.442	741.08
414.819	766.84
415.197	767.97
415.574	795.32
415.951	776.11
416.328	782.66
416.705	799.61
417.082	797.35
417.46	804.13
417.837	820.18
418.214	819.27
418.591	843.9
418.967	844.36
419.344	848.65
419.721	859.05
420.098	873.28
420.475	873.73
420.852	878.93
421.228	889.55
421.605	924.35
421.982	911.02
422.358	925.03
422.735	943.79
423.111	927.29
423.488	921.87
423.864	933.17
424.241	936.56
424.617	978.14
424.994	987.63
425.37	977.01
425.746	974.07
426.123	990.79
426.499	1029.21
426.875	1029.44
427.251	1051.81
427.627	1064.24
428.003	1076.21
428.379	1107.17
428.756	1103.33
429.132	1113.5
429.507	1137
429.883	1129.32
430.259	1151.01
430.635	1167.06
431.011	1188.53
431.387	1185.82
431.763	1198.47
432.138	1227.62
432.514	1246.15
432.89	1238.92
433.265	1291.35
433.641	1280.5
434.016	1317.34
434.392	1314.63
434.767	1377.68
435.143	1366.38
435.518	1360.73
435.894	1397.56
436.269	1395.75
436.644	1430.1
437.02	1463.55
437.395	1446.83
437.77	1452.02
438.145	1513.27
438.52	1520.72
438.895	1521.4
439.271	1506.26
439.646	1590.78
440.021	1600.04
440.395	1592.81
440.77	1572.02
441.145	1591.46
441.52	1614.73
441.895	1651.34
442.27	1642.08
442.645	1661.06
443.019	1668.52
443.394	1694.5
443.769	1711.9
444.143	1733.6
444.518	1769.76
444.892	1773.15
445.267	1766.59
445.641	1779.7
446.016	1781.73
446.39	1793.71
446.764	1792.13
447.139	1811.56
447.513	1838.68
447.887	1867.83
448.262	1881.84
448.636	1849.98
449.01	1862.63
449.384	1906.25
449.758	1891.56
450.132	1937.66
450.506	1949.19
450.88	1986.93
451.254	1969.07
451.628	2005.23
452.002	2039.35
452.376	2043.65
452.75	2061.5
453.123	2090.88
453.497	2092.91
453.871	2140.37
454.244	2179.69
454.618	2192.34
454.992	2188.95
455.365	2213.13
455.739	2272.12
456.112	2300.14
456.486	2328.61
456.859	2321.15
457.232	2371.1
457.606	2353.24
457.979	2392.11
458.352	2429.63
458.725	2484.31
459.099	2500.58
459.472	2508.04
459.845	2573.35
460.218	2547.59
460.591	2614.48
460.964	2591.2
461.337	2678.21
461.71	2723.4
462.083	2691.99
462.456	2736.28
462.829	2722.5
463.201	2801.37
463.574	2787.13
463.947	2848.37
464.32	2869.84
464.692	2854.25
465.065	2904.87
465.438	2984.19
465.81	3011.08
466.183	3038.42
466.555	3105.54
466.928	3099.44
467.3	3131.53
467.672	3159.32
468.045	3238.19
468.417	3290.62
468.789	3250.17
469.161	3285.42
469.534	3349.83
469.906	3408.58
470.278	3392.31
470.65	3461.24
471.022	3564.51
471.394	3583.04
471.766	3584.62
472.138	3643.83
472.51	3739.2
472.882	3732.87
473.253	3779.65
473.625	3840.66
473.997	3909.81
474.369	3933.99
474.74	3973.31
475.112	3994.56
475.484	4080.66
475.855	4149.35
476.227	4158.39
476.598	4260.54
476.97	4304.83
477.341	4345.28
477.713	4454.88
478.084	4457.82
478.455	4578.04
478.827	4600.19
479.198	4743.69
479.569	4701.66
479.94	4800.18
480.311	4888.54
480.682	4963.12
481.053	4991.37
481.424	5075.66
481.795	5110.91
482.166	5210.8
482.537	5223
482.908	5343.22
483.279	5375.76
483.65	5436.78
484.021	5510.9
484.391	5583.21
484.762	5607.85
485.133	5681.52
485.503	5719.71
485.874	5805.36
486.244	5849.87
486.615	5937.78
486.985	5983.2
487.356	6092.58
487.726	6163.99
488.097	6218.23
488.467	6244.44
488.837	6342.52
489.207	6381.61
489.578	6522.17
489.948	6470.2
490.318	6564.88
490.688	6556.97
491.058	6676.29
491.428	6668.16
491.798	6782.51
492.168	6859.79
492.538	6833.58
492.908	6885.33
493.278	6970.3
493.648	6938.89
494.017	7022.5
494.387	7100.01
494.757	7095.94
495.126	7131.2
495.496	7168.03
495.866	7209.39
496.235	7210.52
496.605	7308.14
496.974	7303.62
497.344	7419.1
497.713	7394.24
498.082	7457.97
498.452	7531.64
498.821	7515.59
499.19	7546.33
499.559	7593.11
499.928	7592.88
500.298	7594.24
500.667	7657.96
501.036	7592.65
501.405	7777.06
501.774	7720.33
502.143	7784.29
502.512	7837.39
502.88	7846.21
503.249	7875.13
503.618	7876.94
503.987	7895.7
504.356	7972.3
504.724	7962.14
505.093	7997.61
505.462	7979.99
505.83	8088.01
506.199	8062.7
506.567	8170.49
506.936	8119.19
507.304	8190.6
507.672	8230.6
508.041	8275.8
508.409	8251.39
508.777	8321.67
509.145	8375.46
509.514	8303.6
509.882	8349.92
510.25	8436.25
510.618	8490.71
510.986	8492.52
511.354	8514.89
511.722	8563.48
512.09	8593.76
512.458	8601.21
512.826	8629.46
513.193	8690.03
513.561	8712.85
513.929	8718.05
514.297	8798.72
514.664	8793.53
515.032	8827.65
515.4	8810.02
515.767	8905.39
516.135	8904.71
516.502	8866.74
516.869	9035.78
517.237	9038.49
517.604	9061.54
517.972	9086.85
518.339	9144.25
518.706	9093.4
519.073	9104.48
519.44	9191.48
519.808	9290.46
520.175	9277.35
520.542	9355.54
520.909	9318.03
521.276	9365.49
521.643	9424.24
522.009	9505.15
522.376	9546.05
522.743	9512.15
523.11	9644.12
523.477	9652.03
523.843	9682.09
524.21	9835.76
524.577	9850.67
524.943	9822.2
525.31	9922.76
525.676	9895.19
526.043	10041.63
526.409	10007.73
526.776	10151.23
527.142	10083.21
527.508	10144
527.874	10227.84
528.241	10304.9
528.607	10309.64
528.973	10350.32
529.339	10325.01
529.705	10438
530.071	10479.13
530.437	10498.79
530.803	10565.68
531.169	10641.61
531.535	10602.74
531.901	10629.64
532.267	10706.02
532.632	10690.88
532.998	10710.09
533.364	10815.17
533.73	10826.01
534.095	10869.86
534.461	10917.54
534.826	10962.96
535.192	10997.99
535.557	11075.95
535.923	11042.96
536.288	11088.61
536.653	11142.84
537.019	11098.32
537.384	11154.59
537.749	11219
538.114	11265.55
538.479	11193.46
538.845	11306
539.21	11280.24
539.575	11347.36
539.94	11340.8
540.305	11489.05
540.67	11478.88
541.034	11481.14
541.399	11466.45
541.764	11554.36
542.129	11593.9
542.494	11598.42
542.858	11629.38
543.223	11724.97
543.587	11735.37
543.952	11639.33
544.316	11723.62
544.681	11736.05
545.045	11755.26
545.41	11777.63
545.774	11910.28
546.138	11815.14
546.503	11905.99
546.867	11876.83
547.231	12007.45
547.595	12019.2
547.959	12019.43
548.324	11999.09
548.688	11935.82
549.052	12007.9
549.416	12076.83
549.779	12127.9
550.143	12092.42
550.507	12166.77
550.871	12237.73
551.235	12185.75
551.599	12288.8
551.962	12286.99
552.326	12353.88
552.689	12358.18
553.053	12302.59
553.417	12356.82
553.78	12518.17
554.143	12388.01
554.507	12504.84
554.87	12556.82
555.234	12627.1
555.597	12611.28
555.96	12605.85
556.323	12639.3
556.686	12604.95
557.05	12758.17
557.413	12800.43
557.776	12814.89
558.139	12789.58
558.502	12827.54
558.865	12896.69
559.228	12925.85
559.59	12977.6
559.953	12978.5
560.316	13171.04
560.679	13093.07
561.041	13192.51
561.404	13201.09
561.767	13303.46
562.129	13228.44
562.492	13343.01
562.854	13299.62
563.217	13315.67
563.579	13332.16
563.941	13469.56
564.304	13583.68
564.666	13562.44
565.028	13617.13
565.39	13635.88
565.753	13751.14
566.115	13697.8
566.477	13861.19
566.839	13794.75
567.201	13813.51
567.563	13904.58
567.925	14038.81
568.287	14022.31
568.648	14085.59
569.01	14138.47
569.372	14184.57
569.734	14183.21
570.095	14273.16
570.457	14339.37
570.819	14435.41
571.18	14327.17
571.542	14435.64
571.903	14477.22
572.265	14541.85
572.626	14557.44
572.987	14587.27
573.349	14669.98
573.71	14671.79
574.071	14750.43
574.432	14869.3
574.794	14950.65
575.155	14807.15
575.516	14909.75
575.877	15034.04
576.238	14930.54
576.599	15041.5
576.96	15014.38
577.32	15008.28
577.681	15156.52
578.042	15182.28
578.403	15149.97
578.763	15200.82
579.124	15219.12
579.485	15226.58
579.845	15326.69
580.206	15273.58
580.566	15366.91
580.927	15371.88
581.287	15498.89
581.648	15377.53
582.008	15521.71
582.368	15438.1
582.728	15539.79
583.089	15418.89
583.449	15468.15
583.809	15524.65
584.169	15492.78
584.529	15509.28
584.889	15640.35
585.249	15542.5
585.609	15544.08
585.969	15666.57
586.329	15517.42
586.688	15608.94
587.048	15627.24
587.408	15568.49
587.768	15628.15
588.127	15577.98
588.487	15678.77
588.846	15706.56
589.206	15664.76
589.565	15708.15
589.925	15738.43
590.284	15660.24
590.643	15818.65
591.003	15745.21
591.362	15765.09
591.721	15869.05
592.08	15794.02
592.44	15796.05
592.799	15838.54
593.158	15785.21
593.517	15906.33
593.876	15928.03
594.235	15837.41
594.593	15872.21
594.952	15902.27
595.311	15791.08
595.67	15884.41
596.029	15936.61
596.387	15869.72
596.746	15930.06
597.104	15875.15
597.463	15916.28
597.822	15910.63
598.18	15928.48
598.538	15927.8
598.897	15998.99
599.255	15910.4
599.613	16103.62
599.972	16013.9
600.33	16048.48
600.688	16051.64
601.046	16147.91
601.404	16113.33
601.762	16069.04
602.12	16181.35
602.478	16064.75
602.836	16139.55
603.194	16165.54
603.552	16093.9
603.91	16168.47
604.268	16182.48
604.625	16131.41
604.983	16224.06
605.341	16088.48
605.698	16180.68
606.056	16228.58
606.413	16304.29
606.771	16344.97
607.128	16332.54
607.485	16218.19
607.843	16231.75
608.2	16455.7
608.557	16465.87
608.914	16349.94
609.272	16430.84
609.629	16509.48
609.986	16445.53
610.343	16499.99
610.7	16592.87
611.057	16519.65
611.414	16521.68
611.771	16563.04
612.127	16631.06
612.484	16645.75
612.841	16668.35
613.198	16575.69
613.554	16578.86
613.911	16776.37
614.267	16699.76
614.624	16791.51
614.98	16729.81
615.337	16892.3
615.693	16825.41
616.05	16815.91
616.406	16886.65
616.762	16819.98
617.118	16794.45
617.475	16876.93
617.831	16931.16
618.187	16913.31
618.543	16954.22
618.899	17041.22
619.255	17043.93
619.611	17033.99
619.967	17017.94
620.323	17163.02
620.678	17025.4
621.034	17074.89
621.39	17007.32
621.746	17039.41
622.101	17181.1
622.457	17004.84
622.812	17116.7
623.168	17210.25
623.523	17235.56
623.879	17313.53
624.234	17095.68
624.589	17291.61
624.945	17239.86
625.3	17311.72
625.655	17249.12
626.01	17267.65
626.365	17339.06
626.72	17373.19
627.075	17216.13
627.43	17360.98
627.785	17235.79
628.14	17414.77
628.495	17421.77
628.85	17406.86
629.205	17280.08
629.559	17422.68
629.914	17453.41
630.269	17395.79
630.623	17477.82
630.978	17368.22
631.332	17433.75
631.687	17640.3
632.041	17503.35
632.396	17512.17
632.75	17459.29
633.104	17611.15
633.459	17518.04
633.813	17457.7
634.167	17549.45
634.521	17525.05
634.875	17555.56
635.229	17532.73
635.583	17479.17
635.937	17532.73
636.291	17579.28
636.645	17510.58
636.999	17538.38
637.352	17593.97
637.706	17512.62
638.06	17593.52
638.413	17573.18
638.767	17471.26
639.121	17589.45
639.474	17519.17
639.828	17460.19
640.181	17620.86
640.534	17549
640.888	17583.35
641.241	17510.81
641.594	17591.03
641.947	17600.98
642.301	17579.74
642.654	17562.11
643.007	17633.29
643.36	17612.28
643.713	17703.12
644.066	17783.8
644.419	17676
644.771	17464.94
645.124	17316.24
645.477	17391.27
645.83	17341.78
646.182	17277.6
646.535	17222.23
646.888	17233.3
647.24	17202.34
647.593	17300.42
647.945	17195.56
648.298	17170.03
648.65	17132.29
649.002	17129.13
649.355	17349.01
649.707	17227.43
650.059	17442.34
650.411	17582.67
650.763	17649.34
651.115	17818.6
651.467	17773.4
651.819	17804.59
652.171	17850.24
652.523	17896.34
652.875	17790.35
653.227	17717.36
653.578	17886.17
653.93	17842.33
654.282	17784.7
654.633	17803.68
654.985	17854.08
655.337	17936.11
655.688	17791.26
656.039	18000.97
656.391	17836.68
656.742	17846.62
657.094	17903.57
657.445	18000.06
657.796	17876.45
658.147	18008.42
658.498	17858.15
658.849	17921.42
659.2	18030.12
659.551	17839.62
659.902	17991.25
660.253	17949.67
660.604	18009.1
660.955	17889.11
661.306	18028.54
661.656	18003.45
662.007	18014.3
662.358	17979.27
662.708	17931.14
663.059	17987.18
663.409	17897.47
663.76	18057.69
664.11	17885.49
664.461	18001.42
664.811	17987.86
665.161	17989.67
665.511	17971.82
665.862	18070.34
666.212	18016.11
666.562	17949.9
666.912	17913.06
667.262	17942.44
667.612	17906.96
667.962	17980.85
668.312	18019.72
668.662	18013.4
669.011	18026.73
669.361	17883.91
669.711	17904.02
670.06	17866.96
670.41	17763.46
670.76	17890.01
671.109	17911.7
671.459	17876
671.808	17708.77
672.157	17844.81
672.507	17660.19
672.856	17706.29
673.205	17680.07
673.554	17608.66
673.904	17715.33
674.253	17727.98
674.602	17566.85
674.951	17367.09
675.3	17278.05
675.649	17585.84
675.998	17560.53
676.346	17479.4
676.695	17568.44
677.044	17422.9
677.393	17393.75
677.741	17469.91
678.09	17343.36
678.438	17301.1
678.787	17397.37
679.135	17314.66
679.484	17172.29
679.832	17282.57
680.181	17116.02
680.529	17164.83
680.877	17128.67
681.225	17156.02
681.573	17226.98
681.922	16998.28
682.27	16990.82
682.618	16998.51
682.966	16960.54
683.314	17016.36
683.661	16904.27
684.009	16782.47
684.357	16760.32
684.705	16738.63
685.053	16754.45
685.4	16782.69
685.748	16635.81
686.095	16659.76
686.443	16646.88
686.79	16517.16
687.138	16577.05
687.485	16509.26
687.832	16460.22
688.18	16461.57
688.527	16512.64
688.874	16425.42
689.221	16433.1
689.568	16394.68
689.915	16385.64
690.262	16331.41
690.609	16295.25
690.956	16283.95
691.303	16287.57
691.65	16197.85
691.997	16219.32
692.344	16061.58
692.69	16078.53
693.037	16112.66
693.383	15971.64
693.73	15934.13
694.077	15941.81
694.423	15938.2
694.769	15928.93
695.116	15916.05
695.462	15940.68
695.808	15869.05
696.155	15875.37
696.501	15835.37
696.847	15807.8
697.193	15759.44
697.539	15848.93
697.885	15650.07
698.231	15609.39
698.577	15730.52
698.923	15595.83
699.269	15681.48
699.614	15489.17
699.96	15562.84
700.306	15557.42
700.651	15563.74
700.997	15444.88
701.342	15498.89
701.688	15475.16
702.033	15398.78
702.379	15356.07
702.724	15362.62
703.069	15332.56
703.415	15223.64
703.76	15348.61
704.105	15287.14
704.45	15257.99
704.795	15205.56
705.14	15250.53
705.485	15209.85
705.83	15163.3
706.175	15154.26
706.52	15204.88
706.865	15156.3
707.209	15053.93
707.554	15028.62
707.899	15110.2
708.243	15037.66
708.588	15066.13
708.932	14990.88
709.277	14897.55
709.621	14908.85
709.966	14883.08
710.31	14969.86
710.654	14810.09
710.998	14854.61
711.342	14860.48
711.687	14888.73
712.031	14766.48
712.375	14815.06
712.719	14804.44
713.063	14776.65
713.407	14854.38
713.75	14707.72
714.094	14756.08
714.438	14707.95
714.782	14670.21
715.125	14574.39
715.469	14706.36
715.812	14674.28
716.156	14571.23
716.499	14628.17
716.843	14591.11
717.186	14532.36
717.53	14575.07
717.873	14571.68
718.216	14612.58
718.559	14613.71
718.902	14369.2
719.246	14546.82
719.589	14429.76
719.932	14410.1
720.275	14522.64
720.617	14358.58
720.96	14421.17
721.303	14439.25
721.646	14420.5
721.989	14423.89
722.331	14427.5
722.674	14429.31
723.016	14425.47
723.359	14353.38
723.701	14398.58
724.044	14294.17
724.386	14247.17
724.729	14354.28
725.071	14319.71
725.413	14384.57
725.755	14353.15
726.097	14311.12
726.439	14171.24
726.782	14235.64
727.124	14361.52
727.465	14276.32
727.807	14260.95
728.149	14192.25
728.491	14292.59
728.833	14296.66
729.175	14317.67
729.516	14300.5
729.858	14152.71
730.199	14198.13
730.541	14199.49
730.882	14197.45
731.224	14239.48
731.565	14193.16
731.906	14167.17
732.248	14328.97
732.589	14179.15
732.93	14189.32
733.271	14301.18
733.612	14172.14
733.953	14312.7
734.294	14182.08
734.635	14224.8
734.976	14298.92
735.317	14192.48
735.658	14277.22
735.999	14280.61
736.339	14243.1
736.68	14345.92
737.021	14288.52
737.361	14299.82
737.702	14435.41
738.042	14343.21
738.383	14459.14
738.723	14487.39
739.063	14333.04
739.404	14406.71
739.744	14418.46
740.084	14436.99
740.424	14477.22
740.764	14462.08
741.104	14554.28
741.444	14487.16
741.784	14467.05
742.124	14622.07
742.464	14564.67
742.804	14557.22
743.143	14616.42
743.483	14643.77
743.823	14572.58
744.162	14598.8
744.502	14641.06
744.841	14651.9
745.181	14802.18
745.52	14687.83
745.86	14763.09
746.199	14798.57
746.538	14768.51
746.877	14827.49
747.216	14873.82
747.556	14855.06
747.895	14879.47
748.234	14859.81
748.573	14917.66
748.911	14883.08
749.25	15005.57
749.589	14987.04
749.928	15000.82
750.267	14992.68
750.605	15076.3
750.944	15079.24
751.283	15058.45
751.621	15156.97
751.96	15026.36
752.298	15115.62
752.636	15099.57
752.975	15166.24
753.313	15142.96
753.651	15249.63
753.989	15101.61
754.327	15214.6
754.666	15190.19
755.004	15296.41
755.342	15256.41
755.679	15335.95
756.017	15296.86
756.355	15329.17
