Data from blue_chair_FLMS001491_00091.txt Node
Date: Wed Feb 08 10:32:18 GMT 2017
User: dcchb
Spectrometer: FLMS00149
Trigger mode: 0
Integration Time (sec): 2.000000E-2
Scans to average: 10
Electric dark correction enabled: true
Nonlinearity correction enabled: false
Boxcar width: 0
XAxis mode: Wavelengths
Number of Pixels in Spectrum: 2048
>>>>>Begin Spectral Data<<<<<
341.393	7.06
341.776	7.06
342.16	7.06
342.543	-52.82
342.927	-62.31
343.31	-60.28
343.693	-49.43
344.077	-68.64
344.46	-59.15
344.843	-50.11
345.226	-44.46
345.61	-42.65
345.993	-14.18
346.376	-9.43
346.759	12.71
347.142	17.68
347.525	36.21
347.908	65.37
348.291	74.18
348.674	73.73
349.057	118.47
349.44	136.78
349.823	165.7
350.206	161.41
350.588	168.19
350.971	187.4
351.354	188.3
351.737	214.51
352.119	241.63
352.502	254.97
352.884	269.2
353.267	262.87
353.65	260.16
354.032	268.75
354.414	285.02
354.797	280.05
355.179	286.83
355.562	292.25
355.944	312.36
356.326	273.72
356.709	295.19
357.091	324.57
357.473	322.08
357.855	301.29
358.238	314.85
358.62	306.94
359.002	323.44
359.384	314.17
359.766	312.59
360.148	321.63
360.53	306.49
360.912	312.59
361.294	285.25
361.676	322.76
362.057	315.3
362.439	313.72
362.821	292.93
363.203	295.64
363.584	312.82
363.966	290.67
364.348	309.43
364.729	297
365.111	294.06
365.493	276.66
365.874	310.56
366.256	297.68
366.637	275.53
367.019	277.34
367.4	266.26
367.781	275.08
368.163	293.16
368.544	287.05
368.925	286.15
369.306	264.46
369.688	292.7
370.069	292.93
370.45	288.41
370.831	280.73
371.212	268.52
371.593	288.64
371.974	261.74
372.355	273.95
372.736	281.86
373.117	313.72
373.498	304.91
373.879	290.9
374.26	282.08
374.641	297.9
375.021	303.55
375.402	289.54
375.783	289.09
376.163	286.15
376.544	293.38
376.925	287.96
377.305	301.29
377.686	286.83
378.066	298.58
378.447	306.94
378.827	319.14
379.208	294.96
379.588	293.38
379.968	294.06
380.349	313.72
380.729	318.69
381.109	286.6
381.489	277.56
381.87	275.08
382.25	292.03
382.63	310.1
383.01	313.49
383.39	317.79
383.77	322.53
384.15	287.28
384.53	306.26
384.91	299.94
385.29	289.99
385.67	288.64
386.049	311.69
386.429	323.44
386.809	319.82
387.189	335.19
387.568	299.71
387.948	306.49
388.328	319.82
388.707	319.82
389.087	310.56
389.466	298.58
389.846	321.4
390.225	322.53
390.605	311.46
390.984	317.34
391.363	297.9
391.743	315.98
392.122	313.04
392.501	312.82
392.881	327.96
393.26	312.36
393.639	335.41
394.018	339.48
394.397	322.76
394.776	303.33
395.155	318.69
395.534	338.13
395.913	303.1
396.292	306.72
396.671	316.43
397.05	312.14
397.429	328.18
397.808	323.66
398.186	318.01
398.565	340.16
398.944	314.85
399.323	338.58
399.701	338.8
400.08	314.17
400.458	346.49
400.837	342.19
401.215	355.08
401.594	332.48
401.972	376.54
402.351	352.82
402.729	327.73
403.107	344
403.486	338.58
403.864	345.81
404.242	355.53
404.62	345.58
404.999	352.59
405.377	336.32
405.755	346.94
406.133	345.36
406.511	358.47
406.889	347.39
407.267	378.58
407.645	353.72
408.023	339.48
408.401	364.57
408.779	376.32
409.156	369.99
409.534	367.73
409.912	361.18
410.29	387.39
410.667	375.64
411.045	369.09
411.422	374.74
411.8	373.61
412.178	379.71
412.555	376.32
412.933	381.74
413.31	380.16
413.687	398.01
414.065	400.05
414.442	397.33
414.819	401.85
415.197	395.53
415.574	370.89
415.951	392.14
416.328	381.74
416.705	398.24
417.082	383.32
417.46	411.57
417.837	411.35
418.214	393.94
418.591	393.49
418.967	419.71
419.344	392.59
419.721	397.33
420.098	416.99
420.475	411.57
420.852	417.45
421.228	406.37
421.605	414.06
421.982	421.74
422.358	440.04
422.735	431.68
423.111	441.4
423.488	452.02
423.864	428.75
424.241	448.63
424.617	453.6
424.994	454.51
425.37	446.37
425.746	475.07
426.123	476.43
426.499	456.32
426.875	461.51
427.251	472.59
427.627	480.95
428.003	485.69
428.379	462.42
428.756	467.39
429.132	477.11
429.507	484.79
429.883	478.91
430.259	500.61
430.635	496.99
431.011	475.52
431.387	510.1
431.763	530.89
432.138	497.9
432.514	529.31
432.89	519.59
433.265	515.75
433.641	522.08
434.016	536.31
434.392	549.87
434.767	545.58
435.143	539.7
435.518	563.43
435.894	589.65
436.269	582.41
436.644	577.89
437.02	567.27
437.395	560.95
437.77	574.28
438.145	582.41
438.52	580.38
438.895	613.37
439.271	614.05
439.646	614.73
440.021	611.11
440.395	626.71
440.77	616.31
441.145	612.92
441.52	627.61
441.895	633.71
442.27	632.81
442.645	636.2
443.019	645.92
443.394	645.24
443.769	669.42
444.143	671
444.518	653.82
444.892	675.29
445.267	686.37
445.641	656.08
446.016	668.51
446.39	692.69
446.764	691.11
447.139	683.2
447.513	705.12
447.887	727.72
448.262	680.72
448.636	692.92
449.01	716.65
449.384	716.87
449.758	712.81
450.132	724.33
450.506	737.21
450.88	730.88
451.254	738.12
451.628	742.86
452.002	763.65
452.376	775.4
452.75	780.6
453.123	753.93
453.497	792.35
453.871	776.53
454.244	772.01
454.618	760.26
454.992	811.56
455.365	786.7
455.739	821.96
456.112	788.74
456.486	810.66
456.859	825.35
457.232	870.32
457.606	830.77
457.979	827.61
458.352	852.01
458.725	874.16
459.099	858.79
459.472	889.3
459.845	892.46
460.218	874.38
460.591	906.02
460.964	876.64
461.337	908.73
461.71	922.29
462.083	913.48
462.456	928.39
462.829	915.29
463.201	970.2
463.574	902.86
463.947	948.51
464.32	985.12
464.692	967.71
465.065	976.08
465.438	979.24
465.81	977.88
466.183	1018.79
466.555	980.14
466.928	992.12
467.3	1005.68
467.672	1015.4
468.045	1034.38
468.417	1052.01
468.789	1023.76
469.161	1077.54
469.534	1060.82
469.906	1056.75
470.278	1054.27
470.65	1082.74
471.022	1087.71
471.394	1123.87
471.766	1129.29
472.138	1128.39
472.51	1160.25
472.882	1141.04
473.253	1157.54
473.625	1186.01
473.997	1176.3
474.369	1174.94
474.74	1178.78
475.112	1214.71
475.484	1230.31
475.855	1248.39
476.227	1248.16
476.598	1250.87
476.97	1248.61
477.341	1259.91
477.713	1286.58
478.084	1300.81
478.455	1301.49
478.827	1329.97
479.198	1358.44
479.569	1365.44
479.94	1382.17
480.311	1379.46
480.682	1381.04
481.053	1406.57
481.424	1426.69
481.795	1420.58
482.166	1465.33
482.537	1476.4
482.908	1457.19
483.279	1496.06
483.65	1499.45
484.021	1538.1
484.391	1505.55
484.762	1527.47
485.133	1554.59
485.503	1573.8
485.874	1576.96
486.244	1595.72
486.615	1592.33
486.985	1602.27
487.356	1633.69
487.726	1624.65
488.097	1668.94
488.467	1674.36
488.837	1679.79
489.207	1693.57
489.578	1710.07
489.948	1689.73
490.318	1714.81
490.688	1724.3
491.058	1736.51
491.428	1730.63
491.798	1740.12
492.168	1769.05
492.538	1769.95
492.908	1764.53
493.278	1802.27
493.648	1759.56
494.017	1775.15
494.387	1823.29
494.757	1800.24
495.126	1798.43
495.496	1810.18
495.866	1785.09
496.235	1823.51
496.605	1818.77
496.974	1826.9
497.344	1828.93
497.713	1876.62
498.082	1848.14
498.452	1860.35
498.821	1840.69
499.19	1865.09
499.559	1858.09
499.928	1844.08
500.298	1869.84
500.667	1863.06
501.036	1856.28
501.405	1865.54
501.774	1867.58
502.143	1894.92
502.512	1898.09
502.88	1857.18
503.249	1849.27
503.618	1874.81
503.987	1850.18
504.356	1881.81
504.724	1843.62
505.093	1851.53
505.462	1883.4
505.83	1877.97
506.199	1849.5
506.567	1901.25
506.936	1848.82
507.304	1847.01
507.672	1892.44
508.041	1880.01
508.409	1884.98
508.777	1892.44
509.145	1885.2
509.514	1874.13
509.882	1886.56
510.25	1885.88
510.618	1862.15
510.986	1837.3
511.354	1877.52
511.722	1894.47
512.09	1866
512.458	1873
512.826	1858.09
513.193	1887.01
513.561	1862.83
513.929	1868.03
514.297	1887.24
514.664	1859.67
515.032	1880.46
515.4	1856.05
515.767	1881.81
516.135	1871.19
516.502	1858.99
516.869	1852.21
517.237	1845.66
517.604	1823.29
517.972	1819.67
518.339	1849.73
518.706	1814.92
519.073	1824.64
519.44	1845.66
519.808	1825.32
520.175	1809.95
520.542	1831.87
520.909	1817.64
521.276	1816.28
521.643	1823.06
522.009	1804.75
522.376	1775.6
522.743	1831.42
523.11	1820.35
523.477	1809.73
523.843	1821.03
524.21	1835.71
524.577	1805.88
524.943	1816.73
525.31	1817.18
525.676	1826.9
526.043	1793
526.409	1792.1
526.776	1795.49
527.142	1819.67
527.508	1795.26
527.874	1806.56
528.241	1794.13
528.607	1814.47
528.973	1785.77
529.339	1782.61
529.705	1797.75
530.071	1776.96
530.437	1793.91
530.803	1758.88
531.169	1780.12
531.535	1772.44
531.901	1794.81
532.267	1784.87
532.632	1755.26
532.998	1747.13
533.364	1774.02
533.73	1724.08
534.095	1738.09
534.461	1735.38
534.826	1745.32
535.192	1741.48
535.557	1764.08
535.923	1737.19
536.288	1735.83
536.653	1736.73
537.019	1713.46
537.384	1691.99
537.749	1724.76
538.114	1705.55
538.479	1740.12
538.845	1724.3
539.21	1697.19
539.575	1663.97
539.94	1694.7
540.305	1703.74
540.67	1659.22
541.034	1651.76
541.399	1656.51
541.764	1662.39
542.129	1691.31
542.494	1649.05
542.858	1640.24
543.223	1649.05
543.587	1644.53
543.952	1620.35
544.316	1638.21
544.681	1641.37
545.045	1616.06
545.41	1604.08
545.774	1620.58
546.138	1602.95
546.503	1605.66
546.867	1599.56
547.231	1588.94
547.595	1592.56
547.959	1601.14
548.324	1587.59
548.688	1595.72
549.052	1552.56
549.416	1563.18
549.779	1547.59
550.143	1519.79
550.507	1558.21
550.871	1568.83
551.235	1545.1
551.599	1534.93
551.962	1545.78
552.326	1521.82
552.689	1525.44
553.053	1517.08
553.417	1505.33
553.78	1505.55
554.143	1530.86
554.507	1508.49
554.87	1497.19
555.234	1522.73
555.597	1491.54
555.96	1487.7
556.323	1505.55
556.686	1466.68
557.05	1472.79
557.413	1467.14
557.776	1451.54
558.139	1493.12
558.502	1457.65
558.865	1469.4
559.228	1464.42
559.59	1492.22
559.953	1468.04
560.316	1486.35
560.679	1521.37
561.041	1492.67
561.404	1465.55
561.767	1459.45
562.129	1484.09
562.492	1444.09
562.854	1444.31
563.217	1481.15
563.579	1445.67
563.941	1461.26
564.304	1455.39
564.666	1478.89
565.028	1475.27
565.39	1465.33
565.753	1452
566.115	1455.39
566.477	1464.88
566.839	1489.06
567.201	1480.47
567.563	1477.76
567.925	1475.72
568.287	1463.29
568.648	1464.65
569.01	1496.29
569.372	1500.13
569.734	1476.18
570.095	1489.28
570.457	1461.49
570.819	1491.32
571.18	1503.07
571.542	1486.35
571.903	1467.36
572.265	1502.84
572.626	1498.1
572.987	1489.73
573.349	1534.93
573.71	1522.05
574.071	1519.56
574.432	1536.29
574.794	1550.75
575.155	1537.87
575.516	1546.46
575.877	1541.48
576.238	1543.97
576.599	1548.04
576.96	1534.25
577.32	1554.14
577.681	1536.06
578.042	1564.99
578.403	1552.78
578.763	1573.57
579.124	1557.3
579.485	1599.56
579.845	1570.18
580.206	1560.92
580.566	1558.89
580.927	1591.2
581.287	1572.44
581.648	1556.17
582.008	1618.55
582.368	1584.2
582.728	1579.9
583.089	1617.42
583.449	1592.11
583.809	1582.16
584.169	1586.23
584.529	1566.79
584.889	1603.18
585.249	1560.92
585.609	1585.33
585.969	1606.34
586.329	1568.83
586.688	1578.32
587.048	1597.75
587.408	1595.72
587.768	1592.56
588.127	1600.01
588.487	1565.67
588.846	1598.88
589.206	1566.79
589.565	1595.49
589.925	1596.17
590.284	1588.26
590.643	1623.74
591.003	1579.45
591.362	1600.69
591.721	1584.65
592.08	1597.3
592.44	1608.15
592.799	1613.35
593.158	1619.9
593.517	1586
593.876	1636.62
594.235	1579.9
594.593	1567.25
594.952	1593.23
595.311	1573.57
595.67	1568.15
596.029	1617.64
596.387	1603.4
596.746	1595.04
597.104	1607.47
597.463	1614.93
597.822	1597.3
598.18	1600.24
598.538	1569.05
598.897	1594.59
599.255	1565.44
599.613	1573.57
599.972	1610.18
600.33	1593.01
600.688	1595.72
601.046	1575.16
601.404	1603.18
601.762	1608.83
602.12	1607.02
602.478	1578.55
602.836	1575.16
603.194	1576.06
603.552	1590.52
603.91	1585.55
604.268	1589.17
604.625	1615.16
604.983	1602.5
605.341	1598.88
605.698	1589.62
606.056	1580.13
606.413	1596.17
606.771	1585.1
607.128	1620.8
607.485	1566.12
607.843	1595.27
608.2	1634.82
608.557	1601.82
608.914	1576.74
609.272	1629.17
609.629	1595.49
609.986	1580.81
610.343	1591.65
610.7	1621.03
611.057	1618.32
611.414	1602.5
611.771	1601.37
612.127	1619
612.484	1597.98
612.841	1614.25
613.198	1594.36
613.554	1596.62
613.911	1610.18
614.267	1605.89
614.624	1611.77
614.98	1602.73
615.337	1611.09
615.693	1626.91
616.05	1608.6
616.406	1600.47
616.762	1624.42
617.118	1603.86
617.475	1639.79
617.831	1628.04
618.187	1600.01
618.543	1633.23
618.899	1643.86
619.255	1646.57
619.611	1630.52
619.967	1598.43
620.323	1613.12
620.678	1621.48
621.034	1658.09
621.39	1601.82
621.746	1645.66
622.101	1636.85
622.457	1611.54
622.812	1605.66
623.168	1622.39
623.523	1631.88
623.879	1618.09
624.234	1579.45
624.589	1649.96
624.945	1613.35
625.3	1636.17
625.655	1670.97
626.01	1620.58
626.365	1613.8
626.72	1610.86
627.075	1637.53
627.43	1583.74
627.785	1615.61
628.14	1602.27
628.495	1627.58
628.85	1613.57
629.205	1632.56
629.559	1638.21
629.914	1635.27
630.269	1625.1
630.623	1629.17
630.978	1647.92
631.332	1623.52
631.687	1626.45
632.041	1620.35
632.396	1626.68
632.75	1626
633.104	1617.87
633.459	1635.95
633.813	1598.66
634.167	1620.13
634.521	1639.79
634.875	1630.07
635.229	1626.45
635.583	1602.05
635.937	1642.05
636.291	1613.12
636.645	1642.27
636.999	1631.65
637.352	1619.22
637.706	1579.68
638.06	1619.22
638.413	1610.41
638.767	1601.37
639.121	1648.15
639.474	1593.69
639.828	1623.52
640.181	1610.41
640.534	1590.52
640.888	1601.6
641.241	1615.16
641.594	1600.24
641.947	1588.72
642.301	1623.29
642.654	1606.57
643.007	1613.12
643.36	1605.21
643.713	1617.87
644.066	1577.19
644.419	1618.09
644.771	1635.27
645.124	1585.33
645.477	1602.95
645.83	1587.59
646.182	1610.18
646.535	1600.01
646.888	1617.64
647.24	1619
647.593	1566.12
647.945	1580.81
648.298	1560.24
648.65	1577.19
649.002	1570.86
649.355	1590.75
649.707	1621.93
650.059	1610.41
650.411	1619
650.763	1631.65
651.115	1658.32
651.467	1603.63
651.819	1611.99
652.171	1663.97
652.523	1633.69
652.875	1628.94
653.227	1630.97
653.578	1633.69
653.93	1637.08
654.282	1656.74
654.633	1640.47
654.985	1647.24
655.337	1630.3
655.688	1666.23
656.039	1623.06
656.391	1617.87
656.742	1623.97
657.094	1630.07
657.445	1672.78
657.796	1622.84
658.147	1633.23
658.498	1654.48
658.849	1659.22
659.2	1642.05
659.551	1640.01
659.902	1618.77
660.253	1668.04
660.604	1664.87
660.955	1669.17
661.306	1666.91
661.656	1637.98
662.007	1652.44
662.358	1627.13
662.708	1659
663.059	1635.49
663.409	1648.83
663.76	1644.08
664.11	1630.97
664.461	1646.34
664.811	1649.96
665.161	1663.52
665.511	1692.89
665.862	1656.06
666.212	1667.58
666.562	1659.45
666.912	1653.57
667.262	1670.97
667.612	1641.82
667.962	1637.3
668.312	1661.03
668.662	1638.21
669.011	1657.19
669.361	1646.79
669.711	1677.3
670.06	1648.83
670.41	1629.62
670.76	1662.16
671.109	1658.77
671.459	1676.4
671.808	1656.51
672.157	1635.04
672.507	1614.03
672.856	1645.21
673.205	1633.01
673.554	1638.66
673.904	1605.89
674.253	1642.5
674.602	1636.85
674.951	1597.53
675.3	1602.73
675.649	1611.77
675.998	1591.43
676.346	1617.19
676.695	1621.71
677.044	1607.47
677.393	1623.74
677.741	1621.48
678.09	1633.46
678.438	1593.01
678.787	1600.92
679.135	1626.45
679.484	1579.45
679.832	1616.06
680.181	1586
680.529	1614.03
680.877	1594.36
681.225	1600.69
681.573	1585.55
681.922	1576.06
682.27	1608.6
682.618	1560.92
682.966	1566.12
683.314	1545.55
683.661	1589.39
684.009	1585.55
684.357	1578.77
684.705	1569.96
685.053	1542.39
685.4	1560.47
685.748	1584.87
686.095	1511.43
686.443	1522.5
686.79	1525.67
687.138	1553.46
687.485	1539.68
687.832	1539.23
688.18	1525.21
688.527	1527.7
688.874	1510.3
689.221	1539.9
689.568	1517.08
689.915	1498.1
690.262	1507.14
690.609	1515.95
690.956	1513.91
691.303	1495.16
691.65	1510.53
691.997	1505.33
692.344	1487.48
692.69	1491.77
693.037	1453.35
693.383	1473.01
693.73	1466.91
694.077	1468.04
694.423	1488.83
694.769	1464.42
695.116	1475.27
695.462	1444.54
695.808	1473.69
696.155	1461.49
696.501	1456.74
696.847	1476.85
697.193	1443.86
697.539	1452.67
697.885	1436.18
698.231	1447.48
698.577	1456.29
698.923	1428.04
699.269	1449.51
699.614	1407.48
699.96	1446.35
700.306	1435.27
700.651	1433.24
700.997	1406.12
701.342	1402.05
701.688	1434.82
702.033	1381.72
702.379	1392.79
702.724	1396.63
703.069	1388.04
703.415	1366.57
703.76	1357.99
704.105	1384.43
704.45	1386.23
704.795	1369.96
705.14	1389.4
705.485	1375.84
705.83	1371.32
706.175	1365.9
706.52	1371.77
706.865	1383.75
707.209	1372.22
707.554	1385.1
707.899	1367.48
708.243	1376.29
708.588	1360.02
708.932	1372.45
709.277	1379.23
709.621	1370.87
709.966	1381.04
710.31	1407.25
710.654	1383.97
710.998	1379.91
711.342	1367.48
711.687	1363.18
712.031	1372
712.375	1368.38
712.719	1385.78
713.063	1375.39
713.407	1380.36
713.75	1389.4
714.094	1372.68
714.438	1388.72
714.782	1411.54
715.125	1387.36
715.469	1404.31
715.812	1402.05
716.156	1376.97
716.499	1392.11
716.843	1405.9
717.186	1384.88
717.53	1403.86
717.873	1393.01
718.216	1411.09
718.559	1388.72
718.902	1407.48
719.246	1401.6
719.589	1401.38
719.932	1386.23
720.275	1410.64
720.617	1413.58
720.96	1415.39
721.303	1422.39
721.646	1420.13
721.989	1431.21
722.331	1440.02
722.674	1419.91
723.016	1426.69
723.359	1459
723.701	1424.2
724.044	1427.36
724.386	1449.28
724.729	1433.47
725.071	1470.75
725.413	1442.05
725.755	1459
726.097	1480.47
726.439	1460.81
726.782	1468.04
727.124	1465.78
727.465	1440.92
727.807	1485.22
728.149	1480.24
728.491	1486.35
728.833	1509.62
729.175	1478.66
729.516	1499.23
729.858	1497.42
730.199	1524.76
730.541	1541.26
730.882	1524.99
731.224	1519.79
731.565	1544.2
731.906	1531.09
732.248	1544.2
732.589	1584.65
732.93	1565.21
733.271	1583.97
733.612	1563.18
733.953	1579.9
734.294	1616.74
734.635	1589.39
734.976	1593.69
735.317	1609.05
735.658	1591.43
735.999	1627.36
736.339	1652.89
736.68	1649.96
737.021	1633.23
737.361	1633.46
737.702	1671.88
738.042	1665.55
738.383	1690.86
738.723	1731.54
739.063	1709.62
739.404	1737.19
739.744	1732.89
740.084	1724.53
740.424	1748.94
740.764	1761.82
741.104	1795.94
741.444	1803.62
741.784	1797.75
742.124	1811.08
742.464	1825.32
742.804	1828.26
743.143	1894.02
743.483	1881.36
743.823	1909.61
744.162	1899.89
744.502	1935.82
744.841	1945.77
745.181	1968.14
745.52	1973.11
745.86	2016.73
746.199	2042.04
746.538	2044.97
746.877	2103.73
747.216	2107.12
747.556	2125.65
747.895	2183.95
748.234	2174.46
748.573	2203.39
748.911	2263.05
749.25	2272.31
749.589	2283.16
749.928	2346.21
750.267	2387.56
750.605	2408.81
750.944	2426.21
751.283	2460.56
751.621	2501.23
751.96	2515.47
752.298	2557.28
752.636	2594.34
752.975	2642.02
753.313	2662.13
753.651	2745.97
753.989	2719.53
754.327	2815.12
754.666	2819.42
755.004	2885.63
755.342	2937.15
755.679	2945.06
756.017	3020.09
756.355	3079.3
756.693	3139.18
757.031	3152.29
757.368	3199.07
757.706	3236.13
758.044	3278.16
758.381	3408.33
758.719	3386.41
759.056	3514.31
759.394	3522.45
759.731	3540.75
760.068	3608.1
760.405	3640.19
760.743	3728.32
761.08	3749.79
761.417	3787.75
761.754	3867.75
762.091	3860.07
762.428	3860.07
762.765	3943.46
763.102	4008.99
763.438	4029.56
763.775	4125.82
764.112	4121.3
764.449	4181.87
764.785	4203.34
765.122	4257.8
765.458	4321.07
765.795	4358.81
766.131	4414.63
766.467	4394.29
766.804	4458.47
767.14	4447.17
767.476	4485.14
767.812	4553.84
768.148	4586.15
768.485	4577.79
768.821	4612.59
769.157	4627.96
769.492	4708.18
769.828	4760.16
770.164	4735.07
770.5	4810.1
770.836	4764.68
771.171	4765.81
771.507	4890.1
