Data from blue_surface_keyboard_FLMS001491_044.txt Node
Date: Tue Feb 07 11:13:10 GMT 2017
User: dcchb
Spectrometer: FLMS00149
Trigger mode: 0
Integration Time (sec): 2.000000E-2
Scans to average: 10
Electric dark correction enabled: true
Nonlinearity correction enabled: false
Boxcar width: 0
XAxis mode: Wavelengths
Number of Pixels in Spectrum: 2048
>>>>>Begin Spectral Data<<<<<
341.393	-13.19
341.776	-13.19
342.16	-13.19
342.543	-66.07
342.927	-59.97
343.31	-57.71
343.693	-65.85
344.077	-78.27
344.46	-87.99
344.843	-61.78
345.226	-63.81
345.61	-10.71
345.993	-15.9
346.376	5.56
346.759	7.6
347.142	43.76
347.525	45.56
347.908	60.93
348.291	79.24
348.674	90.08
349.057	109.29
349.44	146.8
349.823	151.32
350.206	156.3
350.588	207.37
350.971	198.55
351.354	204.43
351.737	209.4
352.119	236.29
352.502	259.8
352.884	251.43
353.267	268.16
353.65	275.39
354.032	293.47
354.414	278.78
354.797	294.14
355.179	303.18
355.562	293.01
355.944	296.4
356.326	307.93
356.709	331.21
357.091	308.16
357.473	327.36
357.855	303.64
358.238	328.49
358.62	313.35
359.002	310.64
359.384	325.33
359.766	336.18
360.148	311.77
360.53	320.81
360.912	311.32
361.294	311.09
361.676	322.62
362.057	327.14
362.439	317.42
362.821	313.13
363.203	309.51
363.584	313.13
363.966	308.61
364.348	318.78
364.729	319.45
365.111	313.58
365.493	290.3
365.874	292.11
366.256	282.17
366.637	300.7
367.019	274.94
367.4	304.09
367.781	292.11
368.163	295.95
368.544	286.01
368.925	303.86
369.306	298.44
369.688	295.05
370.069	297.53
370.45	293.47
370.831	290.3
371.212	316.07
371.593	301.6
371.974	297.76
372.355	289.85
372.736	288.27
373.117	292.11
373.498	301.6
373.879	292.56
374.26	296.4
374.641	293.69
375.021	271.77
375.402	299.34
375.783	296.86
376.163	279.46
376.544	295.5
376.925	309.29
377.305	307.48
377.686	310.87
378.066	312.9
378.447	294.37
378.827	299.34
379.208	307.25
379.588	289.85
379.968	316.07
380.349	303.18
380.729	310.64
381.109	296.86
381.489	294.14
381.87	322.39
382.25	307.7
382.63	332.11
383.01	304.54
383.39	323.3
383.77	305.9
384.15	316.97
384.53	296.63
384.91	319.91
385.29	301.83
385.67	300.25
386.049	318.32
386.429	324.65
386.809	292.56
387.189	327.14
387.568	294.14
387.948	318.32
388.328	303.41
388.707	330.98
389.087	307.03
389.466	328.04
389.846	320.13
390.225	335.05
390.605	323.3
390.984	329.62
391.363	321.71
391.743	319.91
392.122	324.65
392.501	319.45
392.881	313.35
393.26	328.72
393.639	331.21
394.018	322.39
394.397	334.82
394.776	344.31
395.155	321.94
395.534	335.73
395.913	329.85
396.292	361.71
396.671	346.12
397.05	358.78
397.429	328.72
397.808	329.85
398.186	335.05
398.565	336.86
398.944	332.56
399.323	326.91
399.701	324.88
400.08	346.57
400.458	323.3
400.837	344.54
401.215	341.15
401.594	342.28
401.972	382.05
402.351	353.13
402.729	321.26
403.107	361.26
403.486	343.18
403.864	363.52
404.242	313.81
404.62	364.43
404.999	362.17
405.377	350.41
405.755	358.55
406.133	367.59
406.511	371.43
406.889	338.21
407.267	349.96
407.645	345.44
408.023	353.8
408.401	377.53
408.779	376.63
409.156	377.76
409.534	358.1
409.912	368.95
410.29	377.53
410.667	394.48
411.045	372.79
411.422	364.88
411.8	367.14
412.178	388.61
412.555	377.08
412.933	365.33
413.31	381.15
413.687	380.7
414.065	386.57
414.442	380.7
414.819	388.61
415.197	392.45
415.574	398.32
415.951	389.06
416.328	401.26
416.705	386.57
417.082	372.11
417.46	401.94
417.837	400.58
418.214	410.53
418.591	384.99
418.967	391.77
419.344	384.09
419.721	409.17
420.098	391.32
420.475	388.83
420.852	382.5
421.228	412.79
421.605	401.26
421.982	389.74
422.358	400.58
422.735	400.13
423.111	413.92
423.488	412.79
423.864	416.4
424.241	427.25
424.617	438.77
424.994	409.17
425.37	411.66
425.746	424.31
426.123	432.22
426.499	418.21
426.875	428.83
427.251	414.82
427.627	428.38
428.003	445.55
428.379	432.22
428.756	431.54
429.132	446.23
429.507	443.75
429.883	426.57
430.259	431.32
430.635	416.85
431.011	436.51
431.387	431.54
431.763	457.08
432.138	439.45
432.514	446.01
432.89	461.82
433.265	465.67
433.641	477.64
434.016	481.94
434.392	470.19
434.767	477.19
435.143	452.56
435.518	472.22
435.894	485.78
436.269	497.76
436.644	489.85
437.02	486.46
437.395	479.45
437.77	492.56
438.145	489.62
438.52	481.03
438.895	507.47
439.271	487.81
439.646	513.35
440.021	505.89
440.395	500.24
440.77	510.41
441.145	502.05
441.52	523.97
441.895	499.11
442.27	516.96
442.645	519.9
443.019	535.27
443.394	534.36
443.769	535.95
444.143	520.81
444.518	547.47
444.892	528.04
445.267	526.91
445.641	509.28
446.016	540.24
446.39	523.97
446.764	544.08
447.139	545.66
447.513	546.12
447.887	566.68
448.262	569.39
448.636	537.3
449.01	557.64
449.384	544.99
449.758	571.65
450.132	558.32
450.506	575.95
450.88	558.32
451.254	574.14
451.628	582.5
452.002	588.37
452.376	572.78
452.75	563.74
453.123	578.43
453.497	577.53
453.871	573.91
454.244	600.35
454.618	588.37
454.992	611.65
455.365	593.12
455.739	626.57
456.112	602.61
456.486	607.81
456.859	599.67
457.232	620.24
457.606	634.25
457.979	611.2
458.352	623.18
458.725	622.27
459.099	625.89
459.472	634.25
459.845	634.93
460.218	646.68
460.591	645.55
460.964	640.8
461.337	654.59
461.71	662.5
462.083	670.63
462.456	667.47
462.829	643.74
463.201	686.9
463.574	685.32
463.947	664.3
464.32	682.16
464.692	685.55
465.065	689.16
465.438	711.53
465.81	728.94
466.183	713.57
466.555	709.5
466.928	710.86
467.3	705.43
467.672	722.16
468.045	730.97
468.417	737.3
468.789	748.14
469.161	748.14
469.534	752.44
469.906	756.05
470.278	743.62
470.65	756.05
471.022	761.48
471.394	806
471.766	789.05
472.138	791.31
472.51	791.76
472.882	804.41
473.253	815.49
473.625	834.47
473.997	806
474.369	851.19
474.74	853.68
475.112	862.49
475.484	851.19
475.855	846.67
476.227	852.32
476.598	883.06
476.97	893.9
477.341	874.69
477.713	916.05
478.084	930.96
478.455	899.55
478.827	919.44
479.198	943.39
479.569	928.03
479.94	956.5
480.311	965.99
480.682	965.31
481.053	987.23
481.424	1004.18
481.795	964.86
482.166	988.36
482.537	1010.74
482.908	1029.49
483.279	1011.64
483.65	1047.35
484.021	1059.77
484.391	1061.58
484.762	1090.06
485.133	1066.55
485.503	1103.62
485.874	1083.95
486.244	1092.54
486.615	1098.42
486.985	1122.15
487.356	1136.16
487.726	1154.91
488.097	1157.62
488.467	1144.07
488.837	1201.69
489.207	1172.99
489.578	1179.55
489.948	1163.5
490.318	1214.35
490.688	1221.13
491.058	1195.14
491.428	1217.51
491.798	1223.16
492.168	1252.09
492.538	1264.51
492.908	1259.09
493.278	1238.53
493.648	1240.33
494.017	1241.46
494.387	1275.36
494.757	1276.72
495.126	1271.75
495.496	1270.39
495.866	1304.51
496.235	1260.9
496.605	1321.91
496.974	1302.93
497.344	1285.53
497.713	1290.28
498.082	1316.04
498.452	1282.59
498.821	1329.82
499.19	1349.71
499.559	1339.77
499.928	1324.17
500.298	1318.98
500.667	1325.3
501.036	1316.04
501.405	1341.12
501.774	1313.33
502.143	1344.29
502.512	1358.52
502.88	1336.38
503.249	1332.99
503.618	1341.57
503.987	1361.69
504.356	1346.09
504.724	1370.5
505.093	1331.86
505.462	1372.99
505.83	1366.43
506.199	1415.7
506.567	1393.32
506.936	1383.83
507.304	1396.94
507.672	1390.61
508.041	1401.01
508.409	1400.33
508.777	1398.07
509.145	1409.82
509.514	1414.79
509.882	1386.09
510.25	1403.72
510.618	1434
510.986	1402.14
511.354	1417.05
511.722	1445.3
512.09	1435.58
512.458	1413.89
512.826	1452.31
513.193	1428.35
513.561	1434
513.929	1446.43
514.297	1449.37
514.664	1469.93
515.032	1482.81
515.4	1446.66
515.767	1446.43
516.135	1460.44
516.502	1439.43
516.869	1490.05
517.237	1490.5
517.604	1466.32
517.972	1476.94
518.339	1459.76
518.706	1479.2
519.073	1473.32
519.44	1483.27
519.808	1488.46
520.175	1488.46
520.542	1483.94
520.909	1486.43
521.276	1513.32
521.643	1526.2
522.009	1495.7
522.376	1532.08
522.743	1503.6
523.11	1508.12
523.477	1542.7
523.843	1513.32
524.21	1536.15
524.577	1510.16
524.943	1477.39
525.31	1576.37
525.676	1526.65
526.043	1518.29
526.409	1557.61
526.776	1551.06
527.142	1577.95
527.508	1570.27
527.874	1566.43
528.241	1579.99
528.607	1560.1
528.973	1569.14
529.339	1562.13
529.705	1597.16
530.071	1588.57
530.437	1571.85
530.803	1594.22
531.169	1591.74
531.535	1577.73
531.901	1605.3
532.267	1606.43
532.632	1599.2
532.998	1582.7
533.364	1613.66
533.73	1603.04
534.095	1623.38
534.461	1603.94
534.826	1600.1
535.192	1608.23
535.557	1598.74
535.923	1600.1
536.288	1626.09
536.653	1639.65
537.019	1599.65
537.384	1636.93
537.749	1621.34
538.114	1621.79
538.479	1623.38
538.845	1605.3
539.21	1614.56
539.575	1607.33
539.94	1634.67
540.305	1604.39
540.67	1647.78
541.034	1625.41
541.399	1635.35
541.764	1613.43
542.129	1601.91
542.494	1645.07
542.858	1619.31
543.223	1662.7
543.587	1637.84
543.952	1621.79
544.316	1633.77
544.681	1643.26
545.045	1619.53
545.41	1633.09
545.774	1616.6
546.138	1626.31
546.503	1610.95
546.867	1610.72
547.231	1664.73
547.595	1641.45
547.959	1647.1
548.324	1627.44
548.688	1620.66
549.052	1650.04
549.416	1632.41
549.779	1648.91
550.143	1650.27
550.507	1645.97
550.871	1659.31
551.235	1669.93
551.599	1658.85
551.962	1631.96
552.326	1638.52
552.689	1665.63
553.053	1661.11
553.417	1660.89
553.78	1663.83
554.143	1650.72
554.507	1684.62
554.87	1681.9
555.234	1675.58
555.597	1664.5
555.96	1662.24
556.323	1670.38
556.686	1642.58
557.05	1694.79
557.413	1670.61
557.776	1660.89
558.139	1636.48
558.502	1677.84
558.865	1667.44
559.228	1657.72
559.59	1681.23
559.953	1680.32
560.316	1685.75
560.679	1689.14
561.041	1709.7
561.404	1717.38
561.767	1685.97
562.129	1716.71
562.492	1741.34
562.854	1723.49
563.217	1691.4
563.579	1731.85
563.941	1733.65
564.304	1719.64
564.666	1739.08
565.028	1729.36
565.39	1732.3
565.753	1725.52
566.115	1723.03
566.477	1729.81
566.839	1746.76
567.201	1754.22
567.563	1726.42
567.925	1765.29
568.287	1746.54
568.648	1769.36
569.01	1752.86
569.372	1759.19
569.734	1756.48
570.095	1770.72
570.457	1738.85
570.819	1809.81
571.18	1753.77
571.542	1759.64
571.903	1787.44
572.265	1781.11
572.626	1778.63
572.987	1772.52
573.349	1808.46
573.71	1810.72
574.071	1796.7
574.432	1823.14
574.794	1810.26
575.155	1824.27
575.516	1795.12
575.877	1794.9
576.238	1802.58
576.599	1827.44
576.96	1822.69
577.32	1808.91
577.681	1830.83
578.042	1848.45
578.403	1813.43
578.763	1824.73
579.124	1843.03
579.485	1812.07
579.845	1832.18
580.206	1820.43
580.566	1800.32
580.927	1824.73
581.287	1837.61
581.648	1824.73
582.008	1833.54
582.368	1839.87
582.728	1855.91
583.089	1841.45
583.449	1849.13
583.809	1856.36
584.169	1837.83
584.529	1851.62
584.889	1865.63
585.249	1831.51
585.609	1847.1
585.969	1852.3
586.329	1844.61
586.688	1853.43
587.048	1837.83
587.408	1864.95
587.768	1833.09
588.127	1852.75
588.487	1829.25
588.846	1847.1
589.206	1840.09
589.565	1835.57
589.925	1854.33
590.284	1845.97
590.643	1836.03
591.003	1884.16
591.362	1896.36
591.721	1843.71
592.08	1851.84
592.44	1872.41
592.799	1859.3
593.158	1864.05
593.517	1835.57
593.876	1864.72
594.235	1872.63
594.593	1881.22
594.952	1838.74
595.311	1888
595.67	1867.21
596.029	1879.87
596.387	1866.31
596.746	1883.93
597.104	1916.48
597.463	1872.63
597.822	1896.14
598.18	1858.17
598.538	1873.99
598.897	1875.8
599.255	1867.89
599.613	1862.69
599.972	1894.55
600.33	1917.38
600.688	1886.87
601.046	1908.79
601.404	1885.52
601.762	1886.19
602.12	1891.62
602.478	1907.89
602.836	1933.88
603.194	1885.29
603.552	1889.36
603.91	1938.17
604.268	1891.62
604.625	1931.84
604.983	1919.19
605.341	1922.35
605.698	1928.23
606.056	1931.84
606.413	1948.56
606.771	1950.37
607.128	1942.46
607.485	1943.59
607.843	1909.47
608.2	1930.26
608.557	1956.02
608.914	1961.45
609.272	1951.5
609.629	1956.47
609.986	1928.68
610.343	1952.86
610.7	1977.26
611.057	1986.98
611.414	1940.43
611.771	1977.26
612.127	1986.53
612.484	1944.04
612.841	1961.67
613.198	2002.35
613.554	2002.35
613.911	2011.84
614.267	1974.78
614.624	1972.07
614.98	1979.52
615.337	2017.72
615.693	1984.95
616.05	2010.03
616.406	2020.65
616.762	2019.52
617.118	2002.35
617.475	1984.72
617.831	1995.34
618.187	2034.44
618.543	1989.24
618.899	2006.42
619.255	2023.36
619.611	2023.59
619.967	2048.9
620.323	2043.03
620.678	2047.32
621.034	2042.57
621.39	2028.56
621.746	2013.2
622.101	2057.94
622.457	2033.08
622.812	2053.65
623.168	2063.36
623.523	2030.6
623.879	2072.18
624.234	2053.65
624.589	2078.96
624.945	2063.36
625.3	2078.5
625.655	2062.23
626.01	2075.11
626.365	2071.95
626.72	2104.27
627.075	2066.3
627.43	2090.93
627.785	2080.54
628.14	2080.31
628.495	2091.16
628.85	2086.41
629.205	2103.14
629.559	2074.89
629.914	2093.65
630.269	2102.68
630.623	2108.79
630.978	2094.55
631.332	2132.74
631.687	2098.62
632.041	2113.76
632.396	2131.16
632.75	2124.15
633.104	2132.97
633.459	2133.42
633.813	2136.13
634.167	2152.63
634.521	2142.46
634.875	2167.09
635.229	2159.63
635.583	2141.78
635.937	2161.89
636.291	2169.8
636.645	2161.89
636.999	2179.74
637.352	2181.33
637.706	2154.66
638.06	2175.45
638.413	2169.12
638.767	2180.42
639.121	2150.82
639.474	2182.46
639.828	2168.9
640.181	2200.54
640.534	2219.52
640.888	2201.89
641.241	2212.06
641.594	2220.42
641.947	2233.08
642.301	2212.06
642.654	2202.8
643.007	2236.69
643.36	2207.77
643.713	2211.83
644.066	2260.19
644.419	2276.47
644.771	2238.5
645.124	2276.01
645.477	2268.56
645.83	2205.06
646.182	2229.24
646.535	2188.11
646.888	2283.25
647.24	2249.8
647.593	2244.38
647.945	2285.73
648.298	2246.86
648.65	2266.75
649.002	2259.29
649.355	2272.62
649.707	2307.88
650.059	2316.46
650.411	2342.68
650.763	2335
651.115	2418.38
651.467	2373.86
651.819	2372.06
652.171	2408.67
652.523	2422.68
652.875	2401.89
653.227	2435.56
653.578	2445.73
653.93	2448.66
654.282	2477.36
654.633	2469.23
654.985	2468.1
655.337	2492.51
655.688	2469.91
656.039	2514.2
656.391	2509.68
656.742	2516.91
657.094	2555.55
657.445	2560.07
657.796	2587.42
658.147	2566.4
658.498	2554.2
658.849	2589.23
659.2	2598.49
659.551	2604.37
659.902	2644.37
660.253	2611.6
660.604	2621.54
660.955	2655.21
661.306	2678.49
661.656	2650.24
662.007	2685.95
662.358	2715.1
662.708	2748.09
663.059	2728.88
663.409	2730.24
663.76	2721.43
664.11	2755.77
664.461	2772.05
664.811	2797.13
665.161	2778.6
665.511	2793.74
665.862	2833.97
666.212	2819.95
666.562	2830.8
666.912	2823.57
667.262	2871.93
667.612	2877.81
667.962	2917.13
668.312	2889.56
668.662	2903.57
669.011	2957.8
669.361	2976.11
669.711	2977.24
670.06	2949.22
670.41	2984.24
670.76	3004.36
671.109	3005.94
671.459	2995.77
671.808	3015.43
672.157	3040.74
672.507	3049.78
672.856	3047.52
673.205	3100.17
673.554	3095.43
673.904	3075.09
674.253	3128.65
674.602	3112.38
674.951	3120.96
675.3	3114.18
675.649	3110.12
675.998	3141.75
676.346	3218.14
676.695	3212.26
677.044	3184.46
677.393	3249.32
677.741	3242.09
678.09	3267.85
678.438	3275.08
678.787	3275.31
679.135	3245.03
679.484	3286.61
679.832	3286.83
680.181	3261.75
680.529	3312.14
680.877	3327.29
681.225	3329.77
681.573	3383.56
681.922	3346.49
682.27	3357.12
682.618	3394.18
682.966	3357.34
683.314	3396.66
683.661	3375.42
684.009	3398.92
684.357	3340.62
684.705	3379.71
685.053	3429.2
685.4	3430.56
685.748	3436.21
686.095	3431.92
686.443	3441.18
686.79	3430.79
687.138	3485.47
687.485	3478.69
687.832	3433.27
688.18	3498.58
688.527	3495.42
688.874	3461.52
689.221	3511.46
689.568	3488.64
689.915	3513.5
690.262	3486.38
690.609	3479.82
690.956	3552.82
691.303	3528.86
691.65	3502.42
691.997	3525.47
692.344	3508.52
692.69	3529.54
693.037	3572.93
693.383	3523.66
693.73	3547.62
694.077	3528.86
694.423	3514.63
694.769	3541.07
695.116	3571.12
695.462	3557.34
695.808	3553.04
696.155	3572.48
696.501	3512.59
696.847	3536.55
697.193	3515.98
697.539	3555.75
697.885	3531.57
698.231	3538.81
698.577	3528.18
698.923	3551.23
699.269	3535.42
699.614	3505.36
699.96	3477.11
700.306	3498.81
700.651	3467.17
700.997	3518.92
701.342	3499.71
701.688	3476.43
702.033	3503.33
702.379	3525.25
702.724	3493.16
703.069	3523.44
703.415	3466.49
703.76	3482.99
704.105	3486.6
704.45	3501.29
704.795	3466.26
705.14	3474.63
705.485	3508.75
705.83	3463.33
706.175	3468.07
706.52	3418.58
706.865	3481.86
707.209	3504.91
707.554	3428.75
707.899	3479.37
708.243	3434.85
708.588	3423.1
708.932	3431.46
709.277	3394.63
709.621	3467.85
709.966	3420.84
710.31	3418.81
710.654	3416.32
710.998	3401.63
711.342	3432.59
711.687	3451.58
712.031	3379.49
712.375	3340.62
712.719	3425.81
713.063	3424.01
713.407	3445.25
713.75	3374.74
714.094	3408.64
714.438	3399.37
714.782	3396.89
715.125	3392.82
715.469	3413.16
715.812	3384.01
716.156	3381.52
716.499	3387.62
716.843	3367.28
717.186	3375.87
717.53	3401.41
717.873	3402.31
718.216	3394.85
718.559	3413.61
718.902	3390.11
719.246	3384.91
719.589	3359.6
719.932	3400.96
720.275	3396.66
720.617	3422.65
720.96	3343.1
721.303	3403.89
721.646	3403.44
721.989	3415.87
722.331	3413.38
722.674	3384.46
723.016	3364.35
723.359	3411.8
723.701	3392.14
724.044	3369.32
724.386	3374.52
724.729	3351.69
725.071	3384.23
725.413	3378.36
725.755	3428.3
726.097	3384.46
726.439	3370.9
726.782	3380.39
727.124	3387.85
727.465	3364.12
727.807	3404.8
728.149	3367.96
728.491	3360.05
728.833	3377.23
729.175	3359.83
729.516	3358.25
729.858	3398.47
730.199	3375.42
730.541	3421.07
730.882	3395.53
731.224	3449.09
731.565	3415.64
731.906	3440.28
732.248	3434.4
732.589	3434.18
732.93	3417.23
733.271	3433.95
733.612	3444.34
733.953	3430.33
734.294	3456.32
734.635	3410.9
734.976	3453.61
735.317	3445.02
735.658	3452.71
735.999	3454.51
736.339	3480.73
736.68	3451.35
737.021	3488.41
737.361	3488.86
737.702	3480.5
738.042	3504.23
738.383	3480.5
738.723	3523.66
739.063	3491.57
739.404	3517.34
739.744	3509.43
740.084	3525.02
740.424	3572.93
740.764	3545.36
741.104	3555.53
741.444	3549.88
741.784	3539.71
742.124	3589.2
742.464	3576.77
742.804	3569.31
743.143	3564.57
743.483	3592.82
743.823	3615.87
744.162	3610.44
744.502	3610.89
744.841	3613.15
745.181	3662.64
745.52	3655.19
745.86	3674.85
746.199	3704.22
746.538	3699.93
746.877	3736.31
747.216	3676.2
747.556	3739.7
747.895	3768.18
748.234	3693.38
748.573	3789.65
748.911	3796.65
749.25	3796.43
749.589	3822.19
749.928	3845.24
750.267	3863.77
750.605	3861.96
750.944	3917.55
751.283	3921.39
751.621	3943.77
751.96	3916.87
752.298	3977.44
752.636	4012.92
752.975	3966.59
753.313	3962.75
753.651	4041.16
753.989	4067.83
754.327	4071.45
754.666	4069.64
755.004	4118.45
755.342	4115.97
755.679	4135.17
756.017	4139.47
756.355	4123.42
756.693	4110.77
757.031	4215.62
757.368	4165.68
757.706	4211.56
758.044	4268.05
758.381	4283.42
758.719	4262.4
759.056	4290.65
759.394	4273.7
759.731	4262.18
760.068	4348.5
760.405	4322.29
760.743	4337.43
761.08	4375.85
761.417	4373.81
761.754	4430.53
762.091	4423.08
762.428	4407.71
762.765	4398.44
763.102	4412.23
763.438	4379.01
763.775	4433.25
764.112	4417.65
764.449	4492
764.785	4483.87
765.122	4442.51
765.458	4443.41
765.795	4452.68
766.131	4475.73
766.467	4477.76
766.804	4457.2
767.14	4451.32
767.476	4495.39
767.812	4459.91
768.148	4520.47
768.485	4480.7
768.821	4482.28
769.157	4516.18
769.492	4489.74
769.828	4470.53
770.164	4447.03
770.5	4479.57
770.836	4486.12
771.171	4442.96
771.507	4457.43
771.842	4447.93
772.178	4460.14
