Data from blue_shiny_book_FLMS001491_00067.txt Node
Date: Wed Feb 08 15:27:22 GMT 2017
User: dcchb
Spectrometer: FLMS00149
Trigger mode: 0
Integration Time (sec): 2.000000E-2
Scans to average: 10
Electric dark correction enabled: true
Nonlinearity correction enabled: false
Boxcar width: 0
XAxis mode: Wavelengths
Number of Pixels in Spectrum: 2048
>>>>>Begin Spectral Data<<<<<
341.393	-26.31
341.776	-26.31
342.16	-26.31
342.543	-47.78
342.927	-84.84
343.31	-78.06
343.693	-66.99
344.077	-66.99
344.46	-68.35
344.843	-64.73
345.226	-47.1
345.61	-31.28
345.993	-10.04
346.376	10.97
346.759	8.49
347.142	38.54
347.525	28.83
347.908	58.66
348.291	63.18
348.674	110.63
349.057	114.25
349.44	121.03
349.823	149.28
350.206	170.74
350.588	201.03
350.971	214.58
351.354	236.05
351.737	256.84
352.119	245.32
352.502	246.67
352.884	291.87
353.267	303.4
353.65	309.27
354.032	321.02
354.414	325.99
354.797	309.05
355.179	326.9
355.562	341.59
355.944	333
356.326	344.98
356.709	340.68
357.091	333.23
357.473	374.35
357.855	359.44
358.238	370.96
358.62	349.95
359.002	338.2
359.384	367.35
359.766	358.31
360.148	351.98
360.53	380.23
360.912	361.47
361.294	355.15
361.676	358.76
362.057	361.47
362.439	372.32
362.821	361.25
363.203	359.21
363.584	335.49
363.966	334.81
364.348	358.08
364.729	362.15
365.111	366.67
365.493	368.7
365.874	364.86
366.256	355.15
366.637	329.38
367.019	339.1
367.4	351.3
367.781	352.21
368.163	335.26
368.544	357.41
368.925	353.79
369.306	349.5
369.688	337.29
370.069	347.91
370.45	369.38
370.831	349.5
371.212	369.61
371.593	331.87
371.974	335.26
372.355	345.2
372.736	339.33
373.117	352.21
373.498	361.93
373.879	384.52
374.26	362.15
374.641	358.76
375.021	369.38
375.402	366.67
375.783	349.27
376.163	370.06
376.544	377.74
376.925	366.9
377.305	372.32
377.686	385.43
378.066	379.1
378.447	404.64
378.827	387.01
379.208	384.3
379.588	392.89
379.968	384.75
380.349	389.95
380.729	394.69
381.109	392.66
381.489	382.72
381.87	420
382.25	416.84
382.63	412.77
383.01	401.92
383.39	422.04
383.77	436.27
384.15	430.4
384.53	439.21
384.91	422.94
385.29	445.77
385.67	435.82
386.049	450.28
386.429	448.02
386.809	431.53
387.189	442.83
387.568	443.28
387.948	451.19
388.328	464.75
388.707	480.79
389.087	470.62
389.466	481.24
389.846	491.87
390.225	472.88
390.605	488.02
390.984	500.68
391.363	489.61
391.743	498.87
392.122	519.89
392.501	511.3
392.881	520.79
393.26	497.97
393.639	518.53
394.018	516.95
394.397	523.28
394.776	547.91
395.155	568.47
395.534	558.08
395.913	551.3
396.292	531.41
396.671	579.32
397.05	562.82
397.429	579.09
397.808	576.16
398.186	577.51
398.565	594.91
398.944	566.44
399.323	589.72
399.701	598.98
400.08	622.48
400.458	605.99
400.837	627
401.215	607.79
401.594	647.57
401.972	664.97
402.351	667.91
402.729	657.74
403.107	655.48
403.486	675.82
403.864	690.28
404.242	670.62
404.62	721.01
404.999	693.89
405.377	720.33
405.755	695.93
406.133	715.59
406.511	723.5
406.889	774.8
407.267	759.66
407.645	774.8
408.023	791.52
408.401	801.46
408.779	809.6
409.156	794.23
409.534	818.41
409.912	819.99
410.29	843.49
410.667	848.01
411.045	873.1
411.422	878.3
411.8	894.79
412.178	903.15
412.555	920.55
412.933	956.49
413.31	967.33
413.687	984.51
414.065	980.67
414.442	1000.78
414.819	992.19
415.197	1007.33
415.574	1032.19
415.951	1049.82
416.328	1058.18
416.705	1062.47
417.082	1059.53
417.46	1092.98
417.837	1122.58
418.214	1103.83
418.591	1097.95
418.967	1104.05
419.344	1133.88
419.721	1169.36
420.098	1168.23
420.475	1182.69
420.852	1175.46
421.228	1204.84
421.605	1253.88
421.982	1250.94
422.358	1249.59
422.735	1262.01
423.111	1285.97
423.488	1288.68
423.864	1319.19
424.241	1328.68
424.617	1325.97
424.994	1345.63
425.37	1395.12
425.746	1396.7
426.123	1405.74
426.499	1438.28
426.875	1450.48
427.251	1453.2
427.627	1486.87
428.003	1515.12
428.379	1542.23
428.756	1515.12
429.132	1564.61
429.507	1589.24
429.883	1633.3
430.259	1692.74
430.635	1670.59
431.011	1678.73
431.387	1732.28
431.763	1780.19
432.138	1796.01
432.514	1788.78
432.89	1790.14
433.265	1842.56
433.641	1860.42
434.016	1908.1
434.392	1940.42
434.767	1968.66
435.143	1967.53
435.518	2051.15
435.894	2027.42
436.269	2100.86
436.644	2123.91
437.02	2124.14
437.395	2135.89
437.77	2183.57
438.145	2185.61
438.52	2221.76
438.895	2259.5
439.271	2247.07
439.646	2328.43
440.021	2341.53
440.395	2332.95
440.77	2349.44
441.145	2361.65
441.52	2443.9
441.895	2427.41
442.27	2475.99
442.645	2434.19
443.019	2513.73
443.394	2499.72
443.769	2537.01
444.143	2504.02
444.518	2588.53
444.892	2604.35
445.267	2606.16
445.641	2657.46
446.016	2711.02
446.39	2731.35
446.764	2747.17
447.139	2701.07
447.513	2761.18
447.887	2768.87
448.262	2792.6
448.636	2790.56
449.01	2845.02
449.384	2885.25
449.758	2909.2
450.132	2957.56
450.506	3003.44
450.88	2985.59
451.254	3068.97
451.628	3058.8
452.002	3071.91
452.376	3149.65
452.75	3165.02
453.123	3190.1
453.497	3197.78
453.871	3205.69
454.244	3350.1
454.618	3334.73
454.992	3374.73
455.365	3432.81
455.739	3528.62
456.112	3578.34
456.486	3600.26
456.859	3616.76
457.232	3716.87
457.606	3676.87
457.979	3715.51
458.352	3827.82
458.725	3881.83
459.099	3858.56
459.472	3913.02
459.845	4020.59
460.218	4074.14
460.591	4077.53
460.964	4185.33
461.337	4273.69
461.71	4312.56
462.083	4393.23
462.456	4461.48
462.829	4443.4
463.201	4519.78
463.574	4544.19
463.947	4584.87
464.32	4724.75
464.692	4734.24
465.065	4785.99
465.438	4863.95
465.81	4928.13
466.183	4964.74
466.555	5141.91
466.928	5175.81
467.3	5135.59
467.672	5288.8
468.045	5461.23
468.417	5420.1
468.789	5492.41
469.161	5521.56
469.534	5586.65
469.906	5711.16
470.278	5753.65
470.65	5818.51
471.022	5929.69
471.394	6075
471.766	6151.38
472.138	6196.12
472.51	6356.34
472.882	6469.79
473.253	6544.59
473.625	6678.37
473.997	6807.63
474.369	6827.29
474.74	6897.12
475.112	7047.17
475.484	7133.95
475.855	7295.75
476.227	7281.07
476.598	7516.99
476.97	7606.48
477.341	7776.42
477.713	7902.07
478.084	7977.77
478.455	8262.73
478.827	8333.47
479.198	8599.45
479.569	8623.63
479.94	8869.72
480.311	8897.29
480.682	9084.41
481.053	9308.58
481.424	9414.12
481.795	9532.31
482.166	9691.4
482.537	9765.52
482.908	10079.41
483.279	10177.03
483.65	10349.46
484.021	10648.43
484.391	10728.21
484.762	10850.24
485.133	10993.51
485.503	11106.73
485.874	11386.95
486.244	11423.33
486.615	11676.2
486.985	11841.85
487.356	12026.25
487.726	12151.9
488.097	12376.07
488.467	12512.34
488.837	12734.48
489.207	12901.93
489.578	13117.3
489.948	13197.07
490.318	13451.07
490.688	13518.19
491.058	13784.85
491.428	13984.62
491.798	14105.07
492.168	14459.41
492.538	14426.64
492.908	14656.01
493.278	14858.27
493.648	14819.4
494.017	15022.78
494.387	15253.06
494.757	15410.8
495.126	15566.5
495.496	15522.88
495.866	15718.36
496.235	15940.5
496.605	16217.33
496.974	16279.93
497.344	16433.82
497.713	16512.46
498.082	16612.35
498.452	16899.12
498.821	17020.24
499.19	16977.08
499.559	17110.86
499.928	17286.23
500.298	17371.2
500.667	17609.16
501.036	17642.6
501.405	17897.28
501.774	17958.07
502.143	18204.62
502.512	18233.55
502.88	18445.52
503.249	18372.53
503.618	18705.62
503.987	18750.14
504.356	18786.3
504.724	18932.74
505.093	19099.06
505.462	19207.08
505.83	19286.4
506.199	19414.08
506.567	19678.03
506.936	19722.77
507.304	19926.83
507.672	20116.89
508.041	20187.84
508.409	20376.99
508.777	20553.03
509.145	20790.31
509.514	20801.84
509.882	20954.15
510.25	21066.01
510.618	21174.26
510.986	21315.95
511.354	21362.05
511.722	21588.49
512.09	21942.15
512.458	21766.11
512.826	22025.99
513.193	22206.55
513.561	22377.39
513.929	22428.24
514.297	22744.84
514.664	22794.56
515.032	22936.7
515.4	23268.89
515.767	23252.85
516.135	23352.28
516.502	23456.23
516.869	23867.97
517.237	24029.78
517.604	23879.27
517.972	24181.41
518.339	24225.93
518.706	24348.87
519.073	24382.08
519.44	24681.51
519.808	25033.82
520.175	24969.19
520.542	25369.4
520.909	25468.38
521.276	25532.56
521.643	25844.65
522.009	25970.07
522.376	26241.25
522.743	26372.32
523.11	26735.7
523.477	26998.51
523.843	27008.23
524.21	27285.96
524.577	27538.61
524.943	27560.08
525.31	27777.93
525.676	27936.57
526.043	28104.47
526.409	28246.62
526.776	28617.68
527.142	28662.42
527.508	28966.15
527.874	29188.74
528.241	29410.43
528.607	29630.53
528.973	29788.04
529.339	29830.98
529.705	30143.74
530.071	30454.47
530.437	30538.53
530.803	30727.23
531.169	30981.01
531.535	30816.27
531.901	31067.33
532.267	31042.25
532.632	31351.62
532.998	31471.84
533.364	31523.14
533.73	31621.67
534.095	31866.63
534.461	32059.4
534.826	32161.09
535.192	32318.15
535.557	32696.22
535.923	32705.03
536.288	32905.93
536.653	33128.75
537.019	33115.19
537.384	33243.32
537.749	33478.79
538.114	33563.76
538.479	33553.82
538.845	33639.92
539.21	33409.87
539.575	33771.22
539.94	33801.5
540.305	34013.02
540.67	33922.62
541.034	33955.84
541.399	34138.44
541.764	34199.23
542.129	34271.54
542.494	34495.72
542.858	34689.16
543.223	34828.59
543.587	35127.79
543.952	35062.93
544.316	35336.37
544.681	35287.79
545.045	35552.41
545.41	35817.72
545.774	35695.69
546.138	35664.5
546.503	35742.92
546.867	35708.34
547.231	36006.64
547.595	35951.72
547.959	35951.95
548.324	35976.81
548.688	36040.31
549.052	36209.57
549.416	36238.95
549.779	36311.04
550.143	36407.08
550.507	36697.69
550.871	36713.74
551.235	36949.89
551.599	37251.35
551.962	37272.37
552.326	37458.8
552.689	37642.53
553.053	37435.08
553.417	37619.48
553.78	38023.76
554.143	37786.7
554.507	38042.29
554.87	38104.89
555.234	38351.21
555.597	38050.65
555.96	38245
556.323	38182.17
556.686	38169.52
557.05	38352.57
557.413	38449.29
557.776	38634.14
558.139	38844.76
558.502	39015.15
558.865	39063.05
559.228	39440.45
559.59	39462.59
559.953	39638.41
560.316	40012.63
560.679	40034.1
561.041	40320.42
561.404	40685.39
561.767	40750.02
562.129	40707.31
562.492	41090.35
562.854	40931.25
563.217	40830.69
563.579	40984.59
563.941	41052.61
564.304	41315.2
564.666	41227.97
565.028	41278.14
565.39	41417.8
565.753	41591.35
566.115	41765.36
566.477	41967.39
566.839	41997.21
567.201	42407.6
567.563	42344.78
567.925	42798.55
568.287	42853.69
568.648	43089.84
569.01	43399.66
569.372	43593.78
569.734	43344.98
570.095	43746.32
570.457	43834.91
570.819	43882.36
571.18	43765.3
571.542	43978.18
571.903	43986.99
572.265	43954.23
572.626	44081.45
572.987	44027.9
573.349	44035.13
573.71	44172.98
574.071	44308.11
574.432	44421.56
574.794	44739.74
575.155	44648.9
575.516	44604.15
575.877	44889.34
576.238	44934.09
576.599	45301.31
576.96	45468.31
577.32	45538.14
577.681	45707.17
578.042	45837.57
578.403	46006.83
578.763	45888.19
579.124	46008.86
579.485	46214.05
579.845	46311.45
580.206	46161.17
580.566	46096.77
580.927	46046.15
581.287	46164.79
581.648	45993.72
582.008	46047.73
582.368	45889.54
582.728	45956.88
583.089	45968.64
583.449	45946.04
583.809	46077.11
584.169	46131.8
584.529	46092.25
584.889	46475.74
585.249	46339.47
585.609	46426.48
585.969	46714.83
586.329	46565.23
586.688	46699.69
587.048	46750.08
587.408	46840.25
587.768	46727.71
588.127	46906.92
588.487	46716.86
588.846	47019.91
589.206	46819.24
589.565	46666.92
589.925	46743.98
590.284	46592.8
590.643	46579.02
591.003	46699.01
591.362	46752.8
591.721	46411.11
592.08	46501.5
592.44	46660.37
592.799	46652.91
593.158	46497.21
593.517	46530.66
593.876	46586.92
594.235	46692.46
594.593	46779.69
594.952	46929.06
595.311	46911.21
595.67	47090.87
596.029	47380.12
596.387	47447.02
596.746	47515.04
597.104	47332.22
597.463	47513.68
597.822	47529.05
598.18	47461.93
598.538	47416.51
598.897	47723.39
599.255	47166.34
599.613	47708.03
599.972	47237.76
600.33	47422.38
600.688	47136.97
601.046	47152.11
601.404	47226
601.762	47081.38
602.12	47313.69
602.478	47349.84
602.836	47360.24
603.194	47347.13
603.552	47385.32
603.91	47291.09
604.268	47522.27
604.625	47491.53
604.983	47656.73
605.341	47464.87
605.698	47765.65
606.056	48049.94
606.413	48060.78
606.771	48195.02
607.128	48229.37
607.485	48104.62
607.843	48239.54
608.2	48393.66
608.557	48500.77
608.914	48185.3
609.272	48406.76
609.629	48309.37
609.986	48399.08
610.343	48084.74
610.7	48297.61
611.057	48067.11
611.414	48017.17
611.771	48079.77
612.127	48353.88
612.484	48233.44
612.841	48280.44
613.198	48251.51
613.554	48339.42
613.911	48569.7
614.267	48588.91
614.624	48588.23
614.98	48803.82
615.337	49109.8
615.693	49034.09
616.05	48871.38
616.406	49264.14
616.762	49278.38
617.118	49313.63
617.475	49290.81
617.831	49388.66
618.187	49396.57
618.543	49420.3
618.899	49537.13
619.255	49445.38
619.611	49326.29
619.967	49405.16
620.323	49329.68
620.678	49189.79
621.034	49175.11
621.39	49110.93
621.746	48995
622.101	49395.21
622.457	48993.87
622.812	49107.99
623.168	49169.23
623.523	49122.68
623.879	49172.39
624.234	48989.8
624.589	49239.28
624.945	49380.3
625.3	49369.22
625.655	49319.06
626.01	49390.24
626.365	49497.81
626.72	49404.7
627.075	49637.24
627.43	49768.76
627.785	49537.81
628.14	49695.54
628.495	49760.17
628.85	49672.95
629.205	49498.49
629.559	49763.79
629.914	49388.21
630.269	49466.85
630.623	49317.25
630.978	49257.14
631.332	49313.18
631.687	49360.86
632.041	49107.99
632.396	49102.56
632.75	48752.74
633.104	48790.93
633.459	48735.79
633.813	48757.72
634.167	48775.12
634.521	48688.34
634.875	48619.19
635.229	48535.12
635.583	48526.53
635.937	48542.13
636.291	48606.76
636.645	48693.08
636.999	48652.86
637.352	48678.62
637.706	48559.3
638.06	48879.75
638.413	48675.01
638.767	48615.35
639.121	48613.09
639.474	48481.34
639.828	48514.56
640.181	48470.72
640.534	48545.52
640.888	48280.21
641.241	48213.77
641.594	48120.9
641.947	48134
642.301	48056.72
642.654	48070.05
643.007	47929.71
643.36	47824.41
643.713	47686.78
644.066	47797.97
644.419	47585.09
644.771	47470.52
645.124	47480.01
645.477	47360.69
645.83	47044.77
646.182	46753.7
646.535	46388.06
646.888	46330.66
647.24	45942.65
647.593	46134.51
647.945	46068.97
648.298	45869.66
648.65	45940.39
649.002	45858.58
649.355	46262.64
649.707	46331.79
650.059	46756.19
650.411	47260.58
650.763	47187.13
651.115	47539.67
651.467	47508.03
651.819	47561.59
652.171	47320.69
652.523	47166.57
652.875	47144.42
653.227	46969.97
653.578	47287.02
653.93	47147.36
654.282	46765.45
654.633	46617.66
654.985	46590.77
655.337	46582.41
655.688	46483.42
656.039	46598
656.391	46176.77
656.742	46423.99
657.094	46350.77
657.445	46527.72
657.796	46468.06
658.147	46340.15
658.498	46383.77
658.849	46370.66
659.2	46371.11
659.551	46352.13
659.902	46585.79
660.253	46723.64
660.604	46721.61
660.955	46553.48
661.306	46615.17
661.656	46715.06
662.007	46678.45
662.358	46664.21
662.708	46777.88
663.059	46691.78
663.409	46449.53
663.76	46665.57
664.11	46519.36
664.461	46497.21
664.811	46570.65
665.161	46402.75
665.511	46154.17
665.862	46266.26
666.212	46335.86
666.562	46277.55
666.912	46184.45
667.262	46200.95
667.612	46119.14
667.962	46072.59
668.312	45921.86
668.662	45962.08
669.011	45763.9
669.361	45859.49
669.711	45783.56
670.06	45680.06
670.41	45769.77
670.76	45581.53
671.109	45782.88
671.459	45704.91
671.808	45623.11
672.157	45789.43
672.507	45642.77
672.856	45739.04
673.205	45729.55
673.554	45944.91
673.904	45957.34
674.253	46135.86
674.602	45913.5
674.951	45294.98
675.3	45141.31
675.649	46000.05
675.998	45754.63
676.346	45717.57
676.695	45814.52
677.044	45513.05
677.393	45499.04
677.741	45406.62
678.09	45231.71
678.438	45127.53
678.787	45174.31
679.135	44857.03
679.484	44613.19
679.832	44734.54
680.181	44408.68
680.529	44668.11
680.877	44301.56
681.225	44442.57
681.573	44456.36
681.922	44247.1
682.27	44066.54
682.618	44183.6
682.966	43984.73
683.314	44069.25
683.661	43952.87
684.009	43868.35
684.357	43897.96
684.705	43681.01
685.053	43894.34
685.4	44027.67
685.748	43772.76
686.095	43871.52
686.443	43677.17
686.79	43689.83
687.138	43692.09
687.485	43929.37
687.832	43616.61
688.18	43702.71
688.527	43509.49
688.874	43299.33
689.221	43242.15
689.568	43091.2
689.915	43074.25
690.262	43051.42
690.609	42904.54
690.956	42594.71
691.303	42552
691.65	42262.74
691.997	42085.35
692.344	41891.68
692.69	41848.74
693.037	41759.93
693.383	41322.43
693.73	41389.55
694.077	41089.44
694.423	40921.76
694.769	40902.1
695.116	40695.55
695.462	40550.47
695.808	40578.72
696.155	40610.13
696.501	40423.02
696.847	40399.52
697.193	40210.82
697.539	40395
697.885	40111.16
698.231	39989.13
698.577	40079.53
698.923	40083.59
699.269	39993.2
699.614	39788.46
699.96	39876.59
700.306	39936.7
700.651	39829.14
700.997	39540.1
701.342	39536.71
701.688	39432.08
702.033	39351.63
702.379	39243.16
702.724	39312.31
703.069	39409.49
703.415	38856.28
703.76	38988.48
704.105	38691.99
704.45	38520.92
704.795	38323.41
705.14	38093.59
705.485	37889.3
705.83	37775.18
706.175	37586.94
706.52	37470.33
706.865	37265.14
707.209	37247.96
707.554	36996.67
707.899	36854.3
708.243	36688.88
708.588	36632.16
708.932	36592.61
709.277	36606.85
709.621	36643.23
709.966	36194.2
710.31	36558.71
710.654	36202.57
710.998	36432.16
711.342	36476.68
711.687	36276.01
712.031	36264.03
712.375	36180.19
712.719	36265.84
713.063	36186.07
713.407	36317.82
713.75	36246.41
714.094	36274.43
714.438	36241.66
714.782	36283.92
715.125	36186.75
715.469	36364.37
715.812	35928.22
716.156	35906.75
716.499	35862.69
716.843	35771.62
717.186	35492.3
717.53	35641.45
717.873	35425.41
718.216	35229.94
718.559	35076.49
718.902	34842.83
719.246	35055.25
719.589	34913.11
719.932	34733.23
720.275	34602.83
720.617	34556.28
720.96	34416.17
721.303	34337.76
721.646	34335.72
721.989	34124.2
722.331	34094.15
722.674	34033.58
723.016	33933.02
723.359	33954.49
723.701	34049.18
724.044	33886.69
724.386	33664.55
724.729	33917.43
725.071	33920.82
725.413	33803.98
725.755	33927.14
726.097	33831.55
726.439	33727.15
726.782	33784.32
727.124	33969.63
727.465	33842.18
727.807	33918.33
728.149	33863.42
728.491	33822.74
728.833	33985
729.175	33897.99
729.516	33928.27
729.858	33954.04
730.199	33879.24
730.541	33854.15
730.882	33853.25
731.224	33892.8
731.565	33674.5
731.906	33614.84
732.248	33735.51
732.589	33272.7
732.93	33271.34
733.271	33469.3
733.612	33298.91
733.953	33248.97
734.294	33027.06
734.635	33045.81
734.976	33077.45
735.317	32897.12
735.658	32831.81
735.999	32737.8
736.339	32547.29
736.68	32743.45
737.021	32628.2
737.361	32566.28
737.702	32732.15
738.042	32636.56
738.383	32560.17
738.723	32613.05
739.063	32516.11
739.404	32667.52
739.744	32535.32
740.084	32496.9
740.424	32559.27
740.764	32645.14
741.104	32825.03
741.444	32683.79
741.784	32716.78
742.124	32879.26
742.464	32899.38
742.804	32909.32
743.143	33016.89
743.483	33059.37
743.823	32914.06
744.162	32965.36
744.502	33178.69
744.841	32912.26
745.181	33026.6
745.52	32885.36
745.86	33299.82
746.199	33064.79
746.538	33100.05
746.877	33230.21
747.216	33135.98
747.556	32952.26
747.895	32859.6
748.234	32825.93
748.573	32740.96
748.911	32608.31
749.25	32708.65
749.589	32590.91
749.928	32605.82
750.267	32726.5
750.605	32507.07
750.944	32533.51
751.283	32489.89
751.621	32673.17
751.96	32486.05
752.298	32476.11
752.636	32589.33
752.975	32347.75
753.313	32411.7
