Data from blue_chair_FLMS001491_00050.txt Node
Date: Wed Feb 08 10:30:55 GMT 2017
User: dcchb
Spectrometer: FLMS00149
Trigger mode: 0
Integration Time (sec): 2.000000E-2
Scans to average: 10
Electric dark correction enabled: true
Nonlinearity correction enabled: false
Boxcar width: 0
XAxis mode: Wavelengths
Number of Pixels in Spectrum: 2048
>>>>>Begin Spectral Data<<<<<
341.393	-5.54
341.776	-5.54
342.16	-5.54
342.543	-52.54
342.927	-56.61
343.31	-50.73
343.693	-64.52
344.077	-67.91
344.46	-73.11
344.843	-62.71
345.226	-43.73
345.61	-27.46
345.993	-15.48
346.376	8.7
346.759	27.91
347.142	34.91
347.525	48.25
347.908	46.44
348.291	70.39
348.674	68.59
349.057	100.45
349.44	139.77
349.823	132.54
350.206	140.22
350.588	175.25
350.971	187
351.354	180.22
351.737	205.98
352.119	222.93
352.502	212.31
352.884	254.12
353.267	226.32
353.65	257.28
354.032	274.23
354.414	292.99
354.797	289.14
355.179	298.41
355.562	312.87
355.944	310.61
356.326	295.47
356.709	311.07
357.091	309.94
357.473	312.87
357.855	323.27
358.238	311.07
358.62	314
359.002	330.05
359.384	314.23
359.766	318.3
360.148	314.46
360.53	318.75
360.912	343.38
361.294	317.39
361.676	305.64
362.057	304.29
362.439	324.62
362.821	311.07
363.203	313.78
363.584	301.12
363.966	308.58
364.348	308.81
364.729	297.96
365.111	305.87
365.493	304.74
365.874	289.37
366.256	299.09
366.637	302.03
367.019	283.5
367.4	291.86
367.781	272.87
368.163	289.82
368.544	284.85
368.925	283.27
369.306	306.55
369.688	286.21
370.069	303.61
370.45	292.53
370.831	278.75
371.212	282.82
371.593	286.89
371.974	268.81
372.355	281.24
372.736	289.14
373.117	293.21
373.498	298.64
373.879	302.7
374.26	284.63
374.641	281.91
375.021	301.8
375.402	284.17
375.783	302.25
376.163	302.93
376.544	289.14
376.925	300.22
377.305	306.32
377.686	295.02
378.066	304.06
378.447	293.66
378.827	312.2
379.208	293.89
379.588	307.68
379.968	297.96
380.349	330.27
380.729	297.05
381.109	328.92
381.489	307.68
381.87	310.16
382.25	307.22
382.63	323.49
383.01	308.13
383.39	312.2
383.77	294.57
384.15	307.22
384.53	309.26
384.91	308.58
385.29	321.91
385.67	316.94
386.049	324.4
386.429	327.34
386.809	298.18
387.189	307.22
387.568	316.94
387.948	312.2
388.328	327.79
388.707	300.67
389.087	314.23
389.466	323.72
389.846	321.69
390.225	327.11
390.605	339.77
390.984	342.02
391.363	312.42
391.743	325.3
392.122	321.23
392.501	323.04
392.881	333.21
393.26	325.75
393.639	354
394.018	338.86
394.397	337.96
394.776	304.51
395.155	339.99
395.534	338.41
395.913	361.01
396.292	345.64
396.671	341.35
397.05	364.17
397.429	363.49
397.808	361.91
398.186	359.88
398.565	364.4
398.944	347.22
399.323	347.45
399.701	359.43
400.08	358.3
400.458	361.01
400.837	362.14
401.215	368.46
401.594	356.94
401.972	380.67
402.351	397.39
402.729	387.22
403.107	384.74
403.486	393.77
403.864	396.71
404.242	376.83
404.62	400.55
404.999	385.64
405.377	404.4
405.755	389.26
406.133	401.91
406.511	385.19
406.889	406.2
407.267	415.92
407.645	405.98
408.023	419.76
408.401	406.43
408.779	420.21
409.156	408.92
409.534	432.19
409.912	426.54
410.29	416.15
410.667	434.23
411.045	432.42
411.422	447.78
411.8	453.66
412.178	450.5
412.555	448.46
412.933	449.14
413.31	455.69
413.687	447.78
414.065	455.02
414.442	469.48
414.819	452.08
415.197	477.39
415.574	469.93
415.951	479.87
416.328	478.52
416.705	455.02
417.082	488.24
417.46	489.82
417.837	515.58
418.214	477.61
418.591	503.38
418.967	485.52
419.344	483.94
419.721	502.92
420.098	489.37
420.475	501.57
420.852	503.6
421.228	503.38
421.605	521.23
421.982	491.85
422.358	497.05
422.735	504.51
423.111	533.88
423.488	532.08
423.864	536.37
424.241	563.26
424.617	561
424.994	558.97
425.37	579.98
425.746	585.63
426.123	561.23
426.499	579.98
426.875	584.73
427.251	565.97
427.627	607.33
428.003	579.76
428.379	621.57
428.756	620.89
429.132	606.65
429.507	627.67
429.883	621.57
430.259	637.16
430.635	612.3
431.011	648.46
431.387	657.5
431.763	655.91
432.138	659.53
432.514	681.9
432.89	671.51
433.265	697.72
433.641	717.61
434.016	688
434.392	739.3
434.767	747.89
435.143	715.8
435.518	754.9
435.894	758.51
436.269	761.45
436.644	760.09
437.02	783.6
437.395	770.71
437.77	785.18
438.145	826.76
438.52	823.59
438.895	822.46
439.271	826.76
439.646	844.61
440.021	838.96
440.395	871.95
440.77	853.65
441.145	872.86
441.52	907.66
441.895	887.1
442.27	924.83
442.645	883.03
443.019	931.84
443.394	933.42
443.769	940.2
444.143	922.57
444.518	953.53
444.892	938.39
445.267	965.51
445.641	986.3
446.016	987.21
446.39	993.08
446.764	988.34
447.139	962.35
447.513	972.97
447.887	1009.8
448.262	1019.3
448.636	1024.49
449.01	1019.07
449.384	1033.08
449.758	1050.25
450.132	1049.8
450.506	1052.06
450.88	1069.92
451.254	1068.79
451.628	1085.96
452.002	1098.39
452.376	1126.41
452.75	1117.37
453.123	1096.36
453.497	1158.27
453.871	1161.21
454.244	1163.7
454.618	1159.18
454.992	1195.11
455.365	1181.78
455.739	1211.38
456.112	1229.01
456.486	1232.85
456.859	1205.28
457.232	1251.61
457.606	1262.9
457.979	1254.09
458.352	1293.41
458.725	1287.08
459.099	1313.07
459.472	1344.03
459.845	1332.73
460.218	1328.67
460.591	1356.91
460.964	1366.86
461.337	1374.54
461.71	1403.92
462.083	1414.99
462.456	1410.02
462.829	1417.7
463.201	1447.53
463.574	1441.21
463.947	1465.84
464.32	1495.89
464.692	1532.05
465.065	1538.15
465.438	1539.73
465.81	1553.52
466.183	1550.13
466.555	1582.44
466.928	1593.74
467.3	1621.31
467.672	1610.69
468.045	1644.14
468.417	1679.62
468.789	1638.94
469.161	1711.25
469.534	1718.94
469.906	1734.98
470.278	1713.06
470.65	1726.62
471.022	1758.71
471.394	1776.56
471.766	1816.79
472.138	1822.89
472.51	1842.1
472.882	1890.91
473.253	1873.28
473.625	1925.71
473.997	1952.6
474.369	1920.51
474.74	1963
475.112	2007.97
475.484	2028.08
475.855	2049.78
476.227	2089.1
476.598	2118.7
476.97	2114.41
477.341	2162.32
477.713	2154.86
478.084	2191.69
478.455	2227.63
478.827	2259.71
479.198	2291.58
479.569	2288.41
479.94	2352.59
480.311	2344.68
480.682	2407.96
481.053	2409.77
481.424	2485.92
481.795	2494.28
482.166	2505.81
482.537	2519.37
482.908	2546.94
483.279	2567.28
483.65	2625.81
484.021	2625.35
484.391	2663.55
484.762	2668.97
485.133	2657.44
485.503	2688.18
485.874	2746.48
486.244	2774.5
486.615	2799.59
486.985	2845.01
487.356	2871.22
487.726	2830.32
488.097	2935.18
488.467	2907.61
488.837	2977.66
489.207	2991.67
489.578	3007.49
489.948	3048.85
490.318	3041.84
490.688	3075.51
491.058	3117.32
491.428	3120.71
491.798	3155.74
492.168	3177.88
492.538	3204.32
492.908	3205
493.278	3231.44
493.648	3176.07
494.017	3240.71
494.387	3265.34
494.757	3261.95
495.126	3270.31
495.496	3300.59
495.866	3303.3
496.235	3300.82
496.605	3324.32
496.974	3329.97
497.344	3369.74
497.713	3376.97
498.082	3322.06
498.452	3356.18
498.821	3371.78
499.19	3372.23
499.559	3376.3
499.928	3407.93
500.298	3464.2
500.667	3399.57
501.036	3392.34
501.405	3438.21
501.774	3409.74
502.143	3403.19
502.512	3423.07
502.88	3478.67
503.249	3460.36
503.618	3434.82
503.987	3430.53
504.356	3463.52
504.724	3455.84
505.093	3469.63
505.462	3443.64
505.83	3463.07
506.199	3504.65
506.567	3506.24
506.936	3469.85
507.304	3491.77
507.672	3471.21
508.041	3523.86
508.409	3506.46
508.777	3517.76
509.145	3494.26
509.514	3499.23
509.882	3506.46
510.25	3496.29
510.618	3474.82
510.986	3493.81
511.354	3513.69
511.722	3505.78
512.09	3508.72
512.458	3490.42
512.826	3502.85
513.193	3501.04
513.561	3462.39
513.929	3503.98
514.297	3501.49
514.664	3445.45
515.032	3480.93
515.4	3481.6
515.767	3453.13
516.135	3473.92
516.502	3450.87
516.869	3496.29
517.237	3468.5
517.604	3423.07
517.972	3459.23
518.339	3447.71
518.706	3467.82
519.073	3432.57
519.44	3444.09
519.808	3449.97
520.175	3406.35
520.542	3443.19
520.909	3420.59
521.276	3407.26
521.643	3410.42
522.009	3401.61
522.376	3420.81
522.743	3411.55
523.11	3401.83
523.477	3440.25
523.843	3421.72
524.21	3450.87
524.577	3426.69
524.943	3407.03
525.31	3400.93
525.676	3412.9
526.043	3373.36
526.409	3404.09
526.776	3362.06
527.142	3364.77
527.508	3370.65
527.874	3371.32
528.241	3357.54
528.607	3397.31
528.973	3395.96
529.339	3360.7
529.705	3359.57
530.071	3406.8
530.437	3355.73
530.803	3342.85
531.169	3357.76
531.535	3309.18
531.901	3290.87
532.267	3330.65
532.632	3281.61
532.998	3299.01
533.364	3332
533.73	3287.26
534.095	3321.16
534.461	3279.8
534.826	3261.95
535.192	3259.91
535.557	3269.86
535.923	3269.18
536.288	3259.46
536.653	3274.83
537.019	3232.12
537.384	3213.81
537.749	3229.41
538.114	3217.43
538.479	3169.97
538.845	3169.97
539.21	3178.33
539.575	3158.22
539.94	3151.89
540.305	3174.04
540.67	3129.3
541.034	3137.43
541.399	3121.61
541.764	3094.27
542.129	3106.25
542.494	3115.96
542.858	3082.74
543.223	3080.71
543.587	3043.42
543.952	3065.12
544.316	3013.59
544.681	3050.2
545.045	3033.48
545.41	3008.17
545.774	3044.55
546.138	2974.95
546.503	2963.42
546.867	2952.35
547.231	2962.29
547.595	2922.75
547.959	2953.48
548.324	2903.09
548.688	2897.89
549.052	2937.66
549.416	2849.98
549.779	2868.29
550.143	2831.45
550.507	2843.43
550.871	2879.59
551.235	2837.55
551.599	2837.1
551.962	2836.42
552.326	2801.85
552.689	2804.33
553.053	2776.76
553.417	2778.12
553.78	2789.19
554.143	2761.17
554.507	2732.92
554.87	2776.31
555.234	2771.34
555.597	2743.32
555.96	2758.01
556.323	2737.89
556.686	2713.94
557.05	2727.5
557.413	2711
557.776	2707.39
558.139	2740.15
558.502	2701.96
558.865	2688.18
559.228	2702.41
559.59	2680.04
559.953	2691.57
560.316	2713.49
560.679	2658.57
561.041	2701.74
561.404	2685.69
561.767	2684.34
562.129	2695.64
562.492	2700.38
562.854	2664.45
563.217	2676.2
563.579	2693.6
563.941	2712.81
564.304	2689.08
564.666	2689.99
565.028	2701.06
565.39	2702.87
565.753	2714.62
566.115	2694.05
566.477	2696.31
566.839	2716.88
567.201	2701.06
567.563	2653.6
567.925	2741.28
568.287	2749.42
568.648	2731.79
569.01	2733.15
569.372	2718.23
569.734	2718.01
570.095	2747.16
570.457	2728.63
570.819	2757.33
571.18	2771.79
571.542	2770.89
571.903	2757.33
572.265	2774.28
572.626	2780.38
572.987	2799.81
573.349	2748.52
573.71	2797.33
574.071	2814.5
574.432	2783.77
574.794	2819.7
575.155	2866.93
575.516	2802.75
575.877	2896.53
576.238	2833.26
576.599	2853.6
576.96	2840.49
577.32	2856.76
577.681	2855.18
578.042	2864.9
578.403	2915.52
578.763	2859.47
579.124	2869.64
579.485	2906.25
579.845	2906.93
580.206	2939.24
580.566	2887.04
580.927	2900.15
581.287	2937.66
581.648	2923.43
582.008	2932.01
582.368	2925.91
582.728	2918.45
583.089	2932.69
583.449	2924.56
583.809	2936.31
584.169	2931.56
584.529	2962.75
584.889	2987.83
585.249	2974.72
585.609	2981.28
585.969	2984.22
586.329	2971.11
586.688	2979.92
587.048	2966.81
587.408	2994.84
587.768	3011.79
588.127	2957.55
588.487	2968.17
588.846	2999.58
589.206	2974.95
589.565	3010.66
589.925	3016.98
590.284	3027.15
590.643	3002.75
591.003	2970.88
591.362	3004.1
591.721	2991.22
592.08	3013.82
592.44	3002.97
592.799	2954.39
593.158	2988.96
593.517	2978.34
593.876	2999.58
594.235	2971.11
594.593	2974.27
594.952	2977.21
595.311	2970.43
595.67	2999.36
596.029	3016.53
596.387	3014.5
596.746	2981.05
597.104	2968.17
597.463	2965.23
597.822	2974.5
598.18	2951
598.538	2968.62
598.897	2987.38
599.255	2974.72
599.613	3009.75
599.972	2985.57
600.33	3027.38
600.688	2961.84
601.046	2996.42
601.404	2988.06
601.762	2948.51
602.12	3015.63
602.478	2986.93
602.836	3012.01
603.194	2979.02
603.552	2982.18
603.91	2981.05
604.268	3037.32
604.625	2992.12
604.983	3001.39
605.341	2965.68
605.698	2993.93
606.056	2971.56
606.413	2960.04
606.771	3012.01
607.128	2987.61
607.485	2999.58
607.843	2993.71
608.2	2968.62
608.557	3035.74
608.914	3006.36
609.272	2996.87
609.629	3012.46
609.986	3026.93
610.343	2995.29
610.7	3030.09
611.057	2990.09
611.414	2966.36
611.771	3019.69
612.127	2953.03
612.484	3033.48
612.841	3041.16
613.198	2976.31
613.554	3009.07
613.911	3026.25
614.267	3017.43
614.624	2980.15
614.98	3027.83
615.337	3025.12
615.693	3031.45
616.05	3015.85
616.406	3047.49
616.762	3065.57
617.118	3061.73
617.475	3031.45
617.831	3064.44
618.187	3067.15
618.543	3067.38
618.899	3043.65
619.255	3054.72
619.611	3057.89
619.967	3057.89
620.323	3054.95
620.678	3067.6
621.034	3046.36
621.39	3034.84
621.746	3035.74
622.101	3051.56
622.457	3023.08
622.812	3038.68
623.168	3051.56
623.523	3058.56
623.879	3052.24
624.234	3012.01
624.589	3059.47
624.945	3045.46
625.3	3077.55
625.655	3043.65
626.01	3023.08
626.365	3053.14
626.72	3042.07
627.075	3044.1
627.43	3034.84
627.785	3060.37
628.14	3031.9
628.495	3039.13
628.85	3047.72
629.205	3044.1
629.559	3078
629.914	3063.99
630.269	3031.67
630.623	3007.49
630.978	3017.66
631.332	3030.99
631.687	3060.6
632.041	3021.5
632.396	3032.58
632.75	2998.68
633.104	3012.69
633.459	3014.05
633.813	3036.87
634.167	3045.68
634.521	3028.28
634.875	3016.98
635.229	2981.28
635.583	2977.21
635.937	2973.82
636.291	3033.25
636.645	2939.02
636.999	2996.42
637.352	2998.68
637.706	2982.86
638.06	2954.61
638.413	2957.55
638.767	2977.66
639.121	3001.62
639.474	2976.31
639.828	2974.95
640.181	2994.38
640.534	2967.49
640.888	3008.4
641.241	2978.79
641.594	2975.85
641.947	2943.09
642.301	2946.93
642.654	2970.66
643.007	3002.07
643.36	2978.34
643.713	2990.77
644.066	2951.22
644.419	2965.91
644.771	2979.7
645.124	2956.87
645.477	2901.05
645.83	2949.64
646.182	2906.03
646.535	2895.4
646.888	2953.03
647.24	2872.81
647.593	2898.79
647.945	2892.92
648.298	2883.2
648.65	2874.39
649.002	2882.3
649.355	2930.21
649.707	2874.61
650.059	2911.22
650.411	3004.33
650.763	2923.88
651.115	2975.85
651.467	2995.29
651.819	2998.45
652.171	2993.03
652.523	2957.78
652.875	2960.04
653.227	2927.95
653.578	2937.89
653.93	2980.37
654.282	2927.49
654.633	2945.57
654.985	2964.55
655.337	3004.33
655.688	2959.36
656.039	2960.71
656.391	2943.99
656.742	2969.53
657.094	3008.17
657.445	2955.97
657.796	2944.44
658.147	2981.05
658.498	2971.56
658.849	2948.06
659.2	3001.84
659.551	2959.81
659.902	3000.03
660.253	2992.35
660.604	3028.96
660.955	2952.58
661.306	3021.73
661.656	3012.24
662.007	2949.87
662.358	2976.53
662.708	2988.28
663.059	2980.6
663.409	2973.14
663.76	2997.1
664.11	2975.85
664.461	2970.43
664.811	2976.08
665.161	2980.37
665.511	2966.81
665.862	3018.11
666.212	2998.45
666.562	2983.31
666.912	2973.82
667.262	2962.52
667.612	2955.29
667.962	2955.29
668.312	2963.88
668.662	3013.14
669.011	2963.42
669.361	2976.08
669.711	2967.04
670.06	2947.61
670.41	2979.7
670.76	2956.19
671.109	2980.83
671.459	2951
671.808	2989.86
672.157	2958.91
672.507	2960.04
672.856	2947.61
673.205	2932.69
673.554	2942.63
673.904	2930.43
674.253	2943.76
674.602	2965.23
674.951	2885.01
675.3	2873.03
675.649	2908.74
675.998	2926.36
676.346	2901.05
676.695	2878.46
677.044	2896.53
677.393	2898.79
677.741	2930.43
678.09	2867.16
678.438	2883.43
678.787	2875.97
679.135	2863.77
679.484	2880.49
679.832	2899.02
680.181	2867.61
680.529	2864.67
680.877	2849.53
681.225	2819.93
681.573	2868.06
681.922	2817.21
682.27	2846.82
682.618	2802.3
682.966	2815.41
683.314	2809.76
683.661	2805.01
684.009	2790.32
684.357	2767.27
684.705	2782.64
685.053	2784.45
685.4	2748.74
685.748	2812.92
686.095	2748.74
686.443	2750.32
686.79	2760.72
687.138	2729.98
687.485	2772.7
687.832	2741.74
688.18	2749.65
688.527	2733.15
688.874	2715.52
689.221	2722.3
689.568	2678.91
689.915	2696.09
690.262	2732.7
690.609	2721.62
690.956	2638.46
691.303	2725.69
691.65	2672.59
691.997	2650.66
692.344	2668.52
692.69	2654.73
693.037	2668.74
693.383	2617.22
693.73	2614.96
694.077	2604.34
694.423	2608.86
694.769	2644.11
695.116	2581.74
695.462	2557.11
695.808	2561.4
696.155	2595.75
696.501	2588.75
696.847	2544.23
697.193	2534.06
697.539	2523.66
697.885	2539.48
698.231	2532.93
698.577	2535.19
698.923	2532.02
699.269	2515.3
699.614	2507.84
699.96	2485.02
700.306	2515.3
700.651	2481.18
700.997	2455.64
701.342	2484.34
701.688	2488.18
702.033	2454.74
702.379	2475.53
702.724	2460.39
703.069	2477.79
703.415	2468.07
703.76	2456.32
704.105	2446.83
704.45	2468.97
704.795	2458.81
705.14	2451.35
705.485	2427.17
705.83	2421.29
706.175	2438.01
706.52	2412.25
706.865	2437.34
707.209	2394.63
707.554	2429.65
707.899	2447.73
708.243	2427.85
708.588	2408.86
708.932	2377.9
709.277	2423.55
709.621	2392.14
709.966	2429.43
710.31	2399.15
710.654	2375.87
710.998	2429.43
711.342	2403.89
711.687	2434.85
712.031	2380.84
712.375	2380.62
712.719	2395.76
713.063	2388.75
713.407	2414.74
713.75	2434.85
714.094	2410.22
714.438	2402.76
714.782	2429.2
715.125	2407.28
715.469	2405.7
715.812	2413.16
716.156	2407.96
716.499	2428.98
716.843	2456.55
717.186	2432.37
717.53	2431.46
717.873	2435.08
718.216	2461.74
718.559	2461.29
718.902	2452.48
719.246	2441.18
719.589	2468.3
719.932	2471.46
720.275	2457
720.617	2452.03
720.96	2482.76
721.303	2449.77
721.646	2490.89
721.989	2474.17
722.331	2472.36
722.674	2489.09
723.016	2508.52
723.359	2524.34
723.701	2498.58
724.044	2522.53
724.386	2493.38
724.729	2528.63
725.071	2533.83
725.413	2479.14
725.755	2530.89
726.097	2548.07
726.439	2528.86
726.782	2541.52
727.124	2588.07
727.465	2555.3
727.807	2575.64
728.149	2576.99
728.491	2568.41
728.833	2595.98
729.175	2569.31
729.516	2600.5
729.858	2622.19
730.199	2638.46
730.541	2645.24
730.882	2606.37
731.224	2639.37
731.565	2670.1
731.906	2626.48
732.248	2636.43
732.589	2642.98
732.93	2623.77
733.271	2713.49
733.612	2679.82
733.953	2646.15
734.294	2674.84
734.635	2695.18
734.976	2687.95
735.317	2743.54
735.658	2746.71
735.999	2718.01
736.339	2791.68
736.68	2769.98
737.021	2791.23
737.361	2825.12
737.702	2820.6
738.042	2783.99
738.383	2844.11
738.723	2874.39
739.063	2897.89
739.404	2889.98
739.744	2911.22
740.084	2938.57
740.424	2954.39
740.764	2908.51
741.104	3038.68
741.444	3003.88
741.784	3051.33
742.124	3063.76
742.464	3081.61
742.804	3108.05
743.143	3106.25
743.483	3148.5
743.823	3171.1
744.162	3214.04
744.502	3259.91
744.841	3227.82
745.181	3319.57
745.52	3365.67
745.86	3385.56
746.199	3432.57
746.538	3445.67
746.877	3481.6
747.216	3524.99
747.556	3530.64
747.895	3620.81
748.234	3594.37
748.573	3722.5
748.911	3735.16
749.25	3806.34
749.589	3838.66
749.928	3922.5
750.267	3949.84
750.605	3997.52
750.944	4054.02
751.283	4091.76
751.621	4201.13
751.96	4250.4
752.298	4367.46
752.636	4398.64
752.975	4453.56
753.313	4524.97
753.651	4560.67
753.989	4625.3
754.327	4690.16
754.666	4756.15
755.004	4886.99
755.342	4985.07
755.679	5051.28
756.017	5091.5
756.355	5205.17
756.693	5309.58
757.031	5390.93
757.368	5417.82
757.706	5605.39
758.044	5622.56
758.381	5708.21
758.719	5771.49
759.056	5925.38
759.394	5955.66
759.731	6032.27
760.068	6144.36
760.405	6245.82
760.743	6281.08
761.08	6401.3
761.417	6473.39
761.754	6556.78
762.091	6691.91
762.428	6766.26
762.765	6795.41
763.102	6869.76
763.438	6948.63
763.775	7003.54
764.112	7104.56
764.449	7270.43
764.785	7272.24
765.122	7336.87
765.458	7417.32
765.795	7442.18
766.131	7525.34
766.467	7652.57
766.804	7662.74
767.14	7701.38
767.476	7897.31
767.812	7857.76
768.148	7934.82
768.485	8000.81
768.821	8052.33
769.157	8081.03
769.492	8136.62
769.828	8255.49
770.164	8222.04
770.5	8318.99
