Data from blue_clamp_base_FLMS001491_00070.txt Node
Date: Wed Feb 08 15:16:22 GMT 2017
User: dcchb
Spectrometer: FLMS00149
Trigger mode: 0
Integration Time (sec): 2.000000E-2
Scans to average: 10
Electric dark correction enabled: true
Nonlinearity correction enabled: false
Boxcar width: 0
XAxis mode: Wavelengths
Number of Pixels in Spectrum: 2048
>>>>>Begin Spectral Data<<<<<
341.393	-18.81
341.776	-18.81
342.16	-18.81
342.543	-58.13
342.927	-61.07
343.31	-50.45
343.693	-76.89
344.077	-79.15
344.46	-53.39
344.843	-51.58
345.226	-27.4
345.61	-32.6
345.993	-33.5
346.376	4.46
346.759	6.5
347.142	23.22
347.525	56.89
347.908	49.21
348.291	80.39
348.674	79.72
349.057	104.57
349.44	141.63
349.823	141.86
350.206	158.36
350.588	192.25
350.971	203.33
351.354	220.05
351.737	227.06
352.119	242.42
352.502	239.49
352.884	262.76
353.267	278.81
353.65	260.05
354.032	269.31
354.414	295.98
354.797	309.31
355.179	315.64
355.562	313.83
355.944	317.68
356.326	324.23
356.709	321.97
357.091	327.39
357.473	340.95
357.855	333.27
358.238	326.49
358.62	322.65
359.002	355.64
359.384	312.25
359.766	298.92
360.148	324
360.53	354.51
360.912	327.62
361.294	332.14
361.676	320.61
362.057	322.87
362.439	326.04
362.821	311.35
363.203	335.75
363.584	320.61
363.966	313.38
364.348	302.99
364.729	305.47
365.111	298.24
365.493	313.38
365.874	305.02
366.256	300.5
366.637	303.66
367.019	294.85
367.4	282.65
367.781	321.52
368.163	312.48
368.544	294.63
368.925	315.64
369.306	328.3
369.688	285.13
370.069	320.84
370.45	291.69
370.831	298.01
371.212	302.99
371.593	292.14
371.974	292.82
372.355	321.07
372.736	315.19
373.117	296.66
373.498	303.44
373.879	299.14
374.26	300.5
374.641	298.69
375.021	312.93
375.402	297.11
375.783	307.96
376.163	312.48
376.544	311.8
376.925	306.6
377.305	314.51
377.686	329.43
378.066	302.76
378.447	312.93
378.827	334.4
379.208	298.01
379.588	319.26
379.968	301.86
380.349	317.45
380.729	327.62
381.109	330.78
381.489	317.45
381.87	309.09
382.25	330.56
382.63	316.55
383.01	320.16
383.39	327.84
383.77	318.81
384.15	359.48
384.53	355.64
384.91	352.7
385.29	336.66
385.67	336.43
386.049	361.06
386.429	340.5
386.809	355.87
387.189	329.43
387.568	348.63
387.948	342.99
388.328	341.63
388.707	344.34
389.087	360.39
389.466	357
389.846	368.3
390.225	367.84
390.605	368.52
390.984	352.48
391.363	372.14
391.743	377.79
392.122	374.62
392.501	376.43
392.881	391.57
393.26	358.8
393.639	353.61
394.018	393.83
394.397	396.09
394.776	392.02
395.155	381.85
395.534	419.82
395.913	400.38
396.292	410.1
396.671	417.56
397.05	420.95
397.429	409.65
397.808	423.89
398.186	415.75
398.565	417.33
398.944	431.34
399.323	424.79
399.701	438.12
400.08	413.72
400.458	413.04
400.837	415.07
401.215	445.36
401.594	459.59
401.972	435.41
402.351	456.88
402.729	458.01
403.107	473.15
403.486	469.76
403.864	461.63
404.242	472.02
404.62	491.91
404.999	489.87
405.377	494.62
405.755	489.87
406.133	492.59
406.511	498.24
406.889	507.5
407.267	521.74
407.645	511.12
408.023	528.29
408.401	520.16
408.779	540.49
409.156	531.91
409.534	550.89
409.912	553.15
410.29	533.26
410.667	565.58
411.045	568.74
411.422	562.87
411.8	571.91
412.178	586.14
412.555	569.65
412.933	584.33
413.31	592.24
413.687	616.88
414.065	604
414.442	611
414.819	631.34
415.197	644.45
415.574	665.01
415.951	623.88
416.328	652.58
416.705	661.85
417.082	655.29
417.46	662.98
417.837	678.8
418.214	670.21
418.591	691
418.967	697.55
419.344	660.04
419.721	674.5
420.098	697.33
420.475	726.03
420.852	719.02
421.228	726.03
421.605	736.42
421.982	729.64
422.358	757.66
422.735	761.73
423.111	746.14
423.488	776.19
423.864	768.51
424.241	760.38
424.617	789.53
424.994	799.47
425.37	792.47
425.746	791.34
426.123	832.69
426.499	807.15
426.875	825.68
427.251	829.98
427.627	853.93
428.003	857.55
428.379	867.94
428.756	892.58
429.132	872.91
429.507	874.27
429.883	898.9
430.259	936.64
430.635	927.83
431.011	926.92
431.387	957.88
431.763	959.47
432.138	969.86
432.514	997.66
432.89	986.81
433.265	989.52
433.641	1035.85
434.016	1015.06
434.392	1043.31
434.767	1062.74
435.143	1043.53
435.518	1060.71
435.894	1087.6
436.269	1101.16
436.644	1128.05
437.02	1110.2
437.395	1121.72
437.77	1148.39
438.145	1168.73
438.52	1152.46
438.895	1158.56
439.271	1190.42
439.646	1203.08
440.021	1206.69
440.395	1212.57
440.77	1246.01
441.145	1270.64
441.52	1229.97
441.895	1277.88
442.27	1281.49
442.645	1300.25
443.019	1307.25
443.394	1285.33
443.769	1325.78
444.143	1305.22
444.518	1333.47
444.892	1342.73
445.267	1335.5
445.641	1384.09
446.016	1378.89
446.39	1375.5
446.764	1410.08
447.139	1386.8
447.513	1406.01
447.887	1402.39
448.262	1428.38
448.636	1446.23
449.01	1450.75
449.384	1484.88
449.758	1501.15
450.132	1551.77
450.506	1523.97
450.88	1492.11
451.254	1502.73
451.628	1535.5
452.002	1576.63
452.376	1589.73
452.75	1576.63
453.123	1578.89
453.497	1635.15
453.871	1630.64
454.244	1640.58
454.618	1698.66
454.992	1689.16
455.365	1686
455.739	1728.49
456.112	1731.42
456.486	1737.75
456.859	1782.95
457.232	1811.87
457.606	1777.52
457.979	1815.71
458.352	1857.75
458.725	1858.2
459.099	1855.71
459.472	1909.27
459.845	1910.18
460.218	1949.27
460.591	1974.81
460.964	1956.95
461.337	2020.68
461.71	1996.95
462.083	2072.88
462.456	2043.51
462.829	2100.91
463.201	2100.45
463.574	2128.48
463.947	2144.07
464.32	2157.85
464.692	2200.79
465.065	2223.84
465.438	2212.77
465.81	2279.66
466.183	2274.01
466.555	2335.93
466.928	2317.4
467.3	2319.66
467.672	2345.64
468.045	2394.91
468.417	2417.06
468.789	2450.05
469.161	2438.52
469.534	2483.49
469.906	2520.56
470.278	2565.53
470.65	2563.72
471.022	2608.69
471.394	2690.49
471.766	2651.63
472.138	2747.22
472.51	2739.31
472.882	2773.2
473.253	2794.67
473.625	2849.81
473.997	2899.08
474.369	2869.02
474.74	2890.04
475.112	2978.62
475.484	3029.92
475.855	3066.76
476.227	3064.04
476.598	3168.45
476.97	3150.6
477.341	3207.77
477.713	3235.56
478.084	3270.37
478.455	3312.85
478.827	3349.69
479.198	3438.5
479.569	3471.72
479.94	3514.65
480.311	3562.56
480.682	3585.39
481.053	3690.24
481.424	3709.68
481.795	3698.15
482.166	3762.33
482.537	3831.93
482.908	3885.04
483.279	3908.99
483.65	3954.19
484.021	3981.76
484.391	4062.21
484.762	4086.84
485.133	4075.54
485.503	4122.77
485.874	4204.8
486.244	4237.12
486.615	4264.46
486.985	4310.11
487.356	4367.29
487.726	4362.09
488.097	4402.99
488.467	4475.08
488.837	4514.85
489.207	4548.75
489.578	4601.63
489.948	4628.3
490.318	4683.89
490.688	4638.24
491.058	4689.76
491.428	4776.54
491.798	4840.72
492.168	4834.17
492.538	4894.73
492.908	4901.74
493.278	4964.11
493.648	4981.06
494.017	5005.01
494.387	5006.14
494.757	5080.26
495.126	5065.57
495.496	5086.36
495.866	5083.65
496.235	5091.56
496.605	5162.52
496.974	5162.29
497.344	5184.21
497.713	5210.2
498.082	5234.61
498.452	5290.2
498.821	5268.96
499.19	5284.78
499.559	5353.93
499.928	5385.56
500.298	5355.06
500.667	5416.07
501.036	5357.54
501.405	5395.28
501.774	5374.27
502.143	5411.55
502.512	5441.61
502.88	5449.97
503.249	5462.4
503.618	5487.48
503.987	5493.36
504.356	5502.4
504.724	5581.49
505.093	5564.09
505.462	5522.96
505.83	5535.84
506.199	5569.97
506.567	5623.98
506.936	5640.02
507.304	5711.43
507.672	5687.48
508.041	5663.98
508.409	5732.9
508.777	5736.97
509.145	5748.49
509.514	5791.43
509.882	5798.89
510.25	5756.4
510.618	5830.07
510.986	5816.97
511.354	5897.42
511.722	5870.75
512.09	5941.48
512.458	5910.52
512.826	5971.76
513.193	5937.19
513.561	5985.1
513.929	5993.46
514.297	6046.34
514.664	6019.9
515.032	6047.02
515.4	6054.47
515.767	6104.42
516.135	6101.48
516.502	6078.2
516.869	6124.3
517.237	6174.24
517.604	6143.74
517.972	6207.69
518.339	6215.6
518.706	6185.32
519.073	6249.72
519.44	6193.68
519.808	6296.73
520.175	6246.33
520.542	6311.64
520.909	6295.15
521.276	6323.62
521.643	6368.14
522.009	6400.23
522.376	6432.09
522.743	6447.68
523.11	6462.82
523.477	6477.97
523.843	6538.98
524.21	6571.75
524.577	6581.24
524.943	6629.83
525.31	6651.07
525.676	6689.94
526.043	6689.26
526.409	6730.84
526.776	6769.48
527.142	6780.33
527.508	6831.63
527.874	6855.58
528.241	6852.42
528.607	6866.66
528.973	6924.28
529.339	6934.9
529.705	6987.78
530.071	7030.04
530.437	7034.79
530.803	7061.9
531.169	7063.94
531.535	7042.24
531.901	7085.86
532.267	7104.39
532.632	7098.74
532.998	7127.44
533.364	7154.78
533.73	7221.67
534.095	7228
534.461	7251.96
534.826	7248.11
535.192	7313.88
535.557	7372.86
535.923	7324.72
536.288	7368.56
536.653	7337.38
537.019	7360.2
537.384	7368.11
537.749	7428.9
538.114	7453.76
538.479	7461.44
538.845	7479.07
539.21	7407.66
539.575	7464.83
539.94	7475.45
540.305	7513.19
540.67	7518.84
541.034	7533.76
541.399	7546.64
541.764	7556.35
542.129	7583.7
542.494	7550.48
542.858	7622.12
543.223	7594.32
543.587	7648.33
543.952	7660.53
544.316	7706.86
544.681	7645.62
545.045	7694.88
545.41	7699.63
545.774	7787.08
546.138	7740.3
546.503	7808.78
546.867	7775.11
547.231	7859.17
547.595	7871.6
547.959	7859.62
548.324	7836.8
548.688	7864.37
549.052	7843.35
549.416	7836.12
549.779	7884.48
550.143	7859.4
550.507	7955.67
550.871	7949.34
551.235	7943.46
551.599	7943.92
551.962	8024.14
552.326	7938.72
552.689	8033.63
553.053	7970.81
553.417	8085.15
553.78	8114.53
554.143	8128.32
554.507	8164.47
554.87	8136.9
555.234	8207.19
555.597	8121.76
555.96	8130.35
556.323	8165.83
556.686	8214.87
557.05	8258.26
557.413	8296.45
557.776	8254.87
558.139	8368.76
558.502	8331.7
558.865	8289.22
559.228	8366.28
559.59	8349.55
559.953	8380.97
560.316	8437.01
560.679	8404.02
561.041	8456.22
561.404	8491.92
561.767	8469.78
562.129	8539.15
562.492	8550.91
562.854	8565.37
563.217	8634.97
563.579	8569.44
563.941	8651.69
564.304	8618.7
564.666	8686.27
565.028	8705.25
565.39	8672.26
565.753	8751.13
566.115	8758.36
566.477	8819.15
566.839	8856.66
567.201	8880.39
567.563	8916.09
567.925	8925.81
568.287	8857.79
568.648	8955.87
569.01	8984.34
569.372	9002.87
569.734	8962.65
570.095	9010.1
570.457	9034.06
570.819	9119.93
571.18	9141.85
571.542	9162.64
571.903	9112.47
572.265	9128.29
572.626	9205.8
572.987	9161.06
573.349	9292.13
573.71	9262.75
574.071	9311.56
574.432	9297.33
574.794	9371.67
575.155	9324.9
575.516	9362.64
575.877	9381.39
576.238	9450.54
576.599	9503.42
576.96	9547.04
577.32	9463.65
577.681	9539.58
578.042	9523.31
578.403	9513.82
578.763	9562.63
579.124	9611.67
579.485	9594.49
579.845	9637.88
580.206	9619.13
580.566	9658.67
580.927	9650.99
581.287	9749.52
581.648	9719.91
582.008	9740.25
582.368	9680.82
582.728	9731.21
583.089	9718.78
583.449	9752.68
583.809	9777.54
584.169	9777.31
584.529	9732.34
584.889	9851.21
585.249	9808.05
585.609	9776.41
585.969	9815.05
586.329	9803.98
586.688	9815.73
587.048	9784.32
587.408	9774.83
587.768	9841.72
588.127	9801.49
588.487	9790.87
588.846	9839.68
589.206	9805.56
589.565	9828.16
589.925	9905.45
590.284	9747.03
590.643	9893.47
591.003	9911.32
591.362	9890.76
591.721	9890.98
592.08	9806.92
592.44	9999.68
592.799	9921.94
593.158	9921.04
593.517	9907.71
593.876	9927.37
594.235	9861.38
594.593	9982.51
594.952	9918.78
595.311	9911.32
595.67	10056.4
596.029	10069.74
596.387	10009.85
596.746	10007.59
597.104	9957.65
597.463	9999.91
597.822	9992.22
598.18	9965.56
598.538	9966.46
598.897	10056.18
599.255	9992.9
599.613	10071.32
599.972	10021.83
600.33	10040.81
600.688	10008.95
601.046	10144.99
601.404	10093.01
601.762	10106.8
602.12	10159.68
602.478	10130.52
602.836	10137.08
603.194	10042.84
603.552	10069.51
603.91	10071.54
604.268	10054.37
604.625	10053.46
604.983	10186.34
605.341	10033.58
605.698	10032.22
606.056	10200.58
606.413	10147.93
606.771	10172.11
607.128	10146.34
607.485	10080.58
607.843	10142.05
608.2	10179.11
608.557	10239.67
608.914	10179.34
609.272	10253.46
609.629	10245.78
609.986	10255.27
610.343	10267.7
610.7	10289.39
611.057	10305.44
611.414	10319.22
611.771	10251.43
612.127	10335.72
612.484	10291.42
612.841	10358.09
613.198	10288.03
613.554	10319.22
613.911	10333.91
614.267	10331.88
614.624	10324.42
614.98	10340.91
615.337	10415.49
615.693	10356.06
616.05	10368.71
616.406	10475.6
616.762	10440.57
617.118	10382.27
617.475	10450.06
617.831	10487.35
618.187	10482.15
618.543	10526.45
618.899	10451.65
619.255	10554.24
619.611	10471.98
619.967	10588.59
620.323	10577.07
620.678	10551.53
621.034	10476.73
621.39	10491.65
621.746	10442.83
622.101	10708.81
622.457	10577.52
622.812	10547.24
623.168	10632.43
623.523	10648.7
623.879	10687.35
624.234	10573.68
624.589	10639.21
624.945	10652.32
625.3	10742.49
625.655	10680.57
626.01	10732.32
626.365	10635.6
626.72	10674.47
627.075	10636.73
627.43	10675.6
627.785	10680.34
628.14	10748.81
628.495	10723.28
628.85	10684.18
629.205	10585.43
629.559	10751.07
629.914	10737.06
630.269	10696.61
630.623	10679.44
630.978	10725.09
631.332	10752.88
631.687	10770.28
632.041	10741.36
632.396	10723.73
632.75	10655.26
633.104	10819.77
633.459	10726.67
633.813	10818.64
634.167	10791.75
634.521	10808.47
634.875	10797.17
635.229	10817.06
635.583	10722.37
635.937	10746.78
636.291	10803.95
636.645	10853.67
636.999	10888.47
637.352	10899.32
637.706	10798.3
638.06	10875.59
638.413	10829.72
638.767	10888.47
639.121	10793.56
639.474	10801.02
639.828	10811.41
640.181	10848.7
640.534	10836.04
640.888	10848.7
641.241	10822.94
641.594	10820.22
641.947	10842.6
642.301	10848.92
642.654	10843.27
643.007	10893.67
643.36	10883.5
643.713	10834.69
644.066	10889.6
644.419	10897.06
644.771	10839.21
645.124	10757.63
645.477	10789.04
645.83	10704.97
646.182	10733.67
646.535	10692.32
646.888	10718.53
647.24	10693.67
647.593	10687.35
647.945	10714.69
648.298	10664.75
648.65	10704.97
649.002	10623.39
649.355	10748.59
649.707	10718.08
650.059	10774.12
650.411	10985.42
650.763	10969.15
651.115	11130.27
651.467	11069.03
651.819	11064.51
652.171	11111.52
652.523	11052.76
652.875	11099.31
653.227	11094.34
653.578	11130.95
653.93	11091.63
654.282	11097.96
654.633	11093.44
654.985	11125.3
655.337	11096.6
655.688	11109.93
656.039	11202.36
656.391	11044.17
656.742	11169.37
657.094	11185.41
657.445	11219.08
657.796	11202.59
658.147	11135.02
658.498	11182.25
658.849	11214.56
659.2	11208.24
659.551	11205.07
659.902	11220.67
660.253	11194.23
660.604	11233.55
660.955	11149.03
661.306	11241.68
661.656	11263.38
662.007	11222.7
662.358	11186.54
662.708	11249.14
663.059	11251.63
663.409	11151.51
663.76	11264.51
664.11	11285.07
664.461	11268.57
664.811	11342.24
665.161	11209.14
665.511	11256.82
665.862	11316.93
666.212	11236.94
666.562	11228.8
666.912	11233.09
667.262	11226.99
667.612	11301.57
667.962	11307.22
668.312	11179.76
668.662	11222.02
669.011	11196.49
669.361	11193.32
669.711	11245.3
670.06	11096.15
670.41	11085.98
670.76	11072.19
671.109	11109.93
671.459	11099.76
671.808	11058.64
672.157	11102.48
672.507	10986.77
672.856	11029.71
673.205	11046.43
673.554	11081.23
673.904	10996.94
674.253	11040.56
674.602	10948.58
674.951	10884.63
675.3	10771.19
675.649	10947.45
675.998	10879.88
676.346	10880.11
676.695	10918.98
677.044	10815.03
677.393	10863.61
677.741	10841.69
678.09	10826.1
678.438	10781.13
678.787	10817.96
679.135	10742.49
679.484	10665.43
679.832	10706.33
680.181	10666.33
680.529	10674.01
680.877	10627.91
681.225	10625.65
681.573	10647.12
681.922	10566.45
682.27	10489.39
682.618	10505.2
682.966	10495.03
683.314	10524.19
683.661	10450.06
684.009	10375.72
684.357	10494.58
684.705	10412.1
685.053	10327.13
685.4	10396.05
685.748	10370.97
686.095	10321.71
686.443	10262.05
686.79	10236.06
687.138	10303.4
687.485	10253.23
687.832	10261.14
688.18	10221.14
688.527	10115.61
688.874	10167.36
689.221	10178.88
689.568	10159.22
689.915	10134.59
690.262	10146.12
690.609	10169.62
690.956	10003.75
691.303	10017.76
691.65	10099.11
691.997	10088.04
692.344	9975.73
692.69	10007.14
693.037	9964.88
693.383	9920.13
693.73	10001.94
694.077	9894.6
694.423	9880.59
694.769	9893.69
695.116	9824.54
695.462	9857.99
695.808	9807.14
696.155	9882.85
696.501	9796.97
696.847	9824.54
697.193	9719.24
697.539	9784.77
697.885	9728.28
698.231	9732.57
698.577	9664.1
698.923	9709.07
699.269	9732.57
699.614	9635.17
699.96	9601.05
700.306	9602.63
700.651	9652.35
700.997	9605.11
701.342	9638.79
701.688	9592.23
702.033	9593.14
702.379	9532.12
702.724	9593.82
703.069	9574.83
703.415	9480.15
703.76	9536.42
704.105	9463.2
704.45	9489.19
704.795	9456.87
705.14	9425.68
705.485	9391.33
705.83	9402.41
706.175	9450.09
706.52	9419.58
706.865	9328.96
707.209	9368.74
707.554	9360.6
707.899	9420.94
708.243	9336.2
708.588	9282.41
708.932	9299.13
709.277	9295.97
709.621	9269.08
709.966	9265.24
710.31	9339.13
710.654	9193.6
710.998	9252.13
711.342	9301.85
711.687	9237.21
712.031	9171.68
712.375	9195.63
712.719	9181.17
713.063	9226.59
713.407	9282.19
713.75	9237.67
714.094	9252.36
714.438	9190.44
714.782	9172.13
715.125	9129.87
715.469	9194.05
715.812	9112.02
716.156	9106.14
716.499	9082.42
716.843	9145.47
717.186	9089.2
717.53	9183.88
717.873	9102.3
718.216	9136.88
718.559	9075.86
718.902	9072.47
719.246	9072.47
719.589	9091.23
719.932	9068.18
720.275	9034.73
720.617	9035.41
720.96	9045.81
721.303	9075.41
721.646	8989.99
721.989	9022.53
722.331	9032.93
722.674	9027.5
723.016	9002.19
723.359	9093.04
723.701	9100.04
724.044	9005.36
724.386	9052.81
724.729	9041.29
725.071	9014.62
725.413	9043.55
725.755	8980.72
726.097	8998.58
726.439	8964.23
726.782	8937.79
727.124	9079.48
727.465	8994.74
727.807	8996.54
728.149	8976.66
728.491	8906.6
728.833	9016.66
729.175	8979.82
729.516	8935.98
729.858	8910.44
730.199	8981.85
730.541	9054.62
730.882	8970.1
731.224	8978.92
731.565	8996.77
731.906	8958.35
732.248	8949.76
732.589	8987.5
732.93	9000.16
733.271	9001.29
733.612	9063.43
733.953	9016.43
734.294	9042.87
734.635	8989.54
734.976	9009.2
735.317	9000.38
735.658	9051.68
735.999	9033.83
736.339	9025.92
736.68	9011.68
737.021	9072.25
737.361	9062.76
737.702	9148.4
738.042	9236.54
738.383	9160.38
738.723	9148.86
739.063	9130.1
739.404	9213.26
739.744	9202.64
740.084	9160.15
740.424	9162.87
740.764	9254.84
741.104	9273.82
741.444	9246.71
741.784	9279.25
742.124	9197.22
742.464	9261.62
742.804	9284.22
743.143	9303.43
743.483	9362.64
743.823	9349.53
744.162	9316.53
744.502	9361.05
744.841	9424.1
745.181	9410.54
745.52	9437.21
745.86	9452.35
746.199	9388.62
746.538	9538.45
746.877	9464.55
747.216	9512.46
747.556	9539.81
747.895	9619.8
748.234	9575.96
748.573	9577.32
748.911	9612.12
749.25	9676.53
749.589	9657.77
749.928	9670.65
750.267	9771.89
750.605	9719.91
750.944	9726.47
751.283	9656.86
751.621	9786.8
751.96	9686.24
752.298	9875.39
752.636	9847.37
752.975	9796.07
753.313	9829.97
753.651	9971.43
753.989	9950.42
754.327	9902.06
754.666	9902.06
755.004	9977.53
755.342	9989.51
755.679	9943.86
756.017	9971.21
756.355	10035.84
756.693	10019.34
757.031	10067.48
757.368	10109.28
757.706	10129.39
758.044	10081.26
758.381	10170.75
758.719	10096.63
759.056	10105.44
759.394	10187.7
759.731	10126.46
760.068	10129.85
760.405	10135.27
760.743	10177.08
761.08	10163.52
761.417	10203.29
761.754	10230.41
762.091	10215.04
762.428	10217.53
762.765	10261.59
763.102	10319.9
763.438	10279
