Data from blue_chair_FLMS001491_00082.txt Node
Date: Wed Feb 08 10:31:54 GMT 2017
User: dcchb
Spectrometer: FLMS00149
Trigger mode: 0
Integration Time (sec): 2.000000E-2
Scans to average: 10
Electric dark correction enabled: true
Nonlinearity correction enabled: false
Boxcar width: 0
XAxis mode: Wavelengths
Number of Pixels in Spectrum: 2048
>>>>>Begin Spectral Data<<<<<
341.393	-16.16
341.776	-16.16
342.16	-16.16
342.543	-64.52
342.927	-78.75
343.31	-46.21
343.693	-63.84
344.077	-64.07
344.46	-70.17
344.843	-43.05
345.226	-45.76
345.61	-42.15
345.993	-28.13
346.376	17.29
346.759	1.24
347.142	26.78
347.525	48.47
347.908	57.06
348.291	66.78
348.674	98.64
349.057	87.12
349.44	119.66
349.823	146.1
350.206	154.46
350.588	204.85
350.971	206.66
351.354	216.83
351.737	232.2
352.119	223.16
352.502	238.07
352.884	244.17
353.267	264.51
353.65	287.79
354.032	274.46
354.414	287.11
354.797	301.35
355.179	297.05
355.562	298.18
355.944	309.26
356.326	331.18
356.709	314.46
357.091	305.64
357.473	311.29
357.855	304.29
358.238	313.78
358.62	331.4
359.002	334.34
359.384	322.82
359.766	318.75
360.148	317.17
360.53	302.7
360.912	315.13
361.294	322.59
361.676	307.22
362.057	312.87
362.439	307
362.821	288.92
363.203	286.66
363.584	298.86
363.966	303.61
364.348	298.18
364.729	304.96
365.111	297.05
365.493	280.33
365.874	290.73
366.256	283.72
366.637	269.94
367.019	272.42
367.4	295.47
367.781	265.42
368.163	301.12
368.544	281.24
368.925	288.69
369.306	299.31
369.688	310.61
370.069	304.74
370.45	277.17
370.831	290.05
371.212	315.81
371.593	278.07
371.974	298.86
372.355	281.01
372.736	309.48
373.117	308.58
373.498	285.98
373.879	308.58
374.26	277.85
374.641	285.53
375.021	285.76
375.402	290.05
375.783	298.41
376.163	292.53
376.544	302.7
376.925	288.24
377.305	287.79
377.686	285.76
378.066	290.27
378.447	276.94
378.827	269.48
379.208	307.22
379.588	297.73
379.968	294.79
380.349	298.18
380.729	311.52
381.109	287.34
381.489	287.34
381.87	293.89
382.25	293.44
382.63	310.16
383.01	313.33
383.39	299.09
383.77	307.45
384.15	292.31
384.53	297.05
384.91	321.01
385.29	288.24
385.67	302.7
386.049	293.66
386.429	316.26
386.809	314.23
387.189	303.38
387.568	309.48
387.948	321.46
388.328	322.82
388.707	304.29
389.087	328.47
389.466	321.69
389.846	314.68
390.225	331.4
390.605	324.4
390.984	340.22
391.363	325.08
391.743	299.09
392.122	309.71
392.501	330.27
392.881	332.53
393.26	339.99
393.639	313.33
394.018	327.56
394.397	331.63
394.776	343.61
395.155	368.24
395.534	331.63
395.913	312.42
396.292	358.52
396.671	328.24
397.05	339.77
397.429	353.78
397.808	334.34
398.186	338.18
398.565	335.7
398.944	338.64
399.323	342.02
399.701	353.55
400.08	348.58
400.458	336.15
400.837	357.39
401.215	350.39
401.594	371.18
401.972	336.6
402.351	331.86
402.729	361.91
403.107	370.27
403.486	353.55
403.864	357.62
404.242	349.48
404.62	358.3
404.999	370.05
405.377	375.02
405.755	375.47
406.133	386.77
406.511	366.43
406.889	377.96
407.267	382.7
407.645	381.35
408.023	383.15
408.401	387.45
408.779	366.21
409.156	391.74
409.534	403.72
409.912	395.81
410.29	387.9
410.667	395.13
411.045	387.22
411.422	399.88
411.8	410.95
412.178	394.9
412.555	416.37
412.933	407.56
413.31	434.23
413.687	417.5
414.065	433.55
414.442	412.31
414.819	425.41
415.197	412.53
415.574	424.51
415.951	439.88
416.328	440.1
416.705	414.79
417.082	417.5
417.46	456.6
417.837	460.67
418.214	449.14
418.591	454.11
418.967	441.23
419.344	439.88
419.721	451.4
420.098	449.82
420.475	448.46
420.852	458.63
421.228	470.84
421.605	467.45
421.982	465.41
422.358	465.86
422.735	488.91
423.111	468.58
423.488	482.13
423.864	485.98
424.241	513.09
424.617	502.25
424.994	515.58
425.37	503.83
425.746	511.06
426.123	495.24
426.499	511.74
426.875	523.72
427.251	516.71
427.627	519.65
428.003	534.79
428.379	528.91
428.756	534.34
429.132	536.14
429.507	525.07
429.883	524.84
430.259	550.16
430.635	544.28
431.011	543.6
431.387	575.47
431.763	555.13
432.138	583.37
432.514	568.46
432.89	586.09
433.265	599.19
433.641	601.45
434.016	605.07
434.392	596.26
434.767	633.09
435.143	624.28
435.518	629.47
435.894	648.91
436.269	635.35
436.644	636.48
437.02	657.04
437.395	666.31
437.77	670.15
438.145	662.69
438.52	685.29
438.895	683.26
439.271	683.71
439.646	698.4
440.021	715.12
440.395	703.37
440.77	702.69
441.145	728.46
441.52	744.5
441.895	747.66
442.27	755.35
442.645	749.7
443.019	777.49
443.394	768.68
443.769	776.36
444.143	769.81
444.518	773.2
444.892	783.6
445.267	793.31
445.641	775.91
446.016	789.47
446.39	824.27
446.764	789.7
447.139	774.33
447.513	802.13
447.887	816.36
448.262	802.58
448.636	821.11
449.01	822.01
449.384	835.57
449.758	815.01
450.132	850.94
450.506	844.16
450.88	857.72
451.254	877.83
451.628	858.17
452.002	867.89
452.376	859.3
452.75	897.72
453.123	889.13
453.497	905.4
453.871	897.26
454.244	932.07
454.618	906.08
454.992	937.26
455.365	941.78
455.739	938.85
456.112	949.24
456.486	976.58
456.859	974.1
457.232	981.1
457.606	981.78
457.979	1001.44
458.352	977.26
458.725	1001.67
459.099	1003.25
459.472	1030.37
459.845	1058.62
460.218	1033.08
460.591	1036.47
460.964	1020.88
461.337	1047.77
461.71	1070.37
462.083	1058.62
462.456	1092.97
462.829	1060.65
463.201	1120.76
463.574	1096.36
463.947	1105.39
464.32	1141.55
464.692	1120.54
465.065	1130.93
465.438	1155.56
465.81	1146.52
466.183	1155.11
466.555	1173.19
466.928	1182.91
467.3	1200.53
467.672	1192.62
468.045	1194.66
468.417	1196.01
468.789	1232.85
469.161	1242.79
469.534	1245.05
469.906	1265.62
470.278	1274.88
470.65	1255.22
471.022	1258.16
471.394	1319.17
471.766	1272.17
472.138	1292.28
472.51	1332.06
472.882	1373.41
473.253	1368.89
473.625	1364.14
473.997	1398.72
474.369	1413.18
474.74	1393.52
475.112	1402.79
475.484	1453.86
475.855	1440.98
476.227	1461.32
476.598	1494.76
476.97	1475.78
477.341	1528.43
477.713	1503.58
478.084	1493.63
478.455	1553.07
478.827	1567.76
479.198	1561.88
479.569	1558.04
479.94	1593.52
480.311	1582.22
480.682	1654.08
481.053	1661.99
481.424	1682.1
481.795	1660.18
482.166	1680.07
482.537	1683.23
482.908	1727.07
483.279	1676.91
483.65	1734.76
484.021	1774.08
484.391	1789.67
484.762	1769.78
485.133	1758.71
485.503	1780.18
485.874	1796.9
486.244	1835.77
486.615	1833.96
486.985	1883
487.356	1884.81
487.726	1877.13
488.097	1879.39
488.467	1853.17
488.837	1908.54
489.207	1903.11
489.578	1914.19
489.948	1918.93
490.318	1965.71
490.688	1930.68
491.058	1933.17
491.428	1954.86
491.798	1981.98
492.168	2003.22
492.538	1990.8
492.908	2007.52
493.278	1978.82
493.648	1968.87
494.017	2005.94
494.387	1988.99
494.757	2009.1
495.126	2010.68
495.496	2003.9
495.866	1990.8
496.235	2041.64
496.605	2000.51
496.974	2017.01
497.344	2022.43
497.713	2041.64
498.082	2027.18
498.452	2017.91
498.821	2023.79
499.19	2045.48
499.559	2049.78
499.928	2002.09
500.298	2024.01
500.667	1993.05
501.036	2028.76
501.405	2032.15
501.774	2034.64
502.143	1990.34
502.512	2008.42
502.88	2024.47
503.249	1977.69
503.618	2017.69
503.987	1988.99
504.356	2011.59
504.724	2031.02
505.093	1997.35
505.462	1984.47
505.83	2016.33
506.199	1983.56
506.567	2037.57
506.936	2007.07
507.304	1999.83
507.672	1984.02
508.041	1945.37
508.409	2006.61
508.777	1971.81
509.145	2011.36
509.514	1967.97
509.882	1986.05
510.25	1979.72
510.618	1998.48
510.986	1965.03
511.354	1967.52
511.722	1955.09
512.09	1990.8
512.458	1953.96
512.826	1996.67
513.193	1970.91
513.561	1962.1
513.929	1942.89
514.297	1996.67
514.664	1959.16
515.032	1954.64
515.4	1960.29
515.767	1979.04
516.135	1965.94
516.502	1911.48
516.869	1921.87
517.237	1917.8
517.604	1935.66
517.972	1913.96
518.339	1928.65
518.706	1920.74
519.073	1902.21
519.44	1909.22
519.808	1932.27
520.175	1874.87
520.542	1931.36
520.909	1909.22
521.276	1878.93
521.643	1895.2
522.009	1891.59
522.376	1919.61
522.743	1872.83
523.11	1907.86
523.477	1903.11
523.843	1897.01
524.21	1902.89
524.577	1876.67
524.943	1881.87
525.31	1888.2
525.676	1904.47
526.043	1882.78
526.409	1887.52
526.776	1872.61
527.142	1874.41
527.508	1876.67
527.874	1874.64
528.241	1866.05
528.607	1892.49
528.973	1904.24
529.339	1879.84
529.705	1900.18
530.071	1910.57
530.437	1892.94
530.803	1872.38
531.169	1892.49
531.535	1850.69
531.901	1902.66
532.267	1900.18
532.632	1905.83
532.998	1906.28
533.364	1930.68
533.73	1870.57
534.095	1891.59
534.461	1847.97
534.826	1890.01
535.192	1877.35
535.557	1890.23
535.923	1885.04
536.288	1922.1
536.653	1896.11
537.019	1911.7
537.384	1850.69
537.749	1875.32
538.114	1882.1
538.479	1899.72
538.845	1881.42
539.21	1879.39
539.575	1854.75
539.94	1883
540.305	1875.77
540.67	1868.09
541.034	1854.08
541.399	1874.64
541.764	1870.35
542.129	1884.13
542.494	1872.15
542.858	1848.65
543.223	1861.53
543.587	1885.04
543.952	1861.31
544.316	1881.19
544.681	1849.56
545.045	1861.31
545.41	1892.49
545.774	1847.3
546.138	1828.99
546.503	1853.4
546.867	1854.75
547.231	1825.15
547.595	1861.08
547.959	1857.92
548.324	1846.84
548.688	1866.5
549.052	1864.47
549.416	1850.23
549.779	1844.13
550.143	1849.78
550.507	1829.9
550.871	1830.12
551.235	1817.92
551.599	1822.21
551.962	1831.48
552.326	1825.83
552.689	1815.88
553.053	1810.23
553.417	1812.49
553.78	1806.62
554.143	1835.77
554.507	1806.85
554.87	1822.21
555.234	1822.21
555.597	1808.43
555.96	1790.35
556.323	1818.37
556.686	1800.74
557.05	1796
557.413	1789.22
557.776	1799.61
558.139	1802.78
558.502	1837.8
558.865	1821.99
559.228	1825.83
559.59	1821.99
559.953	1827.86
560.316	1835.77
560.679	1808.43
561.041	1817.92
561.404	1821.76
561.767	1831.7
562.129	1824.92
562.492	1781.54
562.854	1822.21
563.217	1815.66
563.579	1848.43
563.941	1825.38
564.304	1822.21
564.666	1818.82
565.028	1839.39
565.39	1838.93
565.753	1847.97
566.115	1845.94
566.477	1853.85
566.839	1887.3
567.201	1873.06
567.563	1864.92
567.925	1898.37
568.287	1860.86
568.648	1878.93
569.01	1852.72
569.372	1864.47
569.734	1875.09
570.095	1874.64
570.457	1910.57
570.819	1901.08
571.18	1904.47
571.542	1892.49
571.903	1905.6
572.265	1923.45
572.626	1946.5
572.987	1946.28
573.349	1921.42
573.71	1947.86
574.071	1974.52
574.432	1949.89
574.794	1960.29
575.155	1959.38
575.516	1933.4
575.877	1973.62
576.238	1972.94
576.599	1999.16
576.96	1980.17
577.32	1984.24
577.681	1973.17
578.042	2017.01
578.403	2003.68
578.763	2006.61
579.124	2022.66
579.485	2029.44
579.845	2005.94
580.206	2023.56
580.566	2045.03
580.927	2041.64
581.287	2037.8
581.648	2036.22
582.008	2042.32
582.368	2043.9
582.728	2059.04
583.089	2064.92
583.449	2072.15
583.809	2074.86
584.169	2083.67
584.529	2092.04
584.889	2108.31
585.249	2100.85
585.609	2083.45
585.969	2097.91
586.329	2099.04
586.688	2080.96
587.048	2088.42
587.408	2091.36
587.768	2094.75
588.127	2083.67
588.487	2104.69
588.846	2107.18
589.206	2079.83
589.565	2097.91
589.925	2095.65
590.284	2095.65
590.643	2109.21
591.003	2119.38
591.362	2100.62
591.721	2116.67
592.08	2094.3
592.44	2120.74
592.799	2102.66
593.158	2139.27
593.517	2106.27
593.876	2097.68
594.235	2108.08
594.593	2099.72
594.952	2122.09
595.311	2096.78
595.67	2080.74
596.029	2126.84
596.387	2131.36
596.746	2137.23
597.104	2124.58
597.463	2108.53
597.822	2132.71
598.18	2116.22
598.538	2130.68
598.897	2101.53
599.255	2087.29
599.613	2100.17
599.972	2103.33
600.33	2097.46
600.688	2117.57
601.046	2094.75
601.404	2096.33
601.762	2141.98
602.12	2122.09
602.478	2101.07
602.836	2112.6
603.194	2105.82
603.552	2112.15
603.91	2109.21
604.268	2132.71
604.625	2068.76
604.983	2114.86
605.341	2123.67
605.698	2130.68
606.056	2097.46
606.413	2116.22
606.771	2126.61
607.128	2113.05
607.485	2116.89
607.843	2072.37
608.2	2118.25
608.557	2114.63
608.914	2136.1
609.272	2123.67
609.629	2127.06
609.986	2110.11
610.343	2134.52
610.7	2169.55
611.057	2130.23
611.414	2115.09
611.771	2139.49
612.127	2131.81
612.484	2148.31
612.841	2120.06
613.198	2146.05
613.554	2136.1
613.911	2150.34
614.267	2126.38
614.624	2123.9
614.98	2120.96
615.337	2167.06
615.693	2109.44
616.05	2140.85
616.406	2144.69
616.762	2124.35
617.118	2126.61
617.475	2127.29
617.831	2140.4
618.187	2120.28
618.543	2138.36
618.899	2125.48
619.255	2147.4
619.611	2157.12
619.967	2163.45
620.323	2153.05
620.678	2153.73
621.034	2159.38
621.39	2147.85
621.746	2156.44
622.101	2165.71
622.457	2157.8
622.812	2155.08
623.168	2155.08
623.523	2162.77
623.879	2146.95
624.234	2177.46
624.589	2181.75
624.945	2132.71
625.3	2151.69
625.655	2181.07
626.01	2171.81
626.365	2167.06
626.72	2158.25
627.075	2184.01
627.43	2165.25
627.785	2156.44
628.14	2142.2
628.495	2154.41
628.85	2168.19
629.205	2137.23
629.559	2139.27
629.914	2138.36
630.269	2122.09
630.623	2188.08
630.978	2148.53
631.332	2158.7
631.687	2169.55
632.041	2145.82
632.396	2145.59
632.75	2149.89
633.104	2146.5
633.459	2121.87
633.813	2172.94
634.167	2169.1
634.521	2166.61
634.875	2181.3
635.229	2140.62
635.583	2155.54
635.937	2180.17
636.291	2124.35
636.645	2151.02
636.999	2145.14
637.352	2180.17
637.706	2104.92
638.06	2134.97
638.413	2146.05
638.767	2134.97
639.121	2132.94
639.474	2135.65
639.828	2162.32
640.181	2141.98
640.534	2135.88
640.888	2134.52
641.241	2103.33
641.594	2177.68
641.947	2152.82
642.301	2192.15
642.654	2185.59
643.007	2149.21
643.36	2158.02
643.713	2146.72
644.066	2166.38
644.419	2154.18
644.771	2118.25
645.124	2109.66
645.477	2124.35
645.83	2101.07
646.182	2112.37
646.535	2100.17
646.888	2129.55
647.24	2129.32
647.593	2167.06
647.945	2120.74
648.298	2092.94
648.65	2127.74
649.002	2113.28
649.355	2139.04
649.707	2123.22
650.059	2139.04
650.411	2143.56
650.763	2133.39
651.115	2167.06
651.467	2172.26
651.819	2192.6
652.171	2235.31
652.523	2223.78
652.875	2190.56
653.227	2230.56
653.578	2217.91
653.93	2204.8
654.282	2218.13
654.633	2185.37
654.985	2231.69
655.337	2205.25
655.688	2216.78
656.039	2192.82
656.391	2212.48
656.742	2194.63
657.094	2236.44
657.445	2212.48
657.796	2228.75
658.147	2275.76
658.498	2229.88
658.849	2257.23
659.2	2242.54
659.551	2218.81
659.902	2233.73
660.253	2228.75
660.604	2240.28
660.955	2261.97
661.306	2233.27
661.656	2207.74
662.007	2230.34
662.358	2213.84
662.708	2223.56
663.059	2265.59
663.409	2251.58
663.76	2238.7
664.11	2263.56
664.461	2261.3
664.811	2238.92
665.161	2274.4
665.511	2293.16
665.862	2243.67
666.212	2270.11
666.562	2225.59
666.912	2260.17
667.262	2246.61
667.612	2245.93
667.962	2209.09
668.312	2230.34
668.662	2270.11
669.011	2261.75
669.361	2253.16
669.711	2270.34
670.06	2246.83
670.41	2235.99
670.76	2263.56
671.109	2238.92
671.459	2250.68
671.808	2218.59
672.157	2224.01
672.507	2209.55
672.856	2213.39
673.205	2210
673.554	2203.22
673.904	2201.86
674.253	2205.93
674.602	2206.38
674.951	2163.67
675.3	2147.85
675.649	2188.98
675.998	2170
676.346	2172.94
676.695	2209.55
677.044	2186.5
677.393	2188.76
677.741	2162.32
678.09	2127.51
678.438	2136.1
678.787	2180.17
679.135	2178.81
679.484	2192.37
679.832	2150.56
680.181	2159.15
680.529	2161.64
680.877	2169.1
681.225	2116.22
681.573	2139.94
681.922	2129.32
682.27	2123.9
682.618	2098.36
682.966	2093.39
683.314	2133.62
683.661	2130.68
684.009	2113.28
684.357	2093.84
684.705	2119.15
685.053	2090.91
685.4	2112.83
685.748	2059.95
686.095	2076.22
686.443	2078.02
686.79	2088.87
687.138	2030.12
687.485	2037.35
687.832	2042.32
688.18	2059.27
688.527	2021.75
688.874	2062.43
689.221	1991.93
689.568	2033.51
689.915	1999.61
690.262	2022.21
690.609	2000.74
690.956	1979.04
691.303	1996.22
691.65	1985.15
691.997	2004.58
692.344	1977.24
692.69	1988.08
693.037	1947.18
693.383	1963.9
693.73	1956.9
694.077	1946.73
694.423	1939.95
694.769	1969.33
695.116	1954.41
695.462	1916.45
695.808	1920.74
696.155	1934.75
696.501	1905.37
696.847	1891.59
697.193	1895.66
697.539	1926.39
697.885	1896.11
698.231	1900.85
698.577	1900.4
698.923	1909.44
699.269	1880.06
699.614	1875.09
699.96	1877.13
700.306	1871.02
700.651	1855.88
700.997	1854.3
701.342	1885.26
701.688	1855.43
702.033	1864.92
702.379	1845.71
702.724	1843.68
703.069	1852.72
703.415	1797.35
703.76	1812.27
704.105	1859.27
704.45	1821.76
704.795	1866.96
705.14	1827.18
705.485	1827.86
705.83	1803.23
706.175	1818.14
706.52	1788.31
706.865	1811.59
707.209	1826.96
707.554	1791.93
707.899	1834.64
708.243	1800.97
708.588	1828.99
708.932	1786.96
709.277	1764.59
709.621	1795.09
709.966	1786.05
710.31	1801.2
710.654	1815.21
710.998	1796.68
711.342	1815.88
711.687	1791.03
712.031	1807.98
712.375	1788.09
712.719	1796.68
713.063	1799.16
713.407	1804.36
713.75	1815.66
714.094	1806.39
714.438	1826.73
714.782	1835.32
715.125	1817.47
715.469	1838.71
715.812	1833.06
716.156	1815.21
716.499	1836.67
716.843	1820.4
717.186	1809.78
717.53	1841.42
717.873	1848.65
718.216	1820.4
718.559	1838.93
718.902	1844.81
719.246	1816.34
719.589	1852.72
719.932	1855.21
720.275	1856.11
720.617	1875.54
720.96	1874.87
721.303	1891.59
721.646	1888.88
721.989	1908.54
722.331	1882.78
722.674	1867.86
723.016	1918.03
723.359	1921.87
723.701	1908.31
724.044	1895.43
724.386	1907.86
724.729	1926.39
725.071	1942.89
725.413	1945.15
725.755	1908.99
726.097	1949.67
726.439	1928.88
726.782	1923.23
727.124	1975.43
727.465	1967.07
727.807	1944.47
728.149	1970.46
728.491	1967.29
728.833	1996.67
729.175	2020.62
729.516	2036.9
729.858	2002.09
730.199	2018.37
730.541	2032.6
730.882	2028.76
731.224	2030.12
731.565	2037.57
731.906	2067.4
732.248	2079.61
732.589	2047.97
732.93	2064.47
733.271	2065.82
733.612	2090.91
733.953	2119.83
734.294	2156.21
734.635	2110.79
734.976	2163.9
735.317	2137.01
735.658	2147.4
735.999	2171.58
736.339	2183.33
736.68	2223.78
737.021	2179.94
737.361	2220.62
737.702	2254.07
738.042	2279.15
738.383	2261.75
738.723	2303.78
739.063	2290.67
739.404	2346.04
739.744	2357.79
740.084	2344.91
740.424	2379.49
740.764	2384.91
741.104	2401.86
741.444	2417.9
741.784	2471.01
742.124	2446.6
742.464	2469.88
742.804	2503.78
743.143	2552.36
743.483	2579.48
743.823	2597.78
744.162	2613.83
744.502	2644.34
744.841	2647.95
745.181	2729.08
745.52	2736.54
745.86	2743.54
746.199	2790.55
746.538	2805.24
746.877	2842.75
747.216	2902.86
747.556	2918.91
747.895	2944.22
748.234	2996.19
748.573	3018.79
748.911	3110.99
749.25	3118.9
749.589	3138.11
749.928	3186.47
750.267	3247.26
750.605	3291.78
750.944	3336.3
751.283	3373.58
751.621	3455.39
751.96	3486.35
752.298	3502.39
752.636	3559.34
752.975	3642.05
753.313	3609.74
753.651	3765.89
753.989	3755.49
754.327	3861.93
754.666	3879.11
755.004	3964.53
755.342	4025.54
755.679	4038.65
756.017	4098.99
756.355	4184.41
756.693	4240.23
757.031	4297.4
757.368	4338.08
757.706	4435.25
758.044	4480.9
758.381	4544.4
758.719	4610.39
759.056	4649.93
759.394	4725.86
759.731	4823.04
760.068	4808.12
760.405	4897.39
760.743	4931.28
761.08	4975.35
761.417	5002.02
761.754	5132.18
762.091	5147.77
762.428	5200.2
762.765	5237.94
763.102	5322.01
763.438	5362.46
763.775	5371.05
764.112	5391.61
764.449	5513.19
764.785	5574.66
765.122	5573.98
765.458	5608.55
765.795	5688.33
766.131	5708.21
766.467	5752.73
766.804	5794.99
767.14	5814.42
767.476	5830.92
767.812	5888.09
768.148	5945.04
768.485	5962.44
768.821	5962.67
769.157	6003.34
769.492	6032.27
769.828	6142.55
770.164	6081.31
770.5	6181.42
