Data from blue_surface_keyboard_FLMS001491_068.txt Node
Date: Tue Feb 07 11:13:30 GMT 2017
User: dcchb
Spectrometer: FLMS00149
Trigger mode: 0
Integration Time (sec): 2.000000E-2
Scans to average: 10
Electric dark correction enabled: true
Nonlinearity correction enabled: false
Boxcar width: 0
XAxis mode: Wavelengths
Number of Pixels in Spectrum: 2048
>>>>>Begin Spectral Data<<<<<
341.393	-6.34
341.776	-6.34
342.16	-6.34
342.543	-53.35
342.927	-63.06
343.31	-41.82
343.693	-74.59
344.077	-57.19
344.46	-47.7
344.843	-47.47
345.226	-48.6
345.61	-42.27
345.993	-12.22
346.376	-12.9
346.759	9.7
347.142	31.4
347.525	19.42
347.908	34.79
348.291	73.43
348.674	94.67
349.057	121.34
349.44	127.67
349.823	144.61
350.206	146.42
350.588	185.74
350.971	191.39
351.354	227.1
351.737	197.04
352.119	222.13
352.502	255.57
352.884	256.48
353.267	239.75
353.65	271.39
354.032	246.08
354.414	288.57
354.797	273.65
355.179	301.22
355.562	278.85
355.944	295.57
356.326	297.38
356.709	307.1
357.091	321.79
357.473	312.75
357.855	305.29
358.238	329.47
358.62	324.5
359.002	321.79
359.384	311.84
359.766	324.95
360.148	307.55
360.53	321.56
360.912	308.9
361.294	298.74
361.676	313.88
362.057	298.51
362.439	317.49
362.821	289.02
363.203	306.64
363.584	287.66
363.966	293.31
364.348	285.18
364.729	291.05
365.111	280.66
365.493	292.18
365.874	278.17
366.256	289.02
366.637	293.09
367.019	262.8
367.4	257.15
367.781	276.81
368.163	300.32
368.544	308.23
368.925	293.31
369.306	283.37
369.688	281.56
370.069	280.43
370.45	277.72
370.831	296.48
371.212	284.05
371.593	290.83
371.974	274.1
372.355	297.38
372.736	281.56
373.117	290.15
373.498	279.98
373.879	268.45
374.26	294.67
374.641	291.96
375.021	284.95
375.402	285.85
375.783	269.81
376.163	282.69
376.544	269.58
376.925	285.85
377.305	282.92
377.686	293.76
378.066	289.92
378.447	286.98
378.827	299.19
379.208	297.15
379.588	292.63
379.968	291.28
380.349	306.87
380.729	293.31
381.109	291.05
381.489	294.67
381.87	284.72
382.25	315.23
382.63	289.02
383.01	289.24
383.39	312.29
383.77	331.73
384.15	308
384.53	312.52
384.91	313.42
385.29	289.24
385.67	317.27
386.049	312.29
386.429	312.97
386.809	308
387.189	301.67
387.568	308
387.948	300.99
388.328	305.06
388.707	324.05
389.087	319.07
389.466	326.76
389.846	328.79
390.225	298.96
390.605	319.53
390.984	321.33
391.363	316.14
391.743	313.2
392.122	306.87
392.501	312.29
392.881	319.53
393.26	321.79
393.639	325.85
394.018	304.16
394.397	328.56
394.776	319.53
395.155	315.46
395.534	330.82
395.913	349.58
396.292	323.14
396.671	318.17
397.05	305.97
397.429	323.37
397.808	344.16
398.186	335.34
398.565	334.44
398.944	322.01
399.323	323.59
399.701	336.47
400.08	346.42
400.458	335.57
400.837	329.92
401.215	317.94
401.594	327.89
401.972	340.99
402.351	357.26
402.729	347.32
403.107	348.68
403.486	350.03
403.864	347.77
404.242	330.37
404.62	364.04
404.999	356.36
405.377	338.06
405.755	336.7
406.133	348
406.511	359.52
406.889	370.15
407.267	343.71
407.645	358.62
408.023	353.87
408.401	365.4
408.779	351.16
409.156	363.37
409.534	355.46
409.912	370.37
410.29	343.03
410.667	376.25
411.045	364.95
411.422	362.69
411.8	361.33
412.178	350.94
412.555	383.25
412.933	368.56
413.31	367.21
413.687	382.57
414.065	390.03
414.442	376.02
414.819	394.1
415.197	389.35
415.574	404.95
415.951	396.59
416.328	392.52
416.705	403.37
417.082	390.48
417.46	384.38
417.837	397.04
418.214	401.78
418.591	393.87
418.967	425.06
419.344	367.21
419.721	405.85
420.098	399.3
420.475	415.12
420.852	401.78
421.228	399.3
421.605	402.91
421.982	393.65
422.358	407.21
422.735	415.79
423.111	413.99
423.488	417.6
423.864	406.98
424.241	404.5
424.617	420.09
424.994	410.37
425.37	413.08
425.746	417.83
426.123	417.83
426.499	424.16
426.875	432.74
427.251	396.59
427.627	425.29
428.003	428.45
428.379	411.5
428.756	457.6
429.132	435.91
429.507	432.29
429.883	443.59
430.259	451.27
430.635	450.6
431.011	449.69
431.387	443.59
431.763	468
432.138	428.9
432.514	466.64
432.89	437.94
433.265	462.35
433.641	457.15
434.016	476.13
434.392	481.33
434.767	479.07
435.143	466.64
435.518	487.43
435.894	466.41
436.269	459.63
436.644	482.01
437.02	493.08
437.395	472.29
437.77	471.16
438.145	505.06
438.52	498.28
438.895	522.01
439.271	487.2
439.646	520.42
440.021	508.45
440.395	506.41
440.77	503.7
441.145	540.54
441.52	529.46
441.895	521.33
442.27	523.81
442.645	518.62
443.019	513.87
443.394	516.81
443.769	531.5
444.143	538.05
444.518	531.95
444.892	540.31
445.267	524.94
445.641	534.44
446.016	557.49
446.39	540.99
446.764	518.84
447.139	534.66
447.513	527.88
447.887	547.09
448.262	563.81
448.636	550.03
449.01	558.84
449.384	588.22
449.758	563.36
450.132	546.19
450.506	557.49
450.88	545.28
451.254	564.04
451.628	596.58
452.002	578.5
452.376	582.12
452.75	583.93
453.123	570.82
453.497	579.18
453.871	592.51
454.244	591.83
454.618	590.25
454.992	605.17
455.365	597.48
455.739	605.39
456.112	597.48
456.486	595.68
456.859	604.04
457.232	615.79
457.606	620.31
457.979	617.82
458.352	612.17
458.725	645.62
459.099	600.87
459.472	640.42
459.845	661.66
460.218	663.02
460.591	669.57
460.964	645.17
461.337	658.27
461.71	659.86
462.083	660.99
462.456	680.19
462.829	694.2
463.201	687.2
463.574	667.99
463.947	682.45
464.32	693.98
464.692	689.46
465.065	715.22
465.438	686.07
465.81	717.71
466.183	707.31
466.555	713.87
466.928	702.57
467.3	724.03
467.672	725.39
468.045	747.99
468.417	736.24
468.789	747.99
469.161	735.79
469.534	742.57
469.906	757.03
470.278	755.45
470.65	755.22
471.022	787.08
471.394	798.83
471.766	807.42
472.138	801.09
472.51	821.43
472.882	827.99
473.253	813.98
473.625	835.22
473.997	827.53
474.369	832.96
474.74	847.42
475.112	865.95
475.484	852.17
475.855	901.66
476.227	873.18
476.598	906.85
476.97	900.53
477.341	892.84
477.713	889.68
478.084	900.53
478.455	924.71
478.827	941.66
479.198	940.07
479.569	950.7
479.94	958.15
480.311	968.32
480.682	973.75
481.053	1022.78
481.424	997.47
481.795	1006.06
482.166	1037.47
482.537	1018.94
482.908	1065.04
483.279	1048.32
483.65	1069.34
484.021	1096.68
484.391	1087.64
484.762	1105.27
485.133	1073.4
485.503	1117.24
485.874	1129.67
486.244	1135.55
486.615	1156.11
486.985	1167.19
487.356	1124.02
487.726	1157.02
488.097	1142.1
488.467	1168.32
488.837	1191.59
489.207	1161.31
489.578	1185.04
489.948	1213.97
490.318	1197.24
490.688	1223.91
491.058	1220.29
491.428	1233.17
491.798	1222.55
492.168	1243.57
492.538	1230.01
492.908	1261.42
493.278	1270.91
493.648	1255.09
494.017	1312.27
494.387	1292.61
494.757	1303.23
495.126	1282.89
495.496	1307.52
495.866	1303.68
496.235	1307.97
496.605	1308.2
496.974	1324.7
497.344	1339.61
497.713	1311.82
498.082	1349.55
498.452	1365.83
498.821	1333.06
499.19	1350.68
499.559	1345.49
499.928	1347.52
500.298	1362.21
500.667	1367.41
501.036	1345.26
501.405	1376.22
501.774	1364.02
502.143	1373.51
502.512	1357.92
502.88	1356.79
503.249	1368.31
503.618	1390.46
503.987	1399.95
504.356	1373.51
504.724	1409.21
505.093	1414.19
505.462	1376.45
505.83	1407.63
506.199	1416.67
506.567	1393.62
506.936	1427.52
507.304	1445.82
507.672	1437.91
508.041	1412.6
508.409	1428.65
508.777	1458.03
509.145	1440.17
509.514	1440.17
509.882	1434.07
510.25	1436.33
510.618	1414.19
510.986	1463.22
511.354	1447.18
511.722	1470
512.09	1453.06
512.458	1484.69
512.826	1500.51
513.193	1462.55
513.561	1449.89
513.929	1471.59
514.297	1471.59
514.664	1507.06
515.032	1484.92
515.4	1472.04
515.767	1504.81
516.135	1491.7
516.502	1499.38
516.869	1497.35
517.237	1475.88
517.604	1503.68
517.972	1477.69
518.339	1492.83
518.706	1467.52
519.073	1514.97
519.44	1514.75
519.808	1484.69
520.175	1514.07
520.542	1522.88
520.909	1528.53
521.276	1511.13
521.643	1546.84
522.009	1521.08
522.376	1539.61
522.743	1531.7
523.11	1558.81
523.477	1555.88
523.843	1558.59
524.21	1570.79
524.577	1544.35
524.943	1551.58
525.31	1571.7
525.676	1589.1
526.043	1588.64
526.409	1575.09
526.776	1602.43
527.142	1609.44
527.508	1575.09
527.874	1595.2
528.241	1613.73
528.607	1587.97
528.973	1617.34
529.339	1584.58
529.705	1609.66
530.071	1618.93
530.437	1609.21
530.803	1642.43
531.169	1628.87
531.535	1621.86
531.901	1613.5
532.267	1638.36
532.632	1643.78
532.998	1647.85
533.364	1631.81
533.73	1617.34
534.095	1645.82
534.461	1646.5
534.826	1651.02
535.192	1615.54
535.557	1674.29
535.923	1670.68
536.288	1672.26
536.653	1661.86
537.019	1642.65
537.384	1632.49
537.749	1615.99
538.114	1643.33
538.479	1647.4
538.845	1642.88
539.21	1639.94
539.575	1651.24
539.94	1639.49
540.305	1625.48
540.67	1657.34
541.034	1663.44
541.399	1632.49
541.764	1685.82
542.129	1670.9
542.494	1651.92
542.858	1665.03
543.223	1649.43
543.587	1678.59
543.952	1653.28
544.316	1646.5
544.681	1678.13
545.045	1647.17
545.41	1661.64
545.774	1665.03
546.138	1643.78
546.503	1668.87
546.867	1632.03
547.231	1646.95
547.595	1651.92
547.959	1689.43
548.324	1674.74
548.688	1684.01
549.052	1687.4
549.416	1639.72
549.779	1664.8
550.143	1649.66
550.507	1692.37
550.871	1686.5
551.235	1668.19
551.599	1694.18
551.962	1663.9
552.326	1666.38
552.689	1718.13
553.053	1699.83
553.417	1691.69
553.78	1686.95
554.143	1682.2
554.507	1676.55
554.87	1714.07
555.234	1672.94
555.597	1692.6
555.96	1709.55
556.323	1717.45
556.686	1668.42
557.05	1676.78
557.413	1716.55
557.776	1688.98
558.139	1689.88
558.502	1693.05
558.865	1709.55
559.228	1708.19
559.59	1735.76
559.953	1682.88
560.316	1719.94
560.679	1715.42
561.041	1744.57
561.404	1682.43
561.767	1790.9
562.129	1743.89
562.492	1711.13
562.854	1738.02
563.217	1740.51
563.579	1754.97
563.941	1754.29
564.304	1749.09
564.666	1740.05
565.028	1740.05
565.39	1757.91
565.753	1773.05
566.115	1769.2
566.477	1775.08
566.839	1800.62
567.201	1750.9
567.563	1760.39
567.925	1748.41
568.287	1752.93
568.648	1785.02
569.01	1762.2
569.372	1814.4
569.734	1789.54
570.095	1781.63
570.457	1796.55
570.819	1805.36
571.18	1797.45
571.542	1814.85
571.903	1820.28
572.265	1783.67
572.626	1807.62
572.987	1787.51
573.349	1810.11
573.71	1816.21
574.071	1838.13
574.432	1833.38
574.794	1886.26
575.155	1868.86
575.516	1805.59
575.877	1823.67
576.238	1845.81
576.599	1848.98
576.96	1835.87
577.32	1850.56
577.681	1855.08
578.042	1857.79
578.403	1820.5
578.763	1825.25
579.124	1835.19
579.485	1864.8
579.845	1841.07
580.206	1839.49
580.566	1883.1
580.927	1846.27
581.287	1859.82
581.648	1855.53
582.008	1853.72
582.368	1842.65
582.728	1870.9
583.089	1829.77
583.449	1908.18
583.809	1868.86
584.169	1863.21
584.529	1859.15
584.889	1861.41
585.249	1858.47
585.609	1854.4
585.969	1836.32
586.329	1861.18
586.688	1887.62
587.048	1846.04
587.408	1854.17
587.768	1836.55
588.127	1878.35
588.487	1852.59
588.846	1901.86
589.206	1893.5
589.565	1898.02
589.925	1913.61
590.284	1874.06
590.643	1871.8
591.003	1869.54
591.362	1870.9
591.721	1872.48
592.08	1886.26
592.44	1901.86
592.799	1892.37
593.158	1884.23
593.517	1869.77
593.876	1905.47
594.235	1890.33
594.593	1900.05
594.952	1892.37
595.311	1898.69
595.67	1909.31
596.029	1924.46
596.387	1901.86
596.746	1902.31
597.104	1897.34
597.463	1891.91
597.822	1918.81
598.18	1915.19
598.538	1933.27
598.897	1890.56
599.255	1901.18
599.613	1921.29
599.972	1930.1
600.33	1926.26
600.688	1934.62
601.046	1891.46
601.404	1919.71
601.762	1907.05
602.12	1928.52
602.478	1935.98
602.836	1908.86
603.194	1933.95
603.552	1928.97
603.91	1945.02
604.268	1970.78
604.625	1945.7
604.983	1944.57
605.341	1947.73
605.698	1995.41
606.056	1952.93
606.413	1959.71
606.771	1963.78
607.128	1962.19
607.485	1942.99
607.843	1940.27
608.2	1954.74
608.557	1955.64
608.914	1969.65
609.272	1993.61
609.629	1983.89
609.986	1973.95
610.343	1957.22
610.7	2013.27
611.057	1993.83
611.414	1984.11
611.771	1982.53
612.127	1989.54
612.484	2015.98
612.841	2008.29
613.198	1983.44
613.554	2017.79
613.911	1987.28
614.267	2036.99
614.624	2012.36
614.98	2017.56
615.337	2021.4
615.693	2009.2
616.05	2054.17
616.406	2025.92
616.762	2044.9
617.118	2030.44
617.475	2052.36
617.831	2052.81
618.187	2035.64
618.543	2037.22
618.899	2035.41
619.255	2046.94
619.611	2059.82
619.967	2080.84
620.323	2058.24
620.678	2082.42
621.034	2061.4
621.39	2089.2
621.746	2077.22
622.101	2077.67
622.457	2054.4
622.812	2073.83
623.168	2102.53
623.523	2078.8
623.879	2097.78
624.234	2091.46
624.589	2076.54
624.945	2085.35
625.3	2102.98
625.655	2104.79
626.01	2113.38
626.365	2101.17
626.72	2113.83
627.075	2114.05
627.43	2120.83
627.785	2113.38
628.14	2133.94
628.495	2137.56
628.85	2113.6
629.205	2131
629.559	2155.86
629.914	2142.98
630.269	2124.45
630.623	2149.08
630.978	2135.3
631.332	2148.4
631.687	2183.21
632.041	2130.1
632.396	2147.5
632.75	2130.1
633.104	2144.11
633.459	2145.92
633.813	2167.39
634.167	2167.84
634.521	2173.71
634.875	2187.5
635.229	2197.89
635.583	2180.04
635.937	2164.22
636.291	2173.71
636.645	2202.87
636.999	2199.25
637.352	2202.87
637.706	2225.69
638.06	2222.3
638.413	2211.23
638.767	2224.33
639.121	2222.98
639.474	2206.03
639.828	2228.63
640.181	2194.5
640.534	2250.77
640.888	2258.23
641.241	2250.32
641.594	2234.5
641.947	2266.14
642.301	2272.47
642.654	2298.23
643.007	2235.86
643.36	2265.46
643.713	2327.16
644.066	2276.99
644.419	2296.42
644.771	2291.9
645.124	2315.41
645.477	2303.65
645.83	2268.63
646.182	2265.69
646.535	2269.08
646.888	2314.5
647.24	2295.07
647.593	2318.57
647.945	2312.02
648.298	2324.22
648.65	2344.33
649.002	2321.28
649.355	2338.23
649.707	2347.49
650.059	2361.28
650.411	2390.66
650.763	2418.23
651.115	2423.42
651.467	2459.36
651.819	2465.68
652.171	2503.42
652.523	2475.63
652.875	2468.85
653.227	2440.83
653.578	2476.3
653.93	2519.02
654.282	2517.89
654.633	2525.57
654.985	2514.5
655.337	2550.43
655.688	2563.53
656.039	2547.26
656.391	2579.13
656.742	2573.03
657.094	2590.43
657.445	2618
657.796	2625
658.147	2646.47
658.498	2639.01
658.849	2683.76
659.2	2653.7
659.551	2666.81
659.902	2714.72
660.253	2733.25
660.604	2724.21
660.955	2711.33
661.306	2711.78
661.656	2735.96
662.007	2751.55
662.358	2760.82
662.708	2759.46
663.059	2796.97
663.409	2815.05
663.76	2832.91
664.11	2847.82
664.461	2869.74
664.811	2863.19
665.161	2857.54
665.511	2914.03
665.862	2889.63
666.212	2908.38
666.562	2958.78
666.912	2961.04
667.262	2952.68
667.612	2984.31
667.962	2998.1
668.312	2981.83
668.662	3048.49
669.011	3051.66
669.361	3066.8
669.711	3027.48
670.06	3051.66
670.41	3096.18
670.76	3090.07
671.109	3133.24
671.459	3098.66
671.808	3129.4
672.157	3114.71
672.507	3115.16
672.856	3155.16
673.205	3204.2
673.554	3194.93
673.904	3208.04
674.253	3204.65
674.602	3200.13
674.951	3199.22
675.3	3189.96
675.649	3268.83
675.998	3313.8
676.346	3285.55
676.695	3297.98
677.044	3337.53
677.393	3324.64
677.741	3344.76
678.09	3346.56
678.438	3363.06
678.787	3377.52
679.135	3373.91
679.484	3359.22
679.832	3366.9
680.181	3385.21
680.529	3408.94
680.877	3405.77
681.225	3419.56
681.573	3471.31
681.922	3485.77
682.27	3500.91
682.618	3486.9
682.966	3472.89
683.314	3485.32
683.661	3474.24
684.009	3511.31
684.357	3483.74
684.705	3523.96
685.053	3511.76
685.4	3566.9
685.748	3560.8
686.095	3521.93
686.443	3564.19
686.79	3570.06
687.138	3548.37
687.485	3630.17
687.832	3608.7
688.18	3615.94
688.527	3589.27
688.874	3620.46
689.221	3597.86
689.568	3594.69
689.915	3603.73
690.262	3658.19
690.609	3638.31
690.956	3640.12
691.303	3664.75
691.65	3653
691.997	3666.78
692.344	3653.9
692.69	3659.78
693.037	3622.26
693.383	3655.48
693.73	3655.93
694.077	3670.17
694.423	3651.42
694.769	3650.96
695.116	3681.02
695.462	3687.57
695.808	3681.25
696.155	3652.32
696.501	3671.08
696.847	3684.18
697.193	3623.17
697.539	3647.57
697.885	3648.7
698.231	3684.41
698.577	3677.63
698.923	3640.12
699.269	3672.21
699.614	3636.73
699.96	3658.87
700.306	3659.78
700.651	3665.43
700.997	3642.83
701.342	3655.48
701.688	3633.56
702.033	3638.99
702.379	3628.59
702.724	3621.36
703.069	3647.12
703.415	3618.2
703.76	3635.6
704.105	3630.62
704.45	3621.13
704.795	3634.24
705.14	3615.03
705.485	3574.58
705.83	3607.12
706.175	3592.66
706.52	3607.8
706.865	3613.68
707.209	3565.99
707.554	3595.82
707.899	3594.92
708.243	3582.72
708.588	3593.11
708.932	3592.21
709.277	3571.87
709.621	3552.89
709.966	3574.58
710.31	3555.82
710.654	3546.33
710.998	3585.2
711.342	3584.07
711.687	3540.23
712.031	3495.04
712.375	3562.6
712.719	3541.14
713.063	3530.51
713.407	3551.76
713.75	3533.9
714.094	3528.93
714.438	3523.51
714.782	3552.66
715.125	3565.99
715.469	3559.67
715.812	3505.2
716.156	3540.46
716.499	3512.89
716.843	3481.25
717.186	3505.66
717.53	3532.32
717.873	3547.92
718.216	3538.88
718.559	3532.55
718.902	3510.85
719.246	3529.84
719.589	3541.14
719.932	3514.47
720.275	3519.22
720.617	3482.38
720.96	3486.67
721.303	3501.14
721.646	3500.01
721.989	3528.03
722.331	3506.33
722.674	3507.92
723.016	3542.72
723.359	3499.33
723.701	3530.74
724.044	3503.17
724.386	3534.13
724.729	3513.79
725.071	3521.93
725.413	3487.35
725.755	3528.93
726.097	3557.41
726.439	3501.14
726.782	3516.5
727.124	3561.25
727.465	3520.57
727.807	3501.81
728.149	3516.96
728.491	3537.52
728.833	3545.43
729.175	3567.58
729.516	3566.45
729.858	3506.79
730.199	3546.11
730.541	3547.92
730.882	3539.33
731.224	3586.33
731.565	3549.27
731.906	3556.73
732.248	3538.42
732.589	3522.61
732.93	3560.57
733.271	3540.23
733.612	3562.83
733.953	3592.21
734.294	3546.11
734.635	3561.02
734.976	3560.34
735.317	3544.75
735.658	3576.61
735.999	3589.95
736.339	3561.93
736.68	3576.61
737.021	3590.17
737.361	3576.84
737.702	3663.62
738.042	3637.18
738.383	3573
738.723	3596.5
739.063	3661.58
739.404	3645.09
739.744	3610.96
740.084	3674.24
740.424	3654.58
740.764	3648.03
741.104	3651.19
741.444	3715.37
741.784	3666.56
742.124	3714.46
742.464	3700.68
742.804	3711.3
743.143	3733.67
743.483	3754.46
743.823	3694.13
744.162	3713.11
744.502	3775.25
744.841	3742.94
745.181	3798.76
745.52	3787.68
745.86	3796.95
746.199	3810.06
746.538	3861.81
746.877	3823.61
747.216	3866.78
747.556	3847.79
747.895	3891.63
748.234	3863.16
748.573	3916.95
748.911	3926.21
749.25	3951.29
749.589	3931.86
749.928	3977.28
750.267	4005.08
750.605	4004.85
750.944	4039.43
751.283	4048.47
751.621	4091.18
751.96	4042.14
752.298	4087.34
752.636	4154.9
752.975	4093.44
753.313	4129.59
753.651	4202.14
753.989	4175.47
754.327	4227.9
754.666	4186.99
755.004	4244.17
755.342	4274.22
755.679	4308.8
756.017	4274
756.355	4310.38
756.693	4285.3
757.031	4335.47
757.368	4366.65
757.706	4405.52
758.044	4365.52
758.381	4419.76
758.719	4384.73
759.056	4462.47
759.394	4455.24
759.731	4481.45
760.068	4453.43
760.405	4502.92
760.743	4466.76
761.08	4505.18
761.417	4511.96
761.754	4562.13
762.091	4546.31
762.428	4488.68
762.765	4583.37
763.102	4575.68
763.438	4570.49
763.775	4598.06
764.112	4582.24
764.449	4603.03
764.785	4554.44
765.122	4606.64
765.458	4619.98
765.795	4587.89
766.131	4609.36
766.467	4618.62
766.804	4626.76
767.14	4630.15
767.476	4610.26
767.812	4640.77
768.148	4641.67
768.485	4610.49
768.821	4607.1
769.157	4652.29
769.492	4672.18
769.828	4630.82
770.164	4596.7
770.5	4664.95
770.836	4640.54
771.171	4571.17
771.507	4597.83
771.842	4605.74
772.178	4539.53
