Data from blue_clamp_base_FLMS001491_00092.txt Node
Date: Wed Feb 08 15:16:47 GMT 2017
User: dcchb
Spectrometer: FLMS00149
Trigger mode: 0
Integration Time (sec): 2.000000E-2
Scans to average: 10
Electric dark correction enabled: true
Nonlinearity correction enabled: false
Boxcar width: 0
XAxis mode: Wavelengths
Number of Pixels in Spectrum: 2048
>>>>>Begin Spectral Data<<<<<
341.393	-15.27
341.776	-15.27
342.16	-15.27
342.543	-67.24
342.927	-80.35
343.31	-46
343.693	-78.09
344.077	-56.62
344.46	-61.59
344.843	-39.45
345.226	-34.02
345.61	-30.86
345.993	-19.79
346.376	5.75
346.759	9.59
347.142	15.92
347.525	16.82
347.908	70.83
348.291	69.7
348.674	86.2
349.057	91.62
349.44	106.31
349.823	105.63
350.206	152.19
350.588	185.18
350.971	228.79
351.354	227.21
351.737	228.79
352.119	255.46
352.502	266.98
352.884	271.96
353.267	259.3
353.65	277.15
354.032	299.3
354.414	304.95
354.797	314.21
355.179	315.34
355.562	325.51
355.944	325.74
356.326	343.82
356.709	339.07
357.091	346.53
357.473	342.69
357.855	343.59
358.238	344.95
358.62	352.18
359.002	319.41
359.384	335.68
359.766	337.72
360.148	351.95
360.53	337.27
360.912	335.91
361.294	330.26
361.676	340.2
362.057	328
362.439	328.9
362.821	336.81
363.203	320.09
363.584	325.74
363.966	310.37
364.348	312.63
364.729	333.2
365.111	316.93
365.493	344.95
365.874	329.81
366.256	335.01
366.637	323.03
367.019	320.99
367.4	309.92
367.781	331.62
368.163	318.73
368.544	326.87
368.925	324.84
369.306	324.61
369.688	329.13
370.069	308.11
370.45	314.89
370.831	302.01
371.212	318.06
371.593	328
371.974	303.37
372.355	310.83
372.736	309.92
373.117	321.67
373.498	318.96
373.879	309.92
374.26	311.28
374.641	332.29
375.021	340.2
375.402	341.11
375.783	364.16
376.163	351.73
376.544	327.77
376.925	333.42
377.305	332.29
377.686	335.46
378.066	336.36
378.447	361.67
378.827	365.96
379.208	354.89
379.588	356.7
379.968	335.01
380.349	342.24
380.729	357.15
381.109	346.3
381.489	365.06
381.87	346.3
382.25	353.99
382.63	354.89
383.01	346.08
383.39	363.48
383.77	363.48
384.15	374.55
384.53	367.32
384.91	370.48
385.29	365.29
385.67	368.45
386.049	389.69
386.429	395.79
386.809	384.72
387.189	381.78
387.568	362.58
387.948	375.68
388.328	412.52
388.707	415
389.087	392.86
389.466	394.21
389.846	402.57
390.225	441.67
390.605	392.86
390.984	418.84
391.363	427.88
391.743	436.7
392.122	426.3
392.501	448
392.881	433.76
393.26	445.96
393.639	437.83
394.018	450.93
394.397	459.07
394.776	437.83
395.155	432.18
395.534	459.52
395.913	471.27
396.292	466.08
396.671	471.5
397.05	473.31
397.429	477.37
397.808	472.18
398.186	468.56
398.565	502.68
398.944	517.15
399.323	480.54
399.701	502.01
400.08	490.48
400.458	513.31
400.837	520.99
401.215	544.94
401.594	549.01
401.972	536.36
402.351	557.37
402.729	551.5
403.107	549.24
403.486	550.37
403.864	560.54
404.242	572.74
404.62	570.03
404.999	594.21
405.377	590.14
405.755	624.72
406.133	605.05
406.511	613.64
406.889	602.12
407.267	631.72
407.645	624.94
408.023	641.21
408.401	640.53
408.779	649.8
409.156	661.78
409.534	662.91
409.912	671.27
410.29	695.67
410.667	672.4
411.045	683.24
411.422	696.8
411.8	717.59
412.178	728.22
412.555	733.64
412.933	741.1
413.31	740.64
413.687	766.86
414.065	783.36
414.442	779.29
414.819	804.15
415.197	782.45
415.574	823.13
415.951	829.46
416.328	811.15
416.705	846.4
417.082	816.35
417.46	820.19
417.837	840.98
418.214	848.66
418.591	853.86
418.967	874.65
419.344	860.42
419.721	897.93
420.098	869.23
420.475	906.97
420.852	914.2
421.228	931.15
421.605	935.44
421.982	930.92
422.358	948.1
422.735	964.82
423.111	948.55
423.488	966.85
423.864	974.08
424.241	976.34
424.617	1033.52
424.994	1018.15
425.37	1003.01
425.746	1038.26
426.123	1018.83
426.499	1066.51
426.875	1071.48
427.251	1091.37
427.627	1101.09
428.003	1091.37
428.379	1126.4
428.756	1116.91
429.132	1145.83
429.507	1165.27
429.883	1171.59
430.259	1222.21
430.635	1174.98
431.011	1229.45
431.387	1276.45
431.763	1265.38
432.138	1279.84
432.514	1293.4
432.89	1308.77
433.265	1331.82
433.641	1360.97
434.016	1323.68
434.392	1352.15
434.767	1391.93
435.143	1424.02
435.518	1432.6
435.894	1432.6
436.269	1446.84
436.644	1478.7
437.02	1479.83
437.395	1495.43
437.77	1487.52
438.145	1513.28
438.52	1562.54
438.895	1570.91
439.271	1569.32
439.646	1602.32
440.021	1578.36
440.395	1622.88
440.77	1614.75
441.145	1660.62
441.52	1701.3
441.895	1668.53
442.27	1710.34
442.645	1695.87
443.019	1739.49
443.394	1689.09
443.769	1746.95
444.143	1747.85
444.518	1782.88
444.892	1776.78
445.267	1791.01
445.641	1800.5
446.016	1824.91
446.39	1813.84
446.764	1832.14
447.139	1857.45
447.513	1858.13
447.887	1889.77
448.262	1873.72
448.636	1916.21
449.01	1948.3
449.384	1966.6
449.758	1975.87
450.132	1983.32
450.506	1993.27
450.88	1984.68
451.254	2019.93
451.628	2054.73
452.002	2068.29
452.376	2073.94
452.75	2088.41
453.123	2141.51
453.497	2155.3
453.871	2184.45
454.244	2220.38
454.618	2204.56
454.992	2236.42
455.365	2232.81
455.739	2319.59
456.112	2348.74
456.486	2362.07
456.859	2373.14
457.232	2414.72
457.606	2367.27
457.979	2416.31
458.352	2475.74
458.725	2490.88
459.099	2512.35
459.472	2564.1
459.845	2572.69
460.218	2625.11
460.591	2629.41
460.964	2625.79
461.337	2698.33
461.71	2731.33
462.083	2752.34
462.456	2807.93
462.829	2794.6
463.201	2803.64
463.574	2825.56
463.947	2868.05
464.32	2910.08
464.692	2948.72
465.065	2977.42
465.438	3015.61
465.81	3035.73
466.183	3033.01
466.555	3121.37
466.928	3160.47
467.3	3127.93
467.672	3164.99
468.045	3233.91
468.417	3262.16
468.789	3251.31
469.161	3339.9
469.534	3347.81
469.906	3449.73
470.278	3452.21
470.65	3452.89
471.022	3577.86
471.394	3621.02
471.766	3600.91
472.138	3633.22
472.51	3684.3
472.882	3742.15
473.253	3828.7
473.625	3822.15
473.997	3878.19
474.369	3913.22
474.74	3939.43
475.112	3982.37
475.484	4078.18
475.855	4141.23
476.227	4169.71
476.598	4269.82
476.97	4251.29
477.341	4363.6
477.713	4407.89
478.084	4439.3
478.455	4510.94
478.827	4533.09
479.198	4703.93
479.569	4664.61
479.94	4766.3
480.311	4779.41
480.682	4912.96
481.053	4965.62
481.424	5014.88
481.795	5119.96
482.166	5138.49
482.537	5163.8
482.908	5323.12
483.279	5285.61
483.65	5393.86
484.021	5474.08
484.391	5511.59
484.762	5552.5
485.133	5547.3
485.503	5652.83
485.874	5731.7
486.244	5673.62
486.615	5876.55
486.985	5905.48
487.356	5966.72
487.726	6021.18
488.097	6076.32
488.467	6082.65
488.837	6165.59
489.207	6260.27
489.578	6300.05
489.948	6337.11
490.318	6416.88
490.688	6398.35
491.058	6482.87
491.428	6524
491.798	6592.47
492.168	6695.06
492.538	6647.16
492.908	6745.68
493.278	6789.98
493.648	6769.86
494.017	6841.27
494.387	6876.53
494.757	6882.63
495.126	6941.61
495.496	6943.87
495.866	6941.39
496.235	6951.78
496.605	7070.87
496.974	7055.96
497.344	7135.28
497.713	7116.75
498.082	7171.21
498.452	7267.48
498.821	7207.37
499.19	7271.55
499.559	7274.48
499.928	7281.94
500.298	7355.16
500.667	7360.13
501.036	7347.7
501.405	7391.99
501.774	7422.95
502.143	7416.63
502.512	7466.34
502.88	7435.61
503.249	7470.18
503.618	7519.9
503.987	7579.11
504.356	7569.39
504.724	7599
505.093	7570.75
505.462	7636.51
505.83	7715.83
506.199	7702.04
506.567	7764.19
506.936	7772.32
507.304	7812.32
507.672	7826.56
508.041	7798.31
508.409	7841.25
508.777	7846.45
509.145	8051.19
509.514	7905.2
509.882	8008.48
510.25	7996.5
510.618	8027.23
510.986	8038.76
511.354	8104.97
511.722	8125.31
512.09	8192.2
512.458	8186.32
512.826	8224.52
513.193	8288.92
513.561	8253.22
513.929	8233.33
514.297	8343.16
514.664	8376.15
515.032	8356.49
515.4	8436.04
515.767	8415.24
516.135	8480.55
516.502	8365.08
516.869	8562.59
517.237	8554.22
517.604	8522.13
517.972	8563.26
518.339	8631.74
518.706	8601.91
519.073	8638.97
519.44	8631.28
519.808	8697.72
520.175	8678.97
520.542	8842.8
520.909	8762.58
521.276	8798.96
521.643	8904.27
522.009	8933.88
522.376	8927.77
522.743	8968.9
523.11	9073.98
523.477	9088.9
523.843	9112.85
524.21	9241.21
524.577	9182.68
524.943	9248.67
525.31	9222
525.676	9337.93
526.043	9394.88
526.409	9415.67
526.776	9487.08
527.142	9487.08
527.508	9530.7
527.874	9578.6
528.241	9548.55
528.607	9562.79
528.973	9661.54
529.339	9693.18
529.705	9761.65
530.071	9794.19
530.437	9843.91
530.803	9941.53
531.169	9887.75
531.535	9907.41
531.901	9923.68
532.267	9981.76
532.632	9981.08
532.998	9996.45
533.364	10098.14
533.73	10122.09
534.095	10214.29
534.461	10263.56
534.826	10290
535.192	10285.03
535.557	10351.69
535.923	10272.15
536.288	10317.12
536.653	10419.26
537.019	10395.53
537.384	10437.79
537.749	10487.51
538.114	10541.52
538.479	10496.77
538.845	10513.72
539.21	10539.03
539.575	10632.36
539.94	10558.69
540.305	10747.39
540.67	10594.17
541.034	10621.29
541.399	10703.32
541.764	10748.29
542.129	10796.65
542.494	10833.26
542.858	10814.96
543.223	10857.89
543.587	10923.2
543.952	10937.89
544.316	10976.99
544.681	10963.65
545.045	11034.39
545.41	11034.39
545.774	11059.7
546.138	11048.4
546.503	11106.47
546.867	11135.17
547.231	11144.89
547.595	11202.52
547.959	11252.01
548.324	11248.16
548.688	11237.09
549.052	11258.79
549.416	11287.26
549.779	11301.04
550.143	11279.35
550.507	11480.7
550.871	11465.79
551.235	11366.81
551.599	11429.85
551.962	11503.07
552.326	11516.41
552.689	11611.77
553.053	11491.1
553.417	11571.77
553.78	11713.46
554.143	11553.69
554.507	11738.32
554.87	11700.13
555.234	11817.87
555.597	11728.83
555.96	11781.71
556.323	11840.47
556.686	11719.34
557.05	11829.39
557.413	11856.74
557.776	11939.9
558.139	12011.76
558.502	11995.72
558.865	11965.21
559.228	12160.46
559.59	12106.22
559.953	12083.62
560.316	12289.04
560.679	12258.53
561.041	12270.28
561.404	12375.59
561.767	12422.82
562.129	12302.37
562.492	12497.62
562.854	12463.73
563.217	12503.95
563.579	12517.74
563.941	12625.53
564.304	12641.57
564.666	12762.7
565.028	12667.11
565.39	12748.69
565.753	12879.31
566.115	12859.65
566.477	12936.03
566.839	12908.23
567.201	13030.26
567.563	13034.56
567.925	13134.22
568.287	13167.89
568.648	13234.1
569.01	13277.94
569.372	13365.4
569.734	13289.01
570.095	13351.61
570.457	13401.78
570.819	13449.91
571.18	13450.14
571.542	13562
571.903	13525.17
572.265	13613.07
572.626	13686.07
572.987	13713.18
573.349	13719.96
573.71	13840.64
574.071	13834.76
574.432	13888.77
574.794	13957.7
575.155	14023.91
575.516	13947.3
575.877	13961.77
576.238	13992.27
576.599	14022.56
576.96	14110.91
577.32	14148.88
577.681	14147.3
578.042	14109.11
578.403	14230.46
578.763	14153.4
579.124	14284.02
579.485	14314.98
579.845	14359.72
580.206	14344.35
580.566	14380.06
580.927	14364.92
581.287	14352.04
581.648	14376.22
582.008	14476.55
582.368	14471.36
582.728	14506.84
583.089	14516.55
583.449	14408.08
583.809	14496.44
584.169	14535.76
584.529	14535.99
584.889	14670.45
585.249	14486.72
585.609	14536.21
585.969	14641.97
586.329	14587.96
586.688	14635.42
587.048	14661.86
587.408	14604.91
587.768	14622.31
588.127	14509.77
588.487	14573.28
588.846	14672.48
589.206	14590.9
589.565	14609.66
589.925	14725.14
590.284	14679.49
590.643	14748.19
591.003	14701.86
591.362	14773.5
591.721	14773.04
592.08	14785.92
592.44	14798.81
592.799	14780.28
593.158	14772.37
593.517	14763.78
593.876	14775.76
594.235	14850.78
594.593	14761.52
594.952	14871.12
595.311	14846.94
595.67	14883.78
596.029	14916.99
596.387	14948.41
596.746	14971
597.104	14871.35
597.463	14875.87
597.822	14985.69
598.18	14916.32
598.538	14941.4
598.897	15024.56
599.255	14974.62
599.613	15089.42
599.972	14933.49
600.33	14973.26
600.688	14935.75
601.046	15019.82
601.404	15114.05
601.762	15035.64
602.12	15093.26
602.478	15121.51
602.836	15173.94
603.194	15027.27
603.552	15053.04
603.91	15056.65
604.268	15189.98
604.625	15081.74
604.983	15201.06
605.341	15070.21
605.698	15118.12
606.056	15263.65
606.413	15180.72
606.771	15260.26
607.128	15284.67
607.485	15076.54
607.843	15197.67
608.2	15370.09
608.557	15342.97
608.914	15324.89
609.272	15252.35
609.629	15366.93
609.986	15349.53
610.343	15426.81
610.7	15456.87
611.057	15549.97
611.414	15466.13
611.771	15473.36
612.127	15536.87
612.484	15525.34
612.841	15538.45
613.198	15500.71
613.554	15484.66
613.911	15564.66
614.267	15636.98
614.624	15534.38
614.98	15566.47
615.337	15663.64
615.693	15632.46
616.05	15635.39
616.406	15674.49
616.762	15603.98
617.118	15693.02
617.475	15686.47
617.831	15741.38
618.187	15746.58
618.543	15763.75
618.899	15907.25
619.255	15840.13
619.611	15807.37
619.967	15809.4
620.323	15876.74
620.678	15743.87
621.034	15784.99
621.39	15873.13
621.746	15793.58
622.101	16042.84
622.457	15881.26
622.812	15973.01
623.168	16008.72
623.523	15958.1
623.879	16082.61
624.234	15954.48
624.589	16072.9
624.945	16078.55
625.3	16095.27
625.655	16070.18
626.01	16116.96
626.365	16212.1
626.72	16097.75
627.075	16102.73
627.43	16151.76
627.785	16015.72
628.14	16094.14
628.495	16108.83
628.85	16128.49
629.205	16078.32
629.559	16238.77
629.914	16196.06
630.269	16118.55
630.623	16223.85
630.978	16099.79
631.332	16326
631.687	16269.28
632.041	16257.75
632.396	16270.41
632.75	16217.98
633.104	16248.49
633.459	16206.23
633.813	16150.18
634.167	16188.37
634.521	16250.07
634.875	16260.69
635.229	16239.45
635.583	16195.61
635.937	16210.75
636.291	16248.26
636.645	16253
636.999	16320.12
637.352	16380.91
637.706	16227.69
638.06	16245.55
638.413	16291.2
638.767	16254.13
639.121	16262.27
639.474	16240.8
639.828	16218.2
640.181	16283.06
640.534	16326.68
640.888	16359.22
641.241	16214.81
641.594	16355.83
641.947	16305.66
642.301	16356.28
642.654	16403.51
643.007	16248.26
643.36	16384.98
643.713	16357.41
644.066	16460.91
644.419	16414.13
644.771	16210.29
645.124	16152.67
645.477	16112.22
645.83	16060.69
646.182	15988.61
646.535	15923.07
646.888	16164.19
647.24	16096.17
647.593	16168.04
647.945	16139.34
648.298	16104.99
648.65	16110.86
649.002	16071.54
649.355	16210.97
649.707	16077.64
650.059	16177.3
650.411	16422.49
650.763	16492.32
651.115	16680.56
651.467	16585.43
651.819	16559.44
652.171	16545.43
652.523	16600.57
652.875	16615.71
653.227	16560.12
653.578	16668.59
653.93	16590.4
654.282	16597.85
654.633	16681.24
654.985	16637.4
655.337	16648.7
655.688	16758.08
656.039	16749.26
656.391	16610.51
656.742	16735.93
657.094	16650.28
657.445	16776.83
657.796	16627.91
658.147	16667.68
658.498	16776.38
658.849	16885.3
659.2	16761.92
659.551	16680.11
659.902	16862.48
660.253	16735.25
660.604	16845.98
660.955	16702.71
661.306	16765.53
661.656	16772.09
662.007	16813.89
662.358	16803.27
662.708	16826.78
663.059	16828.81
663.409	16797.4
663.76	16926.43
664.11	16864.97
664.461	16898.19
664.811	16891.86
665.161	16871.52
665.511	16856.15
665.862	16871.75
666.212	16840.79
666.562	16842.37
666.912	16813.44
667.262	16750.39
667.612	16767.79
667.962	16850.28
668.312	16757.62
668.662	16930.5
669.011	16768.92
669.361	16752.88
669.711	16719.21
670.06	16614.13
670.41	16689.83
670.76	16655.48
671.109	16684.41
671.459	16587.46
671.808	16603.05
672.157	16616.16
672.507	16492.55
672.856	16485.77
673.205	16486.9
673.554	16505.2
673.904	16507.69
674.253	16525.09
674.602	16483.28
674.951	16233.8
675.3	16118.55
675.649	16415.26
675.998	16364.41
676.346	16415.94
676.695	16379.78
677.044	16225.89
677.393	16299.11
677.741	16291.42
678.09	16165.32
678.438	16142.5
678.787	16109.28
679.135	16159.45
679.484	15888.95
679.832	16031.77
680.181	16079.22
680.529	16108.83
680.877	15954.93
681.225	15901.6
681.573	15973.69
681.922	16003.52
682.27	15862.51
682.618	15866.35
682.966	15829.06
683.314	15859.34
683.661	15676.07
684.009	15762.4
684.357	15739.57
684.705	15677.2
685.053	15676.75
685.4	15656.41
685.748	15507.94
686.095	15495.96
686.443	15446.02
686.79	15440.14
687.138	15457.77
687.485	15433.14
687.832	15368.96
688.18	15478.34
688.527	15388.17
688.874	15283.76
689.221	15270.21
689.568	15297.1
689.915	15216.65
690.262	15260.94
690.609	15201.06
690.956	15159.47
691.303	15231.79
691.65	15182.75
691.997	15095.3
692.344	15007.84
692.69	15042.19
693.037	15055.52
693.383	14897.56
693.73	15033.38
694.077	14932.81
694.423	14977.78
694.769	14890.78
695.116	14968.07
695.462	14791.35
695.808	14824.34
696.155	14851.91
696.501	14772.82
696.847	14711.8
697.193	14697.79
697.539	14788.18
697.885	14656.66
698.231	14571.69
698.577	14720.39
698.923	14603.78
699.269	14620.05
699.614	14444.01
699.96	14531.02
700.306	14479.72
700.651	14461.64
700.997	14474.75
701.342	14398.14
701.688	14457.35
702.033	14417.12
702.379	14439.72
702.724	14327.86
703.069	14380.51
703.415	14294.41
703.76	14328.31
704.105	14288.99
704.45	14278.59
704.795	14201.31
705.14	14171.03
705.485	14171.03
705.83	14147.52
706.175	14203.57
706.52	14223.45
706.865	14096.9
707.209	14184.81
707.554	14099.62
707.899	14107.07
708.243	14000.63
708.588	14066.4
708.932	14063.68
709.277	13968.32
709.621	13960.18
709.966	13945.95
710.31	13918.6
710.654	13823.92
710.998	13909.56
711.342	14046.28
711.687	13948.88
712.031	13828.89
712.375	13880.86
712.719	13865.5
713.063	13888.1
713.407	13887.64
713.75	13854.65
714.094	13846.97
714.438	13783.24
714.782	13766.74
715.125	13709.57
715.469	13805.16
715.812	13769.91
716.156	13665.5
716.499	13732.62
716.843	13824.14
717.186	13711.38
717.53	13731.04
717.873	13746.18
718.216	13706.63
718.559	13624.83
718.902	13586.41
719.246	13700.76
719.589	13597.71
719.932	13541.89
720.275	13568.33
720.617	13530.59
720.96	13565.39
721.303	13628.67
721.646	13603.81
721.989	13529.69
722.331	13583.7
722.674	13639.51
723.016	13586.41
723.359	13606.07
723.701	13517.26
724.044	13494.21
724.386	13412.63
724.729	13564.26
725.071	13529.91
725.413	13506.86
725.755	13446.3
726.097	13423.93
726.439	13385.74
726.782	13414.89
727.124	13434.77
727.465	13480.65
727.807	13525.62
728.149	13408.79
728.491	13426.64
728.833	13401.1
729.175	13462.8
729.516	13435.68
729.858	13385.74
730.199	13415.34
730.541	13469.35
730.882	13429.58
731.224	13464.38
731.565	13428.45
731.906	13423.02
732.248	13373.31
732.589	13460.99
732.93	13375.34
733.271	13507.54
733.612	13437.71
733.953	13507.54
734.294	13496.02
734.635	13423.47
734.976	13483.59
735.317	13385.96
735.658	13411.05
735.999	13451.72
736.339	13463.02
736.68	13550.7
737.021	13511.61
737.361	13471.38
737.702	13610.59
738.042	13565.62
738.383	13656.24
738.723	13611.27
739.063	13616.69
739.404	13733.75
739.744	13658.27
740.084	13747.99
740.424	13793.41
740.764	13729.46
741.104	13804.26
741.444	13748.66
741.784	13694.88
742.124	13824.59
742.464	13774.65
742.804	13849.45
743.143	13882.9
743.483	13856.23
743.823	13843.58
744.162	13892.16
744.502	13937.13
744.841	13987.75
745.181	13975.1
745.52	13958.38
745.86	14063.46
746.199	14081.31
746.538	14091.03
746.877	14068.2
747.216	14149.78
747.556	14107.52
747.895	14194.53
748.234	14182.55
748.573	14200.18
748.911	14199.05
749.25	14183
749.589	14286.28
749.928	14331.7
750.267	14388.42
750.605	14368.99
750.944	14432.04
751.283	14360.4
751.621	14498.93
751.96	14450.34
752.298	14469.77
752.636	14514.29
752.975	14444.01
753.313	14520.17
753.651	14653.27
753.989	14591.58
754.327	14530.56
754.666	14681.97
755.004	14619.15
755.342	14689.2
755.679	14693.27
756.017	14643.33
756.355	14777.56
756.693	14788.86
