Data from blue_shiny_book_FLMS001491_00044.txt Node
Date: Wed Feb 08 15:27:01 GMT 2017
User: dcchb
Spectrometer: FLMS00149
Trigger mode: 0
Integration Time (sec): 2.000000E-2
Scans to average: 10
Electric dark correction enabled: true
Nonlinearity correction enabled: false
Boxcar width: 0
XAxis mode: Wavelengths
Number of Pixels in Spectrum: 2048
>>>>>Begin Spectral Data<<<<<
341.393	-13.22
341.776	-13.22
342.16	-13.22
342.543	-57.74
342.927	-72.43
343.31	-85.53
343.693	-81.92
344.077	-69.04
344.46	-52.99
344.843	-50.28
345.226	-27
345.61	-47.57
345.993	-26.78
346.376	3.73
346.759	13.9
347.142	28.13
347.525	55.48
347.908	47.57
348.291	86.89
348.674	103.39
349.057	102.03
349.44	109.26
349.823	166.44
350.206	158.75
350.588	203.5
350.971	236.72
351.354	227
351.737	237.17
352.119	241.69
352.502	270.16
352.884	301.57
353.267	302.03
353.65	306.55
354.032	301.57
354.414	328.69
354.797	311.07
355.179	314.23
355.562	332.99
355.944	321.23
356.326	363.72
356.709	350.39
357.091	335.92
357.473	367.33
357.855	372.31
358.238	349.71
358.62	369.14
359.002	358.3
359.384	355.13
359.766	367.56
360.148	333.44
360.53	330.05
360.912	360.56
361.294	363.27
361.676	355.58
362.057	347.45
362.439	349.48
362.821	340.44
363.203	340.44
363.584	351.29
363.966	353.32
364.348	337.51
364.729	336.15
365.111	342.02
365.493	352.42
365.874	340.44
366.256	306.77
366.637	333.89
367.019	340.89
367.4	323.27
367.781	368.46
368.163	345.19
368.544	343.15
368.925	335.7
369.306	364.62
369.688	377.5
370.069	341.12
370.45	330.5
370.831	345.19
371.212	350.16
371.593	343.83
371.974	344.96
372.355	347
372.736	329.37
373.117	369.59
373.498	372.08
373.879	354.45
374.26	365.53
374.641	356.71
375.021	354.45
375.402	353.1
375.783	358.3
376.163	375.92
376.544	394.45
376.925	381.57
377.305	370.05
377.686	357.17
378.066	387.45
378.447	382.02
378.827	373.21
379.208	388.13
379.588	397.84
379.968	402.59
380.349	404.85
380.729	394.68
381.109	389.26
381.489	394.45
381.87	387.67
382.25	416.6
382.63	401.01
383.01	391.52
383.39	403.72
383.77	412.08
384.15	426.54
384.53	415.24
384.91	420.67
385.29	443.72
385.67	412.76
386.049	440.1
386.429	419.99
386.809	423.83
387.189	430.61
387.568	440.1
387.948	465.64
388.328	458.41
388.707	452.98
389.087	468.8
389.466	485.75
389.846	484.17
390.225	460.44
390.605	477.61
390.984	474.45
391.363	494.79
391.743	505.18
392.122	494.34
392.501	527.78
392.881	516.48
393.26	534.79
393.639	530.27
394.018	526.43
394.397	528.01
394.776	548.12
395.155	539.99
395.534	532.08
395.913	565.3
396.292	555.8
396.671	560.78
397.05	543.15
397.429	571.4
397.808	572.08
398.186	593.54
398.565	582.92
398.944	569.14
399.323	588.35
399.701	581.79
400.08	596.26
400.458	609.36
400.837	609.36
401.215	639.19
401.594	600.1
401.972	635.8
402.351	629.7
402.729	664.5
403.107	657.95
403.486	658.63
403.864	678.06
404.242	680.32
404.62	673.54
404.999	686.87
405.377	693.88
405.755	706.31
406.133	718.29
406.511	709.92
406.889	741.11
407.267	735.23
407.645	749.7
408.023	749.25
408.401	771.17
408.779	786.31
409.156	801
409.534	806.42
409.912	807.55
410.29	821.56
410.667	834.44
411.045	828.34
411.422	872.86
411.8	880.99
412.178	869.24
412.555	912.86
412.933	904.95
413.31	912.86
413.687	930.26
414.065	933.65
414.442	957.15
414.819	965.29
415.197	976.81
415.574	961.22
415.951	1001.67
416.328	984.95
416.705	1022.68
417.082	1031.5
417.46	1044.38
417.837	1069.46
418.214	1082.12
418.591	1064.72
418.967	1101.55
419.344	1098.39
419.721	1122.57
420.098	1111.95
420.475	1139.29
420.852	1128.9
421.228	1167.09
421.605	1142.91
421.982	1165.05
422.358	1194.43
422.735	1212.28
423.111	1236.01
423.488	1238.27
423.864	1249.8
424.241	1241.44
424.617	1261.55
424.994	1303.58
425.37	1285.5
425.746	1318.27
426.123	1349.46
426.499	1345.16
426.875	1387.2
427.251	1394.43
427.627	1440.08
428.003	1442.79
428.379	1451.37
428.756	1480.98
429.132	1473.07
429.507	1475.33
429.883	1522.33
430.259	1573.86
430.635	1554.65
431.011	1560.98
431.387	1629.9
431.763	1641.65
432.138	1659.73
432.514	1683.68
432.89	1678.49
433.265	1737.47
433.641	1742.21
434.016	1768.43
434.392	1798.26
434.767	1835.54
435.143	1799.61
435.518	1852.95
435.894	1856.79
436.269	1898.82
436.644	1943.56
437.02	1980.4
437.395	1947.63
437.77	2030.34
438.145	2018.82
438.52	2059.27
438.895	2069.44
439.271	2060.4
439.646	2140.17
440.021	2145.37
440.395	2154.86
440.77	2123.45
441.145	2212.26
441.52	2240.51
441.895	2224.01
442.27	2287.51
442.645	2294.06
443.019	2341.07
443.394	2311.46
443.769	2345.36
444.143	2339.03
444.518	2351.92
444.892	2379.03
445.267	2392.59
445.641	2424.46
446.016	2452.93
446.39	2440.27
446.764	2473.27
447.139	2478.47
447.513	2530.22
447.887	2522.53
448.262	2553.72
448.636	2554.62
449.01	2634.62
449.384	2582.19
449.758	2620.38
450.132	2644.34
450.506	2704.9
450.88	2706.26
451.254	2726.37
451.628	2751.23
452.002	2779.02
452.376	2800.72
452.75	2851.79
453.123	2884.33
453.497	2925.46
453.871	2939.02
454.244	2986.48
454.618	3035.29
454.992	3049.07
455.365	3065.57
455.739	3192.35
456.112	3157.09
456.486	3207.49
456.859	3242.51
457.232	3305.79
457.606	3302.17
457.979	3370.19
458.352	3460.59
458.725	3467.82
459.099	3533.58
459.472	3615.16
459.845	3640.47
460.218	3642.5
460.591	3644.99
460.964	3701.48
461.337	3801.14
461.71	3822.39
462.083	3912.33
462.456	3932.21
462.829	3952.1
463.201	4088.82
463.574	4094.92
463.947	4144.41
464.32	4199.32
464.692	4235.03
465.065	4287.46
465.438	4339.89
465.81	4417.85
466.183	4444.52
466.555	4515.47
466.928	4539.43
467.3	4620.78
467.672	4716.37
468.045	4787.78
468.417	4803.15
468.789	4856.48
469.161	4952.3
469.534	4992.52
469.906	5135.57
470.278	5175.8
470.65	5201.78
471.022	5296.24
471.394	5371.5
471.766	5437.71
472.138	5489.46
472.51	5647.65
472.882	5658.27
473.253	5762.9
473.625	5845.83
473.997	5959.05
474.369	6014.64
474.74	6099.16
475.112	6293.73
475.484	6372.83
475.855	6466.61
476.227	6531.24
476.598	6691.24
476.97	6734.4
477.341	6909.76
477.713	6999.7
478.084	6980.49
478.455	7225.01
478.827	7308.4
479.198	7515.17
479.569	7539.35
479.94	7758.1
480.311	7818.89
480.682	8014.37
481.053	8182.5
481.424	8367.35
481.795	8402.38
482.166	8565.99
482.537	8700.45
482.908	8810.95
483.279	8848.92
483.65	9097.5
484.021	9293.43
484.391	9384.95
484.762	9437.38
485.133	9543.59
485.503	9696.81
485.874	9926.41
486.244	9986.97
486.615	10218.38
486.985	10365.04
487.356	10655.2
487.726	10622.43
488.097	10906.04
488.467	10937.68
488.837	11138.35
489.207	11313.71
489.578	11451.79
489.948	11526.82
490.318	11699.01
490.688	11809.07
491.058	11953.25
491.428	12159.34
491.798	12330.41
492.168	12513.91
492.538	12616.73
492.908	12746.44
493.278	12979.88
493.648	13082.25
494.017	13210.61
494.387	13281.57
494.757	13480.44
495.126	13586.87
495.496	13692.63
495.866	13785.06
496.235	13896.24
496.605	13986.64
496.974	14184.82
497.344	14174.66
497.713	14400.41
498.082	14450.13
498.452	14686.05
498.821	14712.72
499.19	14801.31
499.559	15004.24
499.928	15098.7
500.298	15227.51
500.667	15295.08
501.036	15326.49
501.405	15578.46
501.774	15643.54
502.143	15768.74
502.512	15860.26
502.88	16005.57
503.249	16063.65
503.618	16065
503.987	16128.5
504.356	16341.15
504.724	16504.76
505.093	16583.86
505.462	16642.39
505.83	16741.14
506.199	16892.32
506.567	17132.09
506.936	17130.96
507.304	17290.51
507.672	17463.61
508.041	17464.96
508.409	17701.34
508.777	17827.67
509.145	17993.31
509.514	18010.71
509.882	18166.41
510.25	18249.35
510.618	18361.89
510.986	18391.49
511.354	18636.23
511.722	18695.67
512.09	19021.08
512.458	18923.46
512.826	19088.88
513.193	19199.83
513.561	19259.49
513.929	19457.68
514.297	19613.83
514.664	19708.3
515.032	19836.65
515.4	20056.99
515.767	20152.13
516.135	20351.67
516.502	20264.89
516.869	20705.78
517.237	20735.84
517.604	20681.38
517.972	20984.65
518.339	21072.33
518.706	21281.36
519.073	21293.56
519.44	21492.88
519.808	21739.88
520.175	21751.41
520.542	22047.67
520.909	22050.61
521.276	22199.08
521.643	22470.71
522.009	22529.24
522.376	22759.74
522.743	22839.74
523.11	23047.42
523.477	23325.83
523.843	23440.4
524.21	23815.31
524.577	23923.1
524.943	24079.93
525.31	24118.35
525.676	24433.14
526.043	24563.53
526.409	24735.51
526.776	24923.07
527.142	25000.36
527.508	25217.3
527.874	25408.03
528.241	25504.53
528.607	25545.88
528.973	25793.11
529.339	25766.89
529.705	26089.37
530.071	26324.84
530.437	26460.21
530.803	26715.12
531.169	27004.83
531.535	26879.18
531.901	27155.56
532.267	27204.82
532.632	27481.2
532.998	27453.4
533.364	27804.81
533.73	27684.58
534.095	28157.11
534.461	28072.37
534.826	28211.8
535.192	28433.94
535.557	28527.27
535.923	28433.26
536.288	28574.95
536.653	28681.39
537.019	28863.08
537.384	28969.07
537.749	29103.75
538.114	29267.82
538.479	29230.53
538.845	29509.62
539.21	29380.36
539.575	29618.32
539.94	29672.33
540.305	30005.43
540.67	29978.08
541.034	30167
541.399	30283.38
541.764	30200
542.129	30353.21
542.494	30364.51
542.858	30615.13
543.223	30592.08
543.587	30775.12
543.952	30579.2
544.316	30818.74
544.681	30802.01
545.045	30983.25
545.41	31089.47
545.774	31174.66
546.138	31320.65
546.503	31360.42
546.867	31494.43
547.231	31716.79
547.595	31960.4
547.959	31917.47
548.324	32023.68
548.688	32191.81
549.052	32352.03
549.416	32371.69
549.779	32243.33
550.143	32440.39
550.507	32509.31
550.871	32622.31
551.235	32457.79
551.599	32766.48
551.962	32870.89
552.326	32774.17
552.689	32990.66
553.053	32872.02
553.417	32913.15
553.78	33335.96
554.143	33313.81
554.507	33574.6
554.87	33784.31
555.234	34036.96
555.597	33978.2
555.96	34087.35
556.323	34319.21
556.686	34459.77
557.05	34620.45
557.413	34830.84
557.776	34764.85
558.139	34996.48
558.502	34887.56
558.865	34875.81
559.228	35128.91
559.59	35153.09
559.953	35114.67
560.316	35484.83
560.679	35580.65
561.041	35673.53
561.404	35799.62
561.767	35924.14
562.129	35920.75
562.492	36307.63
562.854	36314.64
563.217	36542.88
563.579	36692.93
563.941	36872.14
564.304	37268.06
564.666	37221.06
565.028	37310.09
565.39	37500.6
565.753	37826.46
566.115	38029.4
566.477	38042.73
566.839	38162.5
567.201	38294.7
567.563	38217.19
567.925	38336.96
568.287	38331.53
568.648	38283.4
569.01	38541.25
569.372	38598.65
569.734	38456.95
570.095	38783.27
570.457	38903.04
570.819	39134.45
571.18	39109.82
571.542	39298.74
571.903	39610.6
572.265	39650.82
572.626	39794.09
572.987	39997.25
573.349	40043.13
573.71	40385.27
574.071	40561.08
574.432	40600.85
574.794	40903.67
575.155	40713.17
575.516	40600.18
575.877	40835.2
576.238	40637.46
576.599	40806.95
576.96	40834.75
577.32	40874.52
577.681	40978.02
578.042	41040.62
578.403	41016.21
578.763	41159.71
579.124	41082.65
579.485	41233.61
579.845	41363.32
580.206	41359.03
580.566	41482.86
580.927	41615.52
581.287	41896.86
581.648	41674.05
582.008	42125.33
582.368	41932.12
582.728	42138.21
583.089	42219.34
583.449	42104.09
583.809	42209.4
584.169	42365.33
584.529	42237.42
584.889	42493.01
585.249	42196.29
585.609	42084.2
585.969	42266.35
586.329	42131.66
586.688	42126.46
587.048	41949.74
587.408	41934.83
587.768	41916.98
588.127	41836.08
588.487	41815.74
588.846	42159.91
589.206	41944.32
589.565	41966.47
589.925	42226.35
590.284	42041.95
590.643	42194.26
591.003	42565.32
591.362	42518.54
591.721	42622.04
592.08	42720.35
592.44	42801.7
592.799	42794.24
593.158	42902.94
593.517	42859.55
593.876	42900
594.235	42687.35
594.593	42802.83
594.952	42803.73
595.311	42553.34
595.67	42667.69
596.029	42895.48
596.387	42875.6
596.746	42820.46
597.104	42585.43
597.463	42533.91
597.822	42686
598.18	42609.61
598.538	42471.76
598.897	42789.5
599.255	42456.62
599.613	43097.06
599.972	42979.32
600.33	43173.89
600.688	43090.51
601.046	43281.23
601.404	43460.67
601.762	43374.79
602.12	43608.46
602.478	43739.3
602.836	43786.08
603.194	43631.28
603.552	43655.46
603.91	43535.24
604.268	43724.61
604.625	43390.61
604.983	43518.52
605.341	43125.76
605.698	43236.26
606.056	43412.08
606.413	43337.5
606.771	43525.3
607.128	43543.15
607.485	43301.35
607.843	43400.55
608.2	43620.21
608.557	43769.58
608.914	43610.72
609.272	43897.94
609.629	43950.14
609.986	44219.52
610.343	43956.25
610.7	44293.64
611.057	44403.24
611.414	44382
611.771	44505.61
612.127	44680.29
612.484	44670.12
612.841	44844.13
613.198	44594.19
613.554	44779.73
613.911	44978.59
614.267	44929.78
614.624	44883.68
614.98	44999.16
615.337	45169.09
615.693	44927.29
616.05	44855.2
616.406	44980.63
616.762	44760.52
617.118	44799.61
617.475	44673.06
617.831	44710.8
618.187	44606.85
618.543	44716.68
618.899	45018.82
619.255	44897.92
619.611	44983.79
619.967	45087.29
620.323	45145.37
620.678	45108.98
621.034	45257.45
621.39	45214.52
621.746	45205.03
622.101	45778.12
622.457	45429.88
622.812	45614.96
623.168	45688.63
623.523	45774.95
623.879	45779.47
624.234	45543.77
624.589	45640.95
624.945	45786.03
625.3	45580.16
625.655	45611.57
626.01	45470.78
626.365	45417
626.72	45390.33
627.075	45285.7
627.43	45212.94
627.785	45050
628.14	45107.4
628.495	45201.64
628.85	45054.52
629.205	45032.15
629.559	45016.1
629.914	45000.51
630.269	45083
630.623	45003.22
630.978	45014.07
631.332	45256.55
631.687	45387.85
632.041	45080.74
632.396	45332.03
632.75	45273.72
633.104	45468.52
633.459	45148.76
633.813	45287.74
634.167	45264.01
634.521	45202.31
634.875	45317.11
635.229	45166.61
635.583	44892.04
635.937	45051.36
636.291	45078.7
636.645	44935.43
636.999	44730.46
637.352	44786.51
637.706	44468.77
638.06	44476.46
638.413	44402.34
638.767	44142.23
639.121	44074.43
639.474	43752.63
639.828	43823.82
640.181	43964.61
640.534	44007.77
640.888	43787.89
641.241	43693.65
641.594	43741.79
641.947	43794.89
642.301	43833.31
642.654	43896.81
643.007	43799.41
643.36	43911.95
643.713	43852.07
644.066	44076.92
644.419	43928.45
644.771	43905.4
645.124	43837.83
645.477	43883.48
645.83	43617.5
646.182	43085.53
646.535	42676.73
646.888	42711.53
647.24	42381.15
647.593	42560.58
647.945	42374.59
648.298	42224.31
648.65	42163.3
649.002	41940.03
649.355	42146.12
649.707	42037.2
650.059	42242.17
650.411	42719.44
650.763	42869.49
651.115	43094.57
651.467	42828.37
651.819	42831.08
652.171	42804.64
652.523	42708.59
652.875	42779.55
653.227	42513.12
653.578	42983.84
653.93	42839.44
654.282	42697.3
654.633	42683.51
654.985	42651.87
655.337	42910.62
655.688	42671.76
656.039	42999.21
656.391	42685.54
656.742	42875.6
657.094	42933.67
657.445	43085.08
657.796	43067.23
658.147	43055.03
658.498	42967.34
658.849	43019.09
659.2	42947.68
659.551	42723.06
659.902	42994.01
660.253	42726.22
660.604	42862.26
660.955	42578.43
661.306	42626.79
661.656	42492.78
662.007	42262.73
662.358	42388.38
662.708	42090.31
663.059	42202.39
663.409	41791.1
663.76	42260.92
664.11	42024.77
664.461	42156.74
664.811	41885.11
665.161	42140.47
665.511	41996.75
665.862	41930.08
666.212	42236.97
666.562	42287.14
666.912	42244.2
667.262	42271.77
667.612	42324.65
667.962	42550.86
668.312	42417.53
668.662	42628.82
669.011	42692.78
669.361	42686.67
669.711	42646
670.06	42472.89
670.41	42651.42
670.76	42417.3
671.109	42608.03
671.459	42357.64
671.808	42408.49
672.157	42488.49
672.507	42054.83
672.856	42133.24
673.205	42229.96
673.554	42142.96
673.904	41993.81
674.253	42098.67
674.602	41867.94
674.951	41082.42
675.3	40806.72
675.649	41373.71
675.998	41364.22
676.346	41261.4
676.695	41419.14
677.044	40880.62
677.393	41097.34
677.741	41148.64
678.09	41043.55
678.438	41041.75
678.787	41024.57
679.135	41127.62
679.484	40716.56
679.832	41176.66
680.181	40977.57
680.529	41180.95
680.877	40998.81
681.225	41095.08
681.573	41405.8
681.922	41184.34
682.27	41136.43
682.618	41137.34
682.966	41145.47
683.314	41055.98
683.661	41005.36
684.009	40938.25
684.357	40752.71
684.705	40733.51
685.053	40667.07
685.4	40600.85
685.748	40321.99
686.095	40188.43
686.443	39970.36
686.79	39840.87
687.138	39931.94
687.485	39849.69
687.832	39531.73
688.18	39597.94
688.527	39301.45
688.874	39119.54
689.221	39024.85
689.568	39002.25
689.915	38752.77
690.262	38864.63
690.609	38703.73
690.956	38535.6
691.303	38453.34
691.65	38587.35
691.997	38531.08
692.344	38145.32
692.69	38269.84
693.037	38201.14
693.383	38049.96
693.73	38235.04
694.077	38160.47
694.423	38233.91
694.769	38077.08
695.116	37921.38
695.462	37855.84
695.808	37909.17
696.155	37820.59
696.501	37643.42
696.847	37633.47
697.193	37293.6
697.539	37504.89
697.885	37267.16
698.231	37116.2
698.577	37050.66
698.923	36918.92
699.269	36814.74
699.614	36435.31
699.96	36273.74
700.306	36256.11
700.651	35978.83
700.997	35757.36
701.342	35746.97
701.688	35585.62
702.033	35359.64
702.379	35353.08
702.724	35315.34
703.069	35337.26
703.415	34880.78
703.76	34947.89
704.105	34912.19
704.45	34785.19
704.795	34597.17
705.14	34497.96
705.485	34525.08
705.83	34415.25
706.175	34645.53
706.52	34390.85
706.865	34429.94
707.209	34375.03
707.554	34359.21
707.899	34470.17
708.243	34198.08
708.588	34370.96
708.932	34171.64
709.277	34144.3
709.621	34172.77
709.966	33910.86
710.31	34191.3
710.654	33871.09
710.998	33842.39
711.342	33999.22
711.687	33740.02
712.031	33665.44
712.375	33443.75
712.719	33535.28
713.063	33438.56
713.407	33354.49
713.75	33145.68
714.094	33061.84
714.438	32830.66
714.782	32967.16
715.125	32632.93
715.469	32716.54
715.812	32422.54
716.156	32219.83
716.499	32174.86
716.843	32026.39
717.186	31902.33
717.53	31853.74
717.873	31967.18
718.216	31981.42
718.559	31752.72
718.902	31585.27
719.246	31813.06
719.589	31679.96
719.932	31627.3
720.275	31705.95
720.617	31732.61
720.96	31754.98
721.303	31865.94
721.646	31858.94
721.989	31780.97
722.331	31933.74
722.674	31898.48
723.016	31877.01
723.359	31888.54
723.701	31705.49
724.044	31609
724.386	31379.4
724.729	31701.2
725.071	31710.24
725.413	31645.38
725.755	31717.25
726.097	31600.86
726.439	31437.93
726.782	31445.84
727.124	31449.68
727.465	31225.96
727.807	31134.66
728.149	31008.79
728.491	30899.41
728.833	31053.76
729.175	30754.33
729.516	30872.75
729.858	30776.25
730.199	30789.59
730.541	30708.23
730.882	30638.86
731.224	30677.72
731.565	30406.55
731.906	30578.52
732.248	30508.92
732.589	30251.07
732.93	30319.54
733.271	30304.17
733.612	30395.7
733.953	30459.88
734.294	30382.82
734.635	30337.17
734.976	30473.44
735.317	30240
735.658	30444.74
735.999	30417.17
736.339	30543.04
736.68	30583.72
737.021	30343.27
737.361	30397.96
737.702	30628.01
738.042	30554.79
738.383	30604.96
738.723	30835.23
739.063	30642.25
739.404	30743.49
739.744	30711.4
740.084	30506.88
740.424	30661
740.764	30803.82
741.104	30835.01
741.444	30535.13
741.784	30543.49
742.124	30578.97
742.464	30592.3
742.804	30597.27
743.143	30442.7
743.483	30489.48
743.823	30268.47
744.162	30173.56
744.502	30339.88
744.841	30097.85
745.181	30268.24
745.52	30062.15
745.86	30134.91
746.199	30051.98
746.538	30076.84
746.877	30139.66
747.216	30064.41
747.556	30026.22
747.895	30049.27
748.234	30034.35
748.573	30129.49
748.911	29954.35
749.25	30094.69
749.589	30078.64
749.928	30188.47
750.267	30214.91
750.605	30122.48
750.944	30172.2
751.283	30207.91
751.621	30324.97
751.96	30322.93
752.298	30430.73
752.636	30584.85
752.975	30419.43
753.313	30424.17
753.651	30571.74
753.989	30367.45
