Data from blue_shiny_book_FLMS001491_00075.txt Node
Date: Wed Feb 08 15:27:31 GMT 2017
User: dcchb
Spectrometer: FLMS00149
Trigger mode: 0
Integration Time (sec): 2.000000E-2
Scans to average: 10
Electric dark correction enabled: true
Nonlinearity correction enabled: false
Boxcar width: 0
XAxis mode: Wavelengths
Number of Pixels in Spectrum: 2048
>>>>>Begin Spectral Data<<<<<
341.393	-18.98
341.776	-18.98
342.16	-18.98
342.543	-63.95
342.927	-86.1
343.31	-64.41
343.693	-55.82
344.077	-64.86
344.46	-52.88
344.843	-35.03
345.226	-24.41
345.61	-44.52
345.993	-24.41
346.376	-15.59
346.759	13.56
347.142	29.83
347.525	50.17
347.908	49.72
348.291	52.43
348.674	92.2
349.057	94.01
349.44	128.13
349.823	131.75
350.206	169.49
350.588	178.98
350.971	202.93
351.354	220.11
351.737	242.48
352.119	227.56
352.502	256.94
352.884	254.91
353.267	290.39
353.65	287.45
354.032	296.04
354.414	294.23
354.797	318.18
355.179	323.61
355.562	314.34
355.944	330.39
356.326	335.58
356.709	331.06
357.091	361.35
357.473	336.04
357.855	335.36
358.238	339.43
358.62	346.43
359.002	324.51
359.384	333.55
359.766	336.49
360.148	328.13
360.53	334.91
360.912	345.3
361.294	345.75
361.676	336.94
362.057	342.14
362.439	327
362.821	334
363.203	327.45
363.584	322.48
363.966	305.08
364.348	349.14
364.729	329.93
365.111	336.49
365.493	332.65
365.874	330.61
366.256	331.29
366.637	326.77
367.019	316.6
367.4	309.37
367.781	318.86
368.163	334.68
368.544	343.72
368.925	294.46
369.306	334
369.688	320.22
370.069	326.32
370.45	314.79
370.831	326.32
371.212	307.34
371.593	326.77
371.974	325.19
372.355	318.86
372.736	342.36
373.117	304.62
373.498	322.7
373.879	349.82
374.26	334.45
374.641	321.8
375.021	332.87
375.402	327.45
375.783	316.38
376.163	354.79
376.544	355.02
376.925	339.2
377.305	347.34
377.686	337.17
378.066	325.19
378.447	343.95
378.827	340.33
379.208	341.23
379.588	357.73
379.968	349.37
380.349	371.97
380.729	345.3
381.109	364.28
381.489	341.23
381.87	361.12
382.25	379.65
382.63	371.29
383.01	359.09
383.39	357.96
383.77	343.04
384.15	383.94
384.53	380.1
384.91	370.39
385.29	392.31
385.67	411.29
386.049	410.38
386.429	398.86
386.809	398.63
387.189	384.85
387.568	397.28
387.948	394.57
388.328	422.36
388.707	408.8
389.087	387.79
389.466	425.53
389.846	415.58
390.225	425.53
390.605	434.11
390.984	423.49
391.363	438.41
391.743	473.43
392.122	452.42
392.501	451.74
392.881	457.62
393.26	455.13
393.639	473.66
394.018	441.34
394.397	479.99
394.776	464.17
395.155	487.9
395.534	471.4
395.913	459.2
396.292	493.77
396.671	471.63
397.05	489.03
397.429	495.13
397.808	502.81
398.186	482.93
398.565	507.11
398.944	517.27
399.323	518.4
399.701	486.77
400.08	519.53
400.458	531.74
400.837	525.64
401.215	540.78
401.594	531.29
401.972	550.95
402.351	547.56
402.729	557.95
403.107	579.19
403.486	563.38
403.864	569.25
404.242	586.43
404.62	592.3
404.999	592.53
405.377	614.9
405.755	606.76
406.133	629.36
406.511	638.18
406.889	635.01
407.267	634.79
407.645	629.59
408.023	678.17
408.401	665.97
408.779	649.47
409.156	670.49
409.534	661
409.912	697.16
410.29	721.11
410.667	729.25
411.045	716.59
411.422	723.6
411.8	730.6
412.178	750.04
412.555	770.38
412.933	779.41
413.31	783.26
413.687	796.14
414.065	794.33
414.442	812.18
414.819	805.85
415.197	830.26
415.574	842.24
415.951	852.18
416.328	846.53
416.705	876.14
417.082	882.01
417.46	871.16
417.837	900.09
418.214	923.37
418.591	903.25
418.967	921.78
419.344	925.85
419.721	943.25
420.098	934.44
420.475	950.71
420.852	975.34
421.228	982.35
421.605	1011.95
421.982	1018.05
422.358	1038.84
422.735	1037.49
423.111	1040.88
423.488	1035.45
423.864	1054.89
424.241	1059.86
424.617	1093.08
424.994	1097.15
425.37	1117.94
425.746	1128.56
426.123	1111.16
426.499	1147.54
426.875	1176.24
427.251	1174.43
427.627	1194.09
428.003	1201.78
428.379	1240.87
428.756	1232.74
429.132	1232.74
429.507	1275.22
429.883	1296.69
430.259	1285.39
430.635	1348.44
431.011	1340.98
431.387	1379.85
431.763	1400.19
432.138	1417.82
432.514	1442.9
432.89	1431.83
433.265	1468.89
433.641	1483.8
434.016	1508.21
434.392	1521.99
434.767	1544.82
435.143	1554.76
435.518	1568.09
435.894	1576.68
436.269	1623.46
436.644	1684.25
437.02	1671.82
437.395	1713.85
437.77	1706.85
438.145	1739.62
438.52	1779.39
438.895	1758.82
439.271	1782.33
439.646	1819.84
440.021	1811.93
440.395	1842.89
440.77	1848.54
441.145	1867.3
441.52	1924.7
441.895	1928.99
442.27	1966.73
442.645	1939.38
443.019	1958.14
443.394	1981.19
443.769	2022.77
444.143	1998.14
444.518	2035.43
444.892	2023.22
445.267	2040.62
445.641	2104.13
446.016	2102.77
446.39	2120.85
446.764	2162.43
447.139	2154.29
447.513	2173.5
447.887	2190.22
448.262	2178.93
448.636	2214.41
449.01	2211.02
449.384	2276.55
449.758	2251.92
450.132	2277.23
450.506	2307.96
450.88	2346.15
451.254	2374.63
451.628	2386.6
452.002	2413.95
452.376	2432.93
452.75	2493.27
453.123	2490.1
453.497	2560.61
453.871	2542.53
454.244	2625.24
454.618	2617.33
454.992	2637.44
455.365	2650.1
455.739	2716.76
456.112	2743.43
456.486	2766.93
456.859	2814.39
457.232	2879.7
457.606	2912.69
457.979	2929.87
458.352	2959.02
458.725	3026.36
459.099	3050.32
459.472	3103.2
459.845	3146.36
460.218	3151.78
460.591	3195.17
460.964	3173.93
461.337	3281.72
461.71	3338.22
462.083	3371.89
462.456	3421.6
462.829	3453.92
463.201	3528.27
463.574	3499.79
463.947	3577.53
464.32	3650.53
464.692	3679.45
465.065	3682.39
465.438	3728.72
465.81	3821.82
466.183	3819.11
466.555	3906.34
466.928	3964.19
467.3	3980.01
467.672	4044.87
468.045	4177.97
468.417	4168.93
468.789	4252.09
469.161	4256.39
469.534	4344.74
469.906	4425.65
470.278	4451.63
470.65	4508.81
471.022	4608.01
471.394	4626.55
471.766	4656.37
472.138	4756.94
472.51	4873.09
472.882	4969.81
473.253	5019.3
473.625	5106.08
473.997	5220.43
474.369	5257.71
474.74	5311.27
475.112	5428.78
475.484	5484.83
475.855	5599.4
476.227	5663.35
476.598	5806.63
476.97	5826.29
477.341	5994.42
477.713	6047.98
478.084	6133.85
478.455	6281.64
478.827	6353.05
479.198	6518.25
479.569	6546.49
479.94	6675.53
480.311	6751.91
480.682	6966.6
481.053	7135.18
481.424	7185.35
481.795	7276.19
482.166	7383.31
482.537	7495.4
482.908	7604.09
483.279	7813.35
483.65	7848.83
484.021	8047.7
484.391	8119.33
484.762	8246.34
485.133	8296.96
485.503	8408.82
485.874	8658.98
486.244	8739.66
486.615	8841.8
486.985	8969.48
487.356	9184.84
487.726	9221.68
488.097	9477.26
488.467	9455.8
488.837	9689.24
489.207	9806.97
489.578	9943.92
489.948	10035.67
490.318	10156.34
490.688	10302.78
491.058	10472.04
491.428	10611.7
491.798	10726.27
492.168	10908.19
492.538	10978.47
492.908	11048.75
493.278	11267.5
493.648	11297.78
494.017	11462.98
494.387	11504.33
494.757	11601.73
495.126	11745.45
495.496	11810.08
495.866	12001.49
496.235	12059.8
496.605	12210.3
496.974	12323.29
497.344	12438.99
497.713	12522.83
498.082	12669.5
498.452	12751.98
498.821	12855.03
499.19	12861.58
499.559	13100.67
499.928	13093.67
500.298	13140.67
500.667	13376.82
501.036	13328.92
501.405	13468.35
501.774	13541.34
502.143	13683.71
502.512	13814.1
502.88	13939.07
503.249	14009.35
503.618	14098.61
503.987	14127.09
504.356	14266.29
504.724	14318.72
505.093	14417.47
505.462	14454.54
505.83	14680.29
506.199	14776.33
506.567	14938.36
506.936	14871.25
507.304	15056.55
507.672	15098.36
508.041	15153.73
508.409	15282.76
508.777	15559.14
509.145	15707.16
509.514	15728.63
509.882	15796.87
510.25	15934.27
510.618	16030.54
510.986	16104.21
511.354	16259.46
511.722	16418.1
512.09	16534.03
512.458	16481.83
512.826	16674.14
513.193	16757.98
513.561	16896.73
513.929	16867.13
514.297	17076.39
514.664	17125.43
515.032	17232.54
515.4	17447.45
515.767	17555.47
516.135	17654.9
516.502	17643.38
516.869	17971.96
517.237	17931.28
517.604	18095.8
517.972	18321.55
518.339	18363.36
518.706	18504.15
519.073	18613.52
519.44	18726.74
519.808	18836.11
520.175	18797.92
520.542	19029.33
520.909	19207.18
521.276	19201.3
521.643	19448.75
522.009	19546.38
522.376	19629.31
522.743	19852.81
523.11	20072.24
523.477	20283.08
523.843	20469.07
524.21	20674.71
524.577	20820.24
524.943	21053.46
525.31	21058.88
525.676	21403.51
526.043	21476.05
526.409	21536.38
526.776	21658.64
527.142	21790.84
527.508	21756.04
527.874	22061.79
528.241	22039.87
528.607	22166.2
528.973	22345.85
529.339	22404.83
529.705	22627.88
530.071	22825.16
530.437	23012.5
530.803	23251.14
531.169	23358.93
531.535	23500.4
531.901	23636.89
532.267	23692.26
532.632	23960.05
532.998	24056.54
533.364	24098.58
533.73	24260.15
534.095	24293.37
534.461	24352.35
534.826	24408.4
535.192	24603.65
535.557	24630.54
535.923	24521.62
536.288	24649.07
536.653	24786.24
537.019	24853.58
537.384	24932.68
537.749	25250.41
538.114	25244.99
538.479	25212.44
538.845	25457.18
539.21	25546.22
539.575	25842.94
539.94	25903.5
540.305	26007.45
540.67	25961.58
541.034	25985.76
541.399	26200.22
541.764	26158.63
542.129	26269.82
542.494	26333.77
542.858	26270.27
543.223	26364.5
543.587	26490.15
543.952	26392.53
544.316	26574.67
544.681	26492.86
545.045	26741.44
545.41	26769.47
545.774	26845.62
546.138	26937.82
546.503	27174.2
546.867	27152.73
547.231	27508.88
547.595	27531.25
547.959	27705.49
548.324	27615.09
548.688	27780.96
549.052	27864.35
549.416	27769.21
549.779	27895.09
550.143	27704.13
550.507	27888.53
550.871	27798.82
551.235	27847.86
551.599	28022.09
551.962	27999.26
552.326	28051.47
552.689	28229.09
553.053	28090.79
553.417	28198.81
553.78	28678.12
554.143	28440.83
554.507	28739.58
554.87	28960.59
555.234	29224.99
555.597	29068.39
555.96	29295.27
556.323	29309.29
556.686	29488.49
557.05	29481.71
557.413	29616.62
557.776	29573.01
558.139	29787.24
558.502	29813.23
558.865	29632.89
559.228	29785.21
559.59	29796.28
559.953	29687.81
560.316	29981.58
560.679	30144.97
561.041	30247.79
561.404	30452.76
561.767	30593.55
562.129	30583.15
562.492	30812.75
562.854	30920.09
563.217	31028.11
563.579	31271.95
563.941	31465.39
564.304	31529.11
564.666	31803.91
565.028	31921.42
565.39	31864.7
565.753	32128.19
566.115	32164.35
566.477	32304.91
566.839	32313.27
567.201	32347.62
567.563	32353.05
567.925	32382.43
568.287	32369.32
568.648	32414.51
569.01	32573.83
569.372	32699.25
569.734	32656.32
570.095	32837.33
570.457	33072.58
570.819	33177.88
571.18	33264.66
571.542	33545.11
571.903	33470.76
572.265	33806.57
572.626	33898.09
572.987	34096.96
573.349	34199.33
573.71	34302.83
574.071	34431.64
574.432	34482.94
574.794	34576.72
575.155	34508.47
575.516	34347.12
575.877	34484.74
576.238	34476.61
576.599	34537.62
576.96	34476.83
577.32	34433.22
577.681	34562.48
578.042	34721.57
578.403	34566.55
578.763	34667.79
579.124	34764.28
579.485	34943.71
579.845	35101.22
580.206	35106.2
580.566	35100.77
580.927	35387.09
581.287	35469.12
581.648	35470.25
582.008	35721.55
582.368	35496.02
582.728	35879.06
583.089	35816.69
583.449	35703.02
583.809	35693.98
584.169	35669.12
584.529	35576.01
584.889	35790.7
585.249	35545.51
585.609	35266.64
585.969	35587.31
586.329	35286.53
586.688	35250.37
587.048	35455.79
587.408	35385.28
587.768	35316.81
588.127	35475.23
588.487	35342.35
588.846	35669.57
589.206	35380.54
589.565	35532.63
589.925	35933.74
590.284	35771.26
590.643	35891.49
591.003	36152.72
591.362	36335.99
591.721	36166.73
592.08	36183
592.44	36381.19
592.799	36292.61
593.158	36323.56
593.517	36222.32
593.876	36249.67
594.235	35989.79
594.593	36167.86
594.952	36079.73
595.311	35945.72
595.67	35835.22
596.029	36076.11
596.387	36072.95
596.746	36046.06
597.104	35659.63
597.463	35938.26
597.822	35960.64
598.18	36108.88
598.538	36068.88
598.897	36144.59
599.255	35947.08
599.613	36528.53
599.972	36198.14
600.33	36461.64
600.688	36348.87
601.046	36728.75
601.404	36844.23
601.762	36678.13
602.12	36942.31
602.478	36913.38
602.836	36814.63
603.194	36646.27
603.552	36644.23
603.91	36438.59
604.268	36647.17
604.625	36456.44
604.983	36516.55
605.341	36308.88
605.698	36392.04
606.056	36481.53
606.413	36611.69
606.771	36490.57
607.128	36482.88
607.485	36466.61
607.843	36506.16
608.2	36827.51
608.557	36887.62
608.914	36859.37
609.272	36996.09
609.629	37152.47
609.986	37365.8
610.343	37291
610.7	37328.06
611.057	37365.12
611.414	37506.36
611.771	37535.51
612.127	37728.05
612.484	37777.99
612.841	37773.92
613.198	37655.06
613.554	37815.5
613.911	37968.72
614.267	37936.86
614.624	37641.27
614.98	37749.74
615.337	37954.03
615.693	37620.25
616.05	37462.52
616.406	37713.36
616.762	37567.37
617.118	37590.65
617.475	37683.75
617.831	37772.11
618.187	37709.74
618.543	37734.6
618.899	38213.68
619.255	38074.93
619.611	37992.45
619.967	38208.49
620.323	38287.58
620.678	38225.44
621.034	38271.54
621.39	38382.95
621.746	38419.55
622.101	39006.43
622.457	38573
622.812	38632.66
623.168	38638.31
623.523	38742.48
623.879	38748.36
624.234	38637.18
624.589	38513.11
624.945	38670.62
625.3	38602.37
625.655	38500.46
626.01	38493.9
626.365	38455.03
626.72	38277.64
627.075	38306.56
627.43	38246.68
627.785	38095.72
628.14	38134.59
628.495	38201.03
628.85	38069.51
629.205	37986.57
629.559	38314.92
629.914	38113.57
630.269	38119.22
630.623	38173.91
630.978	38143.18
631.332	38412.32
631.687	38483.28
632.041	38372.32
632.396	38355.15
632.75	38214.81
633.104	38503.17
633.459	38115.83
633.813	38220.69
634.167	38271.76
634.521	38122.16
634.875	38228.15
635.229	37997.87
635.583	37872.45
635.937	37802.85
636.291	37798.55
636.645	37788.16
636.999	37574.61
637.352	37662.06
637.706	37420.49
638.06	37597.2
638.413	37423.42
638.767	37222.52
639.121	37140.72
639.474	37008.74
639.828	36878.8
640.181	36941.4
640.534	36846.71
640.888	36883.1
641.241	36831.12
641.594	36999.03
641.947	37124.22
642.301	36985.02
642.654	37112.24
643.007	37068.18
643.36	37061.17
643.713	37060.04
644.066	37195.18
644.419	37019.59
644.771	37144.56
645.124	37071.79
645.477	36893.04
645.83	36779.37
646.182	36593.61
646.535	36221.65
646.888	35995.66
647.24	35598.16
647.593	35671.83
647.945	35566.75
648.298	35431.38
648.65	35246.08
649.002	35270.71
649.355	35406.3
649.707	35424.61
650.059	35682.68
650.411	36145.04
650.763	36092.84
651.115	36488.98
651.467	36199.27
651.819	36343.23
652.171	36222.1
652.523	36164.7
652.875	36075.66
653.227	36008.32
653.578	36201.31
653.93	36208.09
654.282	36130.12
654.633	35981.65
654.985	36179.84
655.337	36272.04
655.688	36134.42
656.039	36435.43
656.391	36131.25
656.742	36268.2
657.094	36330.34
657.445	36484.24
657.796	36291.48
658.147	36239.95
658.498	36287.86
658.849	36240.18
659.2	36225.26
659.551	36020.52
659.902	36197.01
660.253	36030.69
660.604	36113.17
660.955	35975.33
661.306	36024.59
661.656	35793.64
662.007	35796.57
662.358	35717.7
662.708	35746.4
663.059	35729
663.409	35475.45
663.76	35722
664.11	35608.1
664.461	35545.05
664.811	35426.87
665.161	35439.29
665.511	35484.26
665.862	35532.85
666.212	35726.52
666.562	35597.71
666.912	35616.69
667.262	35741.89
667.612	35817.36
667.962	35945.27
668.312	35948.21
668.662	36129.67
669.011	35918.6
669.361	35973.07
669.711	35905.5
670.06	35914.76
670.41	35828.66
670.76	35805.61
671.109	35762.9
671.459	35725.39
671.808	35625.73
672.157	35632.74
672.507	35522.91
672.856	35381.22
673.205	35448.56
673.554	35500.99
673.904	35209.47
674.253	35397.71
674.602	34992.53
674.951	34472.09
675.3	34360.9
675.649	34957.95
675.998	34909.36
676.346	34863.94
676.695	34932.64
677.044	34542.59
677.393	34649.26
677.741	34813.55
678.09	34772.87
678.438	34578.75
678.787	34691.74
679.135	34642.25
679.484	34470.28
679.832	34738.75
680.181	34460.34
680.529	34814.68
680.877	34791.85
681.225	34954.11
681.573	35102.13
681.922	34598.41
682.27	34688.13
682.618	34868.24
682.966	34632.08
683.314	34695.58
683.661	34531.97
684.009	34222.15
684.357	34130.4
684.705	34268.48
685.053	34214.47
685.4	34129.27
685.748	33849.51
686.095	33768.38
686.443	33620.36
686.79	33541.49
687.138	33466.01
687.485	33491.77
687.832	33237.54
688.18	33231.89
688.527	33006.14
688.874	32856.99
689.221	32812.47
689.568	32798.91
689.915	32587.17
690.262	32806.37
690.609	32583.1
690.956	32377.91
691.303	32433.27
691.65	32216.78
691.997	32278.93
692.344	31988.09
692.69	32078.93
693.037	32158.7
693.383	31999.38
693.73	32058.59
694.077	31998.93
694.423	31931.82
694.769	31913.51
695.116	31845.04
695.462	31680.07
695.808	31666.29
696.155	31788.54
696.501	31644.14
696.847	31593.52
697.193	31289.12
697.539	31379.74
697.885	31243.47
698.231	30964.61
698.577	30868.57
698.923	30620.21
699.269	30544.73
699.614	30499.31
699.96	30325.3
700.306	30264.29
700.651	30021.58
700.997	29901.36
701.342	29774.81
701.688	29761.03
702.033	29460.02
702.379	29489.17
702.724	29281.49
703.069	29419.11
703.415	29129.4
703.76	29078.78
704.105	29159.46
704.45	29046.24
704.795	28822.52
705.14	28873.59
705.485	28851.22
705.83	28708.62
706.175	28859.58
706.52	28720.37
706.865	28667.04
707.209	28907.49
707.554	28814.16
707.899	28631.11
708.243	28547.27
708.588	28598.34
708.932	28507.95
709.277	28508.63
709.621	28597.21
709.966	28348.86
710.31	28532.36
710.654	28140.73
710.998	28046.95
711.342	28091.46
711.687	28110.9
712.031	27882.43
712.375	27759.95
712.719	27857.8
713.063	27703.68
713.407	27618.93
713.75	27524.47
714.094	27405.83
714.438	27199.96
714.782	27243.35
715.125	27003.13
715.469	26986.86
715.812	26835.23
716.156	26591.84
716.499	26670.03
716.843	26675
717.186	26587.32
717.53	26705.51
717.873	26666.87
718.216	26633.2
718.559	26573.54
718.902	26426.42
719.246	26580.32
719.589	26618.74
719.932	26487.89
720.275	26434.33
720.617	26461.68
720.96	26342.58
721.303	26411.51
721.646	26458.74
721.989	26413.99
722.331	26672.97
722.674	26524.73
723.016	26616.7
723.359	26583.03
723.701	26535.12
724.044	26480.89
724.386	26238.41
724.729	26489.02
725.071	26271.4
725.413	26324.05
725.755	26285.41
726.097	26233.66
726.439	26028.92
726.782	25918.19
727.124	26106.21
727.465	25940.79
727.807	25845.42
728.149	25692.88
728.491	25674.81
728.833	25741.24
729.175	25525.66
729.516	25604.98
729.858	25401.37
730.199	25531.76
730.541	25397.3
730.882	25396.62
731.224	25379.45
731.565	25194.82
731.906	25265.32
732.248	25252.9
732.589	25193.91
732.93	25180.81
733.271	25254.48
733.612	25254.93
733.953	25237.98
734.294	25211.99
734.635	25174.25
734.976	25264.65
735.317	25206.79
735.658	25321.82
735.999	25347.13
736.339	25323.18
736.68	25430.07
737.021	25515.71
737.361	25366.34
737.702	25569.95
738.042	25309.17
738.383	25449.27
738.723	25595.49
739.063	25565.2
739.404	25651.75
739.744	25533.11
740.084	25445.43
740.424	25614.02
740.764	25441.59
741.104	25559.78
741.444	25303.74
741.784	25213.57
742.124	25250.86
742.464	25179.68
742.804	25080.92
743.143	25216.51
743.483	25284.76
743.823	25049.74
744.162	25045.22
744.502	25113.69
744.841	24943.07
745.181	25111.2
745.52	24891.32
745.86	24927.71
746.199	25034.37
746.538	25005.44
746.877	25000.7
747.216	24983.07
747.556	24987.14
747.895	25150.98
748.234	24902.4
748.573	24931.55
748.911	25013.13
749.25	25031.66
749.589	25127.02
749.928	25112.11
750.267	25185.78
750.605	25213.57
750.944	25230.98
751.283	25237.08
751.621	25454.02
751.96	25354.36
752.298	25445.43
752.636	25567.46
752.975	25500.12
753.313	25476.17
753.651	25727.01
