Data from blue_chair_FLMS001491_00099.txt Node
Date: Wed Feb 08 10:32:19 GMT 2017
User: dcchb
Spectrometer: FLMS00149
Trigger mode: 0
Integration Time (sec): 2.000000E-2
Scans to average: 10
Electric dark correction enabled: true
Nonlinearity correction enabled: false
Boxcar width: 0
XAxis mode: Wavelengths
Number of Pixels in Spectrum: 2048
>>>>>Begin Spectral Data<<<<<
341.393	-25.62
341.776	-25.62
342.16	-25.62
342.543	-74.21
342.927	-73.3
343.31	-61.55
343.693	-62
344.077	-57.48
344.46	-62.68
344.843	-44.38
345.226	-54.09
345.61	-32.85
345.993	-12.51
346.376	-0.08
346.759	7.82
347.142	21.61
347.525	66.13
347.908	39.91
348.291	72.91
348.674	78.11
349.057	101.16
349.44	104.09
349.823	112.91
350.206	137.54
350.588	182.51
350.971	193.13
351.354	188.16
351.737	199.23
352.119	220.47
352.502	247.14
352.884	250.53
353.267	250.76
353.65	266.8
354.032	265.22
354.414	251.89
354.797	281.26
355.179	290.98
355.562	271.32
355.944	308.83
356.326	305.44
356.709	307.03
357.091	298.89
357.473	310.19
357.855	304.09
358.238	313.58
358.62	292.11
359.002	302.05
359.384	280.36
359.766	316.29
360.148	331.66
360.53	304.77
360.912	289.4
361.294	296.63
361.676	287.37
362.057	300.25
362.439	286.24
362.821	289.4
363.203	302.73
363.584	303.18
363.966	292.79
364.348	276.07
364.729	297.76
365.111	281.94
365.493	280.13
365.874	266.35
366.256	272.22
366.637	287.14
367.019	279.23
367.4	252.34
367.781	270.42
368.163	274.03
368.544	271.32
368.925	296.86
369.306	280.36
369.688	279
370.069	289.85
370.45	286.46
370.831	290.08
371.212	279.91
371.593	278.1
371.974	275.39
372.355	300.25
372.736	257.08
373.117	285.56
373.498	269.29
373.879	272.9
374.26	280.81
374.641	269.51
375.021	289.85
375.402	283.07
375.783	269.74
376.163	272.45
376.544	276.29
376.925	270.19
377.305	267.25
377.686	276.52
378.066	283.75
378.447	301.6
378.827	267.7
379.208	295.27
379.588	276.97
379.968	272.22
380.349	276.29
380.729	310.42
381.109	288.04
381.489	273.13
381.87	287.14
382.25	275.61
382.63	276.29
383.01	288.5
383.39	288.95
383.77	310.87
384.15	308.38
384.53	283.98
384.91	292.34
385.29	288.27
385.67	307.03
386.049	291.21
386.429	317.2
386.809	314.03
387.189	290.3
387.568	307.03
387.948	297.53
388.328	295.5
388.707	304.09
389.087	307.7
389.466	304.09
389.846	308.61
390.225	316.07
390.605	335.05
390.984	303.64
391.363	305.44
391.743	297.53
392.122	312
392.501	303.64
392.881	299.12
393.26	287.37
393.639	302.96
394.018	314.94
394.397	289.4
394.776	321.71
395.155	338.66
395.534	317.65
395.913	302.96
396.292	312.9
396.671	292.56
397.05	320.58
397.429	334.6
397.808	307.7
398.186	320.81
398.565	329.62
398.944	330.53
399.323	302.28
399.701	328.27
400.08	319
400.458	326.01
400.837	325.78
401.215	337.76
401.594	332.79
401.972	317.87
402.351	353.35
402.729	328.27
403.107	333.69
403.486	335.5
403.864	340.92
404.242	363.07
404.62	348.83
404.999	342.28
405.377	349.74
405.755	340.7
406.133	354.48
406.511	361.26
406.889	364.2
407.267	339.12
407.645	349.74
408.023	357.42
408.401	344.54
408.779	356.74
409.156	365.33
409.534	377.53
409.912	371.88
410.29	367.14
410.667	353.13
411.045	367.36
411.422	370.53
411.8	357.65
412.178	375.05
412.555	398.55
412.933	392.45
413.31	391.32
413.687	382.5
414.065	369.17
414.442	388.61
414.819	404.65
415.197	398.55
415.574	403.52
415.951	416.4
416.328	403.97
416.705	392.67
417.082	402.39
417.46	411.43
417.837	409.85
418.214	412.79
418.591	403.07
418.967	413.46
419.344	408.94
419.721	420.47
420.098	402.16
420.475	393.58
420.852	425.67
421.228	414.82
421.605	406.23
421.982	414.14
422.358	429.06
422.735	415.27
423.111	422.95
423.488	430.19
423.864	417.98
424.241	412.11
424.617	446.46
424.994	444.2
425.37	455.5
425.746	475.16
426.123	456.4
426.499	470.41
426.875	459.34
427.251	474.48
427.627	476.06
428.003	473.8
428.379	479.9
428.756	461.37
429.132	482.39
429.507	467.7
429.883	475.38
430.259	478.77
430.635	488.26
431.011	492.11
431.387	475.16
431.763	499.11
432.138	510.18
432.514	502.95
432.89	527.81
433.265	545.89
433.641	534.59
434.016	535.27
434.392	526.91
434.767	551.31
435.143	532.78
435.518	535.95
435.894	547.92
436.269	568.04
436.644	563.52
437.02	570.97
437.395	573.46
437.77	581.14
438.145	585.66
438.52	582.5
438.895	605.32
439.271	603.74
439.646	589.73
440.021	615.49
440.395	620.46
440.77	610.29
441.145	616.62
441.52	627.24
441.895	624.98
442.27	637.41
442.645	638.09
443.019	637.64
443.394	653.68
443.769	662.04
444.143	655.94
444.518	677.86
444.892	664.3
445.267	670.63
445.641	707.69
446.016	695.94
446.39	722.38
446.764	687.35
447.139	686.22
447.513	667.47
447.887	663.4
448.262	710.18
448.636	714.02
449.01	715.15
449.384	717.41
449.758	705.89
450.132	718.77
450.506	728.03
450.88	714.47
451.254	733.91
451.628	756.51
452.002	744.75
452.376	749.95
452.75	762.61
453.123	775.49
453.497	799.22
453.871	795.37
454.244	802.15
454.618	804.19
454.992	803.06
455.365	790.18
455.739	818.65
456.112	821.59
456.486	816.62
456.859	839.67
457.232	840.35
457.606	827.92
457.979	844.64
458.352	842.83
458.725	854.81
459.099	848.71
459.472	868.37
459.845	871.76
460.218	873.11
460.591	880.57
460.964	901.36
461.337	898.42
461.71	917.41
462.083	929.83
462.456	876.28
462.829	929.61
463.201	921.92
463.574	937.07
463.947	950.85
464.32	942.26
464.692	955.14
465.065	970.51
465.438	994.92
465.81	987.91
466.183	981.13
466.555	1007.12
466.928	1003.05
467.3	1013.22
467.672	1005.76
468.045	1053.22
468.417	1034.46
468.789	1081.47
469.161	1043.28
469.534	1079.66
469.906	1082.6
470.278	1104.97
470.65	1081.02
471.022	1118.53
471.394	1119.66
471.766	1117.85
472.138	1098.64
472.51	1160.56
472.882	1161.01
473.253	1168.92
473.625	1191.52
473.997	1212.76
474.369	1206.44
474.74	1194.91
475.112	1217.28
475.484	1217.96
475.855	1254.57
476.227	1253.67
476.598	1275.36
476.97	1250.28
477.341	1282.59
477.713	1306.1
478.084	1310.39
478.455	1320.33
478.827	1329.6
479.198	1376.83
479.569	1368.69
479.94	1409.82
480.311	1423.61
480.682	1445.98
481.053	1454.57
481.424	1435.58
481.795	1426.54
482.166	1469.93
482.537	1485.98
482.908	1480.78
483.279	1523.94
483.65	1506.99
484.021	1533.89
484.391	1558.07
484.762	1565.07
485.133	1561.68
485.503	1578.18
485.874	1575.47
486.244	1583.15
486.615	1595.58
486.985	1622.92
487.356	1657.27
487.726	1620.66
488.097	1638.97
488.467	1685.52
488.837	1685.75
489.207	1711.96
489.578	1735.24
489.948	1728.23
490.318	1716.03
490.688	1738.85
491.058	1756.71
491.428	1768.23
491.798	1774.56
492.168	1784.05
492.538	1789.02
492.908	1809.36
493.278	1803.94
493.648	1817.49
494.017	1781.11
494.387	1808.91
494.757	1820.21
495.126	1860.66
495.496	1818.62
495.866	1847.32
496.235	1848.68
496.605	1854.1
496.974	1844.39
497.344	1878.51
497.713	1832.64
498.082	1857.49
498.452	1888.68
498.821	1845.74
499.19	1868.34
499.559	1854.56
499.928	1860.21
500.298	1884.39
500.667	1867.44
501.036	1858.4
501.405	1865.63
501.774	1896.36
502.143	1855.01
502.512	1898.17
502.88	1892.29
503.249	1879.64
503.618	1912.86
503.987	1923.03
504.356	1898.85
504.724	1873.99
505.093	1909.7
505.462	1924.38
505.83	1907.44
506.199	1869.7
506.567	1904.27
506.936	1896.81
507.304	1910.37
507.672	1878.51
508.041	1897.72
508.409	1919.19
508.777	1899.75
509.145	1949.24
509.514	1906.08
509.882	1923.48
510.25	1859.08
510.618	1904.5
510.986	1898.62
511.354	1929.58
511.722	1920.09
512.09	1913.54
512.458	1903.37
512.826	1891.84
513.193	1918.28
513.561	1897.49
513.929	1885.97
514.297	1890.26
514.664	1873.09
515.032	1898.85
515.4	1893.65
515.767	1900.88
516.135	1902.24
516.502	1878.06
516.869	1868.79
517.237	1847.1
517.604	1880.09
517.972	1859.53
518.339	1860.88
518.706	1855.46
519.073	1857.49
519.44	1883.26
519.808	1898.85
520.175	1805.52
520.542	1850.71
520.909	1823.37
521.276	1843.71
521.643	1863.82
522.009	1823.14
522.376	1852.07
522.743	1808.23
523.11	1850.04
523.477	1869.02
523.843	1832.41
524.21	1821.56
524.577	1807.1
524.943	1820.88
525.31	1815.91
525.676	1852.3
526.043	1827.44
526.409	1812.07
526.776	1815.23
527.142	1855.01
527.508	1793.54
527.874	1836.7
528.241	1793.77
528.607	1817.72
528.973	1820.43
529.339	1808.91
529.705	1802.35
530.071	1816.59
530.437	1804.84
530.803	1778.85
531.169	1784.5
531.535	1795.8
531.901	1798.06
532.267	1819.98
532.632	1782.47
532.998	1772.3
533.364	1801.22
533.73	1782.92
534.095	1772.75
534.461	1782.24
534.826	1771.17
535.192	1785.63
535.557	1739.08
535.923	1765.52
536.288	1757.38
536.653	1751.06
537.019	1746.31
537.384	1762.35
537.749	1743.15
538.114	1730.72
538.479	1734.56
538.845	1744.05
539.21	1702.92
539.575	1701.11
539.94	1697.72
540.305	1716.25
540.67	1681.9
541.034	1713.32
541.399	1716.71
541.764	1705.18
542.129	1680.32
542.494	1681.68
542.858	1658.63
543.223	1662.02
543.587	1674.67
543.952	1663.37
544.316	1647.1
544.681	1635.8
545.045	1638.97
545.41	1638.74
545.774	1640.32
546.138	1613.21
546.503	1598.29
546.867	1624.73
547.231	1616.37
547.595	1595.81
547.959	1625.86
548.324	1576.6
548.688	1582.92
549.052	1586.54
549.416	1565.52
549.779	1576.6
550.143	1580.44
550.507	1538.18
550.871	1565.52
551.235	1552.64
551.599	1535.02
551.962	1521.46
552.326	1537.95
552.689	1525.75
553.053	1518.07
553.417	1527.33
553.78	1524.85
554.143	1523.04
554.507	1529.14
554.87	1503.38
555.234	1492.31
555.597	1498.86
555.96	1493.89
556.323	1488.69
556.686	1481.23
557.05	1466.54
557.413	1473.55
557.776	1491.85
558.139	1501.12
558.502	1489.82
558.865	1482.59
559.228	1480.33
559.59	1478.29
559.953	1483.04
560.316	1483.04
560.679	1466.77
561.041	1470.84
561.404	1485.3
561.767	1510.84
562.129	1479.2
562.492	1474.23
562.854	1480.78
563.217	1493.21
563.579	1485.07
563.941	1470.16
564.304	1488.69
564.666	1489.14
565.028	1488.01
565.39	1484.85
565.753	1467.22
566.115	1473.1
566.477	1477.39
566.839	1481.68
567.201	1478.29
567.563	1502.47
567.925	1476.94
568.287	1480.55
568.648	1469.48
569.01	1490.95
569.372	1500.89
569.734	1474.9
570.095	1517.84
570.457	1487.56
570.819	1483.94
571.18	1499.99
571.542	1499.08
571.903	1490.27
572.265	1491.85
572.626	1496.83
572.987	1516.94
573.349	1513.32
573.71	1530.5
574.071	1479.2
574.432	1545.86
574.794	1561
575.155	1521.01
575.516	1543.6
575.877	1555.35
576.238	1539.31
576.599	1540.21
576.96	1542.93
577.32	1530.27
577.681	1555.13
578.042	1559.42
578.403	1548.58
578.763	1574.56
579.124	1565.75
579.485	1582.92
579.845	1571.4
580.206	1582.25
580.566	1561.91
580.927	1559.2
581.287	1599.2
581.648	1574.79
582.008	1582.02
582.368	1574.11
582.728	1590.61
583.089	1598.74
583.449	1587.22
583.809	1640.78
584.169	1586.09
584.529	1585.64
584.889	1601
585.249	1591.74
585.609	1575.47
585.969	1586.99
586.329	1598.74
586.688	1584.96
587.048	1609.36
587.408	1594
587.768	1593.55
588.127	1604.17
588.487	1605.97
588.846	1605.3
589.206	1596.48
589.565	1624.96
589.925	1608.69
590.284	1592.42
590.643	1583.6
591.003	1604.84
591.362	1598.97
591.721	1614.79
592.08	1592.19
592.44	1594.68
592.799	1588.12
593.158	1605.97
593.517	1605.52
593.876	1633.77
594.235	1615.92
594.593	1600.33
594.952	1591.96
595.311	1601
595.67	1617.95
596.029	1591.51
596.387	1625.41
596.746	1631.06
597.104	1593.55
597.463	1609.82
597.822	1607.33
598.18	1597.61
598.538	1584.28
598.897	1624.05
599.255	1595.58
599.613	1605.75
599.972	1581.79
600.33	1624.51
600.688	1599.42
601.046	1605.07
601.404	1610.72
601.762	1595.81
602.12	1582.25
602.478	1611.4
602.836	1618.63
603.194	1594.9
603.552	1579.99
603.91	1597.16
604.268	1612.98
604.625	1584.05
604.983	1590.16
605.341	1593.32
605.698	1592.42
606.056	1599.42
606.413	1592.42
606.771	1587.22
607.128	1609.14
607.485	1614.11
607.843	1611.85
608.2	1608.01
608.557	1566.88
608.914	1591.96
609.272	1605.97
609.629	1606.2
609.986	1598.29
610.343	1592.87
610.7	1635.8
611.057	1607.56
611.414	1643.04
611.771	1610.95
612.127	1612.98
612.484	1607.56
612.841	1591.96
613.198	1606.88
613.554	1628.12
613.911	1619.08
614.267	1619.76
614.624	1586.54
614.98	1600.55
615.337	1622.92
615.693	1617.73
616.05	1603.71
616.406	1638.06
616.762	1595.81
617.118	1634.9
617.475	1621.12
617.831	1594.45
618.187	1631.06
618.543	1646.2
618.899	1620.89
619.255	1623.38
619.611	1660.89
619.967	1637.84
620.323	1625.86
620.678	1641.45
621.034	1643.04
621.39	1637.16
621.746	1646.88
622.101	1637.16
622.457	1649.59
622.812	1627.44
623.168	1613.88
623.523	1626.54
623.879	1649.14
624.234	1618.18
624.589	1633.09
624.945	1636.93
625.3	1643.49
625.655	1633.32
626.01	1614.11
626.365	1631.74
626.72	1649.36
627.075	1617.5
627.43	1632.64
627.785	1628.12
628.14	1648.46
628.495	1644.62
628.85	1642.13
629.205	1625.18
629.559	1663.6
629.914	1650.95
630.269	1609.14
630.623	1638.29
630.978	1644.84
631.332	1634.22
631.687	1630.61
632.041	1639.87
632.396	1645.75
632.75	1630.61
633.104	1634.22
633.459	1633.09
633.813	1642.13
634.167	1643.26
634.521	1652.08
634.875	1643.49
635.229	1644.62
635.583	1623.38
635.937	1649.82
636.291	1632.64
636.645	1639.65
636.999	1607.78
637.352	1655.92
637.706	1624.05
638.06	1623.15
638.413	1626.99
638.767	1670.15
639.121	1630.83
639.474	1626.09
639.828	1600.33
640.181	1617.73
640.534	1604.39
640.888	1631.74
641.241	1601.23
641.594	1623.6
641.947	1624.28
642.301	1623.38
642.654	1621.57
643.007	1633.77
643.36	1655.24
643.713	1629.7
644.066	1627.22
644.419	1599.87
644.771	1616.14
645.124	1597.39
645.477	1639.42
645.83	1595.35
646.182	1616.14
646.535	1575.92
646.888	1619.76
647.24	1596.71
647.593	1613.66
647.945	1593.55
648.298	1576.37
648.65	1583.38
649.002	1592.87
649.355	1588.8
649.707	1607.78
650.059	1581.34
650.411	1626.31
650.763	1641.91
651.115	1651.17
651.467	1645.07
651.819	1628.12
652.171	1654.79
652.523	1620.66
652.875	1616.6
653.227	1639.42
653.578	1659.98
653.93	1667.89
654.282	1629.48
654.633	1631.96
654.985	1655.01
655.337	1662.47
655.688	1650.95
656.039	1636.03
656.391	1645.97
656.742	1652.08
657.094	1643.04
657.445	1650.95
657.796	1669.25
658.147	1635.58
658.498	1655.24
658.849	1674.22
659.2	1641.68
659.551	1652.53
659.902	1639.65
660.253	1649.59
660.604	1627.67
660.955	1662.7
661.306	1680.78
661.656	1663.83
662.007	1662.7
662.358	1658.63
662.708	1679.19
663.059	1660.44
663.409	1651.4
663.76	1641.45
664.11	1661.57
664.461	1699.08
664.811	1671.96
665.161	1661.34
665.511	1640.55
665.862	1682.81
666.212	1670.15
666.562	1663.15
666.912	1680.55
667.262	1647.33
667.612	1642.58
667.962	1657.05
668.312	1644.62
668.662	1677.16
669.011	1640.55
669.361	1658.63
669.711	1668.57
670.06	1669.02
670.41	1662.24
670.76	1636.93
671.109	1665.86
671.459	1635.35
671.808	1656.59
672.157	1652.98
672.507	1638.97
672.856	1640.78
673.205	1632.64
673.554	1658.18
673.904	1648.91
674.253	1634.22
674.602	1623.38
674.951	1629.93
675.3	1594.68
675.649	1635.58
675.998	1595.35
676.346	1623.15
676.695	1624.05
677.044	1605.3
677.393	1598.97
677.741	1622.02
678.09	1643.26
678.438	1604.84
678.787	1586.77
679.135	1601.46
679.484	1606.88
679.832	1601.46
680.181	1608.01
680.529	1593.55
680.877	1581.79
681.225	1567.56
681.573	1613.43
681.922	1592.87
682.27	1594
682.618	1591.29
682.966	1615.92
683.314	1595.35
683.661	1585.18
684.009	1572.76
684.357	1578.4
684.705	1589.48
685.053	1568.01
685.4	1567.11
685.748	1532.08
686.095	1557.39
686.443	1533.89
686.79	1535.02
687.138	1526.88
687.485	1549.03
687.832	1529.14
688.18	1517.39
688.527	1507.9
688.874	1544.06
689.221	1545.64
689.568	1527.78
689.915	1526.43
690.262	1513.1
690.609	1496.83
690.956	1505.86
691.303	1500.21
691.65	1495.24
691.997	1479.88
692.344	1476.26
692.69	1481.68
693.037	1479.2
693.383	1469.26
693.73	1470.39
694.077	1466.77
694.423	1470.84
694.769	1474
695.116	1454.11
695.462	1472.42
695.808	1468.8
696.155	1485.98
696.501	1471.97
696.847	1437.39
697.193	1427.67
697.539	1447.56
697.885	1410.5
698.231	1434.23
698.577	1425.64
698.923	1457.73
699.269	1438.3
699.614	1439.2
699.96	1426.32
700.306	1423.61
700.651	1417.05
700.997	1406.66
701.342	1422.25
701.688	1403.95
702.033	1405.75
702.379	1396.04
702.724	1399.65
703.069	1362.82
703.415	1377.28
703.76	1384.96
704.105	1382.03
704.45	1389.03
704.795	1373.89
705.14	1361.24
705.485	1410.73
705.83	1366.88
706.175	1377.73
706.52	1385.87
706.865	1395.13
707.209	1417.28
707.554	1391.29
707.899	1356.04
708.243	1378.41
708.588	1369.14
708.932	1366.21
709.277	1373.89
709.621	1381.12
709.966	1384.74
710.31	1401.69
710.654	1358.07
710.998	1391.74
711.342	1376.83
711.687	1353.33
712.031	1369.82
712.375	1379.09
712.719	1381.57
713.063	1371.63
713.407	1354.68
713.75	1386.77
714.094	1397.39
714.438	1374.57
714.782	1392.2
715.125	1394.23
715.469	1393.1
715.812	1348.13
716.156	1425.87
716.499	1359.65
716.843	1399.2
717.186	1351.97
717.53	1401.01
717.873	1402.14
718.216	1404.62
718.559	1400.33
718.902	1414.57
719.246	1399.88
719.589	1399.43
719.932	1387.45
720.275	1397.62
720.617	1410.95
720.96	1425.87
721.303	1425.64
721.646	1421.35
721.989	1432.19
722.331	1421.35
722.674	1452.08
723.016	1455.24
723.359	1442.82
723.701	1461.12
724.044	1467
724.386	1459.31
724.729	1464.51
725.071	1458.63
725.413	1463.61
725.755	1465.41
726.097	1447.79
726.439	1459.99
726.782	1466.77
727.124	1476.03
727.465	1476.94
727.807	1471.06
728.149	1488.92
728.491	1522.59
728.833	1521.23
729.175	1484.62
729.516	1496.83
729.858	1479.42
730.199	1511.29
730.541	1512.64
730.882	1519.2
731.224	1544.73
731.565	1538.41
731.906	1538.63
732.248	1575.24
732.589	1556.26
732.93	1553.55
733.271	1587.22
733.612	1545.64
733.953	1591.74
734.294	1605.75
734.635	1582.47
734.976	1627.67
735.317	1606.43
735.658	1635.35
735.999	1647.33
736.339	1639.19
736.68	1651.62
737.021	1651.4
737.361	1634
737.702	1675.35
738.042	1691.17
738.383	1696.14
738.723	1702.02
739.063	1723.71
739.404	1725.07
739.744	1737.95
740.084	1777.27
740.424	1733.65
740.764	1778.63
741.104	1775.01
741.444	1783.6
741.784	1793.31
742.124	1825.63
742.464	1822.01
742.804	1849.58
743.143	1862.92
743.483	1902.46
743.823	1912.41
744.162	1935.68
744.502	1959.64
744.841	1975.68
745.181	1967.1
745.52	1995.34
745.86	2044.38
746.199	2061.78
746.538	2059.97
746.877	2077.6
747.216	2149.69
747.556	2151.05
747.895	2162.57
748.234	2201.89
748.573	2234.88
748.911	2270.82
749.25	2284.37
749.589	2330.25
749.928	2335.67
750.267	2354.43
750.605	2408.67
750.944	2465.39
751.283	2459.06
751.621	2529.57
751.96	2548.32
752.298	2562.56
752.636	2631.48
752.975	2635.33
753.313	2661.99
753.651	2746.28
753.989	2759.62
754.327	2845.26
754.666	2882.78
755.004	2915.77
755.342	2900.63
755.679	2983.11
756.017	3020.63
756.355	3115.99
756.693	3117.35
757.031	3231.47
757.368	3207.74
757.706	3256.78
758.044	3315.31
758.381	3408.19
758.719	3399.83
759.056	3487.06
759.394	3506.49
759.731	3559.14
760.068	3620.84
760.405	3670.55
760.743	3717.78
761.08	3752.58
761.417	3788.74
761.754	3875.75
762.091	3851.11
762.428	3896.08
762.765	3976.08
763.102	4059.47
763.438	4058.11
763.775	4132.01
764.112	4189.64
764.449	4237.77
764.785	4213.59
765.122	4294.27
765.458	4291.55
765.795	4371.1
766.131	4400.93
766.467	4447.26
766.804	4520.25
767.14	4541.49
767.476	4567.03
767.812	4557.54
768.148	4642.96
768.485	4687.93
768.821	4689.28
769.157	4724.08
769.492	4720.24
769.828	4783.29
770.164	4774.48
770.5	4830.07
770.836	4864.19
771.171	4860.35
