Data from blue_surface_keyboard_FLMS001491_066.txt Node
Date: Tue Feb 07 11:13:29 GMT 2017
User: dcchb
Spectrometer: FLMS00149
Trigger mode: 0
Integration Time (sec): 2.000000E-2
Scans to average: 10
Electric dark correction enabled: true
Nonlinearity correction enabled: false
Boxcar width: 0
XAxis mode: Wavelengths
Number of Pixels in Spectrum: 2048
>>>>>Begin Spectral Data<<<<<
341.393	-24.04
341.776	-24.04
342.16	-24.04
342.543	-67.43
342.927	-62.68
343.31	-48.67
343.693	-65.62
344.077	-90.48
344.46	-43.93
344.843	-50.93
345.226	-47.99
345.61	-23.13
345.993	-43.25
346.376	-16.58
346.759	23.19
347.142	24.1
347.525	44.43
347.908	56.86
348.291	74.94
348.674	101.61
349.057	105.45
349.44	126.24
349.823	138.22
350.206	151.1
350.588	185.67
350.971	166.92
351.354	203.98
351.737	225.9
352.119	230.19
352.502	251.21
352.884	249.4
353.267	244.43
353.65	286.24
354.032	280.81
354.414	282.17
354.797	279.23
355.179	299.57
355.562	306.57
355.944	302.05
356.326	310.87
356.709	315.39
357.091	307.7
357.473	307.25
357.855	314.48
358.238	321.94
358.62	335.95
359.002	321.26
359.384	317.2
359.766	318.32
360.148	302.51
360.53	326.01
360.912	304.99
361.294	301.15
361.676	302.28
362.057	305.44
362.439	323.52
362.821	333.47
363.203	308.61
363.584	289.63
363.966	312.45
364.348	267.48
364.729	300.7
365.111	285.11
365.493	295.5
365.874	306.12
366.256	295.27
366.637	290.98
367.019	251.21
367.4	292.11
367.781	297.76
368.163	285.33
368.544	298.21
368.925	276.97
369.306	289.17
369.688	307.48
370.069	295.05
370.45	268.61
370.831	270.64
371.212	260.02
371.593	295.73
371.974	294.82
372.355	282.85
372.736	297.08
373.117	278.33
373.498	279.68
373.879	310.19
374.26	287.14
374.641	284.65
375.021	290.3
375.402	301.38
375.783	293.01
376.163	299.79
376.544	295.95
376.925	306.8
377.305	304.77
377.686	299.12
378.066	284.65
378.447	282.62
378.827	296.4
379.208	289.17
379.588	306.35
379.968	288.95
380.349	305.9
380.729	309.06
381.109	284.43
381.489	301.38
381.87	295.73
382.25	303.41
382.63	293.69
383.01	298.44
383.39	308.83
383.77	292.34
384.15	295.95
384.53	303.41
384.91	302.51
385.29	315.84
385.67	309.74
386.049	316.97
386.429	308.83
386.809	290.76
387.189	308.38
387.568	315.16
387.948	281.49
388.328	299.57
388.707	309.29
389.087	332.34
389.466	320.13
389.846	298.89
390.225	315.39
390.605	315.16
390.984	316.52
391.363	300.7
391.743	313.81
392.122	325.1
392.501	312.68
392.881	321.49
393.26	325.78
393.639	321.04
394.018	322.84
394.397	316.97
394.776	340.25
395.155	332.34
395.534	326.01
395.913	311.55
396.292	330.75
396.671	323.97
397.05	319.68
397.429	328.04
397.808	337.53
398.186	317.87
398.565	328.95
398.944	330.08
399.323	330.98
399.701	334.82
400.08	342.28
400.458	351.77
400.837	332.56
401.215	333.69
401.594	332.11
401.972	314.03
402.351	361.26
402.729	347.48
403.107	331.21
403.486	372.11
403.864	334.14
404.242	367.36
404.62	347.02
404.999	347.48
405.377	355.84
405.755	342.73
406.133	351.77
406.511	354.48
406.889	368.04
407.267	347.93
407.645	365.33
408.023	344.99
408.401	368.49
408.779	365.33
409.156	368.49
409.534	348.61
409.912	368.72
410.29	361.26
410.667	368.95
411.045	362.62
411.422	362.62
411.8	366.69
412.178	361.49
412.555	384.31
412.933	367.82
413.31	362.39
413.687	379.57
414.065	393.58
414.442	375.5
414.819	388.83
415.197	394.26
415.574	370.53
415.951	404.65
416.328	396.06
416.705	388.15
417.082	399.23
417.46	384.31
417.837	392
418.214	390.41
418.591	382.5
418.967	392
419.344	399.9
419.721	397.42
420.098	387.02
420.475	395.84
420.852	397.87
421.228	398.55
421.605	405.55
421.982	390.41
422.358	414.59
422.735	401.94
423.111	411.2
423.488	426.57
423.864	434.03
424.241	433.58
424.617	425.44
424.994	418.66
425.37	410.98
425.746	427.7
426.123	430.64
426.499	414.82
426.875	439.9
427.251	429.51
427.627	442.16
428.003	420.47
428.379	420.02
428.756	430.86
429.132	447.59
429.507	446.46
429.883	440.58
430.259	428.38
430.635	462.28
431.011	447.14
431.387	453.01
431.763	453.24
432.138	455.72
432.514	452.78
432.89	461.82
433.265	464.31
433.641	452.11
434.016	481.48
434.392	461.82
434.767	469.96
435.143	481.48
435.518	488.49
435.894	485.33
436.269	486.91
436.644	508.6
437.02	488.26
437.395	492.78
437.77	497.53
438.145	483.07
438.52	503.4
438.895	505.89
439.271	518.77
439.646	527.36
440.021	506.34
440.395	505.89
440.77	508.38
441.145	506.34
441.52	506.34
441.895	516.51
442.27	525.55
442.645	507.92
443.019	536.4
443.394	506.79
443.769	525.33
444.143	538.88
444.518	549.73
444.892	531.88
445.267	554.93
445.641	546.12
446.016	552.22
446.39	549.51
446.764	573.46
447.139	545.44
447.513	551.09
447.887	551.99
448.262	519.45
448.636	545.89
449.01	552.9
449.384	556.96
449.758	568.71
450.132	545.66
450.506	572.1
450.88	561.26
451.254	584.98
451.628	563.06
452.002	584.76
452.376	583.4
452.75	586.34
453.123	580.69
453.497	582.05
453.871	579.11
454.244	595.38
454.618	586.79
454.992	615.49
455.365	593.57
455.739	614.14
456.112	615.94
456.486	621.37
456.859	635.38
457.232	605.78
457.606	617.98
457.979	641.25
458.352	631.54
458.725	644.42
459.099	649.39
459.472	652.33
459.845	638.77
460.218	651.88
460.591	650.75
460.964	637.19
461.337	640.12
461.71	650.52
462.083	669.95
462.456	663.85
462.829	697.75
463.201	678.32
463.574	690.74
463.947	683.29
464.32	717.41
464.692	698.65
465.065	724.64
465.438	702.27
465.81	708.6
466.183	727.35
466.555	730.52
466.928	723.51
467.3	736.85
467.672	744.98
468.045	720.35
468.417	755.15
468.789	759.67
469.161	750.18
469.534	770.74
469.906	755.6
470.278	793.11
470.65	777.3
471.022	763.29
471.394	789.5
471.766	775.49
472.138	801.02
472.51	797.18
472.882	818.88
473.253	820.23
473.625	829.27
473.997	815.94
474.369	841.25
474.74	855.94
475.112	840.8
475.484	868.82
475.855	870.17
476.227	884.19
476.598	884.86
476.97	874.47
477.341	907.24
477.713	895.71
478.084	936.16
478.455	935.26
478.827	930.96
479.198	958.76
479.569	970.06
479.94	993.11
480.311	988.82
480.682	968.25
481.053	1007.12
481.424	1001.92
481.795	1026.1
482.166	1044.86
482.537	1006.44
482.908	1048.25
483.279	1060.45
483.65	1049.61
484.021	1076.05
484.391	1072.2
484.762	1090.06
485.133	1083.28
485.503	1064.52
485.874	1129.6
486.244	1129.38
486.615	1130.51
486.985	1130.06
487.356	1168.47
487.726	1163.95
488.097	1163.73
488.467	1184.97
488.837	1189.26
489.207	1185.65
489.578	1215.93
489.948	1194.69
490.318	1213.44
490.688	1243.05
491.058	1204.63
491.428	1226.1
491.798	1242.37
492.168	1238.75
492.538	1258.41
492.908	1244.63
493.278	1287.34
493.648	1265.19
494.017	1266.77
494.387	1301.35
494.757	1285.08
495.126	1332.54
495.496	1288.92
495.866	1318.07
496.235	1335.47
496.605	1338.19
496.974	1317.17
497.344	1324.63
497.713	1329.15
498.082	1337.51
498.452	1354
498.821	1353.78
499.19	1362.82
499.559	1348.35
499.928	1339.09
500.298	1325.53
500.667	1355.81
501.036	1373.21
501.405	1356.72
501.774	1372.76
502.143	1365.53
502.512	1381.35
502.88	1382.25
503.249	1364.4
503.618	1383.38
503.987	1385.42
504.356	1404.17
504.724	1379.99
505.093	1390.39
505.462	1432.87
505.83	1412.99
506.199	1388.13
506.567	1421.12
506.936	1413.66
507.304	1440.56
507.672	1415.92
508.041	1443.49
508.409	1424.96
508.777	1441.69
509.145	1426.32
509.514	1447.79
509.882	1444.85
510.25	1446.43
510.618	1436.26
510.986	1445.53
511.354	1444.85
511.722	1448.01
512.09	1465.41
512.458	1457.28
512.826	1466.09
513.193	1470.84
513.561	1467
513.929	1453.21
514.297	1478.97
514.664	1485.75
515.032	1454.34
515.4	1459.54
515.767	1504.51
516.135	1509.71
516.502	1451.63
516.869	1464.06
517.237	1486.66
517.604	1492.76
517.972	1497.05
518.339	1485.53
518.706	1507.67
519.073	1508.12
519.44	1520.33
519.808	1513.77
520.175	1512.42
520.542	1557.84
520.909	1531.85
521.276	1506.09
521.643	1523.49
522.009	1524.39
522.376	1562.59
522.743	1548.35
523.11	1545.64
523.477	1563.94
523.843	1569.14
524.21	1579.08
524.577	1551.06
524.943	1574.11
525.31	1593.32
525.676	1580.66
526.043	1576.14
526.409	1577.27
526.776	1602.81
527.142	1562.36
527.508	1597.39
527.874	1621.57
528.241	1603.49
528.607	1605.52
528.973	1596.03
529.339	1582.47
529.705	1630.38
530.071	1606.65
530.437	1599.2
530.803	1619.08
531.169	1615.47
531.535	1617.73
531.901	1616.82
532.267	1626.31
532.632	1613.88
532.998	1634.9
533.364	1648.69
533.73	1594
534.095	1615.24
534.461	1645.07
534.826	1670.15
535.192	1659.08
535.557	1653.66
535.923	1630.61
536.288	1657.5
536.653	1649.82
537.019	1681.68
537.384	1637.84
537.749	1646.65
538.114	1632.41
538.479	1639.87
538.845	1674.22
539.21	1617.5
539.575	1649.82
539.94	1643.04
540.305	1665.18
540.67	1631.96
541.034	1647.1
541.399	1656.37
541.764	1628.12
542.129	1674.45
542.494	1666.09
542.858	1637.84
543.223	1658.85
543.587	1677.84
543.952	1661.34
544.316	1663.6
544.681	1667.22
545.045	1653.88
545.41	1651.4
545.774	1663.37
546.138	1688.23
546.503	1672.19
546.867	1674.22
547.231	1671.96
547.595	1674.22
547.959	1683.71
548.324	1664.96
548.688	1644.62
549.052	1655.69
549.416	1638.29
549.779	1648.23
550.143	1676.71
550.507	1678.97
550.871	1702.02
551.235	1661.79
551.599	1701.34
551.962	1688.68
552.326	1651.4
552.689	1678.97
553.053	1703.83
553.417	1699.08
553.78	1670.83
554.143	1676.48
554.507	1697.72
554.87	1694.11
555.234	1717.61
555.597	1667.67
555.96	1680.1
556.323	1692.98
556.686	1702.92
557.05	1708.57
557.413	1682.36
557.776	1687.78
558.139	1709.7
558.502	1681.45
558.865	1735.69
559.228	1684.16
559.59	1728.68
559.953	1732.75
560.316	1716.71
560.679	1748.12
561.041	1693.43
561.404	1725.97
561.767	1729.36
562.129	1736.37
562.492	1758.74
562.854	1715.58
563.217	1736.14
563.579	1722.81
563.941	1749.25
564.304	1754.9
564.666	1755.12
565.028	1766.42
565.39	1789.25
565.753	1745.41
566.115	1735.01
566.477	1788.57
566.839	1751.06
567.201	1738.17
567.563	1776.14
567.925	1767.55
568.287	1800.32
568.648	1772.3
569.01	1773.65
569.372	1818.17
569.734	1792.41
570.095	1813.88
570.457	1803.26
570.819	1795.57
571.18	1820.43
571.542	1802.81
571.903	1805.97
572.265	1801.45
572.626	1784.28
572.987	1801.68
573.349	1828.34
573.71	1849.36
574.071	1810.94
574.432	1816.36
574.794	1788.79
575.155	1829.7
575.516	1819.53
575.877	1838.96
576.238	1819.08
576.599	1839.87
576.96	1850.71
577.32	1823.6
577.681	1855.23
578.042	1851.84
578.403	1863.14
578.763	1850.49
579.124	1852.52
579.485	1883.93
579.845	1864.5
580.206	1883.93
580.566	1840.09
580.927	1875.57
581.287	1850.26
581.648	1870.37
582.008	1847.1
582.368	1864.72
582.728	1878.06
583.089	1874.22
583.449	1857.72
583.809	1855.46
584.169	1849.81
584.529	1873.54
584.889	1834.67
585.249	1853.2
585.609	1842.8
585.969	1885.52
586.329	1858.4
586.688	1866.08
587.048	1859.75
587.408	1851.39
587.768	1897.94
588.127	1871.96
588.487	1859.53
588.846	1864.27
589.206	1845.74
589.565	1863.14
589.925	1917.83
590.284	1925.51
590.643	1903.82
591.003	1869.02
591.362	1899.07
591.721	1901.11
592.08	1895.68
592.44	1874.44
592.799	1879.41
593.158	1891.39
593.517	1885.74
593.876	1875.57
594.235	1880.54
594.593	1890.94
594.952	1903.82
595.311	1916.25
595.67	1882.8
596.029	1905.63
596.387	1928.23
596.746	1908.57
597.104	1874.89
597.463	1894.78
597.822	1896.36
598.18	1887.78
598.538	1921.45
598.897	1885.29
599.255	1911.28
599.613	1908.34
599.972	1900.66
600.33	1935.68
600.688	1906.98
601.046	1915.35
601.404	1922.35
601.762	1899.53
602.12	1953.08
602.478	1941.11
602.836	1930.26
603.194	1917.83
603.552	1959.41
603.91	1935.91
604.268	1950.6
604.625	1932.75
604.983	1944.04
605.341	1921.9
605.698	1973.87
606.056	1937.49
606.413	1937.27
606.771	1966.42
607.128	1952.18
607.485	1950.82
607.843	1967.1
608.2	1956.25
608.557	1957.6
608.914	1962.35
609.272	1981.33
609.629	1986.3
609.986	2011.16
610.343	1969.13
610.7	1989.69
611.057	1978.85
611.414	1977.26
611.771	1978.62
612.127	2004.38
612.484	2006.42
612.841	2013.2
613.198	2014.78
613.554	2037.6
613.911	2029.24
614.267	2002.8
614.624	1987.21
614.98	2025.17
615.337	2045.29
615.693	2040.54
616.05	2004.61
616.406	2050.26
616.762	2044.61
617.118	2061.33
617.475	2047.32
617.831	2049.35
618.187	2048
618.543	2026.08
618.899	2042.35
619.255	2073.31
619.611	2086.19
619.967	2072.18
620.323	2077.15
620.678	2085.28
621.034	2045.74
621.39	2079.18
621.746	2057.26
622.101	2055
622.457	2082.12
622.812	2070.6
623.168	2081.44
623.523	2094.55
623.879	2114.66
624.234	2088.67
624.589	2096.36
624.945	2092.52
625.3	2092.52
625.655	2108.79
626.01	2113.31
626.365	2103.14
626.72	2102.46
627.075	2112.63
627.43	2110.37
627.785	2129.35
628.14	2131.38
628.495	2106.3
628.85	2134.55
629.205	2138.62
629.559	2134.32
629.914	2135.9
630.269	2168.45
630.623	2121.89
630.978	2118.28
631.332	2167.54
631.687	2156.69
632.041	2154.21
632.396	2156.92
632.75	2158.28
633.104	2183.36
633.459	2154.89
633.813	2172.29
634.167	2160.31
634.521	2184.04
634.875	2180.2
635.229	2210.7
635.583	2168.45
635.937	2201.89
636.291	2218.39
636.645	2202.34
636.999	2192.63
637.352	2210.25
637.706	2217.48
638.06	2212.96
638.413	2198.73
638.767	2216.13
639.121	2199.41
639.474	2245.96
639.828	2230.37
640.181	2230.82
640.534	2248.44
640.888	2272.4
641.241	2246.18
641.594	2267.65
641.947	2267.65
642.301	2261.1
642.654	2286.41
643.007	2280.99
643.36	2300.87
643.713	2292.06
644.066	2289.35
644.419	2270.82
644.771	2306.75
645.124	2325.05
645.477	2318.95
645.83	2283.47
646.182	2287.76
646.535	2308.33
646.888	2303.81
647.24	2298.61
647.593	2309.01
647.945	2306.75
648.298	2355.11
648.65	2316.92
649.002	2337.25
649.355	2367.31
649.707	2340.64
650.059	2394.2
650.411	2404.82
650.763	2406.63
651.115	2424.94
651.467	2427.87
651.819	2451.38
652.171	2485.27
652.523	2481.66
652.875	2481.88
653.227	2459.96
653.578	2473.07
653.93	2516.01
654.282	2515.1
654.633	2555.55
654.985	2553.75
655.337	2520.53
655.688	2567.53
656.039	2565.05
656.391	2573.41
656.742	2592.84
657.094	2621.99
657.445	2606.85
657.796	2621.54
658.147	2636
658.498	2667.64
658.849	2674.87
659.2	2672.16
659.551	2671.71
659.902	2688.66
660.253	2673.07
660.604	2694.99
660.955	2724.59
661.306	2739.05
661.656	2719.39
662.007	2735.44
662.358	2743.35
662.708	2812.5
663.059	2781.09
663.409	2761.42
663.76	2831.25
664.11	2828.54
664.461	2876.9
664.811	2844.81
665.161	2885.04
665.511	2875.32
665.862	2922.1
666.212	2953.06
666.562	2925.26
666.912	2989.44
667.262	2938.82
667.612	2954.87
667.962	2983.57
668.312	3004.58
668.662	3052.94
669.011	3022.89
669.361	3041.87
669.711	3109.21
670.06	3053.85
670.41	3097.91
670.76	3065.82
671.109	3129.55
671.459	3132.04
671.808	3119.16
672.157	3128.42
672.507	3134.52
672.856	3167.06
673.205	3165.03
673.554	3172.94
673.904	3202.54
674.253	3209.32
674.602	3234.86
674.951	3211.13
675.3	3207.06
675.649	3241.64
675.998	3253.62
676.346	3288.64
676.695	3257.91
677.044	3275.31
677.393	3355.76
677.741	3360.28
678.09	3355.08
678.438	3360.5
678.787	3409.09
679.135	3380.62
679.484	3360.5
679.832	3364.35
680.181	3387.4
680.529	3422.42
680.877	3445.02
681.225	3468.52
681.573	3461.97
681.922	3435.08
682.27	3460.39
682.618	3493.83
682.966	3497
683.314	3506.04
683.661	3533.61
684.009	3520.27
684.357	3511.46
684.705	3531.35
685.053	3560.05
685.4	3527.96
685.748	3532.03
686.095	3566.83
686.443	3585.13
686.79	3585.36
687.138	3612.7
687.485	3600.5
687.832	3616.77
688.18	3627.16
688.527	3622.87
688.874	3633.72
689.221	3596.66
689.568	3616.32
689.915	3642.08
690.262	3636.88
690.609	3650.21
690.956	3633.04
691.303	3648.86
691.65	3693.83
691.997	3658.8
692.344	3662.87
692.69	3659.25
693.037	3650.44
693.383	3657.67
693.73	3669.2
694.077	3654.96
694.423	3649.31
694.769	3659.03
695.116	3649.76
695.462	3678.01
695.808	3693.6
696.155	3672.14
696.501	3631.46
696.847	3720.95
697.193	3690.67
697.539	3717.78
697.885	3646.6
698.231	3657.45
698.577	3656.99
698.923	3635.53
699.269	3664
699.614	3667.39
699.96	3639.37
700.306	3642.31
700.651	3629.65
700.997	3654.96
701.342	3618.58
701.688	3655.64
702.033	3651.8
702.379	3651.34
702.724	3588.52
703.069	3610.67
703.415	3634.17
703.76	3620.16
704.105	3621.74
704.45	3597.11
704.795	3640.72
705.14	3620.39
705.485	3568.18
705.83	3587.17
706.175	3602.53
706.52	3603.89
706.865	3584
707.209	3608.18
707.554	3591.69
707.899	3596.88
708.243	3540.16
708.588	3625.13
708.932	3585.81
709.277	3588.97
709.621	3555.75
709.966	3561.86
710.31	3578.13
710.654	3548.07
710.998	3573.83
711.342	3504.23
711.687	3549.2
712.031	3526.38
712.375	3553.72
712.719	3546.26
713.063	3530.9
713.407	3545.13
713.75	3512.59
714.094	3581.52
714.438	3507.39
714.782	3503.55
715.125	3495.19
715.469	3563.66
715.812	3542.42
716.156	3524.12
716.499	3514.85
716.843	3515.08
717.186	3518.47
717.53	3542.65
717.873	3506.94
718.216	3488.86
718.559	3511.69
718.902	3499.94
719.246	3503.55
719.589	3525.92
719.932	3502.2
720.275	3493.16
720.617	3506.49
720.96	3496.55
721.303	3533.83
721.646	3524.57
721.989	3507.62
722.331	3540.39
722.674	3507.39
723.016	3577.22
723.359	3505.13
723.701	3518.24
724.044	3540.84
724.386	3505.81
724.729	3502.65
725.071	3471.01
725.413	3511.01
725.755	3515.76
726.097	3533.83
726.439	3483.21
726.782	3520.27
727.124	3544.68
727.465	3497
727.807	3554.85
728.149	3498.81
728.491	3515.76
728.833	3529.54
729.175	3546.26
729.516	3522.08
729.858	3519.82
730.199	3544.45
730.541	3505.59
730.882	3520.5
731.224	3577.9
731.565	3573.15
731.906	3560.05
732.248	3594.85
732.589	3566.38
732.93	3567.73
733.271	3568.86
733.612	3584.68
733.953	3603.89
734.294	3574.28
734.635	3560.27
734.976	3598.92
735.317	3567.28
735.658	3607.05
735.999	3591.69
736.339	3561.63
736.68	3617.67
737.021	3605.92
737.361	3582.19
737.702	3642.53
738.042	3641.85
738.383	3624.68
738.723	3633.04
739.063	3625.13
739.404	3656.32
739.744	3630.55
740.084	3670.55
740.424	3652.02
740.764	3661.74
741.104	3668.52
741.444	3676.88
741.784	3675.07
742.124	3697.22
742.464	3671.46
742.804	3696.99
743.143	3688.86
743.483	3728.86
743.823	3693.83
744.162	3702.42
744.502	3779.7
744.841	3765.24
745.181	3800.72
745.52	3766.6
745.86	3785.8
746.199	3804.33
746.538	3824.22
746.877	3825.58
747.216	3851.11
747.556	3887.72
747.895	3909.87
748.234	3891.56
748.573	3935.63
748.911	3975.63
749.25	3938.79
749.589	4007.04
749.928	3981.51
750.267	3990.32
750.605	4007.95
750.944	4032.13
751.283	4039.81
751.621	4052.01
751.96	4086.59
752.298	4110.32
752.636	4075.74
752.975	4123.87
753.313	4128.62
753.651	4190.77
753.989	4152.12
754.327	4201.16
754.666	4197.32
755.004	4205.45
755.342	4241.16
755.679	4329.74
756.017	4276.19
756.355	4365.9
756.693	4303.53
757.031	4361.16
757.368	4372.91
757.706	4417.2
758.044	4428.95
758.381	4367.48
758.719	4462.62
759.056	4490.64
759.394	4439.12
759.731	4467.37
760.068	4455.84
760.405	4492.45
760.743	4440.93
761.08	4502.85
761.417	4562.51
761.754	4539
762.091	4575.61
762.428	4551.89
762.765	4554.37
763.102	4611.55
763.438	4567.48
763.775	4576.74
764.112	4618.78
764.449	4641.83
764.785	4626.69
765.122	4586.01
765.458	4621.94
765.795	4614.26
766.131	4630.3
766.467	4643.41
766.804	4646.57
767.14	4587.37
767.476	4636.86
767.812	4629.62
768.148	4604.54
768.485	4622.39
768.821	4608.83
769.157	4617.42
769.492	4640.02
769.828	4593.69
770.164	4624.2
770.5	4605.44
770.836	4584.2
771.171	4620.36
771.507	4613.35
771.842	4583.75
