Data from blue_surface_keyboard_FLMS001491_020.txt Node
Date: Tue Feb 07 11:12:43 GMT 2017
User: dcchb
Spectrometer: FLMS00149
Trigger mode: 0
Integration Time (sec): 2.000000E-2
Scans to average: 10
Electric dark correction enabled: true
Nonlinearity correction enabled: false
Boxcar width: 0
XAxis mode: Wavelengths
Number of Pixels in Spectrum: 2048
>>>>>Begin Spectral Data<<<<<
341.393	-20.34
341.776	-20.34
342.16	-20.34
342.543	-58.76
342.927	-64.86
343.31	-45.65
343.693	-82.48
344.077	-67.79
344.46	-65.99
344.843	-65.76
345.226	-47.68
345.61	-29.15
345.993	-24.63
346.376	-13.78
346.759	3.16
347.142	29.15
347.525	51.07
347.908	75.93
348.291	73.22
348.674	100.11
349.057	110.28
349.44	121.58
349.823	137.17
350.206	166.32
350.588	197.28
350.971	185.76
351.354	216.94
351.737	220.33
352.119	233.44
352.502	268.69
352.884	276.15
353.267	269.82
353.65	266.43
354.032	289.94
354.414	281.12
354.797	305.98
355.179	308.92
355.562	295.13
355.944	307.11
356.326	308.69
356.709	313.89
357.091	298.52
357.473	324.96
357.855	330.39
358.238	313.66
358.62	342.14
359.002	309.37
359.384	312.08
359.766	317.73
360.148	333.1
360.53	315.25
360.912	325.64
361.294	310.73
361.676	318.41
362.057	310.5
362.439	312.99
362.821	315.47
363.203	311.18
363.584	299.65
363.966	291.97
364.348	314.34
364.729	294.91
365.111	311.18
365.493	308.24
365.874	307.34
366.256	285.87
366.637	277.28
367.019	282.48
367.4	308.47
367.781	279.99
368.163	272.99
368.544	295.81
368.925	299.65
369.306	306.21
369.688	306.21
370.069	281.12
370.45	287.68
370.831	271.18
371.212	278.18
371.593	277.28
371.974	308.01
372.355	282.48
372.736	290.16
373.117	295.81
373.498	289.03
373.879	306.21
374.26	292.2
374.641	291.97
375.021	288.13
375.402	303.72
375.783	282.93
376.163	294.23
376.544	279.31
376.925	290.16
377.305	300.78
377.686	307.11
378.066	286.55
378.447	302.36
378.827	287
379.208	305.75
379.588	298.52
379.968	296.49
380.349	308.47
380.729	287.22
381.109	294.91
381.489	286.55
381.87	306.21
382.25	314.34
382.63	302.82
383.01	284.96
383.39	319.54
383.77	305.75
384.15	314.12
384.53	312.53
384.91	307.34
385.29	302.82
385.67	322.93
386.049	305.3
386.429	302.36
386.809	296.72
387.189	321.12
387.568	311.18
387.948	304.85
388.328	309.14
388.707	327.67
389.087	299.65
389.466	305.3
389.846	324.74
390.225	334
390.605	333.55
390.984	330.84
391.363	306.43
391.743	320.22
392.122	326.55
392.501	317.05
392.881	326.09
393.26	321.12
393.639	339.43
394.018	322.7
394.397	311.63
394.776	344.85
395.155	324.06
395.534	323.16
395.913	327.9
396.292	333.1
396.671	333.32
397.05	342.36
397.429	317.05
397.808	335.58
398.186	331.97
398.565	334.45
398.944	322.93
399.323	339.65
399.701	332.19
400.08	343.72
400.458	337.39
400.837	337.39
401.215	339.43
401.594	348.01
401.972	333.32
402.351	342.36
402.729	352.53
403.107	361.12
403.486	330.84
403.864	333.32
404.242	335.13
404.62	353.89
404.999	339.65
405.377	356.15
405.755	360.89
406.133	387.33
406.511	358.41
406.889	341.46
407.267	363.83
407.645	338.97
408.023	348.92
408.401	362.93
408.779	372.42
409.156	349.14
409.534	366.77
409.912	360.44
410.29	361.57
410.667	363.15
411.045	377.84
411.422	366.77
411.8	369.48
412.178	373.1
412.555	369.48
412.933	379.2
413.31	382.81
413.687	369.03
414.065	386.2
414.442	392.08
414.819	382.81
415.197	381.91
415.574	359.31
415.951	407.67
416.328	392.53
416.705	379.2
417.082	384.17
417.46	388.01
417.837	372.65
418.214	382.14
418.591	383.49
418.967	404.96
419.344	396.6
419.721	388.92
420.098	398.63
420.475	370.39
420.852	390.5
421.228	406.99
421.605	388.92
421.982	405.41
422.358	413.77
422.735	406.09
423.111	395.7
423.488	426.43
423.864	384.85
424.241	411.74
424.617	438.63
424.994	422.59
425.37	414
425.746	428.46
426.123	428.69
426.499	411.51
426.875	415.36
427.251	436.82
427.627	432.98
428.003	428.01
428.379	423.49
428.756	447.45
429.132	446.77
429.507	437.73
429.883	444.73
430.259	453.32
430.635	441.12
431.011	443.38
431.387	424.17
431.763	429.37
432.138	434.34
432.514	450.38
432.89	451.06
433.265	464.39
433.641	457.84
434.016	463.94
434.392	453.1
434.767	486.99
435.143	476.82
435.518	463.26
435.894	482.02
436.269	482.7
436.644	477.5
437.02	499.42
437.395	490.16
437.77	482.02
438.145	489.48
438.52	496.03
438.895	488.8
439.271	482.25
439.646	510.95
440.021	502.13
440.395	503.49
440.77	497.61
441.145	508.46
441.52	518.18
441.895	542.58
442.27	503.72
442.645	512.98
443.019	485.18
443.394	518.18
443.769	508.24
444.143	520.66
444.518	514.34
444.892	495.58
445.267	517.27
445.641	531.29
446.016	543.71
446.39	534.22
446.764	512.08
447.139	534.68
447.513	524.28
447.887	512.08
448.262	535.35
448.636	527.44
449.01	557.05
449.384	554.56
449.758	536.71
450.132	570.15
450.506	525.41
450.88	578.29
451.254	534.68
451.628	551.85
452.002	558.4
452.376	549.36
452.75	566.09
453.123	553.66
453.497	548.91
453.871	584.17
454.244	608.12
454.618	593.2
454.992	586.43
455.365	596.14
455.739	601.11
456.112	613.32
456.486	591.4
456.859	584.39
457.232	596.82
457.606	598.63
457.979	617.61
458.352	611.51
458.725	618.51
459.099	617.38
459.472	616.71
459.845	631.17
460.218	629.14
460.591	646.08
460.964	621.23
461.337	646.99
461.71	651.28
462.083	653.99
462.456	662.81
462.829	666.2
463.201	658.06
463.574	680.43
463.947	673.65
464.32	667.33
464.692	688.12
465.065	665.75
465.438	676.37
465.81	687.89
466.183	709.81
466.555	693.99
466.928	715.01
467.3	698.51
467.672	683.15
468.045	699.19
468.417	729.02
468.789	729.02
469.161	706.87
469.534	737.83
469.906	750.49
470.278	736.48
470.65	737.16
471.022	753.88
471.394	780.09
471.766	756.59
472.138	772.18
472.51	766.76
472.882	799.53
473.253	807.89
473.625	827.55
473.997	811.96
474.369	831.84
474.74	814.44
475.112	819.41
475.484	835.23
475.855	848.34
476.227	848.79
476.598	868.9
476.97	853.99
477.341	880.43
477.713	884.27
478.084	893.31
478.455	873.42
478.827	907.77
479.198	929.02
479.569	930.82
479.94	933.76
480.311	956.13
480.682	948.45
481.053	957.26
481.424	954.1
481.795	985.51
482.166	980.54
482.537	1003.36
482.908	1006.08
483.279	1009.46
483.65	1040.2
484.021	1001.56
484.391	1028.22
484.762	1038.84
485.133	1025.28
485.503	1061.22
485.874	1069.35
486.244	1074.77
486.615	1074.1
486.985	1082.01
487.356	1090.59
487.726	1150.7
488.097	1106.19
488.467	1102.8
488.837	1162
489.207	1156.58
489.578	1161.33
489.948	1167.88
490.318	1172.62
490.688	1184.15
491.058	1177.14
491.428	1180.08
491.798	1169.46
492.168	1208.1
492.538	1233.19
492.908	1204.04
493.278	1226.86
493.648	1236.13
494.017	1231.38
494.387	1256.24
494.757	1234.09
495.126	1251.49
495.496	1263.24
495.866	1249.91
496.235	1268.89
496.605	1251.94
496.974	1263.7
497.344	1265.28
497.713	1260.31
498.082	1270.02
498.452	1282.9
498.821	1292.4
499.19	1294.2
499.559	1281.55
499.928	1298.72
500.298	1324.94
500.667	1286.52
501.036	1321.77
501.405	1307.31
501.774	1285.62
502.143	1312.28
502.512	1328.78
502.88	1313.64
503.249	1322.68
503.618	1301.43
503.987	1318.84
504.356	1333.07
504.724	1329.23
505.093	1333.07
505.462	1327.42
505.83	1369.23
506.199	1318.38
506.567	1347.76
506.936	1342.34
507.304	1377.36
507.672	1343.69
508.041	1392.96
508.409	1372.62
508.777	1353.64
509.145	1362.68
509.514	1368.55
509.882	1383.47
510.25	1372.62
510.618	1358.83
510.986	1392.51
511.354	1375.78
511.722	1366.52
512.09	1408.55
512.458	1388.89
512.826	1389.57
513.193	1392.28
513.561	1410.81
513.929	1416.69
514.297	1413.52
514.664	1406.52
515.032	1426.63
515.4	1397.7
515.767	1391.6
516.135	1427.76
516.502	1399.96
516.869	1432.28
517.237	1437.7
517.604	1440.41
517.972	1416.01
518.339	1442.22
518.706	1469.11
519.073	1443.58
519.44	1392.51
519.808	1441.32
520.175	1434.76
520.542	1444.93
520.909	1432.28
521.276	1457.59
521.643	1442.45
522.009	1440.41
522.376	1471.15
522.743	1458.72
523.11	1480.64
523.477	1498.27
523.843	1503.69
524.21	1480.41
524.577	1489.23
524.943	1468.89
525.31	1486.97
525.676	1504.37
526.043	1513.18
526.409	1522.67
526.776	1484.93
527.142	1488.77
527.508	1512.73
527.874	1485.38
528.241	1505.27
528.607	1519.06
528.973	1513.18
529.339	1544.14
529.705	1512.5
530.071	1524.03
530.437	1526.74
530.803	1519.51
531.169	1535.33
531.535	1535.33
531.901	1525.16
532.267	1532.39
532.632	1557.93
532.998	1548.89
533.364	1558.6
533.73	1545.95
534.095	1578.72
534.461	1559.28
534.826	1580.07
535.192	1567.87
535.557	1557.93
535.923	1563.35
536.288	1558.15
536.653	1556.57
537.019	1569.9
537.384	1563.35
537.749	1587.98
538.114	1579.17
538.479	1587.08
538.845	1603.35
539.21	1565.61
539.575	1541.65
539.94	1557.25
540.305	1573.97
540.67	1544.37
541.034	1559.06
541.399	1576
541.764	1556.34
542.129	1570.58
542.494	1577.59
542.858	1584.37
543.223	1570.58
543.587	1560.64
543.952	1544.82
544.316	1567.64
544.681	1569.22
545.045	1577.13
545.41	1579.85
545.774	1592.95
546.138	1592.05
546.503	1592.05
546.867	1574.2
547.231	1566.06
547.595	1599.73
547.959	1591.37
548.324	1590.24
548.688	1581.88
549.052	1595.89
549.416	1586.17
549.779	1589.79
550.143	1619.17
550.507	1608.32
550.871	1563.8
551.235	1627.08
551.599	1619.62
551.962	1593.4
552.326	1599.28
552.689	1610.81
553.053	1594.76
553.417	1570.58
553.78	1644.48
554.143	1588.21
554.507	1597.7
554.87	1622.78
555.234	1650.8
555.597	1605.38
555.96	1594.53
556.323	1604.25
556.686	1600.64
557.05	1611.71
557.413	1620.75
557.776	1604.25
558.139	1606.51
558.502	1611.26
558.865	1608.32
559.228	1624.14
559.59	1616.68
559.953	1634.99
560.316	1615.55
560.679	1611.03
561.041	1648.32
561.404	1653.97
561.767	1652.16
562.129	1644.93
562.492	1660.97
562.854	1642.44
563.217	1639.5
563.579	1609
563.941	1647.19
564.304	1679.5
564.666	1632.73
565.028	1684.93
565.39	1652.61
565.753	1668.2
566.115	1699.16
566.477	1674.08
566.839	1710.69
567.201	1705.72
567.563	1681.31
567.925	1642.89
568.287	1668.66
568.648	1691.93
569.01	1684.7
569.372	1701.65
569.734	1681.31
570.095	1706.4
570.457	1682.44
570.819	1714.08
571.18	1688.09
571.542	1682.22
571.903	1721.31
572.265	1705.04
572.626	1714.98
572.987	1738.49
573.349	1710.01
573.71	1707.3
574.071	1719.05
574.432	1723.12
574.794	1731.48
575.155	1726.28
575.516	1768.54
575.877	1753.63
576.238	1735.55
576.599	1733.51
576.96	1742.1
577.32	1742.33
577.681	1754.76
578.042	1754.98
578.403	1756.56
578.763	1766.06
579.124	1751.59
579.485	1759.28
579.845	1759.05
580.206	1739.84
580.566	1728.54
580.927	1754.98
581.287	1759.05
581.648	1748.2
582.008	1753.17
582.368	1773.96
582.728	1769.22
583.089	1762.21
583.449	1771.48
583.809	1770.8
584.169	1788.65
584.529	1762.44
584.889	1780.52
585.249	1759.95
585.609	1784.36
585.969	1775.55
586.329	1780.07
586.688	1748.2
587.048	1772.38
587.408	1760.41
587.768	1745.72
588.127	1774.42
588.487	1794.76
588.846	1777.58
589.206	1799.95
589.565	1772.38
589.925	1781.65
590.284	1760.41
590.643	1776.9
591.003	1768.54
591.362	1794.53
591.721	1799.05
592.08	1796.79
592.44	1802.44
592.799	1821.65
593.158	1824.36
593.517	1810.8
593.876	1792.04
594.235	1793.63
594.593	1773.51
594.952	1816
595.311	1790.46
595.67	1799.5
596.029	1808.99
596.387	1815.09
596.746	1779.16
597.104	1806.28
597.463	1809.9
597.822	1815.55
598.18	1807.64
598.538	1789.78
598.897	1798.82
599.255	1825.26
599.613	1803.79
599.972	1835.21
600.33	1813.96
600.688	1796.11
601.046	1818.26
601.404	1812.61
601.762	1821.65
602.12	1811.48
602.478	1837.47
602.836	1834.08
603.194	1818.71
603.552	1861.42
603.91	1818.94
604.268	1838.37
604.625	1869.78
604.983	1834.08
605.341	1843.79
605.698	1867.3
606.056	1845.83
606.413	1839.73
606.771	1847.64
607.128	1837.24
607.485	1846.73
607.843	1845.6
608.2	1901.42
608.557	1864.36
608.914	1850.12
609.272	1849.89
609.629	1876.33
609.986	1868.88
610.343	1887.86
610.7	1899.84
611.057	1892.38
611.414	1890.57
611.771	1869.1
612.127	1911.59
612.484	1882.66
612.841	1906.62
613.198	1867.07
613.554	1905.71
613.911	1891.48
614.267	1891.93
614.624	1913.4
614.98	1905.94
615.337	1905.26
615.693	1910.68
616.05	1888.76
616.406	1897.8
616.762	1899.61
617.118	1906.39
617.475	1920.63
617.831	1931.47
618.187	1936.22
618.543	1913.62
618.899	1945.26
619.255	1962.43
619.611	1979.61
619.967	1988.42
620.323	1976.67
620.678	1946.62
621.034	1950.01
621.39	1957.46
621.746	1926.5
622.101	1948.88
622.457	1953.85
622.812	1957.91
623.168	1964.02
623.523	1946.16
623.879	1955.2
624.234	1959.95
624.589	1993.85
624.945	1953.39
625.3	1955.43
625.655	1973.96
626.01	2004.02
626.365	1985.26
626.72	1993.39
627.075	2032.04
627.43	1997.24
627.785	1987.52
628.14	2032.71
628.495	2024.81
628.85	2003.11
629.205	2019.16
629.559	2004.69
629.914	2023.22
630.269	2022.55
630.623	2022.32
630.978	2006.5
631.332	2033.39
631.687	2028.87
632.041	2035.65
632.396	2051.7
632.75	2041.08
633.104	2040.17
633.459	2035.65
633.813	2060.51
634.167	2057.35
634.521	2057.8
634.875	2056.44
635.229	2052.15
635.583	2062.32
635.937	2067.52
636.291	2060.51
636.645	2081.08
636.999	2081.75
637.352	2092.37
637.706	2070.68
638.06	2067.52
638.413	2108.42
638.767	2146.84
639.121	2074.07
639.474	2088.31
639.828	2115.88
640.181	2131.7
640.534	2145.48
640.888	2103.45
641.241	2117.23
641.594	2126.95
641.947	2150.45
642.301	2166.27
642.654	2134.63
643.007	2156.1
643.36	2141.86
643.713	2149.77
644.066	2178.7
644.419	2188.19
644.771	2188.64
645.124	2185.48
645.477	2135.54
645.83	2179.15
646.182	2159.27
646.535	2176.44
646.888	2150.68
647.24	2153.84
647.593	2178.25
647.945	2213.5
648.298	2189.09
648.65	2201.75
649.002	2201.98
649.355	2239.04
649.707	2228.64
650.059	2268.64
650.411	2256.66
650.763	2285.36
651.115	2326.27
651.467	2321.07
651.819	2290.56
652.171	2337.34
652.523	2359.71
652.875	2350.67
653.227	2355.42
653.578	2398.13
653.93	2392.25
654.282	2366.27
654.633	2364.23
654.985	2372.82
655.337	2427.51
655.688	2410.33
656.039	2465.02
656.391	2426.6
656.742	2429.09
657.094	2448.98
657.445	2500.95
657.796	2496.88
658.147	2484
658.498	2504.57
658.849	2555.19
659.2	2507.28
659.551	2563.32
659.902	2532.14
660.253	2549.76
660.604	2568.97
660.955	2561.74
661.306	2558.12
661.656	2610.1
662.007	2590.67
662.358	2618.69
662.708	2650.33
663.059	2649.2
663.409	2629.99
663.76	2695.07
664.11	2694.62
664.461	2684.45
664.811	2700.72
665.161	2693.04
665.511	2729.87
665.862	2748.18
666.212	2774.62
666.562	2788.18
666.912	2761.28
667.262	2785.46
667.612	2799.02
667.962	2805.35
668.312	2855.29
668.662	2835.86
669.011	2852.58
669.361	2873.14
669.711	2872.69
670.06	2876.76
670.41	2904.78
670.76	2882.41
671.109	2925.12
671.459	2943.2
671.808	2971
672.157	2959.7
672.507	2966.48
672.856	2938.45
673.205	2994.05
673.554	2996.08
673.904	2999.47
674.253	3028.62
674.602	3036.3
674.951	3020.49
675.3	3020.03
675.649	3065.91
675.998	3085.79
676.346	3082.18
676.695	3107.49
677.044	3112.46
677.393	3126.47
677.741	3139.58
678.09	3174.15
678.438	3160.82
678.787	3158.34
679.135	3158.79
679.484	3157.88
679.832	3214.15
680.181	3198.33
680.529	3248.73
680.877	3222.51
681.225	3243.98
681.573	3289.41
681.922	3247.15
682.27	3230.65
682.618	3288.73
682.966	3314.72
683.314	3252.57
683.661	3256.64
684.009	3263.42
684.357	3284.43
684.705	3323.3
685.053	3329.63
685.4	3350.87
685.748	3356.97
686.095	3323.3
686.443	3324.43
686.79	3361.27
687.138	3371.44
687.485	3409.85
687.832	3399.01
688.18	3385.67
688.527	3380.93
688.874	3418.67
689.221	3389.29
689.568	3422.96
689.915	3401.27
690.262	3463.64
690.609	3412.11
690.956	3411.66
691.303	3462.51
691.65	3424.77
691.997	3387.71
692.344	3380.48
692.69	3389.06
693.037	3481.94
693.383	3476.74
693.73	3460.7
694.077	3452.79
694.423	3436.97
694.769	3429.29
695.116	3475.16
695.462	3495.73
695.808	3484.43
696.155	3456.18
696.501	3442.85
696.847	3414.15
697.193	3412.79
697.539	3427.48
697.885	3482.62
698.231	3449.4
698.577	3453.02
698.923	3456.41
699.269	3420.02
699.614	3462.06
699.96	3398.1
700.306	3427.71
700.651	3402.17
700.997	3429.51
701.342	3405.79
701.688	3402.17
702.033	3422.28
702.379	3442.4
702.724	3421.15
703.069	3462.06
703.415	3401.49
703.76	3385.22
704.105	3416.86
704.45	3392.23
704.795	3396.52
705.14	3404.2
705.485	3376.86
705.83	3410.08
706.175	3409.4
706.52	3391.55
706.865	3401.49
707.209	3384.77
707.554	3401.04
707.899	3362.17
708.243	3372.34
708.588	3366.92
708.932	3362.85
709.277	3360.82
709.621	3365.79
709.966	3335.05
710.31	3360.36
710.654	3307.03
710.998	3328.5
711.342	3346.13
711.687	3384.77
712.031	3342.06
712.375	3372.57
712.719	3384.77
713.063	3366.69
713.407	3333.25
713.75	3343.87
714.094	3383.64
714.438	3378.44
714.782	3335.28
715.125	3333.25
715.469	3329.18
715.812	3309.97
716.156	3329.4
716.499	3322.62
716.843	3321.27
717.186	3311.78
717.53	3328.5
717.873	3354.49
718.216	3372.57
718.559	3322.17
718.902	3292.79
719.246	3320.59
719.589	3338.22
719.932	3313.59
720.275	3359.01
720.617	3303.19
720.96	3329.18
721.303	3324.43
721.646	3318.1
721.989	3339.57
722.331	3326.47
722.674	3342.51
723.016	3316.07
723.359	3326.01
723.701	3279.69
724.044	3325.34
724.386	3325.56
724.729	3304.32
725.071	3291.21
725.413	3315.85
725.755	3330.31
726.097	3323.75
726.439	3321.72
726.782	3334.6
727.124	3352.91
727.465	3335.05
727.807	3326.01
728.149	3309.52
728.491	3339.8
728.833	3338.9
729.175	3355.84
729.516	3354.04
729.858	3320.82
730.199	3359.91
730.541	3326.92
730.882	3308.39
731.224	3364.88
731.565	3355.62
731.906	3339.12
732.248	3366.92
732.589	3354.71
732.93	3375.05
733.271	3296.86
733.612	3385.22
733.953	3331.89
734.294	3420.25
734.635	3370.98
734.976	3404.88
735.317	3337.77
735.658	3354.04
735.999	3386.8
736.339	3379.57
736.68	3382.28
737.021	3403.07
737.361	3411.89
737.702	3403.75
738.042	3443.53
738.383	3431.1
738.723	3476.97
739.063	3465.9
739.404	3462.06
739.744	3454.15
740.084	3447.14
740.424	3477.65
740.764	3445.79
741.104	3468.61
741.444	3474.94
741.784	3504.99
742.124	3494.82
742.464	3527.36
742.804	3472.23
743.143	3531.88
743.483	3554.26
743.823	3572.11
744.162	3521.04
744.502	3567.82
744.841	3580.7
745.181	3600.13
745.52	3573.47
745.86	3612.33
746.199	3613.46
746.538	3622.73
746.877	3660.24
747.216	3649.85
747.556	3643.07
747.895	3664.31
748.234	3674.71
748.573	3688.72
748.911	3718.32
749.25	3764.87
749.589	3740.47
749.928	3757.19
750.267	3827.47
750.605	3764.42
750.944	3817.07
751.283	3826.79
751.621	3833.57
751.96	3865.66
752.298	3853.01
752.636	3905.89
752.975	3902.04
753.313	3951.08
753.651	3942.27
753.989	3952.44
754.327	3969.16
754.666	3963.06
755.004	3998.54
755.342	4017.52
755.679	4061.81
756.017	4026.56
756.355	4069.72
756.693	4105.43
757.031	4100.46
757.368	4129.61
757.706	4156.95
758.044	4158.53
758.381	4160.12
758.719	4158.31
759.056	4198.31
759.394	4172.77
759.731	4245.76
760.068	4233.11
760.405	4257.29
760.743	4250.74
761.08	4311.98
761.417	4288.02
761.754	4293.22
762.091	4247.12
762.428	4363.28
762.765	4283.73
763.102	4325.08
763.438	4346.1
763.775	4355.82
764.112	4322.82
764.449	4361.24
764.785	4406.89
765.122	4337.51
765.458	4340.9
765.795	4334.58
766.131	4363.28
766.467	4369.6
766.804	4391.3
767.14	4358.08
767.476	4368.7
767.812	4370.96
768.148	4363.73
768.485	4353.56
768.821	4372.77
769.157	4350.62
769.492	4379.77
769.828	4382.94
770.164	4337.06
770.5	4344.52
770.836	4333.9
771.171	4363.05
771.507	4366.89
771.842	4307.91
