Data from blue_clamp_base_FLMS001491_00072.txt Node
Date: Wed Feb 08 15:16:29 GMT 2017
User: dcchb
Spectrometer: FLMS00149
Trigger mode: 0
Integration Time (sec): 2.000000E-2
Scans to average: 10
Electric dark correction enabled: true
Nonlinearity correction enabled: false
Boxcar width: 0
XAxis mode: Wavelengths
Number of Pixels in Spectrum: 2048
>>>>>Begin Spectral Data<<<<<
341.393	-3.83
341.776	-3.83
342.16	-3.83
342.543	-53.54
342.927	-59.87
343.31	-63.94
343.693	-67.1
344.077	-84.28
344.46	-53.09
344.843	-55.8
345.226	-40.21
345.61	-29.59
345.993	-25.3
346.376	-0.44
346.759	21.93
347.142	37.75
347.525	41.82
347.908	49.96
348.291	67.81
348.674	89.05
349.057	111.42
349.44	141.71
349.823	150.74
350.206	163.63
350.588	193.91
350.971	223.51
351.354	222.38
351.737	251.98
352.119	259.22
352.502	286.33
352.884	277.75
353.267	269.61
353.65	292.89
354.032	305.77
354.414	318.2
354.797	330.63
355.179	326.11
355.562	345.77
355.944	317.75
356.326	324.75
356.709	329.5
357.091	329.95
357.473	336.05
357.855	361.13
358.238	362.04
358.62	334.92
359.002	352.1
359.384	322.04
359.766	344.19
360.148	352.1
360.53	341.47
360.912	343.96
361.294	337.86
361.676	341.93
362.057	357.07
362.439	345.99
362.821	314.58
363.203	322.72
363.584	346.9
363.966	332.43
364.348	315.03
364.729	328.37
365.111	328.37
365.493	308.93
365.874	311.64
366.256	340.12
366.637	303.51
367.019	331.76
367.4	322.49
367.781	318.65
368.163	322.72
368.544	325.2
368.925	321.59
369.306	337.18
369.688	338.99
370.069	296.73
370.45	328.82
370.831	323.4
371.212	322.72
371.593	321.59
371.974	318.88
372.355	322.72
372.736	328.82
373.117	355.49
373.498	318.42
373.879	311.42
374.26	308.93
374.641	296.73
375.021	331.98
375.402	336.73
375.783	345.54
376.163	360.68
376.544	345.99
376.925	351.42
377.305	338.08
377.686	356.39
378.066	356.61
378.447	327.92
378.827	337.18
379.208	368.37
379.588	353
379.968	383.05
380.349	355.49
380.729	362.72
381.109	354.58
381.489	371.3
381.87	352.1
382.25	369.27
382.63	360.91
383.01	365.43
383.39	358.87
383.77	370.63
384.15	384.41
384.53	384.64
384.91	386.9
385.29	398.87
385.67	374.92
386.049	411.53
386.429	366.11
386.809	377.41
387.189	390.51
387.568	394.81
387.948	390.06
388.328	400.46
388.707	402.26
389.087	408.59
389.466	388.03
389.846	401.59
390.225	414.47
390.605	426.22
390.984	411.08
391.363	413.11
391.743	424.64
392.122	438.42
392.501	421.47
392.881	444.52
393.26	450.4
393.639	447.23
394.018	444.75
394.397	461.47
394.776	454.69
395.155	459.21
395.534	476.39
395.913	442.49
396.292	449.04
396.671	464.41
397.05	460.57
397.429	505.54
397.808	493.56
398.186	500.79
398.565	504.63
398.944	492.2
399.323	498.31
399.701	510.51
400.08	531.98
400.458	517.06
400.837	501.24
401.215	503.73
401.594	545.99
401.972	523.62
402.351	525.65
402.729	526.1
403.107	544.63
403.486	550.73
403.864	566.55
404.242	593.67
404.62	586.67
404.999	597.06
405.377	581.02
405.755	585.99
406.133	591.64
406.511	613.11
406.889	628.92
407.267	632.54
407.645	654.91
408.023	639.77
408.401	637.06
408.779	646.32
409.156	661.24
409.534	674.35
409.912	680.45
410.29	685.19
410.667	697.85
411.045	680.9
411.422	702.82
411.8	716.83
412.178	734.46
412.555	726.77
412.933	751.63
413.31	738.98
413.687	746.89
414.065	767
414.442	774.46
414.819	754.57
415.197	783.5
415.574	809.03
415.951	802.7
416.328	812.42
416.705	811.97
417.082	838.18
417.46	806.77
417.837	832.53
418.214	846.55
418.591	846.32
418.967	839.54
419.344	855.36
419.721	868.47
420.098	888.8
420.475	886.77
420.852	900.56
421.228	894.68
421.605	922.25
421.982	916.6
422.358	921.35
422.735	929.71
423.111	982.36
423.488	987.56
423.864	973.1
424.241	997.05
424.617	999.54
424.994	996.6
425.37	1001.12
425.746	1025.98
426.123	1037.27
426.499	1062.59
426.875	1072.98
427.251	1033.66
427.627	1103.71
428.003	1102.58
428.379	1103.04
428.756	1116.37
429.132	1124.28
429.507	1148.23
429.883	1181
430.259	1181.45
430.635	1192.07
431.011	1188.68
431.387	1225.29
431.763	1246.54
432.138	1244.5
432.514	1267.33
432.89	1283.14
433.265	1278.85
433.641	1304.16
434.016	1328.34
434.392	1360.2
434.767	1371.5
435.143	1375.57
435.518	1382.35
435.894	1419.86
436.269	1430.03
436.644	1463.03
437.02	1476.36
437.395	1495.34
437.77	1484.95
438.145	1512.52
438.52	1519.97
438.895	1528.79
439.271	1554.1
439.646	1593.87
440.021	1591.84
440.395	1582.8
440.77	1598.39
441.145	1623.25
441.52	1653.98
441.895	1625.73
442.27	1703.25
442.645	1658.5
443.019	1671.61
443.394	1680.87
443.769	1741.66
444.143	1743.02
444.518	1727.88
444.892	1734.66
445.267	1763.36
445.641	1773.53
446.016	1818.27
446.39	1780.08
446.764	1806.52
447.139	1817.59
447.513	1838.38
447.887	1853.52
448.262	1858.5
448.636	1859.4
449.01	1889
449.384	1912.73
449.758	1936.23
450.132	1942.11
450.506	1934.2
450.88	1990.7
451.254	1991.83
451.628	2011.26
452.002	2044.03
452.376	2058.49
452.75	2049.45
453.123	2078.6
453.497	2093.74
453.871	2111.37
454.244	2162.9
454.618	2198.15
454.992	2176.91
455.365	2209.22
455.739	2240.63
456.112	2267.75
456.486	2321.31
456.859	2297.81
457.232	2342.55
457.606	2349.56
457.979	2393.85
458.352	2412.15
458.725	2458.71
459.099	2474.07
459.472	2505.48
459.845	2495.32
460.218	2548.42
460.591	2578.93
460.964	2561.75
461.337	2607.86
461.71	2686.72
462.083	2744.12
462.456	2731.69
462.829	2721.52
463.201	2772.6
463.574	2776.44
463.947	2780.73
464.32	2909.54
464.692	2881.97
465.065	2907.06
465.438	2954.96
465.81	2954.96
466.183	2976.21
466.555	3060.5
466.928	3064.34
467.3	3059.37
467.672	3089.2
468.045	3188.86
468.417	3184.11
468.789	3196.77
469.161	3251.68
469.534	3270.44
469.906	3337.78
470.278	3334.62
470.65	3438.79
471.022	3504.33
471.394	3499.36
471.766	3543.65
472.138	3583.87
472.51	3666.58
472.882	3657.77
473.253	3698.9
473.625	3781.16
473.997	3795.17
474.369	3857.77
474.74	3889.18
475.112	3957.65
475.484	3987.93
475.855	4054.14
476.227	4091.66
476.598	4201.26
476.97	4197.64
477.341	4260.02
477.713	4325.55
478.084	4332.78
478.455	4453.23
478.827	4512.44
479.198	4595.15
479.569	4516.05
479.94	4665.43
480.311	4736.39
480.682	4800.11
481.053	4846.44
481.424	4939.55
481.795	4976.61
482.166	5051.86
482.537	5103.61
482.908	5158.97
483.279	5155.13
483.65	5290.95
484.021	5393.09
484.391	5395.13
484.762	5396.71
485.133	5451.62
485.503	5524.39
485.874	5626.76
486.244	5707.21
486.615	5693.42
486.985	5762.57
487.356	5862.91
487.726	5817.04
488.097	5967.77
488.467	5966.86
488.837	6093.87
489.207	6126.41
489.578	6212.28
489.948	6211.83
490.318	6304.48
490.688	6302.45
491.058	6378.15
491.428	6444.59
491.798	6435.55
492.168	6593.51
492.538	6622.44
492.908	6663.12
493.278	6633.96
493.648	6673.06
494.017	6708.76
494.387	6776.79
494.757	6803.68
495.126	6854.52
495.496	6817.91
495.866	6884.35
496.235	6928.42
496.605	6910.79
496.974	7006.38
497.344	7002.09
497.713	7026.5
498.082	7083.9
498.452	7136.78
498.821	7117.57
499.19	7091.13
499.559	7136.32
499.928	7201.63
500.298	7294.74
500.667	7250.9
501.036	7274.4
501.405	7307.39
501.774	7321.63
502.143	7362.31
502.512	7302.65
502.88	7396.66
503.249	7396.88
503.618	7360.5
503.987	7444.34
504.356	7512.58
504.724	7487.73
505.093	7542.64
505.462	7517.78
505.83	7542.64
506.199	7612.92
506.567	7651.56
506.936	7698.34
507.304	7730.66
507.672	7731.56
508.041	7717.55
508.409	7809.07
508.777	7821.28
509.145	7878.45
509.514	7918.22
509.882	7889.07
510.25	7916.19
510.618	7952.35
510.986	7956.19
511.354	8037.77
511.722	8118.44
512.09	8068.95
512.458	8077.32
512.826	8167.93
513.193	8132.23
513.561	8162.06
513.929	8152.12
514.297	8260.14
514.664	8269.4
515.032	8262.85
515.4	8356.4
515.767	8360.25
516.135	8331.09
516.502	8289.06
516.869	8498.32
517.237	8440.7
517.604	8450.87
517.972	8525.21
518.339	8505.1
518.706	8574.25
519.073	8636.62
519.44	8541.03
519.808	8667.36
520.175	8640.24
520.542	8770.86
520.909	8700.35
521.276	8705.1
521.643	8835.49
522.009	8843.85
522.376	8834.81
522.743	8894.7
523.11	8984.41
523.477	9042.26
523.843	9053.11
524.21	9106.89
524.577	9156.61
524.943	9143.28
525.31	9208.36
525.676	9322.48
526.043	9325.87
526.409	9309.15
526.776	9456.26
527.142	9449.26
527.508	9484.51
527.874	9528.13
528.241	9601.8
528.607	9478.63
528.973	9691.28
529.339	9625.98
529.705	9676.37
530.071	9839.76
530.437	9773.09
530.803	9771.28
531.169	9830.49
531.535	9860.32
531.901	9935.57
532.267	9980.09
532.632	9998.62
532.998	10046.3
533.364	10093.76
533.73	10134.21
534.095	10142.8
534.461	10172.18
534.826	10241.33
535.192	10267.09
535.557	10247.2
535.923	10343.92
536.288	10338.27
536.653	10382.79
537.019	10327.2
537.384	10425.95
537.749	10501.88
538.114	10453.52
538.479	10527.19
538.845	10644.93
539.21	10546.63
539.575	10618.72
539.94	10550.25
540.305	10609.68
540.67	10643.58
541.034	10710.47
541.399	10792.95
541.764	10738.49
542.129	10757.7
542.494	10760.86
542.858	10835.66
543.223	10870.46
543.587	10910.24
543.952	10941.42
544.316	10909.11
544.681	10932.83
545.045	10958.6
545.41	11077.01
545.774	11088.99
546.138	11018.03
546.503	11166.95
546.867	11117.46
547.231	11124.47
547.595	11153.62
547.959	11241.3
548.324	11229.1
548.688	11200.85
549.052	11313.16
549.416	11245.37
549.779	11297.12
550.143	11315.87
550.507	11428.19
550.871	11326.95
551.235	11404.01
551.599	11550.44
551.962	11529.43
552.326	11485.36
552.689	11589.09
553.053	11502.76
553.417	11541.86
553.78	11694.17
554.143	11705.92
554.507	11717.45
554.87	11779.82
555.234	11781.85
555.597	11768.29
555.96	11846.71
556.323	11836.09
556.686	11879.93
557.05	11893.71
557.413	11967.84
557.776	12023.43
558.139	12008.96
558.502	12027.27
558.865	12071.34
559.228	12177.55
559.59	12170.09
559.953	12234.95
560.316	12329.41
560.679	12362.63
561.041	12400.37
561.404	12456.41
561.767	12471.1
562.129	12479.69
562.492	12553.81
562.854	12461.16
563.217	12535.05
563.579	12617.54
563.941	12737.98
564.304	12721.71
564.666	12863.63
565.028	12924.19
565.39	12880.58
565.753	12949.73
566.115	12975.27
566.477	13077.18
566.839	13088.71
567.201	13115.83
567.563	13114.02
567.925	13267.69
568.287	13253.22
568.648	13279.89
569.01	13354.92
569.372	13439.89
569.734	13419.1
570.095	13420.68
570.457	13526.89
570.819	13598.98
571.18	13476.72
571.542	13633.33
571.903	13690.95
572.265	13732.31
572.626	13836.03
572.987	13813.66
573.349	13825.19
573.71	13888.91
574.071	13896.37
574.432	13915.81
574.794	14081
575.155	14066.76
575.516	13967.56
575.877	14083.49
576.238	14110.15
576.599	14155.35
576.96	14257.94
577.32	14197.38
577.681	14284.61
578.042	14272.63
578.403	14310.15
578.763	14318.06
579.124	14337.94
579.485	14460.65
579.845	14482.8
580.206	14542.91
580.566	14473.31
580.927	14513.53
581.287	14597.14
581.648	14483.48
582.008	14563.92
582.368	14536.13
582.728	14629.46
583.089	14675.11
583.449	14677.14
583.809	14643.7
584.169	14683.24
584.529	14655
584.889	14758.27
585.249	14647.99
585.609	14610.03
585.969	14826.29
586.329	14706.07
586.688	14751.49
587.048	14756.24
587.408	14661.55
587.768	14707.42
588.127	14774.31
588.487	14782.22
588.846	14889.34
589.206	14789.46
589.565	14779.74
589.925	14857.02
590.284	14881.66
590.643	14875.33
591.003	14919.62
591.362	14972.05
591.721	14894.09
592.08	14937.7
592.44	14978.83
592.799	14929.34
593.158	14988.32
593.517	14991.71
593.876	14891.37
594.235	14998.04
594.593	14985.61
594.952	15024.03
595.311	15007.08
595.67	15034.65
596.029	15053.86
596.387	15049.79
596.746	15116.45
597.104	14958.72
597.463	15099.28
597.822	15131.82
598.18	15135.66
598.538	15031.94
598.897	15189.67
599.255	14972.95
599.613	15228.99
599.972	15157.81
600.33	15188.54
600.688	15182.67
601.046	15177.24
601.404	15301.76
601.762	15195.32
602.12	15256.56
602.478	15357.35
602.836	15257.01
603.194	15226.05
603.552	15291.36
603.91	15207.98
604.268	15405.71
604.625	15241.87
604.983	15286.84
605.341	15300.85
605.698	15357.12
606.056	15423.34
606.413	15331.36
606.771	15410.46
607.128	15499.04
607.485	15385.6
607.843	15407.07
608.2	15542.43
608.557	15526.39
608.914	15475.99
609.272	15540.4
609.629	15569.55
609.986	15568.42
610.343	15513.5
610.7	15580.17
611.057	15652.94
611.414	15564.12
611.771	15618.59
612.127	15632.15
612.484	15808.41
612.841	15755.08
613.198	15623.33
613.554	15711.01
613.911	15783.78
614.267	15743.33
614.624	15775.64
614.98	15760.05
615.337	15941.52
615.693	15828.75
616.05	15878.24
616.406	15918.24
616.762	15958.01
617.118	15954.85
617.475	15894.74
617.831	15929.54
618.187	15957.56
618.543	15944.45
618.899	16068.97
619.255	16075.3
619.611	16105.13
619.967	16145.35
620.323	16122.08
620.678	16049.99
621.034	16068.74
621.39	16128.4
621.746	16110.32
622.101	16190.32
622.457	16158.46
622.812	16127.05
623.168	16322.75
623.523	16213.37
623.879	16327.72
624.234	16242.75
624.589	16345.57
624.945	16201.17
625.3	16276.42
625.655	16285.01
626.01	16310.32
626.365	16325.69
626.72	16366.14
627.075	16414.95
627.43	16284.78
627.785	16332.47
628.14	16356.19
628.495	16382.18
628.85	16335.86
629.205	16357.32
629.559	16463.31
629.914	16348.28
630.269	16410.43
630.623	16462.63
630.978	16432.8
631.332	16500.82
631.687	16494.72
632.041	16520.03
632.396	16527.49
632.75	16453.14
633.104	16432.12
633.459	16421.5
633.813	16511.67
634.167	16471.22
634.521	16468.73
634.875	16488.17
635.229	16489.07
635.583	16608.39
635.937	16550.77
636.291	16489.07
636.645	16561.39
636.999	16428.51
637.352	16565.91
637.706	16547.38
638.06	16637.32
638.413	16561.39
638.767	16435.97
639.121	16583.76
639.474	16514.61
639.828	16500.6
640.181	16594.15
640.534	16639.8
640.888	16560.48
641.241	16472.8
641.594	16621.95
641.947	16671.67
642.301	16586.24
642.654	16737.88
643.007	16700.59
643.36	16656.53
643.713	16725
644.066	16767.71
644.419	16604.55
644.771	16531.56
645.124	16347.38
645.477	16408.85
645.83	16292.24
646.182	16294.95
646.535	16237.78
646.888	16393.71
647.24	16249.98
647.593	16405.23
647.945	16409.3
648.298	16314.39
648.65	16346.7
649.002	16263.54
649.355	16408.17
649.707	16396.65
650.059	16415.63
650.411	16599.8
650.763	16668.28
651.115	16932.9
651.467	16835.73
651.819	17000.25
652.171	16853.13
652.523	16869.4
652.875	16855.39
653.227	16867.14
653.578	16897.2
653.93	16945.78
654.282	16889.06
654.633	16836.63
654.985	16933.81
655.337	16958.66
655.688	17002.96
656.039	17060.36
656.391	16918.44
656.742	16889.51
657.094	16990.75
657.445	17144.42
657.796	17070.75
658.147	17035.27
658.498	17028.94
658.849	17090.19
659.2	17089.06
659.551	17049.96
659.902	17042.73
660.253	17076.18
660.604	17125.44
660.955	17070.07
661.306	17072.56
661.656	17085.44
662.007	17069.85
662.358	17009.06
662.708	17116.85
663.059	17134.25
663.409	17000.47
663.76	17148.26
664.11	17109.85
664.461	17118.43
664.811	17111.2
665.161	17061.03
665.511	17136.06
665.862	17202.27
666.212	17131.32
666.562	17078.21
666.912	17205.66
667.262	16954.14
667.612	17019.91
667.962	17203.63
668.312	17091.77
668.662	17103.29
669.011	17052.9
669.361	17021.04
669.711	16969.06
670.06	16961.83
670.41	16971.77
670.76	16884.99
671.109	16967.93
671.459	16842.51
671.808	16852.23
672.157	16879.8
672.507	16827.82
672.856	16803.87
673.205	16784.43
673.554	16800.48
673.904	16781.04
674.253	16793.47
674.602	16664.89
674.951	16527.72
675.3	16428.73
675.649	16703.76
675.998	16608.84
676.346	16566.36
676.695	16621.95
677.044	16455.17
677.393	16547.15
677.741	16610.2
678.09	16473.93
678.438	16443.2
678.787	16498.11
679.135	16341.51
679.484	16308.74
679.832	16326.14
680.181	16329.53
680.529	16308.51
680.877	16220.38
681.225	16246.37
681.573	16334.5
681.922	16127.73
682.27	16155.3
682.618	16126.6
682.966	16112.36
683.314	16116.43
683.661	15930.89
684.009	15967.96
684.357	15903.55
684.705	15805.47
685.053	15841.41
685.4	15833.5
685.748	15879.82
686.095	15768.41
686.443	15687.96
686.79	15714.63
687.138	15807.96
687.485	15864
687.832	15700.84
688.18	15747.85
688.527	15599.38
688.874	15601.64
689.221	15541.75
689.568	15511.24
689.915	15556.67
690.262	15537.91
690.609	15487.74
690.956	15513.96
691.303	15442.55
691.65	15338.82
691.997	15367.07
692.344	15361.87
692.69	15236.45
693.037	15300.18
693.383	15151.71
693.73	15274.19
694.077	15198.48
694.423	15169.78
694.769	15168.88
695.116	15074.87
695.462	15140.41
695.808	14996.91
696.155	15131.82
696.501	14947.42
696.847	15018.6
697.193	14961.65
697.539	15046.4
697.885	14899.06
698.231	14887.08
698.577	14838.04
698.923	14908.77
699.269	14780.64
699.614	14688.67
699.96	14757.59
700.306	14788.78
700.651	14680.98
700.997	14717.59
701.342	14650.02
701.688	14737.48
702.033	14554.89
702.379	14616.8
702.724	14560.99
703.069	14649.35
703.415	14508.11
703.76	14550.37
704.105	14533.64
704.45	14533.19
704.795	14391.95
705.14	14351.95
705.485	14384.27
705.83	14314.44
706.175	14435.11
706.52	14383.82
706.865	14349.02
707.209	14310.6
707.554	14296.59
707.899	14374.1
708.243	14289.13
708.588	14165.07
708.932	14147.66
709.277	14182.01
709.621	14167.1
709.966	14192.64
710.31	14254.1
710.654	14070.83
710.998	14186.76
711.342	14116.25
711.687	14117.84
712.031	14100.89
712.375	14113.54
712.719	14076.25
713.063	14028.57
713.407	14086.42
713.75	14036.03
714.094	14066.76
714.438	14062.92
714.782	14053.88
715.125	13997.61
715.469	14045.29
715.812	14021.34
716.156	13988.12
716.499	13916.71
716.843	13970.49
717.186	13919.65
717.53	13954.9
717.873	13962.13
718.216	13907.67
718.559	13822.7
718.902	13830.38
719.246	13852.53
719.589	13822.7
719.932	13861.12
720.275	13888.69
720.617	13801.91
720.96	13783.83
721.303	13834
721.646	13825.19
721.989	13699.31
722.331	13840.55
722.674	13711.52
723.016	13710.61
723.359	13798.75
723.701	13785.19
724.044	13652.54
724.386	13574.35
724.729	13734.34
725.071	13666.1
725.413	13747
725.755	13684.63
726.097	13621.8
726.439	13533.22
726.782	13705.64
727.124	13690.28
727.465	13679.43
727.807	13655.47
728.149	13623.84
728.491	13560.56
728.833	13679.43
729.175	13618.64
729.516	13613.44
729.858	13632.2
730.199	13640.33
730.541	13621.12
730.882	13580.67
731.224	13609.83
731.565	13561.69
731.906	13622.71
732.248	13627.23
732.589	13641.46
732.93	13605.31
733.271	13576.38
733.612	13667.68
733.953	13670.84
734.294	13561.24
734.635	13613.22
734.976	13630.39
735.317	13666.32
735.658	13669.94
735.999	13677.17
736.339	13674.46
736.68	13689.6
737.021	13587.23
737.361	13666.55
737.702	13768.47
738.042	13638.3
738.383	13733.66
738.723	13759.65
739.063	13734.34
739.404	13787.45
739.744	13795.81
740.084	13751.06
740.424	13815.24
740.764	13816.6
741.104	13916.26
741.444	13875.13
741.784	13878.07
742.124	13955.35
742.464	13949.48
742.804	13906.54
743.143	13940.89
743.483	13940.89
743.823	13988.57
744.162	13963.04
744.502	14055.92
744.841	14012.3
745.181	14093.65
745.52	14070.38
745.86	14160.55
746.199	14172.3
746.538	14159.64
746.877	14205.06
747.216	14166.2
747.556	14234.89
747.895	14289.36
748.234	14306.76
748.573	14303.82
748.911	14331.39
749.25	14317.6
749.589	14313.76
749.928	14341.33
750.267	14487.09
750.605	14371.39
750.944	14424.27
751.283	14527.99
751.621	14520.99
751.96	14459.75
752.298	14463.81
752.636	14581.1
752.975	14468.56
753.313	14521.44
753.651	14598.27
753.989	14504.04
754.327	14637.82
754.666	14555.56
755.004	14597.14
755.342	14679.4
755.679	14772.73
756.017	14634.66
756.355	14723.47
756.693	14668.33
