Data from blue_clamp_base_FLMS001491_00029.txt Node
Date: Wed Feb 08 15:15:47 GMT 2017
User: dcchb
Spectrometer: FLMS00149
Trigger mode: 0
Integration Time (sec): 2.000000E-2
Scans to average: 10
Electric dark correction enabled: true
Nonlinearity correction enabled: false
Boxcar width: 0
XAxis mode: Wavelengths
Number of Pixels in Spectrum: 2048
>>>>>Begin Spectral Data<<<<<
341.393	-2.54
341.776	-2.54
342.16	-2.54
342.543	-57.46
342.927	-65.82
343.31	-50.9
343.693	-80.28
344.077	-51.35
344.46	-75.53
344.843	-37.34
345.226	-43.9
345.61	-34.18
345.993	-25.14
346.376	-3.22
346.759	12.82
347.142	28.64
347.525	44.46
347.908	50.56
348.291	75.87
348.674	95.99
349.057	93.5
349.44	131.01
349.823	118.13
350.206	155.42
350.588	189.77
350.971	197.68
351.354	222.76
351.737	237.45
352.119	251.91
352.502	253.95
352.884	255.98
353.267	291.46
353.65	295.3
354.032	272.25
354.414	304.57
354.797	320.84
355.179	304.12
355.562	319.94
355.944	301.63
356.326	323.32
356.709	320.16
357.091	317.68
357.473	340.27
357.855	341.18
358.238	332.59
358.62	351.57
359.002	341.18
359.384	322.65
359.766	324.91
360.148	344.12
360.53	341.63
360.912	330.78
361.294	311.35
361.676	346.38
362.057	307.05
362.439	323.1
362.821	303.66
363.203	296.66
363.584	316.55
363.966	302.31
364.348	312.93
364.729	332.36
365.111	307.05
365.493	313.83
365.874	297.56
366.256	307.96
366.637	285.13
367.019	319.03
367.4	318.13
367.781	303.66
368.163	332.14
368.544	302.08
368.925	301.86
369.306	317.22
369.688	302.08
370.069	298.47
370.45	292.14
370.831	315.42
371.212	298.01
371.593	309.09
371.974	300.27
372.355	277.9
372.736	309.99
373.117	310.9
373.498	295.3
373.879	284.68
374.26	295.08
374.641	305.02
375.021	297.56
375.402	321.52
375.783	307.51
376.163	306.38
376.544	309.09
376.925	311.57
377.305	310.44
377.686	325.81
378.066	327.62
378.447	326.04
378.827	328.75
379.208	325.13
379.588	301.4
379.968	336.43
380.349	309.77
380.729	328.75
381.109	338.01
381.489	328.3
381.87	321.52
382.25	329.43
382.63	334.85
383.01	350.89
383.39	338.24
383.77	342.76
384.15	321.07
384.53	339.6
384.91	339.14
385.29	362.87
385.67	319.48
386.049	333.04
386.429	357.22
386.809	344.57
387.189	356.32
387.568	337.79
387.948	360.84
388.328	354.28
388.707	345.7
389.087	354.96
389.466	356.32
389.846	338.47
390.225	345.25
390.605	383.21
390.984	349.99
391.363	366.49
391.743	375.75
392.122	369.43
392.501	372.82
392.881	379.14
393.26	371.91
393.639	386.15
394.018	389.76
394.397	405.58
394.776	414.17
395.155	399.26
395.534	394.74
395.913	404.9
396.292	397.67
396.671	397.45
397.05	425.02
397.429	422.53
397.808	427.73
398.186	408.52
398.565	418.24
398.944	404.68
399.323	430.89
399.701	422.98
400.08	418.69
400.458	432.93
400.837	438.35
401.215	420.5
401.594	447.62
401.972	432.7
402.351	439.93
402.729	463.43
403.107	441.97
403.486	501.17
403.864	482.64
404.242	478.8
404.62	456.65
404.999	468.18
405.377	484.22
405.755	485.35
406.133	502.98
406.511	483.32
406.889	520.83
407.267	509.31
407.645	532.58
408.023	520.38
408.401	521.51
408.779	532.13
409.156	573.94
409.534	561.28
409.912	535.75
410.29	554.73
410.667	568.06
411.045	577.1
411.422	571
411.8	573.26
412.178	599.93
412.555	589.08
412.933	574.17
413.31	609.64
413.687	629.98
414.065	614.84
414.442	616.88
414.819	614.16
415.197	622.07
415.574	642.19
415.951	646.25
416.328	661.17
416.705	660.27
417.082	668.4
417.46	667.27
417.837	675.18
418.214	694.61
418.591	686.25
418.967	699.59
419.344	711.11
419.721	705.01
420.098	699.81
420.475	712.02
420.852	714.95
421.228	720.83
421.605	719.25
421.982	734.16
422.358	746.59
422.735	773.26
423.111	774.16
423.488	773.26
423.864	774.16
424.241	799.47
424.617	795.63
424.994	788.62
425.37	820.26
425.746	828.17
426.123	829.75
426.499	835.63
426.875	826.14
427.251	866.81
427.627	888.73
428.003	886.02
428.379	881.05
428.756	902.97
429.132	903.42
429.507	908.17
429.883	919.24
430.259	946.13
430.635	938.68
431.011	919.92
431.387	980.93
431.763	972.12
432.138	987.94
432.514	993.82
432.89	1033.36
433.265	1040.37
433.641	1069.75
434.016	1065.68
434.392	1059.35
434.767	1085.11
435.143	1110.2
435.518	1105
435.894	1128.28
436.269	1120.14
436.644	1149.97
437.02	1153.59
437.395	1167.6
437.77	1161.95
438.145	1210.76
438.52	1206.47
438.895	1207.37
439.271	1203.3
439.646	1260.48
440.021	1256.86
440.395	1286.92
440.77	1258.89
441.145	1285.11
441.52	1304.77
441.895	1293.47
442.27	1356.97
442.645	1335.05
443.019	1330.08
443.394	1350.64
443.769	1376.63
444.143	1378.21
444.518	1392
444.892	1377.76
445.267	1397.42
445.641	1403.3
446.016	1453.24
446.39	1440.13
446.764	1423.63
447.139	1432.9
447.513	1461.83
447.887	1480.81
448.262	1482.16
448.636	1464.31
449.01	1501.15
449.384	1527.81
449.758	1523.75
450.132	1560.35
450.506	1567.36
450.88	1560.13
451.254	1561.03
451.628	1584.99
452.002	1613.91
452.376	1626.79
452.75	1634.48
453.123	1685.55
453.497	1707.24
453.871	1674.02
454.244	1751.31
454.618	1738.88
454.992	1750.86
455.365	1756.73
455.739	1799.22
456.112	1798.99
456.486	1836.28
456.859	1827.92
457.232	1903.17
457.606	1903.17
457.979	1884.41
458.352	1918.99
458.725	1969.84
459.099	1958.08
459.472	1982.94
459.845	2024.75
460.218	2066.33
460.591	2060.23
460.964	2064.75
461.337	2113.11
461.71	2144.97
462.083	2155.14
462.456	2158.76
462.829	2194.24
463.201	2221.35
463.574	2191.98
463.947	2207.57
464.32	2262.71
464.692	2290.05
465.065	2331.86
465.438	2347.68
465.81	2395.81
466.183	2393.1
466.555	2460.9
466.928	2413.67
467.3	2439.2
467.672	2505.87
468.045	2538.86
468.417	2518.52
468.789	2575.69
469.161	2611.17
469.534	2622.02
469.906	2684.84
470.278	2686.88
470.65	2711.74
471.022	2740.21
471.394	2804.16
471.766	2801.9
472.138	2850.72
472.51	2915.35
472.882	2962.58
473.253	2979.3
473.625	2997.83
473.997	3088.22
474.369	3045.97
474.74	3121.44
475.112	3178.39
475.484	3201.22
475.855	3251.61
476.227	3258.16
476.598	3327.54
476.97	3375
477.341	3444.82
477.713	3499.96
478.084	3482.11
478.455	3571.15
478.827	3579.28
479.198	3703.12
479.569	3710.81
479.94	3794.87
480.311	3811.59
480.682	3799.62
481.053	3897.92
481.424	3968.43
481.795	3960.29
482.166	4049.1
482.537	4075.54
482.908	4126.16
483.279	4172.26
483.65	4212.49
484.021	4302.2
484.391	4306.95
484.762	4351.24
485.133	4380.85
485.503	4440.5
485.874	4529.77
486.244	4520.5
486.615	4614.74
486.985	4631.46
487.356	4688.18
487.726	4729.76
488.097	4831.91
488.467	4849.08
488.837	4894.96
489.207	4910.1
489.578	4959.81
489.948	5018.79
490.318	5063.09
490.688	5038
491.058	5129.3
491.428	5188.28
491.798	5215.63
492.168	5257.88
492.538	5285.23
492.908	5316.87
493.278	5378.79
493.648	5374.49
494.017	5428.05
494.387	5492.68
494.757	5515.05
495.126	5521.61
495.496	5517.09
495.866	5555.73
496.235	5590.98
496.605	5649.96
496.974	5680.92
497.344	5675.27
497.713	5701.94
498.082	5734.48
498.452	5789.85
498.821	5775.16
499.19	5793.92
499.559	5770.64
499.928	5825.78
500.298	5884.31
500.667	5892.9
501.036	5874.14
501.405	5949.39
501.774	5913.69
502.143	5967.24
502.512	5962.27
502.88	6059.45
503.249	5966.79
503.618	5997.07
503.987	6054.02
504.356	6081.37
504.724	6093.34
505.093	6110.97
505.462	6088.15
505.83	6120.91
506.199	6202.04
506.567	6196.16
506.936	6235.71
507.304	6278.42
507.672	6292.43
508.041	6316.61
508.409	6295.82
508.777	6381.92
509.145	6399.32
509.514	6356.39
509.882	6388.93
510.25	6442.71
510.618	6455.59
510.986	6464.63
511.354	6545.76
511.722	6552.54
512.09	6610.39
512.458	6558.19
512.826	6561.13
513.193	6617.62
513.561	6616.72
513.929	6639.77
514.297	6708.69
514.664	6686.77
515.032	6679.09
515.4	6758.18
515.767	6753.21
516.135	6766.77
516.502	6721.35
516.869	6876.6
517.237	6812.87
517.604	6794.79
517.972	6890.38
518.339	6963.38
518.706	6927.44
519.073	6917.05
519.44	6950.27
519.808	7004.28
520.175	6962.7
520.542	7001.57
520.909	7088.12
521.276	7076.37
521.643	7081.11
522.009	7097.61
522.376	7201.79
522.743	7124.73
523.11	7251.73
523.477	7225.29
523.843	7292.41
524.21	7359.75
524.577	7395.68
524.943	7381.44
525.31	7442.01
525.676	7431.84
526.043	7519.97
526.409	7531.5
526.776	7604.94
527.142	7582.57
527.508	7568.56
527.874	7672.96
528.241	7691.49
528.607	7724.71
528.973	7737.82
529.339	7779.4
529.705	7793.18
530.071	7834.31
530.437	7839.96
530.803	7893.75
531.169	7946.4
531.535	7936.91
531.901	7922
532.267	7965.84
532.632	7989.79
532.998	8030.92
533.364	8044.93
533.73	8036.34
534.095	8152.27
534.461	8150.69
534.826	8168.77
535.192	8173.97
535.557	8230.24
535.923	8218.26
536.288	8245.6
536.653	8237.69
537.019	8268.88
537.384	8321.76
537.749	8288.31
538.114	8344.81
538.479	8392.94
538.845	8313.17
539.21	8351.81
539.575	8379.16
539.94	8395.43
540.305	8365.37
540.67	8378.48
541.034	8432.72
541.399	8453.51
541.764	8491.02
542.129	8526.05
542.494	8515.43
542.858	8548.42
543.223	8537.57
543.587	8586.38
543.952	8546.84
544.316	8567.18
544.681	8592.03
545.045	8546.61
545.41	8670.22
545.774	8653.73
546.138	8726.95
546.503	8740.28
546.867	8647.85
547.231	8774.18
547.595	8723.1
547.959	8790.22
548.324	8763.55
548.688	8799.03
549.052	8832.48
549.416	8815.53
549.779	8873.83
550.143	8765.59
550.507	8909.09
550.871	8892.82
551.235	8928.75
551.599	8859.82
551.962	8921.97
552.326	8943.21
552.689	8913.83
553.053	8942.31
553.417	8907.28
553.78	9062.98
554.143	8967.84
554.507	9039.71
554.87	9010.78
555.234	9052.59
555.597	9041.51
555.96	9101.17
556.323	9072.02
556.686	9095.75
557.05	9146.14
557.413	9222.75
557.776	9173.71
558.139	9200.61
558.502	9169.87
558.865	9170.32
559.228	9319.02
559.59	9249.87
559.953	9261.39
560.316	9319.92
560.679	9321.96
561.041	9327.16
561.404	9461.62
561.767	9441.5
562.129	9444.44
562.492	9458.68
562.854	9509.07
563.217	9490.09
563.579	9548.17
563.941	9596.53
564.304	9590.65
564.666	9721.27
565.028	9668.62
565.39	9650.99
565.753	9688.95
566.115	9714.26
566.477	9755.62
566.839	9786.13
567.201	9882.62
567.563	9842.4
567.925	9957.87
568.287	9954.03
568.648	9878.78
569.01	10016.63
569.372	10034.26
569.734	10060.47
570.095	10135.5
570.457	10094.37
570.819	10185.21
571.18	10095.5
571.542	10203.52
571.903	10117.42
572.265	10226.79
572.626	10202.16
572.987	10223.18
573.349	10334.81
573.71	10304.53
574.071	10316.06
574.432	10387.24
574.794	10385.21
575.155	10392.66
575.516	10408.71
575.877	10414.13
576.238	10476.5
576.599	10548.14
576.96	10539.78
577.32	10446.45
577.681	10503.62
578.042	10519.89
578.403	10533.9
578.763	10588.14
579.124	10606.9
579.485	10695.03
579.845	10702.94
580.206	10626.78
580.566	10656.84
580.927	10736.84
581.287	10737.74
581.648	10645.77
582.008	10802.6
582.368	10736.84
582.728	10790.39
583.089	10755.14
583.449	10704.07
583.809	10811.86
584.169	10845.08
584.529	10754.69
584.889	10870.17
585.249	10825.2
585.609	10773.67
585.969	10850.28
586.329	10817.06
586.688	10835.36
587.048	10804.41
587.408	10812.99
587.768	10829.94
588.127	10842.14
588.487	10820.22
588.846	10962.37
589.206	10881.69
589.565	10827
589.925	10925.08
590.284	10864.74
590.643	10909.94
591.003	10875.59
591.362	10940.9
591.721	10935.93
592.08	11042.82
592.44	10989.03
592.799	10959.66
593.158	11012.99
593.517	10995.81
593.876	10995.81
594.235	10964.17
594.593	10989.26
594.952	10997.85
595.311	10962.37
595.67	10981.35
596.029	11098.63
596.387	11103.38
596.746	11110.61
597.104	11007.79
597.463	11072.19
597.822	11108.58
598.18	11024.06
598.538	11029.94
598.897	11112.19
599.255	11030.39
599.613	11159.65
599.972	11128.24
600.33	11092.76
600.688	11072.42
601.046	11078.97
601.404	11190.61
601.762	11162.59
602.12	11257.95
602.478	11232.87
602.836	11162.81
603.194	11153.1
603.552	11164.17
603.91	11110.61
604.268	11163.94
604.625	11081.69
604.983	11163.94
605.341	11149.93
605.698	11193.55
606.056	11220.44
606.413	11255.92
606.771	11260.66
607.128	11328.46
607.485	11194.68
607.843	11267.22
608.2	11346.54
608.557	11381.34
608.914	11284.62
609.272	11310.15
609.629	11371.62
609.986	11417.95
610.343	11373.88
610.7	11429.02
611.057	11432.41
611.414	11358.74
611.771	11331.4
612.127	11512.86
612.484	11482.81
612.841	11479.87
613.198	11367.33
613.554	11463.82
613.911	11493.43
614.267	11526.19
614.624	11499.98
614.98	11512.41
615.337	11627.89
615.693	11514.44
616.05	11525.52
616.406	11549.02
616.762	11570.94
617.118	11631.5
617.475	11595.8
617.831	11638.51
618.187	11611.84
618.543	11633.08
618.899	11705.4
619.255	11651.39
619.611	11739.75
619.967	11740.2
620.323	11669.47
620.678	11703.82
621.034	11710.82
621.39	11740.2
621.746	11695.46
622.101	11850.71
622.457	11755.57
622.812	11734.32
623.168	11843.25
623.523	11844.6
623.879	11913.3
624.234	11742.69
624.589	11847.32
624.945	11921.21
625.3	11892.74
625.655	11896.81
626.01	11959.63
626.365	11930.25
626.72	11863.59
627.075	11863.81
627.43	11903.81
627.785	11977.48
628.14	12056.12
628.495	11956.92
628.85	12024.03
629.205	11938.84
629.559	12014.77
629.914	11923.02
630.269	12017.25
630.623	12040.76
630.978	11930.25
631.332	12102.68
631.687	12023.13
632.041	12003.47
632.396	12050.7
632.75	11965.05
633.104	12040.3
633.459	12045.5
633.813	12006.41
634.167	12064.71
634.521	11999.85
634.875	12010.48
635.229	12011.61
635.583	11952.62
635.937	12021.55
636.291	12024.71
636.645	12018.61
636.999	12086.18
637.352	12086.41
637.706	12097.48
638.06	12111.04
638.413	12064.03
638.767	12071.49
639.121	12137.03
639.474	12041.66
639.828	12033.98
640.181	12062.9
640.534	12073.52
640.888	12093.86
641.241	12040.08
641.594	12111.04
641.947	12193.52
642.301	12158.27
642.654	12145.16
643.007	12183.8
643.36	12146.74
643.713	12124.14
644.066	12221.54
644.419	12123.92
644.771	12151.49
645.124	12073.98
645.477	12006.18
645.83	12082.79
646.182	11914.43
646.535	11940.65
646.888	11900.42
647.24	11853.87
647.593	11883.47
647.945	11841.44
648.298	11773.42
648.65	11762.57
649.002	11770.71
649.355	11925.05
649.707	11979.52
650.059	12062.23
650.411	12230.36
650.763	12154.88
651.115	12290.47
651.467	12132.28
651.819	12276.91
652.171	12257.02
652.523	12300.86
652.875	12290.92
653.227	12193.3
653.578	12393.74
653.93	12384.7
654.282	12392.39
654.633	12332.05
654.985	12395.55
655.337	12366.85
655.688	12361.43
656.039	12403.23
656.391	12314.87
656.742	12381.31
657.094	12391.26
657.445	12495.43
657.796	12469.22
658.147	12341.09
658.498	12404.14
658.849	12281.65
659.2	12504.93
659.551	12490.46
659.902	12479.62
660.253	12509.9
660.604	12466.96
660.955	12501.31
661.306	12512.83
661.656	12516
662.007	12488.88
662.358	12516.9
662.708	12516.68
663.059	12557.58
663.409	12446.62
663.76	12534.3
664.11	12494.98
664.461	12527.07
664.811	12442.78
665.161	12463.12
665.511	12467.19
665.862	12573.17
666.212	12531.14
666.562	12579.95
666.912	12454.08
667.262	12522.55
667.612	12465.15
667.962	12498.6
668.312	12430.8
668.662	12407.3
669.011	12407.07
669.361	12399.84
669.711	12402.1
670.06	12360.3
670.41	12300.41
670.76	12359.39
671.109	12333.86
671.459	12283.46
671.808	12229.45
672.157	12206.63
672.507	12092.96
672.856	12173.86
673.205	12172.05
673.554	12182.9
673.904	12142.22
674.253	12192.39
674.602	12113.3
674.951	12024.49
675.3	11877.6
675.649	12143.58
675.998	12118.49
676.346	12029.91
676.695	12109.23
677.044	11931.16
677.393	11938.84
677.741	12007.09
678.09	11946.75
678.438	11879.63
678.787	11918.5
679.135	11916.69
679.484	11757.6
679.832	11780.2
680.181	11858.39
680.529	11791.27
680.877	11782.46
681.225	11757.83
681.573	11838.73
681.922	11694.55
682.27	11631.28
682.618	11643.71
682.966	11635.57
683.314	11643.48
683.661	11626.3
684.009	11604.61
684.357	11524.61
684.705	11486.87
685.053	11532.97
685.4	11425.18
685.748	11371.62
686.095	11391.73
686.443	11417.04
686.79	11379.76
687.138	11382.7
687.485	11367.78
687.832	11327.56
688.18	11337.27
688.527	11212.76
688.874	11258.63
689.221	11261.12
689.568	11238.74
689.915	11204.17
690.262	11290.72
690.609	11244.17
690.956	11074.91
691.303	11156.94
691.65	11122.14
691.997	11113.32
692.344	11045.3
692.69	11090.95
693.037	11169.37
693.383	10999.88
693.73	11049.82
694.077	10989.94
694.423	10987.23
694.769	10936.61
695.116	10925.31
695.462	10929.15
695.808	10901.13
696.155	10928.02
696.501	10803.5
696.847	10864.52
697.193	10764.63
697.539	10821.58
697.885	10801.24
698.231	10734.58
698.577	10735.48
698.923	10805.99
699.269	10664.07
699.614	10664.52
699.96	10701.13
700.306	10647.35
700.651	10655.48
700.997	10577.52
701.342	10613.9
701.688	10586.78
702.033	10565.99
702.379	10649.38
702.724	10521.25
703.069	10681.92
703.415	10496.62
703.76	10577.29
704.105	10553.79
704.45	10532.55
704.795	10557.18
705.14	10455.71
705.485	10477.41
705.83	10460.46
706.175	10496.16
706.52	10473.57
706.865	10481.02
707.209	10437.64
707.554	10393.79
707.899	10480.57
708.243	10458.88
708.588	10452.32
708.932	10312.44
709.277	10382.04
709.621	10393.12
709.966	10270.63
710.31	10315.15
710.654	10210.97
710.998	10303.85
711.342	10216.62
711.687	10265.66
712.031	10215.49
712.375	10235.83
712.719	10247.81
713.063	10322.84
713.407	10249.62
713.75	10246.68
714.094	10253.91
714.438	10209.62
714.782	10219.11
715.125	10172.56
715.469	10268.6
715.812	10142.95
716.156	10064.09
716.499	10162.84
716.843	10181.37
717.186	10014.14
717.53	10145.44
717.873	10093.69
718.216	10185.89
718.559	10056.4
718.902	10000.58
719.246	10049.4
719.589	9949.29
719.932	9958.78
720.275	10048.27
720.617	9993.58
720.96	10018.44
721.303	10025.67
721.646	10020.25
721.989	9984.54
722.331	10041.26
722.674	10088.72
723.016	10073.58
723.359	10038.78
723.701	9946.8
724.044	9975.27
724.386	9935.5
724.729	10011.21
725.071	9919
725.413	9921.94
725.755	9946.8
726.097	9896.18
726.439	9889.4
726.782	9944.09
727.124	9914.71
727.465	9924.43
727.807	9972.34
728.149	9893.02
728.491	9937.31
728.833	9905.22
729.175	9876.75
729.516	9871.32
729.858	9909.06
730.199	9906.8
730.541	9925.11
730.882	9838.1
731.224	9959.91
731.565	9864.32
731.906	9932.11
732.248	9886.46
732.589	9885.11
732.93	9852.79
733.271	9919
733.612	9922.17
733.953	9891.66
734.294	9909.29
734.635	9935.05
734.976	9948.38
735.317	9870.19
735.658	9902.06
735.999	9934.82
736.339	9955.16
736.68	9959.91
737.021	10019.12
737.361	9951.09
737.702	10036.06
738.042	10005.56
738.383	10000.58
738.723	10038.32
739.063	10029.74
739.404	10062.5
739.744	10026.57
740.084	10015.95
740.424	10107.47
740.764	10111.77
741.104	10192.67
741.444	10081.03
741.784	10116.06
742.124	10139.11
742.464	10168.04
742.804	10142.73
743.143	10094.59
743.483	10166.46
743.823	10122.62
744.162	10278.09
744.502	10301.37
744.841	10249.62
745.181	10328.49
745.52	10307.47
745.86	10360.12
746.199	10348.15
746.538	10402.61
746.877	10392.89
747.216	10385.21
747.556	10373.68
747.895	10413
748.234	10412.55
748.573	10411.87
748.911	10446
749.25	10503.4
749.589	10472.21
749.928	10521.47
750.267	10589.04
750.605	10661.58
750.944	10540.01
751.283	10624.52
751.621	10663.62
751.96	10571.64
752.298	10716.95
752.636	10708.59
752.975	10693.22
753.313	10644.86
753.651	10814.8
753.989	10702.71
754.327	10806.67
754.666	10767.12
755.004	10840.79
755.342	10869.49
755.679	10867.23
756.017	10849.6
756.355	10860.22
756.693	10856.16
757.031	10934.57
757.368	10862.48
757.706	10954.46
758.044	10888.24
758.381	10949.71
758.719	10990.61
759.056	11045.75
759.394	11023.83
