Data from blue_clamp_base_FLMS001491_00074.txt Node
Date: Wed Feb 08 15:16:29 GMT 2017
User: dcchb
Spectrometer: FLMS00149
Trigger mode: 0
Integration Time (sec): 2.000000E-2
Scans to average: 10
Electric dark correction enabled: true
Nonlinearity correction enabled: false
Boxcar width: 0
XAxis mode: Wavelengths
Number of Pixels in Spectrum: 2048
>>>>>Begin Spectral Data<<<<<
341.393	0.04
341.776	0.04
342.16	0.04
342.543	-51.48
342.927	-59.62
343.31	-61.65
343.693	-51.93
344.077	-61.88
344.46	-65.04
344.843	-57.58
345.226	-47.64
345.61	-21.2
345.993	-9.22
346.376	-13.74
346.759	11.79
347.142	1.4
347.525	22.64
347.908	56.54
348.291	86.14
348.674	109.19
349.057	102.19
349.44	124.33
349.823	148.97
350.206	159.13
350.588	208.85
350.971	211.11
351.354	228.96
351.737	237.78
352.119	241.39
352.502	254.5
352.884	257.44
353.267	298.11
353.65	305.8
354.032	284.33
354.414	320.03
354.797	325.46
355.179	328.62
355.562	330.66
355.944	308.06
356.326	333.59
356.709	318.9
357.091	342.41
357.473	337.21
357.855	339.24
358.238	331.33
358.62	341.73
359.002	343.99
359.384	343.31
359.766	351.45
360.148	335.4
360.53	341.73
360.912	337.89
361.294	323.88
361.676	332.01
362.057	331.56
362.439	346.93
362.821	322.97
363.203	311.22
363.584	341.28
363.966	326.14
364.348	333.82
364.729	328.62
365.111	339.02
365.493	341.28
365.874	327.72
366.256	317.32
366.637	336.53
367.019	313.71
367.4	312.58
367.781	323.88
368.163	340.6
368.544	322.75
368.925	323.88
369.306	332.69
369.688	326.59
370.069	327.49
370.45	310.99
370.831	330.88
371.212	315.97
371.593	317.77
371.974	328.85
372.355	312.8
372.736	327.72
373.117	313.25
373.498	337.43
373.879	334.27
374.26	328.17
374.641	332.24
375.021	357.32
375.402	325.01
375.783	354.61
376.163	350.32
376.544	350.99
376.925	360.94
377.305	331.33
377.686	353.71
378.066	355.97
378.447	337.66
378.827	349.41
379.208	341.95
379.588	337.89
379.968	325.46
380.349	350.09
380.729	372.91
381.109	369.3
381.489	343.76
381.87	374.95
382.25	347.38
382.63	371.56
383.01	348.73
383.39	357.1
383.77	375.63
384.15	376.76
384.53	364.1
384.91	375.4
385.29	379.69
385.67	377.43
386.049	389.18
386.429	385.57
386.809	398.22
387.189	393.03
387.568	403.2
387.948	398.45
388.328	380.6
388.707	403.65
389.087	391.67
389.466	398.68
389.846	419.92
390.225	426.47
390.605	432.35
390.984	425.12
391.363	425.34
391.743	428.28
392.122	432.57
392.501	424.44
392.881	443.19
393.26	447.26
393.639	450.43
394.018	473.02
394.397	450.88
394.776	452.01
395.155	453.36
395.534	468.05
395.913	456.08
396.292	463.08
396.671	484.78
397.05	484.55
397.429	475.06
397.808	486.81
398.186	480.93
398.565	484.1
398.944	492.01
399.323	507.83
399.701	498.33
400.08	503.98
400.458	521.84
400.837	526.13
401.215	514.83
401.594	533.14
401.972	548.95
402.351	512.12
402.729	522.97
403.107	548.95
403.486	561.16
403.864	532.91
404.242	581.27
404.62	575.62
404.999	577.2
405.377	595.28
405.755	598.22
406.133	606.35
406.511	594.38
406.889	618.33
407.267	627.6
407.645	622.17
408.023	652
408.401	665.56
408.779	665.34
409.156	670.99
409.534	666.69
409.912	657.2
410.29	657.43
410.667	693.36
411.045	700.81
411.422	706.92
411.8	705.33
412.178	743.07
412.555	735.16
412.933	745.79
413.31	741.72
413.687	753.92
414.065	750.76
414.442	750.53
414.819	752.56
415.197	784.88
415.574	784.2
415.951	811.55
416.328	813.35
416.705	798.21
417.082	831.88
417.46	805.44
417.837	836.86
418.214	859.68
418.591	858.78
418.967	856.52
419.344	850.87
419.721	880.25
420.098	884.31
420.475	892.45
420.852	907.82
421.228	918.66
421.605	929.74
421.982	925.89
422.358	935.61
422.735	938.55
423.111	944.2
423.488	952.11
423.864	971.09
424.241	965.21
424.617	982.16
424.994	996.17
425.37	1011.54
425.746	1028.49
426.123	1013.12
426.499	1037.08
426.875	1036.85
427.251	1062.39
427.627	1084.53
428.003	1087.25
428.379	1081.82
428.756	1143.06
429.132	1143.06
429.507	1150.75
429.883	1182.16
430.259	1176.51
430.635	1158.66
431.011	1221.93
431.387	1234.13
431.763	1243.17
432.138	1233.46
432.514	1267.13
432.89	1277.97
433.265	1343.96
433.641	1317.75
434.016	1318.2
434.392	1334.02
434.767	1399.1
435.143	1364.3
435.518	1395.71
435.894	1428.71
436.269	1400.46
436.644	1443.17
437.02	1441.13
437.395	1470.51
437.77	1511.19
438.145	1517.52
438.52	1511.42
438.895	1522.04
439.271	1566.1
439.646	1551.87
440.021	1598.19
440.395	1604.75
440.77	1600.45
441.145	1598.64
441.52	1640
441.895	1636.16
442.27	1664.18
442.645	1673.22
443.019	1690.85
443.394	1684.52
443.769	1710.51
444.143	1689.26
444.518	1748.24
444.892	1734.69
445.267	1792.76
445.641	1783.05
446.016	1793.67
446.39	1803.38
446.764	1819.43
447.139	1801.58
447.513	1853.78
447.887	1830.28
448.262	1851.97
448.636	1860.56
449.01	1900.78
449.384	1916.83
449.758	1912.76
450.132	1944.85
450.506	1961.12
450.88	1985.75
451.254	1969.71
451.628	2006.32
452.002	2029.14
452.376	2036.82
452.75	2089.93
453.123	2073.43
453.497	2096.26
453.871	2110.27
454.244	2143.49
454.618	2170.15
454.992	2197.72
455.365	2207.67
455.739	2253.32
456.112	2297.38
456.486	2237.95
456.859	2327.21
457.232	2332.64
457.606	2336.03
457.979	2392.07
458.352	2436.81
458.725	2431.16
459.099	2439.98
459.472	2493.54
459.845	2536.02
460.218	2572.63
460.591	2565.62
460.964	2577.6
461.337	2634.55
461.71	2694.43
462.083	2689.69
462.456	2676.58
462.829	2710.25
463.201	2755
463.574	2755.68
463.947	2828.44
464.32	2872.51
464.692	2900.76
465.065	2887.88
465.438	2959.51
465.81	3006.97
466.183	3009
466.555	3065.5
466.928	3024.37
467.3	3051.71
467.672	3111.6
468.045	3175.55
468.417	3173.52
468.789	3211.94
469.161	3264.14
469.534	3293.52
469.906	3306.17
470.278	3379.84
470.65	3408.31
471.022	3469.78
471.394	3522.89
471.766	3537.12
472.138	3592.94
472.51	3647.4
472.882	3648.76
473.253	3727.18
473.625	3745.71
473.997	3842.65
474.369	3826.38
474.74	3888.98
475.112	3949.54
475.484	3992.93
475.855	4055.98
476.227	4086.94
476.598	4175.98
476.97	4231.8
477.341	4267.05
477.713	4317.89
478.084	4384.33
478.455	4441.06
478.827	4484.44
479.198	4575.29
479.569	4561.5
479.94	4656.64
480.311	4741.84
480.682	4811.89
481.053	4834.72
481.424	4966.24
481.795	4986.8
482.166	5044.88
482.537	5115.16
482.908	5174.14
483.279	5229.51
483.65	5274.71
484.021	5320.35
484.391	5367.13
484.762	5458.88
485.133	5453.46
485.503	5561.7
485.874	5622.49
486.244	5651.19
486.615	5710.17
486.985	5774.58
487.356	5843.28
487.726	5896.61
488.097	5995.82
488.467	6015.48
488.837	6041.92
489.207	6143.61
489.578	6251.4
489.948	6186.55
490.318	6295.47
490.688	6299.31
491.058	6373.43
491.428	6438.52
491.798	6499.31
492.168	6550.15
492.538	6578.63
492.908	6654.1
493.278	6702.01
493.648	6681.67
494.017	6704.5
494.387	6769.36
494.757	6840.77
495.126	6840.31
495.496	6844.61
495.866	6892.29
496.235	6951.5
496.605	7022.68
496.974	7011.16
497.344	7039.86
497.713	7057.94
498.082	7043.47
498.452	7084.15
498.821	7175.9
499.19	7139.06
499.559	7154.43
499.928	7179.74
500.298	7229.68
500.667	7237.82
501.036	7262.9
501.405	7297.93
501.774	7285.73
502.143	7373.18
502.512	7384.71
502.88	7403.69
503.249	7428.77
503.618	7442.78
503.987	7426.29
504.356	7468.32
504.724	7504.03
505.093	7532.5
505.462	7516
505.83	7599.39
506.199	7567.08
506.567	7678.94
506.936	7603.01
507.304	7676.9
507.672	7731.59
508.041	7738.37
508.409	7756
508.777	7770.91
509.145	7833.51
509.514	7888.2
509.882	7895.88
510.25	7903.11
510.618	7865.6
510.986	7936.1
511.354	8001.64
511.722	8124.8
512.09	8154.4
512.458	8063.79
512.826	8169.09
513.193	8194.18
513.561	8118.47
513.929	8198.24
514.297	8270.33
514.664	8262.65
515.032	8336.09
515.4	8282.76
515.767	8329.99
516.135	8414.51
516.502	8349.65
516.869	8445.47
517.237	8403.66
517.604	8445.7
517.972	8493.6
518.339	8525.02
518.706	8537.67
519.073	8519.59
519.44	8574.28
519.808	8696.99
520.175	8593.26
520.542	8705.12
520.909	8713.94
521.276	8730.66
521.643	8847.72
522.009	8853.37
522.376	8922.52
522.743	8843.2
523.11	8922.75
523.477	9003.42
523.843	9035.29
524.21	9145.79
524.577	9234.15
524.943	9194.6
525.31	9228.73
525.676	9311.66
526.043	9304.88
526.409	9346.46
526.776	9410.19
527.142	9460.36
527.508	9528.38
527.874	9562.95
528.241	9579
528.607	9589.17
528.973	9643.86
529.339	9604.76
529.705	9785.32
530.071	9821.03
530.437	9826.45
530.803	9807.69
531.169	9824.19
531.535	9900.35
531.901	9903.06
532.267	9946.67
532.632	9977.86
532.998	9964.3
533.364	10047.91
533.73	10067.8
534.095	10170.17
534.461	10209.27
534.826	10250.62
535.192	10253.33
535.557	10315.93
535.923	10312.99
536.288	10299.21
536.653	10410.39
537.019	10378.53
537.384	10425.53
537.749	10446.77
538.114	10501.01
538.479	10525.64
538.845	10588.92
539.21	10514.57
539.575	10555.92
539.94	10542.59
540.305	10635.69
540.67	10634.11
541.034	10675.69
541.399	10709.82
541.764	10717.05
542.129	10722.7
542.494	10730.61
542.858	10818.97
543.223	10802.92
543.587	10866.2
543.952	10916.82
544.316	10945.52
544.681	10889.25
545.045	10994.1
545.41	11060.32
545.774	11021.45
546.138	11076.36
546.503	11085.17
546.867	11089.24
547.231	11178.05
547.595	11178.51
547.959	11238.39
548.324	11193.42
548.688	11260.31
549.052	11237.04
549.416	11239.07
549.779	11325.62
550.143	11335.79
550.507	11398.16
550.871	11420.08
551.235	11477.48
551.599	11520.19
551.962	11582.79
552.326	11512.73
552.689	11595.67
553.053	11526.97
553.417	11587.53
553.78	11723.35
554.143	11673.41
554.507	11715.44
554.87	11788.21
555.234	11921.08
555.597	11779.39
555.96	11828.88
556.323	11863.23
556.686	11782.33
557.05	11930.58
557.413	11963.12
557.776	12011.7
558.139	12030.69
558.502	12026.84
558.865	12177.35
559.228	12187.97
559.59	12169.21
559.953	12185.03
560.316	12383.45
560.679	12274.52
561.041	12360.17
561.404	12453.27
561.767	12490.34
562.129	12439.94
562.492	12588.19
562.854	12493.95
563.217	12589.99
563.579	12690.56
563.941	12708.41
564.304	12748.18
564.666	12798.12
565.028	12863.43
565.39	12879.25
565.753	13013.71
566.115	12930.1
566.477	13056.42
566.839	13078.34
567.201	13142.75
567.563	13084.44
567.925	13244.44
568.287	13240.15
568.648	13286.02
569.01	13320.6
569.372	13428.62
569.734	13384.32
570.095	13566.92
570.457	13517.65
570.819	13527.82
571.18	13582.06
571.542	13638.78
571.903	13626.12
572.265	13658.44
572.626	13749.29
572.987	13813.92
573.349	13856.4
573.71	13870.86
574.071	13916.29
574.432	14021.37
574.794	14120.35
575.155	14089.84
575.516	14003.29
575.877	14157.18
576.238	14180.23
576.599	14201.25
576.96	14251.65
577.32	14289.84
577.681	14355.6
578.042	14281.7
578.403	14358.53
578.763	14319.89
579.124	14290.97
579.485	14455.26
579.845	14530.96
580.206	14478.76
580.566	14463.16
580.927	14597.4
581.287	14564.18
581.648	14572.31
582.008	14647.11
582.368	14510.4
582.728	14678.98
583.089	14665.87
583.449	14648.24
583.809	14680.56
584.169	14619.77
584.529	14651.41
584.889	14778.86
585.249	14709.49
585.609	14706.77
585.969	14727.11
586.329	14747.68
586.688	14727.34
587.048	14775.93
587.408	14775.25
587.768	14753.55
588.127	14693.67
588.487	14724.4
588.846	14963.26
589.206	14840.33
589.565	14825.19
589.925	14881.91
590.284	14903.15
590.643	14835.36
591.003	15049.82
591.362	14995.81
591.721	14955.36
592.08	14941.12
592.44	14962.81
592.799	15000.55
593.158	14932.31
593.517	14986.99
593.876	15067.89
594.235	15041.68
594.593	15002.36
594.952	14952.87
595.311	14959.65
595.67	15112.87
596.029	15172.98
596.387	15196.25
596.746	15164.84
597.104	15077.39
597.463	15083.94
597.822	15137.72
598.18	15113.32
598.538	14997.39
598.897	15128.46
599.255	14988.57
599.613	15215.69
599.972	15119.42
600.33	15237.61
600.688	15191.51
601.046	15230.15
601.404	15272.18
601.762	15176.59
602.12	15263.82
602.478	15297.27
602.836	15308.34
603.194	15294.78
603.552	15242.35
603.91	15276.02
604.268	15357.15
604.625	15254.33
604.983	15365.74
605.341	15304.72
605.698	15393.99
606.056	15353.09
606.413	15400.54
606.771	15457.49
607.128	15449.13
607.485	15459.07
607.843	15345.63
608.2	15406.64
608.557	15517.6
608.914	15507.43
609.272	15547.43
609.629	15499.3
609.986	15670.36
610.343	15547.43
610.7	15668.56
611.057	15482.8
611.414	15663.13
611.771	15635.11
612.127	15623.13
612.484	15709.69
612.841	15708.78
613.198	15766.41
613.554	15795.33
613.911	15831.04
614.267	15781.77
614.624	15810.93
614.98	15737.71
615.337	15899.06
615.693	15823.13
616.05	15861.32
616.406	15911.26
616.762	15889.79
617.118	15893.64
617.475	15938.38
617.831	15996.68
618.187	16008.21
618.543	16012.5
618.899	16097.7
619.255	16114.42
619.611	16103.12
619.967	16139.05
620.323	16319.61
620.678	16051.6
621.034	16149.67
621.39	16077.13
621.746	16017.93
622.101	16280.29
622.457	16172.95
622.812	16084.82
623.168	16247.07
623.523	16165.04
623.879	16289.11
624.234	16195.32
624.589	16236.68
624.945	16255.66
625.3	16321.42
625.655	16310.35
626.01	16349.22
626.365	16421.31
626.72	16334.75
627.075	16476.45
627.43	16380.4
627.785	16349.67
628.14	16283
628.495	16433.06
628.85	16336.56
629.205	16384.02
629.559	16397.13
629.914	16411.81
630.269	16406.39
630.623	16380.63
630.978	16370.46
631.332	16422.89
631.687	16587.18
632.041	16525.94
632.396	16509.66
632.75	16483.68
633.104	16532.94
633.459	16432.6
633.813	16454.75
634.167	16477.8
634.521	16511.25
634.875	16514.64
635.229	16471.7
635.583	16452.49
635.937	16504.47
636.291	16603.67
636.645	16590.79
636.999	16440.51
637.352	16489.78
637.706	16506.5
638.06	16597.8
638.413	16586.95
638.767	16520.51
639.121	16620.4
639.474	16483.22
639.828	16602.09
640.181	16605.26
640.534	16630.11
640.888	16572.04
641.241	16454.07
641.594	16609.78
641.947	16665.37
642.301	16570
642.654	16675.08
643.007	16641.64
643.36	16695.65
643.713	16660.62
644.066	16802.31
644.419	16686.61
644.771	16652.49
645.124	16408.2
645.477	16343.34
645.83	16303.79
646.182	16289.78
646.535	16279.84
646.888	16445.71
647.24	16379.05
647.593	16456.33
647.945	16380.85
648.298	16381.53
648.65	16296.34
649.002	16346.96
649.355	16339.05
649.707	16377.24
650.059	16473.06
650.411	16646.61
650.763	16661.98
651.115	16908.98
651.467	16883.21
651.819	16825.14
652.171	16868.3
652.523	16874.17
652.875	16919.37
653.227	16789.43
653.578	17021.29
653.93	16978.13
654.282	16859.94
654.633	16902.65
654.985	16945.36
655.337	16966.6
655.688	17042.08
656.039	17042.08
656.391	16925.7
656.742	16924.8
657.094	16984
657.445	17120.04
657.796	17081.18
658.147	17114.39
658.498	16994.85
658.849	17072.81
659.2	17038.92
659.551	16980.39
659.902	17086.6
660.253	17100.16
660.604	17028.97
660.955	17009.09
661.306	17084.11
661.656	17055.87
662.007	17060.38
662.358	17156.88
662.708	17116.65
663.059	17186.94
663.409	17037.11
663.76	17167.5
664.11	17102.19
664.461	17170.89
664.811	17115.75
665.161	17101.97
665.511	17102.42
665.862	17129.76
666.212	17217.67
666.562	17124.34
666.912	17075.3
667.262	17038.69
667.612	17109.42
667.962	17174.51
668.312	17099.93
668.662	17128.41
669.011	17088.18
669.361	17010.44
669.711	16993.27
670.06	16971.35
670.41	16915.08
670.76	16941.97
671.109	16932.93
671.459	16998.24
671.808	16862.65
672.157	16991.23
672.507	16761.41
672.856	16794.4
673.205	16855.87
673.554	16931.57
673.904	16670.34
674.253	16884.8
674.602	16713.5
674.951	16501.3
675.3	16298.82
675.649	16594.63
675.998	16628.98
676.346	16566.39
676.695	16637.8
677.044	16507.63
677.393	16517.12
677.741	16605.03
678.09	16550.57
678.438	16486.61
678.787	16415.43
679.135	16417.24
679.484	16337.47
679.832	16473.73
680.181	16370.23
680.529	16272.16
680.877	16276
681.225	16160.3
681.573	16313.51
681.922	16182.67
682.27	16080.75
682.618	16167.75
682.966	16191.93
683.314	16122.56
683.661	15946.06
684.009	16005.95
684.357	15909
684.705	15906.29
685.053	15908.78
685.4	15907.65
685.748	15797.14
686.095	15885.95
686.443	15744.04
686.79	15775.9
687.138	15780.87
687.485	15788.55
687.832	15722.57
688.18	15704.71
688.527	15609.35
688.874	15617.94
689.221	15455.68
689.568	15537.94
689.915	15563.47
690.262	15518.5
690.609	15477.38
690.956	15399.64
691.303	15429.92
691.65	15448.9
691.997	15420.88
692.344	15343.37
692.69	15343.37
693.037	15326.19
693.383	15242.35
693.73	15296.59
694.077	15195.12
694.423	15201
694.769	15153.32
695.116	15187.67
695.462	15182.92
695.808	15108.57
696.155	15099.53
696.501	15065.18
696.847	14933.89
697.193	14943.38
697.539	15014.11
697.885	14901.8
698.231	14860.67
698.577	14926.88
698.923	14812.31
699.269	14782.93
699.614	14745.87
699.96	14772.76
700.306	14754.68
700.651	14802.14
700.997	14701.35
701.342	14691.86
701.688	14654.12
702.033	14645.31
702.379	14628.81
702.724	14635.36
703.069	14686.66
703.415	14550.62
703.76	14599.43
704.105	14558.98
704.45	14544.52
704.795	14540
705.14	14466.1
705.485	14429.49
705.83	14402.38
706.175	14419.55
706.52	14343.62
706.865	14333.68
707.209	14337.07
707.554	14239.44
707.899	14322.15
708.243	14277.86
708.588	14265.43
708.932	14153.34
709.277	14176.17
709.621	14250.52
709.966	14127.81
710.31	14241.25
710.654	14100.24
710.998	14154.25
711.342	14105.66
711.687	14095.26
712.031	14060.92
712.375	14045.1
712.719	14105.21
713.063	14054.14
713.407	14114.7
713.75	14063.4
714.094	14093.68
714.438	14055.72
714.782	14107.02
715.125	13989.51
715.469	13990.41
715.812	13965.32
716.156	13891.43
716.499	13975.49
716.843	13944.08
717.186	13914.25
717.53	13966
717.873	13938.21
718.216	13951.09
718.559	13898.21
718.902	13751.09
719.246	13877.19
719.589	13852.11
719.932	13730.75
720.275	13814.37
720.617	13844.65
720.96	13792.67
721.303	13832.22
721.646	13809.62
721.989	13721.49
722.331	13773.01
722.674	13716.07
723.016	13692.56
723.359	13743.64
723.701	13702.73
724.044	13717.65
724.386	13666.12
724.729	13713.81
725.071	13640.81
725.413	13679.23
725.755	13731.43
726.097	13658.89
726.439	13590.65
726.782	13613.92
727.124	13673.81
727.465	13566.24
727.807	13639.01
728.149	13566.92
728.491	13635.84
728.833	13668.61
729.175	13622.96
729.516	13635.62
729.858	13619.57
730.199	13673.36
730.541	13626.8
730.882	13585.67
731.224	13663.64
731.565	13586.35
731.906	13624.32
732.248	13574.15
732.589	13665.22
732.93	13547.26
733.271	13656.18
733.612	13636.75
733.953	13662.96
734.294	13577.54
734.635	13625.45
734.976	13616.86
735.317	13596.3
735.658	13619.35
735.999	13677.42
736.339	13637.42
736.68	13630.87
737.021	13676.74
737.361	13632.9
737.702	13659.12
738.042	13745.9
738.383	13771.43
738.723	13818.66
739.063	13746.35
739.404	13784.31
739.744	13757.42
740.084	13774.37
740.424	13736.86
740.764	13830.87
741.104	13885.78
741.444	13848.27
741.784	13847.81
742.124	13922.39
742.464	13883.97
742.804	13887.81
743.143	13900.02
743.483	13996.06
743.823	13927.36
744.162	13999.9
744.502	14064.08
744.841	14052.1
745.181	14057.75
745.52	14116.73
745.86	14144.53
746.199	14226.56
746.538	14144.76
746.877	14165.77
747.216	14237.63
747.556	14221.59
747.895	14248.26
748.234	14264.3
748.573	14224.53
748.911	14339.78
749.25	14317.63
749.589	14351.76
749.928	14363.96
750.267	14464.07
750.605	14337.52
750.944	14513.56
751.283	14431.53
751.621	14452.54
751.96	14473.11
752.298	14616.16
752.636	14537.97
752.975	14451.41
753.313	14443.73
753.651	14676.49
753.989	14637.85
754.327	14582.26
754.666	14603.27
755.004	14577.29
755.342	14633.1
755.679	14623.84
756.017	14652.99
756.355	14711.75
756.693	14724.17
