Data from blue_shiny_book_FLMS001491_00023.txt Node
Date: Wed Feb 08 15:26:44 GMT 2017
User: dcchb
Spectrometer: FLMS00149
Trigger mode: 0
Integration Time (sec): 2.000000E-2
Scans to average: 10
Electric dark correction enabled: true
Nonlinearity correction enabled: false
Boxcar width: 0
XAxis mode: Wavelengths
Number of Pixels in Spectrum: 2048
>>>>>Begin Spectral Data<<<<<
341.393	-4.89
341.776	-4.89
342.16	-4.89
342.543	-61.61
342.927	-67.03
343.31	-62.51
343.693	-79.69
344.077	-71.1
344.46	-69.74
344.843	-62.74
345.226	-49.86
345.61	-32.23
345.993	-10.99
346.376	-1.27
346.759	28.11
347.142	17.26
347.525	45.51
347.908	56.35
348.291	76.24
348.674	99.97
349.057	116.69
349.44	132.96
349.823	137.26
350.206	172.74
350.588	195.56
350.971	207.76
351.354	245.28
351.737	231.72
352.119	245.5
352.502	262.22
352.884	297.93
353.267	308.55
353.65	320.53
354.032	308.33
354.414	311.71
354.797	309.46
355.179	326.63
355.562	319.85
355.944	337.03
356.326	354.65
356.709	348.78
357.091	347.87
357.473	350.58
357.855	335.67
358.238	370.47
358.62	362.56
359.002	350.13
359.384	354.43
359.766	344.71
360.148	362.56
360.53	346.06
360.912	345.16
361.294	340.19
361.676	344.71
362.057	359.4
362.439	347.19
362.821	336.8
363.203	344.26
363.584	350.13
363.966	330.47
364.348	327.31
364.729	340.41
365.111	329.12
365.493	334.54
365.874	349.45
366.256	338.61
366.637	342.67
367.019	345.61
367.4	333.18
367.781	340.19
368.163	332.05
368.544	324.37
368.925	359.17
369.306	346.29
369.688	337.48
370.069	351.26
370.45	349.23
370.831	340.19
371.212	329.34
371.593	348.78
371.974	358.72
372.355	336.8
372.736	354.65
373.117	343.35
373.498	353.52
373.879	348.55
374.26	358.04
374.641	360.75
375.021	365.27
375.402	357.82
375.783	359.4
376.163	380.41
376.544	401.43
376.925	390.36
377.305	389.23
377.686	355.1
378.066	383.35
378.447	397.14
378.827	361.43
379.208	360.3
379.588	362.34
379.968	396.01
380.349	372.96
380.729	402.56
381.109	415.44
381.489	400.98
381.87	397.36
382.25	417.47
382.63	393.52
383.01	405.5
383.39	419.51
383.77	416.57
384.15	416.34
384.53	426.51
384.91	422.9
385.29	440.53
385.67	439.62
386.049	468.1
386.429	449.11
386.809	421.99
387.189	460.64
387.568	468.32
387.948	459.28
388.328	464.48
388.707	473.74
389.087	474.65
389.466	498.15
389.846	490.47
390.225	478.04
390.605	487.53
390.984	488.43
391.363	482.33
391.743	501.99
392.122	525.27
392.501	533.4
392.881	534.08
393.26	509.9
393.639	523.69
394.018	539.73
394.397	543.35
394.776	556
395.155	563.23
395.534	572.05
395.913	541.77
396.292	581.54
396.671	580.18
397.05	575.89
397.429	560.97
397.808	570.24
398.186	575.89
398.565	598.71
398.944	619.5
399.323	612.27
399.701	628.99
400.08	652.72
400.458	629.9
400.837	619.73
401.215	647.75
401.594	629.22
401.972	649.79
402.351	659.73
402.729	669.9
403.107	672.38
403.486	691.14
403.864	690.01
404.242	696.79
404.62	699.95
404.999	694.76
405.377	717.58
405.755	713.51
406.133	751.25
406.511	730.91
406.889	767.75
407.267	774.3
407.645	762.32
408.023	816.79
408.401	810.23
408.779	819.5
409.156	852.72
409.534	819.05
409.912	840.97
410.29	866.73
410.667	859.5
411.045	893.17
411.422	899.5
411.8	908.76
412.178	951.25
412.555	970
412.933	955.31
413.31	995.09
413.687	964.58
414.065	976.33
414.442	996.22
414.819	1039.38
415.197	1010.23
415.574	1016.1
415.951	1055.65
416.328	1091.36
416.705	1077.34
417.082	1066.5
417.46	1125.7
417.837	1124.8
418.214	1127.51
418.591	1128.64
418.967	1141.52
419.344	1137.46
419.721	1187.17
420.098	1183.33
420.475	1195.76
420.852	1195.99
421.228	1245.7
421.605	1252.48
421.982	1276.44
422.358	1302.88
422.735	1251.35
423.111	1271.69
423.488	1315.3
423.864	1341.97
424.241	1377.68
424.617	1339.94
424.994	1377.9
425.37	1399.82
425.746	1403.89
426.123	1469.88
426.499	1470.78
426.875	1464.23
427.251	1508.75
427.627	1538.58
428.003	1549.2
428.379	1553.72
428.756	1566.15
429.132	1564.11
429.507	1616.31
429.883	1649.98
430.259	1684.56
430.635	1723.66
431.011	1738.57
431.387	1789.64
431.763	1795.52
432.138	1797.33
432.514	1783.77
432.89	1843.43
433.265	1857.44
433.641	1899.24
434.016	1893.14
434.392	1947.83
434.767	2003.65
435.143	2000.71
435.518	2015.4
435.894	2062.4
436.269	2102.18
436.644	2139.46
437.02	2158.22
437.395	2163.19
437.77	2191.89
438.145	2214.49
438.52	2220.82
438.895	2254.26
439.271	2286.58
439.646	2341.04
440.021	2354.83
440.395	2386.01
440.77	2370.64
441.145	2416.29
441.52	2446.57
441.895	2471.66
442.27	2504.43
442.645	2517.08
443.019	2527.02
443.394	2503.07
443.769	2557.98
444.143	2520.24
444.518	2608.6
444.892	2586.46
445.267	2642.28
445.641	2673.91
446.016	2695.16
446.39	2741.93
446.764	2727.92
447.139	2739.45
447.513	2763.18
447.887	2771.99
448.262	2800.69
448.636	2824.87
449.01	2868.03
449.384	2908.48
449.758	2901.25
450.132	2965.66
450.506	3003.4
450.88	3035.03
451.254	3023.06
451.628	3091.53
452.002	3124.3
452.376	3166.1
452.75	3188.02
453.123	3203.16
453.497	3238.87
453.871	3309.15
454.244	3355.7
454.618	3356.61
454.992	3457.85
455.365	3452.2
455.739	3522.7
456.112	3574.45
456.486	3605.64
456.859	3692.42
457.232	3733.55
457.606	3730.83
457.979	3804.28
458.352	3837.27
458.725	3909.59
459.099	3907.78
459.472	4020.77
459.845	4057.83
460.218	4063.93
460.591	4146.19
460.964	4113.65
461.337	4295.34
461.71	4373.3
462.083	4412.62
462.456	4426.41
462.829	4487.88
463.201	4565.84
463.574	4571.49
463.947	4621.21
464.32	4734.42
464.692	4771.26
465.065	4801.09
465.438	4863.23
465.81	4954.98
466.183	4994.98
466.555	5135.99
466.928	5109.78
467.3	5161.08
467.672	5236.56
468.045	5444.91
468.417	5469.09
468.789	5484.91
469.161	5566.72
469.534	5703.44
469.906	5784.57
470.278	5780.95
470.65	5916.31
471.022	5980.27
471.394	6095.74
471.766	6168.06
472.138	6205.57
472.51	6343.87
472.882	6523.3
473.253	6558.56
473.625	6700.47
473.997	6831.32
474.369	6908.83
474.74	6958.77
475.112	7107.02
475.484	7214.58
475.855	7307.24
476.227	7431.53
476.598	7606.44
476.97	7699.09
477.341	7904.74
477.713	8005.07
478.084	8043.72
478.455	8238.51
478.827	8427.43
479.198	8584.27
479.569	8655.9
479.94	8897.03
480.311	8959.17
480.682	9162.33
481.053	9365.26
481.424	9466.05
481.795	9619.27
482.166	9751.92
482.537	9878.24
482.908	10160.04
483.279	10186.48
483.65	10417.21
484.021	10615.4
484.391	10748.28
484.762	10891.1
485.133	10953.92
485.503	11237.3
485.874	11365.66
486.244	11498.77
486.615	11763.17
486.985	11917.74
487.356	12173.78
487.726	12268.91
488.097	12492.86
488.467	12559.08
488.837	12820.76
489.207	13021.66
489.578	13206.74
489.948	13324.93
490.318	13540.75
490.688	13550.01
491.058	13771.7
491.428	14006.27
491.798	14226.83
492.168	14453.72
492.538	14566.48
492.908	14694.61
493.278	14833.14
493.648	14969.63
494.017	15122.85
494.387	15318.78
494.757	15449.85
495.126	15680.35
495.496	15761.25
495.866	15831.08
496.235	16070.4
496.605	16257.06
496.974	16374.8
497.344	16475.13
497.713	16571.4
498.082	16811.62
498.452	16883.48
498.821	17049.81
499.19	17123.93
499.559	17265.17
499.928	17386.52
500.298	17514.2
500.667	17727.3
501.036	17722.1
501.405	17977.24
501.774	17911.48
502.143	18216.78
502.512	18388.53
502.88	18528.64
503.249	18478.92
503.618	18649.99
503.987	18760.04
504.356	18919.81
504.724	18896.31
505.093	19048.62
505.462	19115.29
505.83	19299.24
506.199	19502.17
506.567	19659
506.936	19701.04
507.304	19961.14
507.672	20008.82
508.041	20175.37
508.409	20393.45
508.777	20567.91
509.145	20750.5
509.514	20803.83
509.882	21054.22
510.25	21177.61
510.618	21251.5
510.986	21321.33
511.354	21566.07
511.722	21662.57
512.09	21912.28
512.458	21813.52
512.826	22093.52
513.193	22137.13
513.561	22216.68
513.929	22406.5
514.297	22627.06
514.664	22791.35
515.032	22874.51
515.4	23225.01
515.767	23438.11
516.135	23620.48
516.502	23481.28
516.869	23950.19
517.237	24050.75
517.604	23999
517.972	24345.66
518.339	24489.84
518.706	24460.23
519.073	24595.14
519.44	24711.98
519.808	25090.27
520.175	24981.8
520.542	25500.66
520.909	25589.24
521.276	25579.3
521.643	25861.55
522.009	26084.14
522.376	26357.81
522.743	26490.91
523.11	26848.42
523.477	27158.24
523.843	27297.9
524.21	27627.61
524.577	27802.29
524.943	27869.63
525.31	28034.6
525.676	28173.13
526.043	28354.59
526.409	28367.47
526.776	28675.26
527.142	28853.56
527.508	28913.9
527.874	29322.25
528.241	29385.75
528.607	29493.55
528.973	29848.79
529.339	29875.46
529.705	30278.84
530.071	30568.77
530.437	30753.4
530.803	30988.87
531.169	31194.74
531.535	31214.63
531.901	31378.92
532.267	31549.09
532.632	31903.88
532.998	31797.21
533.364	32049.19
533.73	32000.83
534.095	32279.46
534.461	32322.62
534.826	32431.77
535.192	32542.05
535.557	32767.13
535.923	32725.78
536.288	32899.33
536.653	33175.94
537.019	33168.93
537.384	33433.56
537.749	33662.25
538.114	33925.97
538.479	33999.87
538.845	34163.71
539.21	34150.15
539.575	34309.47
539.94	34527.09
540.305	34574.09
540.67	34664.94
541.034	34656.12
541.399	34704.03
541.764	34808.89
542.129	34890.47
542.494	34834.88
542.858	34967.98
543.223	34999.84
543.587	35286.61
543.952	35385.14
544.316	35540.62
544.681	35481.86
545.045	35944.22
545.41	36138.34
545.774	36089.98
546.138	36119.36
546.503	36386.47
546.867	36430.09
547.231	36848.83
547.595	36772.45
547.959	36884.99
548.324	36948.27
548.688	36953.01
549.052	37103.06
549.416	36980.58
549.779	36909.17
550.143	37105.32
550.507	37169.05
550.871	37341.48
551.235	37280.01
551.599	37477.29
551.962	37529.95
552.326	37762.48
552.689	37954.34
553.053	37915.92
553.417	38140.78
553.78	38638.39
554.143	38642.91
554.507	38780.99
554.87	38949.34
555.234	39326.96
555.597	39117.25
555.96	39430.23
556.323	39419.61
556.686	39460.06
557.05	39715.42
557.413	39782.77
557.776	39628.42
558.139	39836.33
558.502	39879.71
558.865	39826.16
559.228	40130.33
559.59	40130.55
559.953	40248.97
560.316	40674.04
560.679	40613.93
561.041	40926.92
561.404	41242.84
561.767	41460.01
562.129	41428.37
562.492	41985.2
562.854	42009.83
563.217	42051.63
563.579	42340.21
563.941	42558.51
564.304	42667.44
564.666	42741.33
565.028	42850.94
565.39	42820.88
565.753	43021.1
566.115	43044.6
566.477	43229.91
566.839	43243.02
567.201	43303.58
567.563	43350.36
567.925	43624.93
568.287	43543.8
568.648	43620.86
569.01	43852.49
569.372	44108.53
569.734	44008.42
570.095	44330.9
570.457	44710.1
570.819	44825.35
571.18	44896.98
571.542	45332.9
571.903	45385.56
572.265	45526.8
572.626	45567.93
572.987	45809.05
573.349	45904.19
573.71	45985.77
574.071	46101.25
574.432	46051.3
574.794	46274.12
575.155	46148.48
575.516	46009.5
575.877	46176.05
576.238	46102.6
576.599	46268.02
576.96	46287
577.32	46188.02
577.681	46409.49
578.042	46515.25
578.403	46576.49
578.763	46602.48
579.124	46729.03
579.485	47114.78
579.845	47269.12
580.206	47204.95
580.566	47367.43
580.927	47343.02
581.287	47603.8
581.648	47454.88
582.008	47655.1
582.368	47605.84
582.728	47708.66
583.089	47732.39
583.449	47464.83
583.809	47509.34
584.169	47599.51
584.529	47459.18
584.889	47697.59
585.249	47240.42
585.609	47140.09
585.969	47444.26
586.329	47335.56
586.688	47223.7
587.048	47241.33
587.408	47246.3
587.768	47384.6
588.127	47595.22
588.487	47515.67
588.846	47802.9
589.206	47670.92
589.565	47774.87
589.925	48024.36
590.284	47957.92
590.643	47999.95
591.003	48185.48
591.362	48290.79
591.721	48228.42
592.08	48165.15
592.44	48114.75
592.799	48119.72
593.158	48060.52
593.517	48002.89
593.876	48004.92
594.235	47913.18
594.593	47915.66
594.952	47936.9
595.311	47722.9
595.67	47850.58
596.029	47874.53
596.387	47907.98
596.746	47999.5
597.104	47767.64
597.463	47941.65
597.822	47999.73
598.18	48031.36
598.538	48115.43
598.897	48380.06
599.255	48172.6
599.613	48656.66
599.972	48533.5
600.33	48618.69
600.688	48605.59
601.046	48811.68
601.404	48897.1
601.762	48723.32
602.12	48938.46
602.478	48796.99
602.836	48928.29
603.194	48634.29
603.552	48658.24
603.91	48500.05
604.268	48606.04
604.625	48507.96
604.983	48348.42
605.341	48294.63
605.698	48302.32
606.056	48456.44
606.413	48399.94
606.771	48698.24
607.128	48692.36
607.485	48584.8
607.843	48603.78
608.2	48944.79
608.557	49168.06
608.914	48944.11
609.272	49207.38
609.629	49255.96
609.986	49482.4
610.343	49371.22
610.7	49680.36
611.057	49594.71
611.414	49690.53
611.771	49698.89
612.127	49917.64
612.484	49755.39
612.841	49788.83
613.198	49714.03
613.554	49678.33
613.911	49810.3
614.267	49633.58
614.624	49574.37
614.98	49591.1
615.337	49705.44
615.693	49675.16
616.05	49590.42
616.406	49726.91
616.762	49608.27
617.118	49596.52
617.475	49570.08
617.831	49636.75
618.187	49805.55
618.543	49728.49
618.899	50019.79
619.255	50129.16
619.611	50258.65
619.967	50258.88
620.323	50449.61
620.678	50335.94
621.034	50406.67
621.39	50522.37
621.746	50463.62
622.101	50683.5
622.457	50446.67
622.812	50547.46
623.168	50601.24
623.523	50591.75
623.879	50646.21
624.234	50377.29
624.589	50448.93
624.945	50451.87
625.3	50310.63
625.655	50258.2
626.01	50098.43
626.365	50112.89
626.72	50091.65
627.075	50048.49
627.43	50156.96
627.785	50016.85
628.14	50032.67
628.495	50096.85
628.85	50038.09
629.205	49926.46
629.559	50163.51
629.914	50068.6
630.269	50206
630.623	50221.82
630.978	50137.07
631.332	50463.84
631.687	50544.07
632.041	50387.69
632.396	50504.52
632.75	50372.55
633.104	50479.89
633.459	50358.53
633.813	50150.63
634.167	50185.66
634.521	49994.48
634.875	49954.7
635.229	49899.56
635.583	49725.56
635.937	49854.59
636.291	49615.96
636.645	49721.26
636.999	49469.07
637.352	49570.98
637.706	49213.48
638.06	49373.93
638.413	49205.57
638.767	48996.08
639.121	49157.44
639.474	48778.92
639.828	48927.39
640.181	48859.37
640.534	49004.67
640.888	48816.43
641.241	48868.4
641.594	49137.32
641.947	49266.59
642.301	49142.52
642.654	49218.9
643.007	49238.11
643.36	49223.65
643.713	48994.73
644.066	49252.35
644.419	49128.51
644.771	49168.51
645.124	48968.97
645.477	48996.08
645.83	48533.72
646.182	48220.51
646.535	48092.83
646.888	47644.48
647.24	47379.63
647.593	47423.92
647.945	47321.55
648.298	47035.01
648.65	46884.5
649.002	46797.05
649.355	46908.46
649.707	47061.9
650.059	47279.07
650.411	47750.92
650.763	47870.01
651.115	48138.25
651.467	47897.13
651.819	47975.09
652.171	47909.56
652.523	47737.81
652.875	47949.11
653.227	47916.56
653.578	48309.55
653.93	48223.9
654.282	47970.57
654.633	47903.68
654.985	48125.6
655.337	48067.07
655.688	48126.5
656.039	48219.16
656.391	47960.63
656.742	47996.34
657.094	48048.99
657.445	48058.71
657.796	47998.14
658.147	47818.49
658.498	47794.08
658.849	47858.71
659.2	47796.57
659.551	47586.4
659.902	47737.13
660.253	47512.73
660.604	47517.71
660.955	47358.61
661.306	47470.93
661.656	47304.6
662.007	47234.32
662.358	47192.52
662.708	47209.01
663.059	47215.34
663.409	47081.78
663.76	47333.53
664.11	47192.74
664.461	47276.13
664.811	47147.55
665.161	47183.02
665.511	47249.92
665.862	47551.38
666.212	47648.78
666.562	47657.36
666.912	47506.41
667.262	47570.59
667.612	47576.69
667.962	47783.24
668.312	47645.39
668.662	47875.66
669.011	47833.18
669.361	47749.56
669.711	47681.54
670.06	47512.51
670.41	47370.82
670.76	47489.01
671.109	47385.05
671.459	47251.95
671.808	47138.73
672.157	47269.8
672.507	46906.65
672.856	46959.53
673.205	46896.93
673.554	46923.37
673.904	46666.65
674.253	47004.72
674.602	46700.1
674.951	46092.88
675.3	45801.59
675.649	46477.73
675.998	46376.94
676.346	46349.83
676.695	46467.79
677.044	46228.7
677.393	46493.1
677.741	46465.53
678.09	46443.16
678.438	46358.19
678.787	46563.83
679.135	46377.17
679.484	46303.95
679.832	46607.67
680.181	46315.25
680.529	46497.17
680.877	46581.91
681.225	46475.7
681.573	46630.72
681.922	46303.27
682.27	46198.19
682.618	46196.61
682.966	46267.34
683.314	46121.36
683.661	45959.33
684.009	45699.67
684.357	45600.24
684.705	45435.73
685.053	45423.52
685.4	45346.69
685.748	45013.36
686.095	45039.58
686.443	44878.23
686.79	44604.11
687.138	44549.42
687.485	44637.56
687.832	44346.94
688.18	44386.49
688.527	44324.34
688.874	43939.27
689.221	43979.72
689.568	43918.25
689.915	43941.53
690.262	43700.4
690.609	43672.83
690.956	43709.67
691.303	43709.67
691.65	43541.54
691.997	43759.84
692.344	43398.04
692.69	43419.96
693.037	43506.74
693.383	43243.02
693.73	43516.45
694.077	43241.21
694.423	43181.1
694.769	43135.9
695.116	42822.69
695.462	42793.99
695.808	42801.9
696.155	42955.79
696.501	42443.71
696.847	42410.27
697.193	42129.82
697.539	42306.77
697.885	41967.79
698.231	41690.29
698.577	41670.85
698.923	41436.06
699.269	41249.4
699.614	40936.86
699.96	40964.66
700.306	40778.67
700.651	40549.53
700.997	40342.53
701.342	40188.63
701.688	40091.01
702.033	39892.37
702.379	39869.77
702.724	39961.07
703.069	40146.15
703.415	39617.57
703.76	39651.7
704.105	39586.39
704.45	39553.62
704.795	39419.39
705.14	39394.76
705.485	39353.17
705.83	39338.49
706.175	39489.67
706.52	39270.24
706.865	39275.21
707.209	39235.66
707.554	39145.27
707.899	39331.71
708.243	39109.56
708.588	39062.33
708.932	38849.46
709.277	38766.75
709.621	38830.7
709.966	38515
710.31	38625.28
710.654	38061.68
710.998	38255.35
711.342	38195.46
711.687	38138.07
712.031	37950.5
712.375	37692.65
712.719	37660.11
713.063	37581.7
713.407	37485.65
713.75	37204.08
714.094	37203.85
714.438	36865.56
714.782	36910.75
715.125	36784.43
715.469	36809.06
715.812	36539.69
716.156	36291.79
716.499	36341.73
716.843	36320.26
717.186	36022.87
717.53	36224.22
717.873	36240.04
718.216	36241.17
718.559	36126.37
718.902	35933.15
719.246	36195.74
719.589	36194.61
719.932	36177.89
720.275	36181.05
720.617	36073.71
720.96	35996.88
721.303	35998.69
721.646	36083.66
721.989	36136.99
722.331	36268.96
722.674	36132.02
723.016	36148.74
723.359	36123.88
723.701	36136.54
724.044	35834.62
724.386	35721.41
724.729	35920.5
725.071	35859.48
725.413	35661.29
725.755	35614.97
726.097	35513.95
726.439	35096.11
726.782	35136.11
727.124	35240.29
727.465	34882.11
727.807	34677.82
728.149	34703.13
728.491	34646.63
728.833	34547.65
729.175	34551.49
729.516	34409.58
729.858	34427.2
730.199	34422.23
730.541	34364.83
730.882	34263.59
731.224	34512.17
731.565	34051.62
731.906	34186.08
732.248	34264.49
732.589	34052.52
732.93	33941.34
733.271	34082.35
733.612	34217.26
733.953	34280.99
734.294	34251.61
734.635	34298.62
734.976	34327.09
735.317	34269.47
735.658	34341.55
735.999	34440.76
736.339	34565.05
736.68	34634.88
737.021	34421.1
737.361	34341.1
737.702	34598.95
738.042	34307.88
738.383	34405.96
738.723	34524.83
739.063	34428.56
739.404	34437.37
739.744	34194.89
740.084	34159.64
740.424	34257.04
740.764	34195.8
741.104	34328
741.444	33884.62
741.784	33948.34
742.124	33934.56
742.464	33886.2
742.804	33775.69
743.143	33673.32
743.483	33942.02
743.823	33443.73
744.162	33549.03
744.502	33662.25
744.841	33372.99
745.181	33603.95
745.52	33366.67
745.86	33471.52
746.199	33304.97
746.538	33345.65
746.877	33544.74
747.216	33483.95
747.556	33547.68
747.895	33463.61
748.234	33459.54
748.573	33458.87
748.911	33442.37
749.25	33534.34
749.589	33541.58
749.928	33715.58
750.267	33720.33
750.605	33599.2
750.944	33662.7
751.283	33689.37
751.621	33809.37
751.96	33791.74
752.298	33821.79
752.636	34022.47
752.975	33863.15
753.313	33840.1
753.651	34128.68
