Data from blue_chair_FLMS001491_00071.txt Node
Date: Wed Feb 08 10:31:44 GMT 2017
User: dcchb
Spectrometer: FLMS00149
Trigger mode: 0
Integration Time (sec): 2.000000E-2
Scans to average: 10
Electric dark correction enabled: true
Nonlinearity correction enabled: false
Boxcar width: 0
XAxis mode: Wavelengths
Number of Pixels in Spectrum: 2048
>>>>>Begin Spectral Data<<<<<
341.393	-27.29
341.776	-27.29
342.16	-27.29
342.543	-86.72
342.927	-84.46
343.31	-58.47
343.693	-61.18
344.077	-62.31
344.46	-61.18
344.843	-59.83
345.226	-63.9
345.61	-31.81
345.993	-21.41
346.376	-10.34
346.759	7.74
347.142	20.17
347.525	38.25
347.908	68.76
348.291	91.58
348.674	84.57
349.057	119.38
349.44	121.86
349.823	146.95
350.206	142.88
350.588	193.27
350.971	188.07
351.354	220.39
351.737	217
352.119	229.65
352.502	223.55
352.884	226.72
353.267	232.59
353.65	247.28
354.032	252.48
354.414	258.81
354.797	282.08
355.179	273.04
355.562	264.68
355.944	292.03
356.326	278.24
356.709	303.55
357.091	291.12
357.473	294.51
357.855	289.99
358.238	318.01
358.62	312.14
359.002	302.2
359.384	312.14
359.766	309.2
360.148	296.55
360.53	308.97
360.912	298.58
361.294	296.55
361.676	310.1
362.057	296.55
362.439	299.94
362.821	293.16
363.203	295.42
363.584	263.55
363.966	283.21
364.348	296.77
364.729	280.28
365.111	297.68
365.493	280.95
365.874	286.38
366.256	279.15
366.637	268.98
367.019	286.83
367.4	298.13
367.781	297.68
368.163	289.31
368.544	292.48
368.925	278.69
369.306	292.03
369.688	256.09
370.069	297.45
370.45	257.68
370.831	282.99
371.212	274.85
371.593	287.51
371.974	281.63
372.355	268.75
372.736	256.09
373.117	280.5
373.498	292.7
373.879	273.72
374.26	278.92
374.641	295.42
375.021	274.4
375.402	278.24
375.783	286.38
376.163	282.53
376.544	274.85
376.925	279.37
377.305	271.91
377.686	277.79
378.066	273.5
378.447	282.53
378.827	285.92
379.208	282.08
379.588	278.24
379.968	294.51
380.349	285.02
380.729	287.51
381.109	293.38
381.489	283.89
381.87	302.65
382.25	297.22
382.63	299.26
383.01	299.48
383.39	292.48
383.77	275.76
384.15	290.9
384.53	292.25
384.91	301.97
385.29	272.59
385.67	280.73
386.049	304.68
386.429	290.44
386.809	315.08
387.189	283.21
387.568	306.26
387.948	297.45
388.328	301.74
388.707	295.19
389.087	299.26
389.466	308.3
389.846	297.45
390.225	300.61
390.605	319.14
390.984	299.03
391.363	303.1
391.743	320.5
392.122	301.74
392.501	298.58
392.881	323.66
393.26	313.95
393.639	311.01
394.018	291.57
394.397	313.49
394.776	323.66
395.155	318.01
395.534	306.94
395.913	337.9
396.292	323.44
396.671	319.37
397.05	302.42
397.429	319.82
397.808	308.75
398.186	323.89
398.565	303.55
398.944	309.43
399.323	310.56
399.701	336.77
400.08	331.12
400.458	334.28
400.837	341.06
401.215	325.7
401.594	341.52
401.972	325.47
402.351	316.21
402.729	345.13
403.107	327.51
403.486	336.32
403.864	323.21
404.242	348.52
404.62	340.16
404.999	323.21
405.377	346.26
405.755	332.48
406.133	327.28
406.511	324.12
406.889	341.06
407.267	343.55
407.645	348.52
408.023	360.72
408.401	345.58
408.779	346.71
409.156	372.48
409.534	358.69
409.912	377.22
410.29	339.48
410.667	355.08
411.045	341.52
411.422	350.78
411.8	366.6
412.178	367.96
412.555	366.6
412.933	373.38
413.31	378.13
413.687	379.03
414.065	373.61
414.442	364.57
414.819	370.44
415.197	374.51
415.574	373.15
415.951	389.42
416.328	375.64
416.705	380.16
417.082	379.93
417.46	371.8
417.837	393.49
418.214	384.68
418.591	370.89
418.967	400.72
419.344	390.78
419.721	371.8
420.098	377.9
420.475	397.79
420.852	393.04
421.228	404.79
421.605	402.31
421.982	392.81
422.358	414.51
422.735	414.28
423.111	405.7
423.488	421.97
423.864	414.28
424.241	402.53
424.617	423.1
424.994	424
425.37	423.32
425.746	428.07
426.123	424
426.499	446.6
426.875	435.98
427.251	433.72
427.627	453.38
428.003	436.43
428.379	437.11
428.756	455.64
429.132	440.95
429.507	447.05
429.883	453.6
430.259	423.1
430.635	449.31
431.011	479.59
431.387	467.84
431.763	490.89
432.138	478.01
432.514	466.26
432.89	474.17
433.265	471.91
433.641	484.79
434.016	508.74
434.392	474.39
434.767	490.89
435.143	498.12
435.518	497.22
435.894	523.66
436.269	511.91
436.644	517.56
437.02	534.05
437.395	547.16
437.77	541.74
438.145	523.43
438.52	537.9
438.895	536.31
439.271	562.75
439.646	562.98
440.021	571.11
440.395	569.99
440.77	559.59
441.145	562.98
441.52	569.53
441.895	590.55
442.27	586.26
442.645	608.4
443.019	579.93
443.394	599.36
443.769	590.32
444.143	590.32
444.518	597.1
444.892	609.08
445.267	592.36
445.641	618.12
446.016	610.21
446.39	612.47
446.764	639.14
447.139	632.58
447.513	616.31
447.887	621.96
448.262	646.59
448.636	621.74
449.01	615.18
449.384	628.97
449.758	648.85
450.132	646.82
450.506	665.8
450.88	640.27
451.254	657.67
451.628	659.25
452.002	688.63
452.376	656.99
452.75	669.64
453.123	697.89
453.497	698.8
453.871	672.13
454.244	707.38
454.618	702.86
454.992	717.33
455.365	721.39
455.739	695.63
456.112	719.81
456.486	705.8
456.859	736.08
457.232	738.79
457.606	725.24
457.979	707.16
458.352	755.06
458.725	743.99
459.099	745.57
459.472	797.1
459.845	764.78
460.218	769.08
460.591	765.23
460.964	759.58
461.337	769.3
461.71	774.27
462.083	809.98
462.456	817.44
462.829	802.07
463.201	813.82
463.574	825.12
463.947	802.97
464.32	830.77
464.692	840.71
465.065	817.66
465.438	843.65
465.81	821.05
466.183	888.39
466.555	836.87
466.928	845.68
467.3	858.11
467.672	889.3
468.045	884.78
468.417	851.33
468.789	895.85
469.161	908.51
469.534	899.47
469.906	924.1
470.278	928.85
470.65	919.35
471.022	903.54
471.394	925.23
471.766	946.7
472.138	938.11
472.51	925.68
472.882	951.44
473.253	954.16
473.625	979.01
473.997	989.86
474.369	980.82
474.74	999.58
475.112	1003.42
475.484	1000.93
475.855	1029.41
476.227	1012.01
476.598	1043.42
476.97	1024.21
477.341	1073.02
477.713	1033.25
478.084	1083.42
478.455	1081.38
478.827	1108.05
479.198	1130.42
479.569	1087.26
479.94	1105.56
480.311	1135.85
480.682	1132
481.053	1122.29
481.424	1161.16
481.795	1135.17
482.166	1178.56
482.537	1165.9
482.908	1200.93
483.279	1214.26
483.65	1202.28
484.021	1209.29
484.391	1225.11
484.762	1231.89
485.133	1235.73
485.503	1230.98
485.874	1249.29
486.244	1240.48
486.615	1277.31
486.985	1248.39
487.356	1276.63
487.726	1287.93
488.097	1272.34
488.467	1310.08
488.837	1288.38
489.207	1316.86
489.578	1316.41
489.948	1326.35
490.318	1304.43
490.688	1330.19
491.058	1341.94
491.428	1317.76
491.798	1319.8
492.168	1329.29
492.538	1339.46
492.908	1304.43
493.278	1358.21
493.648	1336.74
494.017	1369.51
494.387	1354.15
494.757	1370.42
495.126	1360.25
495.496	1375.61
495.866	1364.09
496.235	1381.49
496.605	1360.7
496.974	1370.64
497.344	1375.39
497.713	1382.39
498.082	1376.52
498.452	1379.91
498.821	1372.22
499.19	1377.2
499.559	1383.52
499.928	1368.38
500.298	1358.44
500.667	1375.16
501.036	1379.23
501.405	1381.04
501.774	1353.47
502.143	1353.02
502.512	1369.74
502.88	1351.43
503.249	1355.95
503.618	1390.3
503.987	1362.51
504.356	1374.26
504.724	1341.72
505.093	1367.7
505.462	1366.8
505.83	1331.77
506.199	1320.93
506.567	1334.94
506.936	1338.33
507.304	1393.92
507.672	1356.63
508.041	1333.81
508.409	1354.6
508.777	1360.92
509.145	1357.99
509.514	1353.02
509.882	1353.02
510.25	1319.12
510.618	1312.34
510.986	1337.42
511.354	1336.52
511.722	1341.94
512.09	1341.04
512.458	1318.44
512.826	1319.34
513.193	1323.86
513.561	1334.71
513.929	1324.09
514.297	1339.23
514.664	1317.54
515.032	1305.33
515.4	1335.16
515.767	1308.27
516.135	1327.71
516.502	1325.45
516.869	1329.29
517.237	1291.77
517.604	1274.15
517.972	1297.2
518.339	1326.8
518.706	1314.6
519.073	1308.04
519.44	1274.6
519.808	1288.61
520.175	1271.21
520.542	1288.84
520.909	1269.85
521.276	1264.88
521.643	1255.39
522.009	1274.15
522.376	1261.27
522.743	1305.56
523.11	1265.11
523.477	1250.42
523.843	1279.57
524.21	1276.41
524.577	1270.53
524.943	1259.68
525.31	1273.24
525.676	1238.44
526.043	1263.53
526.409	1235.28
526.776	1253.36
527.142	1281.6
527.508	1273.24
527.874	1287.71
528.241	1247.93
528.607	1251.55
528.973	1240.25
529.339	1254.49
529.705	1247.26
530.071	1240.25
530.437	1253.58
530.803	1270.76
531.169	1286.58
531.535	1241.38
531.901	1261.49
532.267	1257.2
532.632	1241.61
532.998	1227.82
533.364	1230.98
533.73	1267.14
534.095	1259.68
534.461	1264.43
534.826	1247.71
535.192	1261.72
535.557	1244.09
535.923	1235.96
536.288	1224.43
536.653	1219.23
537.019	1252.68
537.384	1234.37
537.749	1239.35
538.114	1227.82
538.479	1235.96
538.845	1224.21
539.21	1217.65
539.575	1216.52
539.94	1259.23
540.305	1215.17
540.67	1241.61
541.034	1245.22
541.399	1237.31
541.764	1228.95
542.129	1217.2
542.494	1212.45
542.858	1226.01
543.223	1207.71
543.587	1242.28
543.952	1231.89
544.316	1211.78
544.681	1217.43
545.045	1216.52
545.41	1204.32
545.774	1228.5
546.138	1195.73
546.503	1164.77
546.867	1184.21
547.231	1205.9
547.595	1196.64
547.959	1196.41
548.324	1187.82
548.688	1213.58
549.052	1178.1
549.416	1182.17
549.779	1201.61
550.143	1166.35
550.507	1202.96
550.871	1167.48
551.235	1194.38
551.599	1196.64
551.962	1146.47
552.326	1174.94
552.689	1179.01
553.053	1169.97
553.417	1181.49
553.78	1185.56
554.143	1201.15
554.507	1166.13
554.87	1155.96
555.234	1167.48
555.597	1176.07
555.96	1154.6
556.323	1171.78
556.686	1159.35
557.05	1170.2
557.413	1162.51
557.776	1132.68
558.139	1166.81
558.502	1183.98
558.865	1161.61
559.228	1183.08
559.59	1184.43
559.953	1165.68
560.316	1175.39
560.679	1176.75
561.041	1176.3
561.404	1156.18
561.767	1200.48
562.129	1208.39
562.492	1183.98
562.854	1148.5
563.217	1161.61
563.579	1171.78
563.941	1181.72
564.304	1184.66
564.666	1199.35
565.028	1197.31
565.39	1186.92
565.753	1183.08
566.115	1171.55
566.477	1168.39
566.839	1202.06
567.201	1174.49
567.563	1183.53
567.925	1206.13
568.287	1198.9
568.648	1188.05
569.01	1216.3
569.372	1209.06
569.734	1221.72
570.095	1198.44
570.457	1189.63
570.819	1197.99
571.18	1246.58
571.542	1209.29
571.903	1219.01
572.265	1223.3
572.626	1241.83
572.987	1228.95
573.349	1247.71
573.71	1233.7
574.071	1237.31
574.432	1236.86
574.794	1246.8
575.155	1220.36
575.516	1256.52
575.877	1251.77
576.238	1273.02
576.599	1256.29
576.96	1239.35
577.32	1234.37
577.681	1247.93
578.042	1266.46
578.403	1250.87
578.763	1247.48
579.124	1263.75
579.485	1276.41
579.845	1276.86
580.206	1273.24
580.566	1277.54
580.927	1301.49
581.287	1290.64
581.648	1278.44
582.008	1301.72
582.368	1301.49
582.728	1310.53
583.089	1293.58
583.449	1293.58
583.809	1274.37
584.169	1298.55
584.529	1293.13
584.889	1333.35
585.249	1304.88
585.609	1309.4
585.969	1305.11
586.329	1313.02
586.688	1316.41
587.048	1308.72
587.408	1293.58
587.768	1309.17
588.127	1324.99
588.487	1325.22
588.846	1315.28
589.206	1327.93
589.565	1306.46
589.925	1326.58
590.284	1315.95
590.643	1326.8
591.003	1318.67
591.362	1302.62
591.721	1289.74
592.08	1319.12
592.44	1312.34
592.799	1298.1
593.158	1343.98
593.517	1323.64
593.876	1314.37
594.235	1328.16
594.593	1279.57
594.952	1319.57
595.311	1299.23
595.67	1323.64
596.029	1324.99
596.387	1324.09
596.746	1329.29
597.104	1320.7
597.463	1316.18
597.822	1315.05
598.18	1321.6
598.538	1315.5
598.897	1314.37
599.255	1314.37
599.613	1309.63
599.972	1320.93
600.33	1315.73
600.688	1294.03
601.046	1325.9
601.404	1328.16
601.762	1296.52
602.12	1316.41
602.478	1290.87
602.836	1299.01
603.194	1310.53
603.552	1281.83
603.91	1310.08
604.268	1314.6
604.625	1308.95
604.983	1304.88
605.341	1296.75
605.698	1314.37
606.056	1315.95
606.413	1315.28
606.771	1332
607.128	1321.38
607.485	1309.63
607.843	1315.28
608.2	1311.43
608.557	1327.48
608.914	1310.53
609.272	1311.66
609.629	1327.48
609.986	1341.26
610.343	1348.27
610.7	1315.28
611.057	1324.09
611.414	1322.73
611.771	1315.73
612.127	1334.48
612.484	1316.86
612.841	1344.2
613.198	1327.03
613.554	1332.68
613.911	1332.9
614.267	1333.13
614.624	1325.45
614.98	1357.53
615.337	1335.16
615.693	1307.37
616.05	1293.36
616.406	1322.06
616.762	1344.65
617.118	1337.42
617.475	1351.66
617.831	1324.99
618.187	1346.69
618.543	1320.47
618.899	1341.26
619.255	1320.7
619.611	1336.29
619.967	1348.5
620.323	1331.32
620.678	1343.52
621.034	1355.5
621.39	1346.69
621.746	1334.03
622.101	1366.8
622.457	1362.05
622.812	1337.42
623.168	1336.07
623.523	1349.85
623.879	1357.08
624.234	1377.42
624.589	1340.13
624.945	1330.19
625.3	1350.53
625.655	1333.81
626.01	1353.69
626.365	1361.6
626.72	1360.7
627.075	1358.21
627.43	1354.82
627.785	1342.62
628.14	1371.77
628.495	1358.89
628.85	1350.98
629.205	1347.14
629.559	1324.54
629.914	1362.05
630.269	1337.2
630.623	1359.12
630.978	1361.15
631.332	1353.02
631.687	1371.77
632.041	1331.09
632.396	1364.09
632.75	1340.13
633.104	1333.35
633.459	1310.98
633.813	1344.43
634.167	1350.08
634.521	1346.01
634.875	1336.74
635.229	1325.9
635.583	1357.99
635.937	1354.82
636.291	1359.34
636.645	1350.53
636.999	1332.45
637.352	1339
637.706	1327.93
638.06	1366.12
638.413	1352.79
638.767	1340.81
639.121	1371.55
639.474	1348.04
639.828	1354.15
640.181	1353.24
640.534	1387.82
640.888	1334.03
641.241	1352.34
641.594	1356.41
641.947	1362.96
642.301	1365.9
642.654	1356.63
643.007	1344.2
643.36	1310.3
643.713	1351.21
644.066	1356.18
644.419	1326.58
644.771	1328.84
645.124	1329.51
645.477	1332.68
645.83	1340.13
646.182	1347.82
646.535	1282.28
646.888	1339.46
647.24	1367.25
647.593	1352.79
647.945	1345.11
648.298	1318.21
648.65	1323.86
649.002	1337.65
649.355	1344.2
649.707	1350.76
650.059	1340.36
650.411	1352.79
650.763	1350.98
651.115	1363.86
651.467	1400.02
651.819	1378.1
652.171	1393.24
652.523	1392.11
652.875	1391.43
653.227	1393.01
653.578	1418.1
653.93	1373.13
654.282	1384.43
654.633	1354.15
654.985	1400.47
655.337	1398.66
655.688	1401.15
656.039	1383.97
656.391	1391.88
656.742	1383.07
657.094	1402.51
657.445	1410.19
657.796	1388.72
658.147	1372.9
658.498	1391.21
658.849	1400.47
659.2	1408.38
659.551	1404.54
659.902	1399.57
660.253	1403.41
660.604	1413.35
660.955	1385.78
661.306	1421.04
661.656	1396.18
662.007	1420.81
662.358	1407.93
662.708	1416.52
663.059	1399.34
663.409	1411.77
663.76	1389.85
664.11	1395.95
664.461	1412.22
664.811	1402.73
665.161	1407.48
665.511	1416.52
665.862	1415.16
666.212	1401.83
666.562	1401.38
666.912	1410.64
667.262	1407.48
667.612	1420.36
667.962	1396.86
668.312	1426.46
668.662	1427.82
669.011	1437.08
669.361	1413.13
669.711	1409.74
670.06	1415.39
670.41	1390.08
670.76	1407.93
671.109	1386.23
671.459	1389.62
671.808	1395.27
672.157	1402.73
672.507	1397.99
672.856	1375.39
673.205	1402.05
673.554	1416.97
673.904	1384.43
674.253	1405.67
674.602	1391.88
674.951	1367.7
675.3	1357.53
675.649	1393.47
675.998	1410.87
676.346	1393.47
676.695	1341.72
677.044	1384.43
677.393	1346.24
677.741	1368.83
678.09	1345.33
678.438	1351.66
678.787	1376.74
679.135	1359.34
679.484	1349.4
679.832	1370.87
680.181	1352.34
680.529	1358.44
680.877	1338.78
681.225	1369.29
681.573	1312.34
681.922	1324.99
682.27	1339.68
682.618	1347.59
682.966	1341.94
683.314	1328.38
683.661	1315.28
684.009	1348.72
684.357	1324.77
684.705	1327.03
685.053	1317.99
685.4	1324.99
685.748	1305.78
686.095	1311.43
686.443	1300.81
686.79	1302.85
687.138	1309.17
687.485	1294.26
687.832	1303.98
688.18	1308.72
688.527	1305.11
688.874	1296.75
689.221	1263.98
689.568	1304.43
689.915	1271.89
690.262	1272.57
690.609	1278.21
690.956	1261.27
691.303	1276.86
691.65	1281.6
691.997	1272.11
692.344	1276.18
692.69	1250.87
693.037	1277.76
693.383	1249.52
693.73	1245.67
694.077	1237.09
694.423	1249.29
694.769	1247.71
695.116	1229.85
695.462	1242.51
695.808	1228.27
696.155	1233.7
696.501	1234.6
696.847	1225.11
697.193	1247.03
697.539	1230.53
697.885	1220.14
698.231	1223.3
698.577	1202.28
698.923	1217.2
699.269	1221.72
699.614	1223.3
699.96	1220.36
700.306	1214.26
700.651	1190.99
700.997	1208.84
701.342	1195.05
701.688	1195.73
702.033	1224.88
702.379	1214.04
702.724	1181.27
703.069	1221.95
703.415	1199.8
703.76	1203.64
704.105	1155.28
704.45	1200.25
704.795	1182.85
705.14	1172.23
705.485	1197.99
705.83	1195.51
706.175	1181.95
706.52	1178.33
706.865	1175.17
707.209	1177.88
707.554	1186.69
707.899	1174.71
708.243	1184.66
708.588	1176.97
708.932	1191.44
709.277	1160.25
709.621	1172.91
709.966	1172.68
710.31	1183.98
710.654	1172.91
710.998	1176.97
711.342	1204.09
711.687	1209.06
712.031	1199.8
712.375	1182.17
712.719	1179.69
713.063	1198.44
713.407	1198.9
713.75	1195.05
714.094	1203.64
714.438	1183.08
714.782	1191.66
715.125	1195.05
715.469	1214.71
715.812	1185.34
716.156	1196.86
716.499	1204.77
716.843	1214.26
717.186	1207.48
717.53	1211.78
717.873	1229.85
718.216	1200.7
718.559	1225.34
718.902	1207.26
719.246	1219.69
719.589	1202.74
719.932	1203.64
720.275	1210.65
720.617	1199.8
720.96	1217.88
721.303	1238.67
721.646	1233.47
721.989	1238.22
722.331	1252
722.674	1236.41
723.016	1277.99
723.359	1242.28
723.701	1255.39
724.044	1262.62
724.386	1245
724.729	1267.82
725.071	1279.12
725.413	1290.42
725.755	1292.9
726.097	1300.14
726.439	1261.27
726.782	1290.19
727.124	1303.3
727.465	1292
727.807	1298.78
728.149	1300.81
728.491	1318.44
728.833	1294.71
729.175	1309.4
729.516	1327.25
729.858	1338.33
730.199	1340.13
730.541	1334.94
730.882	1346.46
731.224	1367.48
731.565	1359.34
731.906	1369.74
732.248	1351.89
732.589	1378.55
732.93	1397.99
733.271	1391.66
733.612	1379
733.953	1417.87
734.294	1396.4
734.635	1423.52
734.976	1405.44
735.317	1415.84
735.658	1446.35
735.999	1461.26
736.339	1438.44
736.68	1432.56
737.021	1479.34
737.361	1475.27
737.702	1481.83
738.042	1484.54
738.383	1474.14
738.723	1527.25
739.063	1535.61
739.404	1546.68
739.744	1547.59
740.084	1567.92
740.424	1550.3
740.764	1575.83
741.104	1611.99
741.444	1614.7
741.784	1609.51
742.124	1664.19
742.464	1627.58
742.804	1649.05
743.143	1684.53
743.483	1722.05
743.823	1702.84
744.162	1727.47
744.502	1759.78
744.841	1731.99
745.181	1781.03
745.52	1814.7
745.86	1830.52
746.199	1818.77
746.538	1865.54
746.877	1881.14
747.216	1921.59
747.556	1934.47
747.895	1988.93
748.234	1974.24
748.573	2030.74
748.911	1977.41
749.25	2047.01
749.589	2090.4
749.928	2105.76
750.267	2148.7
750.605	2164.75
750.944	2186.44
751.283	2244.74
751.621	2254.23
751.96	2308.24
752.298	2377.4
752.636	2396.83
752.975	2419.88
753.313	2461.23
753.651	2495.36
753.989	2529.71
754.327	2561.57
754.666	2548.69
755.004	2621
755.342	2690.61
755.679	2767.44
756.017	2758.63
756.355	2851.05
756.693	2864.84
757.031	2908.23
757.368	2933.99
757.706	3009.47
758.044	3013.76
758.381	3061.22
758.719	3126.3
759.056	3182.57
759.394	3197.26
759.731	3234.32
760.068	3274.09
760.405	3286.52
760.743	3332.4
761.08	3390.02
761.417	3468.67
761.754	3495.33
762.091	3504.37
762.428	3587.53
762.765	3619.85
763.102	3674.76
763.438	3673.18
763.775	3741.65
764.112	3791.6
764.449	3834.31
764.785	3830.92
765.122	3923.8
765.458	3919.5
765.795	3991.82
766.131	3996.79
766.467	4005.37
766.804	4080.63
767.14	4145.26
767.476	4124.24
767.812	4143.22
768.148	4219.83
768.485	4205.14
768.821	4224.35
769.157	4294.63
769.492	4285.37
769.828	4325.14
770.164	4301.41
770.5	4396.55
770.836	4443.78
771.171	4451.01
771.507	4452.82
771.842	4451.46
772.178	4484.91
