Data from blue_surface_keyboard_FLMS001491_084.txt Node
Date: Tue Feb 07 11:13:46 GMT 2017
User: dcchb
Spectrometer: FLMS00149
Trigger mode: 0
Integration Time (sec): 2.000000E-2
Scans to average: 10
Electric dark correction enabled: true
Nonlinearity correction enabled: false
Boxcar width: 0
XAxis mode: Wavelengths
Number of Pixels in Spectrum: 2048
>>>>>Begin Spectral Data<<<<<
341.393	0.07
341.776	0.07
342.16	0.07
342.543	-36.31
342.927	-62.75
343.31	-61.17
343.693	-68.85
344.077	-64.11
344.46	-58.46
344.843	-45.13
345.226	-52.58
345.61	-26.6
345.993	-46.93
346.376	-16.65
346.759	6.4
347.142	-8.52
347.525	29.67
347.908	79.62
348.291	110.8
348.674	94.31
349.057	128.2
349.44	126.85
349.823	138.6
350.206	153.51
350.588	176.11
350.971	194.42
351.354	199.39
351.737	223.12
352.119	233.51
352.502	237.58
352.884	237.58
353.267	245.04
353.65	261.31
354.032	264.92
354.414	285.03
354.797	311.47
355.179	290.91
355.562	276
355.944	299.27
356.326	313.96
356.709	322.55
357.091	318.48
357.473	330.91
357.855	316.45
358.238	337.01
358.62	304.02
359.002	317.58
359.384	320.97
359.766	326.84
360.148	312.6
360.53	338.59
360.912	299.72
361.294	314.86
361.676	320.97
362.057	300.63
362.439	314.19
362.821	309.67
363.203	306.73
363.584	310.12
363.966	296.33
364.348	323.9
364.729	295.88
365.111	303.57
365.493	306.05
365.874	292.04
366.256	288.88
366.637	288.2
367.019	284.36
367.4	287.07
367.781	281.19
368.163	294.75
368.544	303.11
368.925	298.14
369.306	290.01
369.688	300.85
370.069	294.53
370.45	289.55
370.831	277.58
371.212	296.79
371.593	302.89
371.974	273.74
372.355	281.65
372.736	299.95
373.117	281.19
373.498	276.9
373.879	300.18
374.26	297.46
374.641	279.84
375.021	295.2
375.402	300.4
375.783	299.95
376.163	306.05
376.544	284.13
376.925	279.39
377.305	291.59
377.686	290.23
378.066	304.47
378.447	301.31
378.827	292.27
379.208	289.33
379.588	291.81
379.968	313.28
380.349	290.23
380.729	314.64
381.109	303.79
381.489	307.41
381.87	302.89
382.25	306.96
382.63	300.85
383.01	316.9
383.39	310.8
383.77	305.15
384.15	315.09
384.53	313.06
384.91	316.22
385.29	302.44
385.67	332.04
386.049	323.23
386.429	324.13
386.809	293.85
387.189	317.8
387.568	319.61
387.948	289.1
388.328	312.38
388.707	318.03
389.087	314.64
389.466	296.33
389.846	326.16
390.225	332.04
390.605	325.71
390.984	321.42
391.363	312.15
391.743	325.94
392.122	313.73
392.501	317.12
392.881	327.97
393.26	324.58
393.639	325.71
394.018	327.52
394.397	320.51
394.776	337.01
395.155	316.9
395.534	335.66
395.913	337.91
396.292	345.37
396.671	350.57
397.05	332.27
397.429	330.01
397.808	340.4
398.186	327.52
398.565	348.08
398.944	333.85
399.323	347.63
399.701	333.85
400.08	331.81
400.458	329.33
400.837	342.89
401.215	338.14
401.594	338.37
401.972	352.83
402.351	362.77
402.729	338.82
403.107	356.9
403.486	342.21
403.864	339.95
404.242	324.81
404.62	356.9
404.999	346.95
405.377	358.48
405.755	360.97
406.133	353.06
406.511	358.93
406.889	364.58
407.267	358.48
407.645	356.22
408.023	359.84
408.401	374.3
408.779	374.75
409.156	351.02
409.534	379.04
409.912	347.41
410.29	376.33
410.667	365.26
411.045	382.66
411.422	364.13
411.8	382.43
412.178	374.3
412.555	380.4
412.933	365.71
413.31	367.07
413.687	371.59
414.065	371.81
414.442	377.46
414.819	374.98
415.197	381.76
415.574	387.18
415.951	405.71
416.328	394.64
416.705	372.72
417.082	396.67
417.46	392.38
417.837	382.89
418.214	393.73
418.591	410.68
418.967	395.54
419.344	409.33
419.721	395.77
420.098	398.93
420.475	408.2
420.852	402.09
421.228	411.13
421.605	415.65
421.982	412.72
422.358	411.36
422.735	403.45
423.111	420.4
423.488	421.08
423.864	420.4
424.241	406.16
424.617	438.48
424.994	440.06
425.37	423.34
425.746	417.01
426.123	424.47
426.499	425.37
426.875	431.25
427.251	423.34
427.627	418.59
428.003	426.5
428.379	417.69
428.756	443
429.132	432.38
429.507	436.9
429.883	431.25
430.259	446.61
430.635	448.87
431.011	435.99
431.387	473.96
431.763	461.98
432.138	463.34
432.514	476.89
432.89	463.34
433.265	454.75
433.641	460.85
434.016	469.21
434.392	467.4
434.767	466.5
435.143	482.77
435.518	474.63
435.894	494.75
436.269	499.04
436.644	490.45
437.02	483.9
437.395	505.59
437.77	494.07
438.145	519.15
438.52	506.72
438.895	509.89
439.271	511.7
439.646	492.26
440.021	517.8
440.395	509.44
440.77	516.67
441.145	532.71
441.52	533.62
441.895	523.9
442.27	530
442.645	513.73
443.019	528.87
443.394	549.43
443.769	528.19
444.143	513.96
444.518	529.1
444.892	534.07
445.267	545.37
445.641	542.88
446.016	531.81
446.39	533.16
446.764	528.87
447.139	543.56
447.513	538.81
447.887	538.14
448.262	559.6
448.636	561.64
449.01	563.9
449.384	568.87
449.758	535.2
450.132	582.43
450.506	583.78
450.88	567.51
451.254	553.5
451.628	560.73
452.002	595.99
452.376	587.85
452.75	593.28
453.123	586.04
453.497	587.17
453.871	577.23
454.244	574.74
454.618	603.22
454.992	616.33
455.365	593.73
455.739	613.84
456.112	620.17
456.486	627.4
456.859	640.51
457.232	616.78
457.606	608.42
457.979	616.1
458.352	635.31
458.725	642.99
459.099	668.53
459.472	668.75
459.845	667.4
460.218	657.45
460.591	653.84
460.964	666.49
461.337	653.84
461.71	684.35
462.083	687.06
462.456	697.68
462.829	671.69
463.201	688.87
463.574	667.4
463.947	700.17
464.32	712.37
464.692	698.81
465.065	693.16
465.438	727.74
465.81	722.54
466.183	739.26
466.555	720.28
466.928	720.5
467.3	731.12
467.672	736.1
468.045	755.53
468.417	744.91
468.789	757.79
469.161	747.4
469.534	763.67
469.906	788.3
470.278	808.18
470.65	798.92
471.022	801.63
471.394	822.42
471.766	817.45
472.138	838.69
472.51	827.85
472.882	846.6
473.253	826.26
473.625	836.43
473.997	851.12
474.369	859.94
474.74	884.57
475.112	877.34
475.484	852.7
475.855	868.97
476.227	876.88
476.598	888.63
476.97	897.9
477.341	914.17
477.713	950.55
478.084	947.39
478.455	921.18
478.827	951.68
479.198	972.7
479.569	985.36
479.94	980.16
480.311	971.12
480.682	1006.82
481.053	995.3
481.424	1004.79
481.795	1036.65
482.166	1032.59
482.537	1060.38
482.908	1065.81
483.279	1044.79
483.65	1073.71
484.021	1090.21
484.391	1123.43
484.762	1102.41
485.133	1119.82
485.503	1112.36
485.874	1129.76
486.244	1123.66
486.615	1143.09
486.985	1130.89
487.356	1175.86
487.726	1160.94
488.097	1183.54
488.467	1197.78
488.837	1219.02
489.207	1198.23
489.578	1209.53
489.948	1233.26
490.318	1217.21
490.688	1234.61
491.058	1252.47
491.428	1250.43
491.798	1263.31
492.168	1286.59
492.538	1248.17
492.908	1301.28
493.278	1301.73
493.648	1306.25
494.017	1274.61
494.387	1309.87
494.757	1308.28
495.126	1297.66
495.496	1324.78
495.866	1301.73
496.235	1327.95
496.605	1309.87
496.974	1335.18
497.344	1355.52
497.713	1356.19
498.082	1355.52
498.452	1336.31
498.821	1378.57
499.19	1376.31
499.559	1374.5
499.928	1353.26
500.298	1401.62
500.667	1379.24
501.036	1404.1
501.405	1405.68
501.774	1409.75
502.143	1376.98
502.512	1375.63
502.88	1401.62
503.249	1407.72
503.618	1400.94
503.987	1412.01
504.356	1412.69
504.724	1417.66
505.093	1418.11
505.462	1414.95
505.83	1420.6
506.199	1438.45
506.567	1426.93
506.936	1422.86
507.304	1448.85
507.672	1454.5
508.041	1437.09
508.409	1475.96
508.777	1444.55
509.145	1472.57
509.514	1485
509.882	1445.46
510.25	1453.37
510.618	1485.68
510.986	1451.56
511.354	1467.83
511.722	1461.05
512.09	1486.81
512.458	1489.52
512.826	1480.94
513.193	1497.43
513.561	1505.79
513.929	1509.64
514.297	1510.31
514.664	1535.85
515.032	1509.86
515.4	1516.64
515.767	1521.16
516.135	1514.16
516.502	1505.79
516.869	1509.41
517.237	1551.22
517.604	1532.91
517.972	1527.49
518.339	1545.34
518.706	1563.87
519.073	1527.71
519.44	1538.79
519.808	1530.88
520.175	1556.41
520.542	1519.8
520.909	1558.22
521.276	1559.35
521.643	1549.63
522.009	1577.88
522.376	1574.27
522.743	1593.7
523.11	1552.12
523.477	1580.82
523.843	1575.17
524.21	1599.12
524.577	1610.65
524.943	1627.37
525.31	1607.94
525.676	1615.62
526.043	1618.33
526.409	1629.18
526.776	1625.34
527.142	1624.43
527.508	1663.76
527.874	1626.47
528.241	1627.6
528.607	1670.76
528.973	1637.09
529.339	1658.33
529.705	1690.2
530.071	1677.31
530.437	1681.16
530.803	1673.25
531.169	1663.98
531.535	1662.4
531.901	1664.89
532.267	1659.01
532.632	1675.28
532.998	1656.52
533.364	1699.91
533.73	1688.39
534.095	1654.04
534.461	1677.99
534.826	1710.76
535.192	1694.49
535.557	1709.86
535.923	1674.6
536.288	1693.81
536.653	1719.8
537.019	1699.01
537.384	1696.98
537.749	1694.26
538.114	1710.53
538.479	1723.42
538.845	1687.26
539.21	1695.85
539.575	1705.34
539.94	1701.27
540.305	1733.58
540.67	1712.57
541.034	1713.02
541.399	1710.31
541.764	1721.83
542.129	1722.51
542.494	1717.99
542.858	1726.13
543.223	1711.21
543.587	1710.76
543.952	1735.39
544.316	1722.96
544.681	1716.41
545.045	1718.22
545.41	1734.94
545.774	1741.95
546.138	1711.66
546.503	1760.02
546.867	1713.92
547.231	1722.96
547.595	1737.65
547.959	1734.49
548.324	1738.78
548.688	1739.91
549.052	1739.46
549.416	1756.86
549.779	1746.92
550.143	1741.27
550.507	1735.84
550.871	1759.57
551.235	1745.79
551.599	1725.45
551.962	1752.34
552.326	1755.73
552.689	1744.66
553.053	1738.1
553.417	1755.5
553.78	1749.63
554.143	1756.86
554.507	1753.24
554.87	1762.51
555.234	1752.57
555.597	1787.14
555.96	1757.76
556.323	1730.42
556.686	1763.41
557.05	1762.96
557.413	1731.78
557.776	1788.95
558.139	1784.66
558.502	1763.64
558.865	1785.56
559.228	1786.01
559.59	1789.18
559.953	1794.15
560.316	1785.11
560.679	1789.4
561.041	1782.17
561.404	1810.19
561.767	1841.6
562.129	1815.16
562.492	1812.23
562.854	1794.37
563.217	1811.55
563.579	1792.34
563.941	1808.84
564.304	1815.84
564.666	1808.84
565.028	1814.71
565.39	1825.79
565.753	1797.99
566.115	1854.26
566.477	1846.35
566.839	1859
567.201	1817.65
567.563	1823.3
567.925	1836.63
568.287	1833.47
568.648	1828.27
569.01	1859.91
569.372	1877.99
569.734	1863.52
570.095	1893.13
570.457	1871.66
570.819	1854.94
571.18	1854.26
571.542	1877.76
571.903	1861.04
572.265	1872.11
572.626	1860.81
572.987	1866.01
573.349	1870.53
573.71	1911.66
574.071	1877.54
574.432	1866.69
574.794	1914.82
575.155	1900.36
575.516	1904.43
575.877	1908.72
576.238	1894.03
576.599	1898.55
576.96	1902.39
577.32	1888.83
577.681	1903.07
578.042	1929.06
578.403	1929.29
578.763	1907.14
579.124	1905.78
579.485	1914.14
579.845	1942.17
580.206	1901.94
580.566	1921.83
580.927	1903.98
581.287	1912.79
581.648	1932.68
582.008	1922.28
582.368	1912.79
582.728	1933.35
583.089	1957.08
583.449	1952.11
583.809	1925.9
584.169	1953.24
584.529	1960.92
584.889	1954.14
585.249	1960.25
585.609	1931.09
585.969	1935.16
586.329	1967.02
586.688	1985.33
587.048	1943.07
587.408	1949.4
587.768	1927.25
588.127	1937.65
588.487	1959.12
588.846	1965.67
589.206	1952.79
589.565	1938.32
589.925	1975.61
590.284	1952.79
590.643	1937.19
591.003	1948.72
591.362	1960.02
591.721	1968.83
592.08	1955.27
592.44	1952.11
592.799	1967.02
593.158	1967.02
593.517	1979.45
593.876	1964.54
594.235	1955.95
594.593	1946.01
594.952	1970.64
595.311	1922.51
595.67	1991.43
596.029	1982.17
596.387	1981.04
596.746	1991.66
597.104	1994.59
597.463	1984.43
597.822	1992.11
598.18	1995.72
598.538	1994.59
598.897	1980.58
599.255	2003.86
599.613	2015.61
599.972	1998.21
600.33	1998.21
600.688	2002.05
601.046	2007.93
601.404	2015.84
601.762	2008.61
602.12	2014.93
602.478	2026.91
602.836	1993.69
603.194	1993.46
603.552	1999.11
603.91	2016.74
604.268	2039.34
604.625	2001.83
604.983	2036.18
605.341	2019.45
605.698	2044.54
606.056	2050.19
606.413	2021.71
606.771	2036.63
607.128	2059.9
607.485	2013.58
607.843	2028.72
608.2	2037.98
608.557	2057.64
608.914	2048.38
609.272	2035.95
609.629	2050.19
609.986	2065.55
610.343	2068.26
610.7	2051.32
611.057	2042.05
611.414	2082.28
611.771	2064.88
612.127	2090.86
612.484	2078.43
612.841	2087.02
613.198	2077.53
613.554	2066.46
613.911	2101.48
614.267	2091.54
614.624	2077.76
614.98	2071.88
615.337	2110.98
615.693	2106.23
616.05	2101.26
616.406	2120.24
616.762	2098.55
617.118	2073.24
617.475	2103.97
617.831	2119.11
618.187	2126.12
618.543	2136.06
618.899	2121.82
619.255	2117.76
619.611	2131.77
619.967	2126.34
620.323	2138.77
620.678	2143.07
621.034	2108.49
621.39	2119.34
621.746	2136.74
622.101	2174.7
622.457	2159.34
622.812	2155.49
623.168	2163.4
623.523	2192.33
623.879	2188.71
624.234	2179.9
624.589	2212.22
624.945	2178.32
625.3	2190.07
625.655	2177.64
626.01	2191.43
626.365	2192.78
626.72	2174.25
627.075	2180.8
627.43	2187.58
627.785	2204.08
628.14	2218.32
628.495	2188.26
628.85	2200.24
629.205	2189.17
629.559	2219
629.914	2200.24
630.269	2208.37
630.623	2223.74
630.978	2231.2
631.332	2248.83
631.687	2254.47
632.041	2216.06
632.396	2254.25
632.75	2243.85
633.104	2240.01
633.459	2240.92
633.813	2254.7
634.167	2230.75
634.521	2275.72
634.875	2244.98
635.229	2250.41
635.583	2234.36
635.937	2258.77
636.291	2239.56
636.645	2262.61
636.999	2228.71
637.352	2265.55
637.706	2276.85
638.06	2292.44
638.413	2301.93
638.767	2309.16
639.121	2300.12
639.474	2303.96
639.828	2303.29
640.181	2299.9
640.534	2320.91
640.888	2340.57
641.241	2289.28
641.594	2319.33
641.947	2351.65
642.301	2351.42
642.654	2351.65
643.007	2370.63
643.36	2323.63
643.713	2373.79
644.066	2339.67
644.419	2364.75
644.771	2374.7
645.124	2358.43
645.477	2361.14
645.83	2348.71
646.182	2324.08
646.535	2358.88
646.888	2380.35
647.24	2366.56
647.593	2381.7
647.945	2358.88
648.298	2406.79
648.65	2402.27
649.002	2422.61
649.355	2394.13
649.707	2413.11
650.059	2433.9
650.411	2468.25
650.763	2485.65
651.115	2504.41
651.467	2507.8
651.819	2506.22
652.171	2553
652.523	2537.63
652.875	2550.06
653.227	2534.47
653.578	2570.4
653.93	2595.03
654.282	2560.23
654.633	2582.83
654.985	2592.32
655.337	2615.6
655.688	2607.91
656.039	2646.55
656.391	2668.02
656.742	2651.53
657.094	2636.16
657.445	2647.91
657.796	2700.79
658.147	2687.23
658.498	2694.24
658.849	2700.34
659.2	2743.05
659.551	2728.13
659.902	2756.16
660.253	2730.62
660.604	2783.95
660.955	2772.2
661.306	2807.23
661.656	2782.37
662.007	2837.28
662.358	2800.9
662.708	2841.8
663.059	2853.78
663.409	2825.31
663.76	2867.11
664.11	2920.9
664.461	2917.51
664.811	2901.01
665.161	2936.04
665.511	2948.92
665.862	2971.07
666.212	2965.87
666.562	2966.55
666.912	3016.94
667.262	3044.74
667.612	2995.25
667.962	2990.27
668.312	3000.67
668.662	3091.06
669.011	3045.87
669.361	3097.84
669.711	3094.9
670.06	3099.42
670.41	3128.12
670.76	3104.62
671.109	3094
671.459	3169.48
671.808	3190.5
672.157	3203.83
672.507	3166.32
672.856	3205.41
673.205	3225.75
673.554	3201.57
673.904	3227.78
674.253	3236.37
674.602	3274.11
674.951	3218.52
675.3	3204.05
675.649	3288.35
675.998	3273.66
676.346	3294.22
676.695	3328.57
677.044	3304.16
677.393	3333.32
677.741	3382.58
678.09	3338.97
678.438	3373.09
678.787	3396.82
679.135	3362.69
679.484	3392.75
679.832	3416.7
680.181	3416.7
680.529	3478.17
680.877	3455.35
681.225	3473.2
681.573	3479.3
681.922	3484.27
682.27	3514.1
682.618	3493.31
682.966	3531.73
683.314	3516.36
683.661	3549.58
684.009	3514.55
684.357	3542.8
684.705	3555.68
685.053	3545.29
685.4	3577.38
685.748	3526.98
686.095	3571.28
686.443	3538.51
686.79	3598.62
687.138	3567.89
687.485	3584.84
687.832	3632.07
688.18	3620.09
688.527	3593.65
688.874	3602.01
689.221	3651.95
689.568	3613.31
689.915	3645.62
690.262	3627.77
690.609	3619.18
690.956	3670.26
691.303	3652.86
691.65	3647.66
691.997	3644.27
692.344	3621.22
692.69	3669.35
693.037	3643.36
693.383	3631.61
693.73	3679.52
694.077	3661.67
694.423	3642.46
694.769	3652.86
695.116	3668.67
695.462	3662.12
695.808	3668.22
696.155	3658.28
696.501	3641.1
696.847	3651.95
697.193	3670.03
697.539	3678.17
697.885	3636.13
698.231	3636.81
698.577	3647.43
698.923	3663.25
699.269	3595.23
699.614	3642.01
699.96	3658.96
700.306	3629.13
700.651	3635
700.997	3620.09
701.342	3616.25
701.688	3596.36
702.033	3639.52
702.379	3610.15
702.724	3598.62
703.069	3599.98
703.415	3597.04
703.76	3577.6
704.105	3577.38
704.45	3559.53
704.795	3586.64
705.14	3548.23
705.485	3564.5
705.83	3582.35
706.175	3600.2
706.52	3568.11
706.865	3535.57
707.209	3591.16
707.554	3584.61
707.899	3570.82
708.243	3550.26
708.588	3555.46
708.932	3563.82
709.277	3554.33
709.621	3517.94
709.966	3548
710.31	3526.53
710.654	3521.33
710.998	3544.61
711.342	3540.32
711.687	3504.39
712.031	3537.38
712.375	3516.59
712.719	3541.22
713.063	3535.12
713.407	3564.72
713.75	3526.98
714.094	3512.07
714.438	3512.75
714.782	3496.7
715.125	3535.34
715.469	3496.7
715.812	3504.61
716.156	3485.18
716.499	3513.65
716.843	3501.22
717.186	3484.05
717.53	3474.56
717.873	3534.89
718.216	3497.83
718.559	3507.77
718.902	3453.54
719.246	3491.05
719.589	3460.54
719.932	3493.76
720.275	3500.09
720.617	3499.87
720.96	3494.67
721.303	3520.43
721.646	3501.67
721.989	3518.85
722.331	3498.96
722.674	3500.54
723.016	3524.5
723.359	3516.81
723.701	3486.76
724.044	3494.22
724.386	3453.09
724.729	3460.77
725.071	3444.05
725.413	3492.86
725.755	3470.71
726.097	3509.58
726.439	3459.19
726.782	3488.11
727.124	3525.4
727.465	3493.54
727.807	3490.37
728.149	3493.54
728.491	3516.59
728.833	3511.62
729.175	3479.98
729.516	3517.72
729.858	3509.13
730.199	3521.79
730.541	3518.62
730.882	3523.14
731.224	3543.48
731.565	3491.28
731.906	3490.37
732.248	3533.09
732.589	3516.59
732.93	3525.18
733.271	3514.33
733.612	3541.45
733.953	3550.26
734.294	3526.76
734.635	3515.23
734.976	3555.01
735.317	3553.2
735.658	3540.32
735.999	3538.28
736.339	3558.17
736.68	3579.86
737.021	3625.29
737.361	3573.76
737.702	3573.76
738.042	3601.56
738.383	3605.63
738.723	3607.89
739.063	3594.1
739.404	3622.57
739.744	3594.78
740.084	3611.5
740.424	3640.43
740.764	3592.29
741.104	3623.7
741.444	3668.67
741.784	3648.79
742.124	3656.25
742.464	3698.5
742.804	3670.03
743.143	3660.09
743.483	3731.72
743.823	3678.84
744.162	3714.78
744.502	3723.36
744.841	3728.79
745.181	3759.07
745.52	3779.86
745.86	3807.88
746.199	3811.04
746.538	3751.38
746.877	3859.4
747.216	3841.55
747.556	3834.09
747.895	3847.2
748.234	3838.61
748.573	3898.5
748.911	3868.9
749.25	3916.13
749.589	3899.4
749.928	3901.66
750.267	3948.67
750.605	3954.32
750.944	4007.2
751.283	4000.87
751.621	4048.1
751.96	4019.85
752.298	4037.93
752.636	4062.11
752.975	4084.71
753.313	4132.17
753.651	4137.14
753.989	4106.86
754.327	4178.27
754.666	4145.05
755.004	4180.53
755.342	4223.91
755.679	4276.57
756.017	4220.98
756.355	4266.85
756.693	4274.76
757.031	4373.06
757.368	4301.88
757.706	4307.08
758.044	4329
758.381	4411.25
758.719	4380.97
759.056	4408.99
759.394	4445.38
759.731	4448.54
760.068	4429.11
760.405	4444.25
760.743	4449.67
761.08	4482.89
761.417	4481.99
761.754	4531.7
762.091	4486.28
762.428	4522.66
762.765	4500.52
763.102	4536.67
763.438	4546.39
763.775	4526.28
764.112	4543.91
764.449	4550.91
764.785	4602.89
765.122	4531.02
765.458	4544.58
765.795	4541.19
766.131	4604.7
766.467	4563.34
766.804	4568.99
767.14	4582.55
767.476	4622.32
767.812	4602.44
768.148	4569.89
768.485	4620.74
768.821	4599.72
769.157	4569.44
769.492	4576.67
769.828	4536.22
770.164	4573.28
770.5	4565.37
770.836	4581.65
771.171	4540.29
771.507	4540.74
771.842	4537.58
772.178	4597.01
