Data from blue_shiny_book_FLMS001491_00003.txt Node
Date: Wed Feb 08 15:26:26 GMT 2017
User: dcchb
Spectrometer: FLMS00149
Trigger mode: 0
Integration Time (sec): 2.000000E-2
Scans to average: 10
Electric dark correction enabled: true
Nonlinearity correction enabled: false
Boxcar width: 0
XAxis mode: Wavelengths
Number of Pixels in Spectrum: 2048
>>>>>Begin Spectral Data<<<<<
341.393	4.65
341.776	4.65
342.16	4.65
342.543	-58.18
342.927	-71.51
343.31	-76.71
343.693	-68.8
344.077	-29.48
344.46	-55.24
344.843	-34.45
345.226	-54.56
345.61	-47.56
345.993	-6.65
346.376	-17.5
346.759	9.39
347.142	32.89
347.525	37.19
347.908	62.95
348.291	63.4
348.674	81.03
349.057	104.08
349.44	130.07
349.823	140.01
350.206	173.46
350.588	216.17
350.971	222.27
351.354	253.91
351.737	268.14
352.119	262.72
352.502	268.82
352.884	291.19
353.267	300.46
353.65	323.73
354.032	318.08
354.414	319.21
354.797	345.65
355.179	326.22
355.562	340.01
355.944	336.62
356.326	367.12
356.709	347.69
357.091	350.63
357.473	362.83
357.855	359.44
358.238	365.32
358.62	337.75
359.002	375.71
359.384	362.38
359.766	350.17
360.148	371.87
360.53	366.67
360.912	343.39
361.294	347.46
361.676	394.69
362.057	378.42
362.439	354.92
362.821	363.06
363.203	329.61
363.584	344.75
363.966	347.01
364.348	354.24
364.729	340.46
365.111	366.9
365.493	349.72
365.874	346.78
366.256	337.52
366.637	353.11
367.019	348.59
367.4	330.74
367.781	327.35
368.163	359.44
368.544	324.64
368.925	346.78
369.306	342.49
369.688	320.34
370.069	345.2
370.45	354.02
370.831	354.92
371.212	377.74
371.593	356.95
371.974	345.43
372.355	359.44
372.736	353.11
373.117	396.5
373.498	345.2
373.879	348.37
374.26	361.47
374.641	380.91
375.021	370.74
375.402	369.61
375.783	367.8
376.163	377.29
376.544	384.07
376.925	391.53
377.305	386.78
377.686	397.86
378.066	400.12
378.447	382.04
378.827	411.87
379.208	389.72
379.588	393.56
379.968	400.12
380.349	411.19
380.729	413.68
381.109	410.51
381.489	426.1
381.87	401.02
382.25	428.14
382.63	424.52
383.01	406.22
383.39	438.08
383.77	419.78
384.15	441.92
384.53	440.34
384.91	439.66
385.29	468.82
385.67	453.67
386.049	457.97
386.429	440.12
386.809	469.27
387.189	464.97
387.568	468.14
387.948	467.91
388.328	470.4
388.707	485.09
389.087	492.77
389.466	502.49
389.846	494.8
390.225	486.67
390.605	521.92
390.984	497.74
391.363	514.01
391.743	531.41
392.122	541.13
392.501	534.12
392.881	555.82
393.26	546.33
393.639	543.39
394.018	538.42
394.397	560.11
394.776	564.63
395.155	554.24
395.534	581.35
395.913	559.43
396.292	597.4
396.671	599.66
397.05	590.39
397.429	589.26
397.808	603.73
398.186	636.04
398.565	585.42
398.944	614.12
399.323	636.49
399.701	613.44
400.08	641.24
400.458	670.17
400.837	648.25
401.215	663.84
401.594	664.97
401.972	672.2
402.351	679.88
402.729	670.84
403.107	686.44
403.486	702.26
403.864	719.88
404.242	730.5
404.62	710.16
404.999	731.86
405.377	736.83
405.755	749.71
406.133	748.81
406.511	761.01
406.889	771.18
407.267	783.61
407.645	805.3
408.023	819.77
408.401	811.18
408.779	811.41
409.156	862.7
409.534	846.88
409.912	877.39
410.29	904.74
410.667	899.09
411.045	925.98
411.422	943.38
411.8	930.27
412.178	965.07
412.555	977.28
412.933	989.48
413.31	985.86
413.687	999.65
414.065	1038.74
414.442	1014.79
414.819	1037.84
415.197	1051.85
415.574	1062.47
415.951	1087.33
416.328	1111.06
416.705	1091.85
417.082	1106.09
417.46	1120.78
417.837	1143.37
418.214	1140.21
418.591	1184.05
418.967	1179.31
419.344	1183.37
419.721	1210.49
420.098	1203.03
420.475	1227.21
420.852	1264.5
421.228	1268.57
421.605	1278.51
421.982	1273.77
422.358	1272.64
422.735	1316.48
423.111	1308.57
423.488	1341.79
423.864	1369.58
424.241	1388.11
424.617	1422.24
424.994	1393.31
425.37	1416.14
425.746	1431.5
426.123	1431.28
426.499	1485.29
426.875	1500.43
427.251	1483.48
427.627	1520.99
428.003	1525.96
428.379	1582.01
428.756	1635.56
429.132	1624.49
429.507	1664.49
429.883	1650.25
430.259	1690.03
430.635	1718.27
431.011	1725.05
431.387	1769.8
431.763	1773.41
432.138	1808.89
432.514	1829.01
432.89	1849.34
433.265	1918.72
433.641	1942.9
434.016	1945.84
434.392	1997.59
434.767	2002.56
435.143	1978.83
435.518	2055.67
435.894	2050.02
436.269	2103.12
436.644	2150.35
437.02	2152.84
437.395	2183.35
437.77	2232.84
438.145	2241.88
438.52	2271.48
438.895	2317.58
439.271	2314.64
439.646	2363
440.021	2395.77
440.395	2360.74
440.77	2378.6
441.145	2378.14
441.52	2451.81
441.895	2447.75
442.27	2477.8
442.645	2481.42
443.019	2550.79
443.394	2584.24
443.769	2582.21
444.143	2608.19
444.518	2657.46
444.892	2620.17
445.267	2650.9
445.641	2668.98
446.016	2700.62
446.39	2660.17
446.764	2689.1
447.139	2709.66
447.513	2761.86
447.887	2803.22
448.262	2798.02
448.636	2850.45
449.01	2897.23
449.384	2900.62
449.758	2927.96
450.132	3000.05
450.506	2990.33
450.88	3015.64
451.254	3005.02
451.628	3016.54
452.002	3057.9
452.376	3053.38
452.75	3129.76
453.123	3167.28
453.497	3260.15
453.871	3276.43
454.244	3345.8
454.618	3394.39
454.992	3447.72
455.365	3454.27
455.739	3495.85
456.112	3562.97
456.486	3543.08
456.859	3590.77
457.232	3681.61
457.606	3641.84
457.979	3701.27
458.352	3809.74
458.725	3866.24
459.099	3902.62
459.472	4047.7
459.845	4071.21
460.218	4096.29
460.591	4143.07
460.964	4161.37
461.337	4234.37
461.71	4255.38
462.083	4351.2
462.456	4342.39
462.829	4327.47
463.201	4447.69
463.574	4491.53
463.947	4564.07
464.32	4665.99
464.692	4745.31
465.065	4772.21
465.438	4863.73
465.81	4937.4
466.183	4983.5
466.555	5101.91
466.928	5126.32
467.3	5117.73
467.672	5165.19
468.045	5340.55
468.417	5290.38
468.789	5329.48
469.161	5423.71
469.534	5540.32
469.906	5704.38
470.278	5723.14
470.65	5843.82
471.022	5956.58
471.394	6075
471.766	6096.46
472.138	6175.33
472.51	6270.02
472.882	6376.91
473.253	6422.56
473.625	6504.36
473.997	6620.29
474.369	6743.45
474.74	6796.56
475.112	6926.72
475.484	7055.53
475.855	7128.3
476.227	7288.75
476.598	7484.9
476.97	7566.48
477.341	7771
477.713	7902.97
478.084	7952.91
478.455	8199.69
478.827	8164.88
479.198	8465.22
479.569	8448.72
479.94	8660.46
480.311	8751.31
480.682	8910.63
481.053	9141.58
481.424	9280.56
481.795	9443.49
482.166	9576.82
482.537	9764.16
482.908	10063.59
483.279	10190.82
483.65	10253.42
484.021	10500.42
484.391	10574.54
484.762	10620.64
485.133	10688.21
485.503	10871.93
485.874	11015.2
486.244	11205.93
486.615	11428.08
486.985	11640.5
487.356	11928.85
487.726	12002.75
488.097	12322.51
488.467	12415.85
488.837	12607.48
489.207	12841.82
489.578	13051.31
489.948	13143.96
490.318	13350.51
490.688	13393
491.058	13492.43
491.428	13699.2
491.798	13852.87
492.168	14082.02
492.538	14116.14
492.908	14299.86
493.278	14481.55
493.648	14589.8
494.017	14809.91
494.387	14967.42
494.757	15199.28
495.126	15363.34
495.496	15405.37
495.866	15595.2
496.235	15811.46
496.605	15900.73
496.974	15956.09
497.344	16126.93
497.713	16291.9
498.082	16278.8
498.452	16447.15
498.821	16550.88
499.19	16679.69
499.559	16810.98
499.928	16994.48
500.298	17039.23
500.667	17317.64
501.036	17324.19
501.405	17558.76
501.774	17575.48
502.143	17896.15
502.512	17943.38
502.88	18112.65
503.249	18192.64
503.618	18231.74
503.987	18293.21
504.356	18406.42
504.724	18599.19
505.093	18601.67
505.462	18740.65
505.83	18885.96
506.199	19049.8
506.567	19239.85
506.936	19227.87
507.304	19542.89
507.672	19692.94
508.041	19762.32
508.409	20009.54
508.777	20086.6
509.145	20303.77
509.514	20241.4
509.882	20453.83
510.25	20562.75
510.618	20647.49
510.986	20749.86
511.354	20927.71
511.722	21109.85
512.09	21347.81
512.458	21315.05
512.826	21576.73
513.193	21694.92
513.561	21694.92
513.929	22032.54
514.297	22258.07
514.664	22262.59
515.032	22478.63
515.4	22711.17
515.767	22843.37
516.135	23011.05
516.502	22903.93
516.869	23213.3
517.237	23409
517.604	23381.43
517.972	23559.73
518.339	23800.41
518.706	23807.86
519.073	23970.34
519.44	24144.13
519.808	24389.77
520.175	24449.43
520.542	24845.8
520.909	25074.5
521.276	25153.14
521.643	25358.56
522.009	25597.65
522.376	25714.48
522.743	25810.75
523.11	26014.58
523.477	26348.36
523.843	26465.65
524.21	26782.93
524.577	27084.16
524.943	27058.85
525.31	27152.41
525.676	27368.45
526.043	27595.33
526.409	27700.87
526.776	27981.31
527.142	28170.23
527.508	28410.68
527.874	28610.45
528.241	28816.32
528.607	28953.49
528.973	29273.71
529.339	29239.81
529.705	29415.4
530.071	29711.89
530.437	29849.96
530.803	30054.93
531.169	30294.02
531.535	30237.07
531.901	30381.93
532.267	30515.71
532.632	30812.2
532.998	30834.12
533.364	31160.44
533.73	31217.16
534.095	31484.72
534.461	31572.18
534.826	31858.5
535.192	32010.81
535.557	32291.71
535.923	32059.17
536.288	32348.66
536.653	32547.29
537.019	32557.01
537.384	32695.09
537.749	32724.01
538.114	32751.81
538.479	32822.54
538.845	32947.28
539.21	33036.77
539.575	33169.42
539.94	33320.38
540.305	33653.03
540.67	33647.15
541.034	33697.32
541.399	33901.16
541.764	34145.44
542.129	34218.89
542.494	34441.93
542.858	34531.42
543.223	34521.93
543.587	34801.25
543.952	34679.67
544.316	34803.73
544.681	34982.26
545.045	34895.48
545.41	35106.55
545.774	35097.74
546.138	35095.48
546.503	35251.86
546.867	35231.07
547.231	35504.73
547.595	35618.17
547.959	35739.3
548.324	35891.61
548.688	36067.2
549.052	36362.79
549.416	36412.95
549.779	36515.78
550.143	36650.24
550.507	36791.48
550.871	36994.18
551.235	36825.83
551.599	37193.95
551.962	37391.01
552.326	37222.65
552.689	37468.07
553.053	37088.42
553.417	37292.93
553.78	37668.29
554.143	37495.19
554.507	37727.04
554.87	37831.67
555.234	38198.44
555.597	37954.84
555.96	38142.4
556.323	38528.15
556.686	38547.81
557.05	38954.58
557.413	39049.04
557.776	39259.21
558.139	39493.55
558.502	39573.78
558.865	39659.2
559.228	39926.31
559.59	39919.53
559.953	40090.6
560.316	40228.9
560.679	40221.89
561.041	40357.03
561.404	40436.58
561.767	40612.62
562.129	40507.76
562.492	40866.85
562.854	40871.37
563.217	40985.04
563.579	41080.4
563.941	41425.48
564.304	41493.73
564.666	41888.52
565.028	41987.5
565.39	42263.87
565.753	42459.8
566.115	42640.81
566.477	42783.41
566.839	43067.7
567.201	43177.3
567.563	43240.8
567.925	43622.48
568.287	43443.5
568.648	43545.87
569.01	43604.4
569.372	43937.05
569.734	43660.9
570.095	43831.29
570.457	43927.79
570.819	43848.92
571.18	43792.2
571.542	44192.41
571.903	44132.53
572.265	44351.5
572.626	44491.39
572.987	44680.08
573.349	44883.69
573.71	45200.52
574.071	45412.72
574.432	45408.2
574.794	45798.47
575.155	45809.32
575.516	45709.89
575.877	46009.76
576.238	46040.72
576.599	46167.73
576.96	46175.41
577.32	46197.1
577.681	46234.84
578.042	46351.22
578.403	46200.49
578.763	46187.61
579.124	46113.26
579.485	46135.41
579.845	46283.66
580.206	46155.3
580.566	46244.33
580.927	46228.52
581.287	46419.7
581.648	46440.26
582.008	46600.26
582.368	46704.89
582.728	46950.08
583.089	46963.41
583.449	47042.96
583.809	47255.83
584.169	47318.43
584.529	47367.7
584.889	47592.1
585.249	47417.86
585.609	47351.65
585.969	47637.52
586.329	47300.58
586.688	47484.08
587.048	47324.53
587.408	47234.37
587.768	47043.41
588.127	47018.33
588.487	46988.04
588.846	47136.74
589.206	46866.01
589.565	46805.22
589.925	47113.46
590.284	46796.41
590.643	47057.65
591.003	47317.3
591.362	47346.9
591.721	47333.12
592.08	47555.49
592.44	47638.65
592.799	47704.41
593.158	47707.57
593.517	47981.69
593.876	47941.92
594.235	47924.74
594.593	48061.46
594.952	48172.87
595.311	47912.54
595.67	47933.1
596.029	48099.65
596.387	47917.74
596.746	47853.78
597.104	47779.44
597.463	47657.63
597.822	47715.03
598.18	47666.9
598.538	47538.76
598.897	47639.33
599.255	47259.22
599.613	47763.84
599.972	47593.68
600.33	47820.34
600.688	47666.22
601.046	47870.05
601.404	48223.27
601.762	47948.24
602.12	48286.77
602.478	48357.27
602.836	48531.05
603.194	48385.97
603.552	48556.36
603.91	48395.01
604.268	48675.46
604.625	48475.69
604.983	48656.02
605.341	48411.96
605.698	48462.81
606.056	48627.78
606.413	48668.45
606.771	48663.25
607.128	48612.86
607.485	48340.32
607.843	48318.63
608.2	48535.8
608.557	48493.54
608.914	48297.16
609.272	48551.62
609.629	48504.39
609.986	48728.11
610.343	48651.5
610.7	48880.65
611.057	48882.46
611.414	48900.54
611.771	49141.21
612.127	49340.3
612.484	49344.37
612.841	49641.31
613.198	49483.35
613.554	49507.53
613.911	49649.44
614.267	49738.93
614.624	49724.02
614.98	49787.07
615.337	49895.54
615.693	49795.88
616.05	49651.7
616.406	49936.67
616.762	49771.02
617.118	49641.99
617.475	49583.68
617.831	49536
618.187	49611.7
618.543	49575.77
618.899	49618.71
619.255	49533.51
619.611	49486.74
619.967	49654.19
620.323	49654.64
620.678	49637.69
621.034	49504.81
621.39	49577.35
621.746	49678.14
622.101	50112.26
622.457	49881.08
622.812	49948.64
623.168	50155.64
623.523	50084.46
623.879	50329.2
624.234	50088.08
624.589	50389.08
624.945	50312.02
625.3	50374.17
625.655	50330.78
626.01	50308.18
626.365	50301.18
626.72	50169.88
627.075	50020.73
627.43	50118.36
627.785	49851.92
628.14	49876.1
628.495	49977.34
628.85	49837.91
629.205	49599.95
629.559	49831.13
629.914	49564.25
630.269	49798.37
630.623	49421.65
630.978	49449.45
631.332	49682.66
631.687	49774.86
632.041	49633.17
632.396	49819.16
632.75	49750.91
633.104	49822.77
633.459	49714.75
633.813	49737.58
634.167	49706.84
634.521	49784.81
634.875	49799.27
635.229	49890.34
635.583	49797.69
635.937	49607.18
636.291	49740.51
636.645	49683.57
636.999	49683.11
637.352	49710.91
637.706	49396.79
638.06	49528.54
638.413	49363.12
638.767	49095.56
639.121	49080.19
639.474	48835.91
639.828	48822.8
640.181	48727.21
640.534	48656.25
640.888	48549.36
641.241	48364.28
641.594	48506.42
641.947	48531.28
642.301	48401.34
642.654	48452.64
643.007	48389.59
643.36	48357.73
643.713	48256.26
644.066	48561.56
644.419	48559.3
644.771	48487.67
645.124	48501.45
645.477	48425.97
645.83	48079.09
646.182	47861.02
646.535	47551.42
646.888	47558.42
647.24	47337.19
647.593	47483.17
647.945	47369.05
648.298	47211.99
648.65	47077.99
649.002	46980.81
649.355	47085.89
649.707	47071.21
650.059	47382.16
650.411	47745.54
650.763	47816.27
651.115	48033.21
651.467	47744.86
651.819	47654.02
652.171	47579.22
652.523	47497.41
652.875	47497.86
653.227	47409.28
653.578	47648.82
653.93	47576.96
654.282	47238.43
654.633	47140.81
654.985	47423.74
655.337	47386.68
655.688	47296.74
656.039	47609.5
656.391	47152.33
656.742	47390.29
657.094	47457.64
657.445	47631.19
657.796	47625.32
658.147	47680.23
658.498	47765.65
658.849	47851.52
659.2	47675.71
659.551	47591.42
659.902	47599.78
660.253	47633.68
660.604	47658.99
660.955	47587.35
661.306	47529.05
661.656	47374.47
662.007	47320.69
662.358	47285.89
662.708	47139.45
663.059	47278.21
663.409	46931.1
663.76	47139
664.11	46970.64
664.461	46869.63
664.811	46684.32
665.161	46541.73
665.511	46747.15
665.862	46692.23
666.212	46721.61
666.562	46800.25
666.912	46710.09
667.262	46830.08
667.612	46731.78
667.962	46738.56
668.312	46766.81
668.662	47107.14
669.011	46979.23
669.361	47054.71
669.711	47017.87
670.06	47167.93
670.41	47127.25
670.76	46991.66
671.109	47282.73
671.459	47191.88
671.808	47070.98
672.157	47150.3
672.507	46977.2
672.856	47059
673.205	46892.68
673.554	47032.56
673.904	46800.93
674.253	46943.98
674.602	46825.11
674.951	46079.59
675.3	45921.18
675.649	46490.88
675.998	46255.86
676.346	46072.59
676.695	46284.56
677.044	45851.8
677.393	46012.48
677.741	45971.8
678.09	45896.32
678.438	45749.21
678.787	45755.08
679.135	45637.57
679.484	45577.69
679.832	45690.9
680.181	45554.41
680.529	45776.55
680.877	45757.34
681.225	45571.36
681.573	45895.19
681.922	45810.45
682.27	45595.99
682.618	45702.2
682.966	45770.9
683.314	45782.88
683.661	45721.64
684.009	45470.34
684.357	45581.3
684.705	45576.56
685.053	45578.82
685.4	45447.29
685.748	45192.16
686.095	45272.16
686.443	45052.05
686.79	44889.34
687.138	44865.84
687.485	44921.21
687.832	44587.66
688.18	44522.12
688.527	44314.22
688.874	44087.56
689.221	44085.3
689.568	43807.34
689.915	43612.99
690.262	43679.2
690.609	43374.35
690.956	43268.59
691.303	43228.59
691.65	43024.76
691.997	42856.63
692.344	42762.17
692.69	42807.82
693.037	42620.48
693.383	42392.23
693.73	42703.64
694.077	42502.06
694.423	42448.5
694.769	42404.66
695.116	42322.63
695.462	42309.07
695.808	42372.35
696.155	42529.86
696.501	42252.58
696.847	42285.57
697.193	41999.47
697.539	42148.4
697.885	41891
698.231	41645.81
698.577	41884.45
698.923	41660.27
699.269	41552.48
699.614	41166.5
699.96	41236.33
700.306	41164.47
700.651	40856
700.997	40658.04
701.342	40596.57
701.688	40389.8
702.033	40154.55
702.379	39898.74
702.724	39739.87
703.069	39872.07
703.415	39306.66
703.76	39249.72
704.105	39260.79
704.45	39056.05
704.795	38976.28
705.14	38706
705.485	38617.64
705.83	38602.95
706.175	38689.96
706.52	38519.79
706.865	38376.52
707.209	38486.8
707.554	38321.15
707.899	38588.49
708.243	38352.34
708.588	38283.41
708.932	38057.43
709.277	38213.36
709.621	38316.18
709.966	38091.55
710.31	38510.07
710.654	37915.74
710.998	38097.43
711.342	38269.86
711.687	38155.06
712.031	38053.36
712.375	37804.1
712.719	37880.26
713.063	37700.6
713.407	37774.28
713.75	37582.42
714.094	37502.87
714.438	37217.45
714.782	37225.81
715.125	37050.9
715.469	36913.73
715.812	36472.39
716.156	36561.43
716.499	36466.29
716.843	36313.3
717.186	36173.64
717.53	35956.7
717.873	36069.24
718.216	35881.9
718.559	35741.79
718.902	35540.89
719.246	35685.06
719.589	35502.92
719.932	35422.02
720.275	35442.59
720.617	35363.72
720.96	35316.94
721.303	35442.13
721.646	35505.18
721.989	35340.89
722.331	35597.61
722.674	35538.85
723.016	35417.27
723.359	35593.54
723.701	35834.89
724.044	35473.32
724.386	35341.34
724.729	35584.05
725.071	35568.01
725.413	35436.26
725.755	35580.66
726.097	35603.71
726.439	35256.83
726.782	35180.67
727.124	35337.5
727.465	35084.63
727.807	35218.64
728.149	35081.01
728.491	34957.85
728.833	34933.22
729.175	34748.82
729.516	34706.33
729.858	34648.48
730.199	34670.4
730.541	34319
730.882	34277.42
731.224	34422.95
731.565	34183.41
731.906	34069.51
732.248	34115.61
732.589	33967.14
732.93	33854.83
733.271	33842.4
733.612	33845.79
733.953	33905.45
734.294	33631.11
734.635	33589.07
734.976	33871.55
735.317	33459.81
735.658	33798.56
735.999	33770.54
736.339	33843.76
736.68	33969.63
737.021	33896.19
737.361	33779.8
737.702	34066.12
738.042	33918.11
738.383	34031.55
738.723	34135.27
739.063	34121.49
739.404	34165.78
739.744	34305.44
740.084	34183.64
740.424	34442.84
740.764	34471.99
741.104	34446.23
741.444	34077.2
741.784	34097.76
742.124	34088.04
742.464	34267.02
742.804	34148.61
743.143	34145.22
743.483	33991.1
743.823	33893.47
744.162	33788.62
744.502	33852.12
744.841	33642.18
745.181	33741.16
745.52	33615.51
745.86	33655.06
746.199	33405.12
746.538	33496.87
746.877	33483.31
747.216	33389.98
747.556	33369.19
747.895	33372.13
748.234	33125.58
748.573	33166.03
748.911	33187.28
749.25	33349.53
749.589	33067.73
749.928	33223.89
750.267	33304.11
750.605	33142.31
750.944	33195.64
751.283	33160.84
751.621	33258.24
751.96	33221.85
752.298	33198.58
752.636	33556.08
752.975	33384.56
753.313	33319.03
753.651	33573.48
