Data from blue_clamp_base_FLMS001491_00033.txt Node
Date: Wed Feb 08 15:15:55 GMT 2017
User: dcchb
Spectrometer: FLMS00149
Trigger mode: 0
Integration Time (sec): 2.000000E-2
Scans to average: 10
Electric dark correction enabled: true
Nonlinearity correction enabled: false
Boxcar width: 0
XAxis mode: Wavelengths
Number of Pixels in Spectrum: 2048
>>>>>Begin Spectral Data<<<<<
341.393	-20.73
341.776	-20.73
342.16	-20.73
342.543	-67.29
342.927	-42.88
343.31	-62.99
343.693	-54.41
344.077	-84.01
344.46	-52.37
344.843	-53.95
345.226	-37.23
345.61	-39.26
345.993	-20.51
346.376	-29.77
346.759	5.48
347.142	21.07
347.525	54.07
347.908	51.35
348.291	92.26
348.674	98.58
349.057	111.69
349.44	123.67
349.823	160.5
350.206	160.28
350.588	182.2
350.971	210.67
351.354	233.27
351.737	238.92
352.119	269.65
352.502	258.13
352.884	264.23
353.267	302.87
353.65	292.7
354.032	298.81
354.414	298.35
354.797	299.03
355.179	321.4
355.562	331.8
355.944	329.77
356.326	327.51
356.709	337
357.091	326.6
357.473	342.42
357.855	352.36
358.238	352.59
358.62	358.69
359.002	376.77
359.384	343.55
359.766	343.32
360.148	338.35
360.53	327.05
360.912	344.91
361.294	329.99
361.676	322.99
362.057	333.83
362.439	339.26
362.821	315.08
363.203	335.87
363.584	334.06
363.966	327.28
364.348	332.7
364.729	316.21
365.111	322.99
365.493	335.87
365.874	321.86
366.256	307.39
366.637	329.77
367.019	328.64
367.4	316.88
367.781	315.98
368.163	321.86
368.544	315.53
368.925	319.37
369.306	312.14
369.688	307.62
370.069	325.02
370.45	339.71
370.831	312.59
371.212	313.95
371.593	336.54
371.974	330.22
372.355	329.99
372.736	340.39
373.117	322.08
373.498	331.12
373.879	334.06
374.26	328.86
374.641	327.05
375.021	314.85
375.402	322.76
375.783	325.47
376.163	374.96
376.544	339.93
376.925	329.09
377.305	339.26
377.686	338.35
378.066	349.65
378.447	333.38
378.827	346.71
379.208	331.8
379.588	338.8
379.968	356.66
380.349	350.33
380.729	358.24
381.109	356.43
381.489	353.04
381.87	365.02
382.25	348.07
382.63	375.64
383.01	386.49
383.39	365.47
383.77	372.25
384.15	358.69
384.53	400.05
384.91	362.53
385.29	377.45
385.67	381.97
386.049	386.26
386.429	374.06
386.809	378.8
387.189	374.06
387.568	387.16
387.948	407.73
388.328	384.23
388.707	390.1
389.087	372.93
389.466	384.91
389.846	379.26
390.225	406.83
390.605	413.38
390.984	405.92
391.363	406.15
391.743	422.42
392.122	420.61
392.501	410.22
392.881	421.97
393.26	442.76
393.639	452.7
394.018	437.11
394.397	440.5
394.776	457.22
395.155	471.91
395.534	469.65
395.913	453.38
396.292	466.48
396.671	464.45
397.05	482.98
397.429	475.52
397.808	474.39
398.186	490.89
398.565	487.73
398.944	479.14
399.323	501.29
399.701	497.9
400.08	512.13
400.458	515.52
400.837	523.88
401.215	523.43
401.594	541.51
401.972	540.16
402.351	550.32
402.729	539.7
403.107	543.77
403.486	522.08
403.864	536.77
404.242	547.16
404.62	567.27
404.999	555.3
405.377	548.97
405.755	560.04
406.133	582.64
406.511	588.74
406.889	586.71
407.267	585.58
407.645	627.38
408.023	628.51
408.401	612.92
408.779	625.8
409.156	637.55
409.534	652.24
409.912	660.6
410.29	654.5
410.667	691.79
411.045	667.16
411.422	680.26
411.8	671.9
412.178	710.32
412.555	710.77
412.933	718.23
413.31	732.24
413.687	733.14
414.065	743.99
414.442	743.31
414.819	744.9
415.197	767.49
415.574	774.95
415.951	770.43
416.328	795.74
416.705	805.69
417.082	786.7
417.46	772.01
417.837	808.62
418.214	813.59
418.591	835.97
418.967	836.42
419.344	841.39
419.721	858.34
420.098	867.83
420.475	893.37
420.852	882.52
421.228	896.08
421.605	895.17
421.982	896.98
422.358	915.74
422.735	921.39
423.111	886.81
423.488	915.74
423.864	934.27
424.241	971.1
424.617	990.54
424.994	951.9
425.37	956.42
425.746	981.95
426.123	1009.97
426.499	1012.23
426.875	1035.74
427.251	1023.08
427.627	1053.36
428.003	1076.41
428.379	1074.6
428.756	1104.66
429.132	1114.38
429.507	1131.55
429.883	1116.86
430.259	1172.91
430.635	1164.09
431.011	1161.16
431.387	1183.98
431.763	1204.54
432.138	1203.87
432.514	1221.95
432.89	1229.18
433.265	1286.8
433.641	1272.11
434.016	1275.96
434.392	1329.06
434.767	1311.89
435.143	1350.08
435.518	1338.33
435.894	1361.38
436.269	1366.35
436.644	1428.72
437.02	1400.92
437.395	1419.68
437.77	1437.76
438.145	1470.75
438.52	1480.02
438.895	1484.76
439.271	1492.45
439.646	1503.07
440.021	1551.88
440.395	1541.03
440.77	1547.13
441.145	1560.92
441.52	1598.43
441.895	1572.9
442.27	1605.66
442.645	1600.24
443.019	1623.97
443.394	1652.89
443.769	1688.37
444.143	1644.53
444.518	1676.4
444.892	1673.68
445.267	1710.07
445.641	1736.51
446.016	1732.89
446.39	1721.37
446.764	1753.91
447.139	1760.01
447.513	1788.48
447.887	1783.06
448.262	1781.03
448.636	1814.47
449.01	1826.68
449.384	1835.49
449.758	1860.8
450.132	1879.78
450.506	1878.88
450.88	1947.58
451.254	1934.92
451.628	1930.18
452.002	1974.24
452.376	1967.24
452.75	1960.23
453.123	2031.42
453.497	2040.23
453.871	2030.74
454.244	2112.54
454.618	2129.27
454.992	2137.63
455.365	2149.6
455.739	2190.06
456.112	2199.09
456.486	2192.77
456.859	2254.69
457.232	2269.15
457.606	2290.84
457.979	2309.37
458.352	2361.8
458.725	2391.41
459.099	2398.19
459.472	2433.44
459.845	2453.55
460.218	2484.51
460.591	2475.7
460.964	2515.02
461.337	2544.85
461.71	2575.13
462.083	2600.67
462.456	2589.59
462.829	2625.07
463.201	2682.25
463.574	2682.02
463.947	2736.03
464.32	2765.63
464.692	2813.32
465.065	2776.93
465.438	2842.47
465.81	2882.69
466.183	2921.56
466.555	2959.07
466.928	2964.72
467.3	2999.07
467.672	3009.92
468.045	3103.93
468.417	3046.3
468.789	3141.44
469.161	3129.47
469.534	3207.88
469.906	3273.19
470.278	3270.25
470.65	3328.33
471.022	3363.36
471.394	3427.54
471.766	3445.16
472.138	3472.73
472.51	3544.14
472.882	3559.96
473.253	3590.24
473.625	3651.49
473.997	3726.29
474.369	3726.06
474.74	3760.41
475.112	3784.14
475.484	3916.56
475.855	3953.17
476.227	3934.42
476.598	4059.38
476.97	4079.5
477.341	4160.17
477.713	4241.53
478.084	4198.59
478.455	4321.07
478.827	4378.92
479.198	4439.94
479.569	4493.05
479.94	4540.73
480.311	4634.96
480.682	4658.47
481.053	4749.76
481.424	4824.79
481.795	4878.35
482.166	4923.77
482.537	4944.33
482.908	5040.38
483.279	5084.22
483.65	5115.63
484.021	5285.57
484.391	5259.81
484.762	5305.23
485.133	5357.43
485.503	5422.96
485.874	5514.49
486.244	5543.19
486.615	5595.39
486.985	5638.78
487.356	5703.86
487.726	5789.51
488.097	5855.72
488.467	5864.99
488.837	5936.62
489.207	6012.78
489.578	6074.02
489.948	6104.98
490.318	6163.96
490.688	6159.22
491.058	6204.87
491.428	6336.61
491.798	6306.33
492.168	6455.25
492.538	6457.06
492.908	6447.57
493.278	6562.14
493.648	6590.62
494.017	6600.56
494.387	6653.89
494.757	6718.3
495.126	6747.9
495.496	6713.33
495.866	6701.12
496.235	6860.89
496.605	6843.94
496.974	6906.77
497.344	6901.34
497.713	6909.93
498.082	6971.4
498.452	7026.99
498.821	7084.84
499.19	7006.88
499.559	7017.27
499.928	7128.68
500.298	7157.83
500.667	7161.22
501.036	7200.55
501.405	7223.14
501.774	7209.13
502.143	7290.49
502.512	7233.76
502.88	7344.27
503.249	7227.89
503.618	7362.8
503.987	7341.78
504.356	7388.34
504.724	7453.42
505.093	7362.57
505.462	7485.74
505.83	7486.87
506.199	7531.61
506.567	7569.12
506.936	7558.28
507.304	7586.52
507.672	7681.89
508.041	7681.21
508.409	7710.14
508.777	7748.33
509.145	7774.32
509.514	7840.08
509.882	7862.45
510.25	7802.79
510.618	7893.41
510.986	7908.55
511.354	7931.37
511.722	7989.22
512.09	8044.36
512.458	7996.23
512.826	8127.98
513.193	8138.6
513.561	8119.84
513.929	8151.71
514.297	8178.82
514.664	8263.12
515.032	8277.35
515.4	8320.97
515.767	8285.71
516.135	8281.87
516.502	8290.23
516.869	8372.72
517.237	8448.2
517.604	8389.21
517.972	8428.54
518.339	8532.71
518.706	8509.66
519.073	8538.14
519.44	8504.01
519.808	8651.58
520.175	8599.83
520.542	8608.42
520.909	8779.49
521.276	8720.96
521.643	8750.33
522.009	8780.62
522.376	8860.39
522.743	8915.98
523.11	8957.11
523.477	8989.88
523.843	9003.21
524.21	9151
524.577	9117.1
524.943	9153.94
525.31	9151
525.676	9269.87
526.043	9236.65
526.409	9326.82
526.776	9402.97
527.142	9378.57
527.508	9474.84
527.874	9549.64
528.241	9560.26
528.607	9513.93
528.973	9677.99
529.339	9646.81
529.705	9737.2
530.071	9759.57
530.437	9757.77
530.803	9887.48
531.169	9895.62
531.535	9930.42
531.901	9919.8
532.267	9913.92
532.632	9985.56
532.998	10028.49
533.364	10060.81
533.73	10099.68
534.095	10124.99
534.461	10197.75
534.826	10199.34
535.192	10251.09
535.557	10377.86
535.923	10284.76
536.288	10331.54
536.653	10388.71
537.019	10376.73
537.384	10446.11
537.749	10503.28
538.114	10402.72
538.479	10556.84
538.845	10610.17
539.21	10533.56
539.575	10570.17
539.94	10547.8
540.305	10594.35
540.67	10641.13
541.034	10682.49
541.399	10747.8
541.764	10778.76
542.129	10778.76
542.494	10858.08
542.858	10842.03
543.223	10875.25
543.587	10928.81
543.952	10866.66
544.316	10978.3
544.681	10920
545.045	10954.12
545.41	11028.24
545.774	11081.57
546.138	11056.26
546.503	11141.91
546.867	11073.89
547.231	11152.98
547.595	11231.17
547.959	11222.81
548.324	11243.83
548.688	11258.07
549.052	11322.7
549.416	11296.71
549.779	11308.91
550.143	11343.04
550.507	11404.95
550.871	11424.39
551.235	11407.89
551.599	11484.27
551.962	11511.39
552.326	11565.85
552.689	11597.27
553.053	11598.62
553.417	11585.97
553.78	11737.37
554.143	11708.68
554.507	11759.52
554.87	11748.9
555.234	11843.81
555.597	11770.37
555.96	11801.55
556.323	11848.78
556.686	11861.21
557.05	11974.43
557.413	11973.08
557.776	11975.11
558.139	12002.45
558.502	12082.22
558.865	12165.39
559.228	12102.56
559.59	12140.98
559.953	12133.75
560.316	12315.44
560.679	12305.72
561.041	12389.79
561.404	12402.22
561.767	12388.88
562.129	12475.89
562.492	12515.43
562.854	12517.92
563.217	12552.95
563.579	12605.37
563.941	12642.66
564.304	12687.63
564.666	12778.48
565.028	12701.87
565.39	12882.43
565.753	12833.17
566.115	13007.62
566.477	12982.54
566.839	13012.6
567.201	13053.05
567.563	13080.39
567.925	13228.64
568.287	13201.52
568.648	13179.6
569.01	13258.69
569.372	13397.67
569.734	13299.14
570.095	13454.84
570.457	13479.25
570.819	13532.58
571.18	13477.89
571.542	13630.43
571.903	13633.14
572.265	13620.49
572.626	13724.89
572.987	13719.02
573.349	13747.94
573.71	13754.27
574.071	13826.81
574.432	13896.41
574.794	13957.66
575.155	14008.95
575.516	13944.32
575.877	14042.63
576.238	14052.34
576.599	14115.62
576.96	14103.87
577.32	14103.64
577.681	14161.72
578.042	14236.52
578.403	14203.75
578.763	14220.47
579.124	14217.99
579.485	14356.52
579.845	14363.29
580.206	14313.58
580.566	14299.34
580.927	14387.47
581.287	14442.16
581.648	14373.46
582.008	14492.1
582.368	14424.31
582.728	14535.72
583.089	14478.77
583.449	14491.43
583.809	14518.54
584.169	14584.08
584.529	14461.15
584.889	14644.87
585.249	14512.9
585.609	14552.89
585.969	14545.89
586.329	14571.65
586.688	14589.05
587.048	14617.07
587.408	14590.41
587.768	14680.8
588.127	14600.12
588.487	14595.15
588.846	14618.2
589.206	14571.2
589.565	14669.5
589.925	14632.21
590.284	14685.55
590.643	14744.98
591.003	14707.24
591.362	14738.43
591.721	14674.47
592.08	14756.73
592.44	14723.74
592.799	14736.17
593.158	14804.86
593.517	14758.54
593.876	14735.94
594.235	14736.84
594.593	14816.39
594.952	14837.86
595.311	14829.72
595.67	14778.88
596.029	14843.73
596.387	14833.79
596.746	14948.59
597.104	14813.23
597.463	14833.34
597.822	14845.32
598.18	14850.74
598.538	14894.13
598.897	14935.26
599.255	14685.77
599.613	14984.07
599.972	14906.56
600.33	14941.36
600.688	14835.15
601.046	14902.94
601.404	15004.86
601.762	15010.06
602.12	15018.64
602.478	14986.78
602.836	15036.72
603.194	15026.33
603.552	15036.5
603.91	14950.17
604.268	15076.72
604.625	14952.66
604.983	15058.42
605.341	15006.22
605.698	15101.35
606.056	15090.73
606.413	15072.43
606.771	15205.08
607.128	15251.63
607.485	15039.21
607.843	15201.69
608.2	15217.51
608.557	15331.4
608.914	15142.26
609.272	15297.06
609.629	15280.11
609.986	15314
610.343	15284.17
610.7	15428.8
611.057	15356.49
611.414	15299.09
611.771	15349.03
612.127	15443.49
612.484	15419.09
612.841	15469.71
613.198	15402.14
613.554	15458.18
613.911	15482.36
614.267	15446.66
614.624	15473.77
614.98	15530.95
615.337	15597.16
615.693	15553.77
616.05	15603.04
616.406	15651.4
616.762	15589.93
617.118	15641.68
617.475	15744.5
617.831	15701.34
618.187	15683.49
618.543	15727.55
618.899	15720.32
619.255	15755.57
619.611	15711.06
619.967	15849.36
620.323	15833.99
620.678	15746.99
621.034	15732.3
621.39	15725.97
621.746	15701.79
622.101	15996.7
622.457	15812.3
622.812	15920.77
623.168	15888.9
623.523	15911.05
623.879	16020.65
624.234	15872.18
624.589	15891.16
624.945	15963.7
625.3	15961.67
625.655	15910.37
626.01	16027.43
626.365	16026.98
626.72	16024.04
627.075	15991.73
627.43	16003.93
627.785	16011.16
628.14	16048.22
628.495	16070.37
628.85	16062.46
629.205	15999.18
629.559	16068.79
629.914	16041.22
630.269	16109.01
630.623	16079.41
630.978	16083.93
631.332	16188.78
631.687	16107.2
632.041	16154.21
632.396	16156.92
632.75	16095.45
633.104	16064.27
633.459	16058.62
633.813	16127.99
634.167	16089.35
634.521	16092.06
634.875	16175.45
635.229	16141.1
635.583	16021.1
635.937	16165.06
636.291	16075.11
636.645	16105.17
636.999	16121.89
637.352	16147.65
637.706	16118.05
638.06	16209.8
638.413	16082.57
638.767	16106.53
639.121	16187.88
639.474	16069.46
639.828	16064.49
640.181	16163.47
640.534	16197.6
640.888	16176.35
641.241	16069.46
641.594	16083.7
641.947	16195.56
642.301	16227.43
642.654	16209.8
643.007	16151.27
643.36	16241.89
643.713	16131.16
644.066	16280.31
644.419	16193.98
644.771	16120.99
645.124	15976.36
645.477	15965.51
645.83	15876.48
646.182	15778.62
646.535	15711.96
646.888	15842.13
647.24	15859.98
647.593	15994.21
647.945	15952.18
648.298	15745.86
648.65	15840.77
649.002	15762.35
649.355	15915.57
649.707	15808.23
650.059	15952.41
650.411	16156.02
650.763	16211.16
651.115	16335.9
651.467	16302.9
651.819	16369.57
652.171	16391.04
652.523	16296.8
652.875	16357.37
653.227	16283.24
653.578	16415.44
653.93	16450.47
654.282	16367.99
654.633	16317.37
654.985	16327.31
655.337	16415.67
655.688	16420.64
656.039	16506.06
656.391	16399.4
656.742	16463.8
657.094	16343.81
657.445	16506.74
657.796	16435.56
658.147	16491.37
658.498	16465.39
658.849	16544.48
659.2	16539.28
659.551	16485.72
659.902	16517.14
660.253	16643.91
660.604	16666.74
660.955	16479.85
661.306	16527.31
661.656	16455.67
662.007	16543.58
662.358	16641.88
662.708	16649.34
663.059	16523.24
663.409	16497.48
663.76	16583.8
664.11	16506.74
664.461	16536.8
664.811	16560.53
665.161	16535.44
665.511	16473.97
665.862	16589.22
666.212	16569.34
666.562	16589.45
666.912	16582.67
667.262	16551.03
667.612	16541.77
667.962	16512.84
668.312	16506.52
668.662	16581.54
669.011	16472.39
669.361	16471.49
669.711	16468.32
670.06	16370.93
670.41	16326.18
670.76	16384.71
671.109	16402.56
671.459	16378.83
671.808	16312.62
672.157	16424.48
672.507	16386.74
672.856	16243.92
673.205	16192.17
673.554	16294.54
673.904	16294.32
674.253	16289.57
674.602	16199.63
674.951	15832.18
675.3	15885.51
675.649	16135.45
675.998	16004.38
676.346	16087.77
676.695	16091.16
677.044	16070.82
677.393	15951.05
677.741	15948.34
678.09	15956.47
678.438	15914.21
678.787	15986.98
679.135	15983.59
679.484	15820.88
679.832	15872.86
680.181	15752.64
680.529	15859.53
680.877	15738.85
681.225	15707.67
681.573	15813.2
681.922	15620.21
682.27	15600.55
682.618	15589.93
682.966	15551.74
683.314	15487.11
683.661	15504.28
684.009	15421.35
684.357	15366.43
684.705	15412.08
685.053	15365.3
685.4	15360.1
685.748	15289.15
686.095	15222.93
686.443	15208.02
686.79	15252.99
687.138	15224.74
687.485	15196.72
687.832	15239.88
688.18	15229.26
688.527	15163.27
688.874	15089.15
689.221	15122.14
689.568	15037.63
689.915	15022.03
690.262	14980.45
690.609	15019.55
690.956	14909.49
691.303	14903.39
691.65	14769.16
691.997	14906.33
692.344	14755.83
692.69	14803.74
693.037	14827.24
693.383	14714.7
693.73	14743.17
694.077	14704.53
694.423	14733.68
694.769	14636.51
695.116	14674.92
695.462	14618.88
695.808	14547.47
696.155	14587.7
696.501	14523.74
696.847	14523.52
697.193	14406.91
697.539	14553.57
697.885	14416.17
698.231	14333.24
698.577	14405.1
698.923	14417.53
699.269	14330.98
699.614	14343.18
699.96	14305.44
700.306	14330.3
700.651	14187.71
700.997	14183.19
701.342	14230.64
701.688	14191.55
702.033	14149.29
702.379	14145.67
702.724	14115.17
703.069	14103.64
703.415	14147.03
703.76	14068.39
704.105	14091.66
704.45	14026.81
704.795	13981.61
705.14	13985.68
705.485	13905
705.83	13857.32
706.175	13924.89
706.52	13848.73
706.865	13901.61
707.209	13866.81
707.554	13890.76
707.899	13831.33
708.243	13841.05
708.588	13841.73
708.932	13678.57
709.277	13738.23
709.621	13746.14
709.966	13740.26
710.31	13741.16
710.654	13733.03
710.998	13750.2
711.342	13691.67
711.687	13534.39
712.031	13676.99
712.375	13624.56
712.719	13627.49
713.063	13682.18
713.407	13657.1
713.75	13627.95
714.094	13615.74
714.438	13578
714.782	13627.04
715.125	13593.82
715.469	13597.67
715.812	13453.26
716.156	13437.22
716.499	13568.97
716.843	13520.38
717.186	13361.74
717.53	13525.35
717.873	13538.01
718.216	13440.16
718.559	13393.15
718.902	13418.69
719.246	13354.96
719.589	13395.41
719.932	13290.33
720.275	13351.12
720.617	13318.8
720.96	13362.42
721.303	13333.94
721.646	13334.85
721.989	13311.34
722.331	13405.35
722.674	13316.99
723.016	13291.23
723.359	13306.6
723.701	13296.2
724.044	13203.55
724.386	13182.76
724.729	13274.74
725.071	13232.48
725.413	13272.93
725.755	13202.65
726.097	13170.11
726.439	13098.47
726.782	13145.7
727.124	13258.92
727.465	13193.83
727.807	13186.83
728.149	13135.3
728.491	13082.88
728.833	13160.39
729.175	13116.32
729.516	13074.97
729.858	13112.93
730.199	13164.23
730.541	13133.04
730.882	13069.32
731.224	13191.12
731.565	13077.68
731.906	13125.14
732.248	13150.22
732.589	13110.67
732.93	13104.57
733.271	13066.61
733.612	13196.55
733.953	13110.67
734.294	13181.18
734.635	13165.13
734.976	13160.84
735.317	13198.81
735.658	13137.56
735.999	13075.64
736.339	13124.01
736.68	13187.96
737.021	13204.91
737.361	13225.47
737.702	13234.51
738.042	13273.15
738.383	13267.73
738.723	13312.47
739.063	13259.14
739.404	13354.06
739.744	13289.88
740.084	13317.67
740.424	13341.85
740.764	13298.69
741.104	13451
741.444	13427.73
741.784	13370.78
742.124	13416.43
742.464	13409.42
742.804	13386.82
743.143	13489.87
743.483	13458.91
743.823	13467.95
744.162	13531.68
744.502	13499.81
744.841	13486.48
745.181	13542.3
745.52	13535.52
745.86	13672.24
746.199	13648.74
746.538	13585.24
746.877	13719.47
747.216	13733.93
747.556	13743.2
747.895	13764.21
748.234	13726.48
748.573	13728.06
748.911	13744.33
749.25	13842.18
749.589	13742.29
749.928	13832.24
750.267	13907.26
750.605	13811.44
750.944	13923.98
751.283	13924.44
751.621	13971.89
751.96	13963.76
752.298	13978.45
752.636	13995.39
752.975	13896.19
753.313	13990.65
753.651	14047.37
753.989	13946.81
754.327	14052.34
754.666	14031.55
755.004	14110.19
755.342	14245.56
755.679	14107.93
756.017	14136.86
