Data from blue_surface_keyboard_FLMS001491_036.txt Node
Date: Tue Feb 07 11:13:00 GMT 2017
User: dcchb
Spectrometer: FLMS00149
Trigger mode: 0
Integration Time (sec): 2.000000E-2
Scans to average: 10
Electric dark correction enabled: true
Nonlinearity correction enabled: false
Boxcar width: 0
XAxis mode: Wavelengths
Number of Pixels in Spectrum: 2048
>>>>>Begin Spectral Data<<<<<
341.393	-21.67
341.776	-21.67
342.16	-21.67
342.543	-55.11
342.927	-62.34
343.31	-62.79
343.693	-86.98
344.077	-54.43
344.46	-51.72
344.843	-41.33
345.226	-37.94
345.61	-32.97
345.993	-14.43
346.376	-18.28
346.759	-7.66
347.142	20.59
347.525	47.03
347.908	60.59
348.291	84.55
348.674	94.49
349.057	101.27
349.44	124.32
349.823	149.4
350.206	159.12
350.588	193.92
350.971	178.1
351.354	209.97
351.737	208.38
352.119	232.11
352.502	246.12
352.884	259.68
353.267	248.16
353.65	291.32
354.032	289.06
354.414	294.48
354.797	270.08
355.179	307.36
355.562	275.95
355.944	307.59
356.326	310.53
356.709	335.16
357.091	289.29
357.473	311.43
357.855	319.12
358.238	303.52
358.62	327.25
359.002	318.66
359.384	325.22
359.766	321.6
360.148	303.3
360.53	325.22
360.912	331.77
361.294	322.51
361.676	308.49
362.057	284.77
362.439	303.75
362.821	307.59
363.203	289.29
363.584	317.53
363.966	322.28
364.348	315.95
364.729	291.09
365.111	273.02
365.493	289.51
365.874	292.9
366.256	280.47
366.637	304.88
367.019	296.07
367.4	293.81
367.781	303.3
368.163	271.89
368.544	295.61
368.925	314.6
369.306	292.22
369.688	280.02
370.069	311.43
370.45	287.03
370.831	284.99
371.212	279.79
371.593	273.92
371.974	272.79
372.355	284.54
372.736	283.41
373.117	285.44
373.498	287.48
373.879	282.73
374.26	284.77
374.641	280.02
375.021	298.78
375.402	275.28
375.783	284.99
376.163	307.14
376.544	284.54
376.925	311.43
377.305	281.15
377.686	302.85
378.066	289.96
378.447	287.48
378.827	287.25
379.208	307.82
379.588	301.04
379.968	301.49
380.349	296.07
380.729	283.18
381.109	297.87
381.489	279.34
381.87	312.56
382.25	298.1
382.63	300.81
383.01	300.81
383.39	303.07
383.77	295.61
384.15	310.98
384.53	305.33
384.91	298.1
385.29	316.18
385.67	309.4
386.049	308.04
386.429	313.47
386.809	306.01
387.189	297.65
387.568	300.36
387.948	298.33
388.328	287.25
388.707	339.91
389.087	311.21
389.466	295.16
389.846	321.83
390.225	307.82
390.605	323.86
390.984	313.01
391.363	318.21
391.743	318.66
392.122	328.83
392.501	320.7
392.881	329.51
393.26	317.08
393.639	345.1
394.018	323.64
394.397	321.83
394.776	328.16
395.155	323.86
395.534	341.71
395.913	330.87
396.292	325.9
396.671	320.02
397.05	327.93
397.429	327.03
397.808	332.9
398.186	316.4
398.565	328.83
398.944	341.04
399.323	335.16
399.701	330.87
400.08	322.51
400.458	359.79
400.837	338.32
401.215	336.74
401.594	320.92
401.972	352.11
402.351	340.81
402.729	348.72
403.107	339.68
403.486	339.68
403.864	363.41
404.242	373.35
404.62	353.69
404.999	334.93
405.377	338.32
405.755	351.43
406.133	351.43
406.511	364.99
406.889	365.67
407.267	364.76
407.645	358.21
408.023	346.01
408.401	362.05
408.779	359.11
409.156	350.08
409.534	355.95
409.912	384.65
410.29	364.99
410.667	363.86
411.045	383.97
411.422	378.1
411.8	375.39
412.178	364.54
412.555	381.71
412.933	376.06
413.31	360.24
413.687	373.58
414.065	373.35
414.442	368.15
414.819	370.64
415.197	413.35
415.574	395.72
415.951	389.17
416.328	407.48
416.705	372.45
417.082	396.4
417.46	395.5
417.837	419.23
418.214	397.98
418.591	381.04
418.967	411.54
419.344	399.79
419.721	389.62
420.098	408.38
420.475	399.57
420.852	383.3
421.228	399.34
421.605	397.98
421.982	424.42
422.358	405.89
422.735	411.99
423.111	421.49
423.488	409.28
423.864	420.36
424.241	405.89
424.617	386.01
424.994	419.68
425.37	434.37
425.746	399.79
426.123	393.01
426.499	426.46
426.875	427.59
427.251	417.64
427.627	414.03
428.003	435.27
428.379	435.72
428.756	426.91
429.132	432.56
429.507	447.02
429.883	440.92
430.259	435.72
430.635	442.28
431.011	432.56
431.387	459.45
431.763	462.16
432.138	463.07
432.514	448.6
432.89	473.91
433.265	468.49
433.641	483.63
434.016	481.15
434.392	483.63
434.767	477.08
435.143	472.11
435.518	456.29
435.894	471.65
436.269	485.44
436.644	470.52
437.02	480.69
437.395	482.28
437.77	472.78
438.145	482.73
438.52	498.55
438.895	506.46
439.271	522.73
439.646	494.7
440.021	510.3
440.395	511.43
440.77	493.12
441.145	511.65
441.52	505.33
441.895	501.03
442.27	514.37
442.645	520.92
443.019	522.73
443.394	502.61
443.769	535.83
444.143	531.99
444.518	512.78
444.892	513.69
445.267	533.35
445.641	521.14
446.016	533.35
446.39	524.53
446.764	538.77
447.139	525.89
447.513	559.34
447.887	550.75
448.262	555.72
448.636	533.8
449.01	564.76
449.384	543.74
449.758	552.1
450.132	551.2
450.506	573.12
450.88	556.62
451.254	553.69
451.628	570.86
452.002	588.49
452.376	582.84
452.75	577.87
453.123	559.11
453.497	594.36
453.871	596.4
454.244	619.9
454.618	580.58
454.992	600.69
455.365	606.79
455.739	589.84
456.112	587.36
456.486	621.48
456.859	607.7
457.232	603.4
457.606	612.22
457.979	609.05
458.352	606.57
458.725	624.19
459.099	636.85
459.472	642.05
459.845	628.26
460.218	676.39
460.591	662.38
460.964	641.14
461.337	661.71
461.71	656.96
462.083	662.16
462.456	638.43
462.829	647.92
463.201	672.33
463.574	689.73
463.947	678.65
464.32	700.8
464.692	701.25
465.065	680.91
465.438	716.17
465.81	708.94
466.183	700.57
466.555	738.09
466.928	700.8
467.3	736.05
467.672	732.89
468.045	743.51
468.417	713.46
468.789	734.92
469.161	722.5
469.534	772.66
469.906	753
470.278	767.24
470.65	757.75
471.022	781.93
471.394	781.25
471.766	769.05
472.138	778.76
472.51	791.42
472.882	818.76
473.253	803.17
473.625	808.59
473.997	831.19
474.369	829.16
474.74	834.58
475.112	860.12
475.484	858.54
475.855	866.67
476.227	881.59
476.598	877.29
476.97	858.08
477.341	873.45
477.713	895.37
478.084	900.34
478.455	921.13
478.827	914.35
479.198	951.87
479.569	937.4
479.94	934.69
480.311	982.15
480.682	978.31
481.053	973.11
481.424	983.05
481.795	988.93
482.166	1015.82
482.537	1011.75
482.908	1042.03
483.279	1050.4
483.65	1058.08
484.021	1060.34
484.391	1068.25
484.762	1051.53
485.133	1069.38
485.503	1096.95
485.874	1082.49
486.244	1072.32
486.615	1118.87
486.985	1119.09
487.356	1144.86
487.726	1155.25
488.097	1141.24
488.467	1168.81
488.837	1148.7
489.207	1166.55
489.578	1171.52
489.948	1166.33
490.318	1194.35
490.688	1208.36
491.058	1207.91
491.428	1205.19
491.798	1193.9
492.168	1203.84
492.538	1239.54
492.908	1246.78
493.278	1247
493.648	1262.59
494.017	1255.36
494.387	1264.85
494.757	1301.46
495.126	1265.53
495.496	1256.27
495.866	1288.36
496.235	1284.97
496.605	1275.93
496.974	1294.68
497.344	1295.81
497.713	1318.41
498.082	1305.76
498.452	1319.54
498.821	1309.15
499.19	1321.58
499.559	1352.31
499.928	1299.88
500.298	1340.11
500.667	1364.51
501.036	1334.68
501.405	1347.56
501.774	1354.12
502.143	1325.64
502.512	1403.16
502.88	1354.12
503.249	1360.22
503.618	1371.29
503.987	1355.47
504.356	1357.73
504.724	1376.04
505.093	1367.22
505.462	1388.92
505.83	1378.07
506.199	1372.42
506.567	1403.61
506.936	1392.31
507.304	1380.33
507.672	1403.16
508.041	1404.96
508.409	1405.19
508.777	1421.46
509.145	1405.19
509.514	1416.26
509.882	1423.27
510.25	1410.16
510.618	1430.95
510.986	1431.4
511.354	1418.52
511.722	1426.66
512.09	1484.73
512.458	1426.66
512.826	1454.23
513.193	1447.67
513.561	1439.99
513.929	1471.4
514.297	1465.07
514.664	1462.36
515.032	1455.58
515.4	1479.54
515.767	1458.07
516.135	1495.58
516.502	1448.13
516.869	1477.73
517.237	1495.36
517.604	1463.72
517.972	1499.2
518.339	1518.63
518.706	1493.55
519.073	1504.17
519.44	1500.33
519.808	1518.41
520.175	1494.23
520.542	1508.24
520.909	1522.7
521.276	1486.09
521.643	1507.56
522.009	1523.15
522.376	1510.72
522.743	1526.09
523.11	1532.64
523.477	1523.6
523.843	1526.09
524.21	1536.94
524.577	1556.82
524.943	1542.81
525.31	1580.78
525.676	1550.5
526.043	1555.02
526.409	1569.03
526.776	1564.28
527.142	1560.21
527.508	1583.49
527.874	1570.61
528.241	1596.37
528.607	1575.81
528.973	1621.91
529.339	1575.13
529.705	1596.6
530.071	1611.74
530.437	1589.36
530.803	1618.06
531.169	1616.26
531.535	1614.68
531.901	1613.09
532.267	1598.4
532.632	1602.92
532.998	1623.94
533.364	1596.82
533.73	1621.68
534.095	1651.96
534.461	1614.45
534.826	1641.34
535.192	1632.75
535.557	1622.58
535.923	1641.57
536.288	1642.92
536.653	1640.21
537.019	1622.36
537.384	1634.34
537.749	1651.96
538.114	1625.07
538.479	1642.24
538.845	1633.66
539.21	1633.43
539.575	1630.27
539.94	1652.41
540.305	1654.9
540.67	1668.23
541.034	1647.89
541.399	1669.81
541.764	1646.31
542.129	1652.87
542.494	1679.08
542.858	1644.5
543.223	1668.01
543.587	1685.41
543.952	1696.48
544.316	1642.24
544.681	1664.17
545.045	1660.78
545.41	1682.7
545.774	1654.67
546.138	1673.2
546.503	1644.5
546.867	1679.31
547.231	1670.72
547.595	1711.85
547.959	1676.59
548.324	1677.5
548.688	1699.87
549.052	1689.93
549.416	1684.5
549.779	1691.96
550.143	1665.52
550.507	1691.96
550.871	1701.68
551.235	1671.17
551.599	1686.76
551.962	1725.63
552.326	1664.62
552.689	1693.54
553.053	1695.35
553.417	1694.22
553.78	1717.5
554.143	1701
554.507	1682.47
554.87	1704.62
555.234	1700.55
555.597	1726.54
555.96	1697.61
556.323	1679.08
556.686	1695.12
557.05	1695.12
557.413	1701
557.776	1710.94
558.139	1707.1
558.502	1710.49
558.865	1708.23
559.228	1754.78
559.59	1700.55
559.953	1708.01
560.316	1713.66
560.679	1757.27
561.041	1760.89
561.404	1728.57
561.767	1752.75
562.129	1742.13
562.492	1765.86
562.854	1766.08
563.217	1736.48
563.579	1754.78
563.941	1765.63
564.304	1786.42
564.666	1760.21
565.028	1762.02
565.39	1769.25
565.753	1754.11
566.115	1766.08
566.477	1759.53
566.839	1809.25
567.201	1809.02
567.563	1807.89
567.925	1806.31
568.287	1813.31
568.648	1781
569.01	1808.79
569.372	1807.89
569.734	1797.95
570.095	1832.07
570.457	1809.47
570.819	1806.31
571.18	1837.49
571.542	1856.02
571.903	1827.78
572.265	1843.82
572.626	1844.95
572.987	1824.61
573.349	1869.36
573.71	1856.48
574.071	1826.87
574.432	1854.67
574.794	1840.88
575.155	1847.21
575.516	1860.32
575.877	1851.96
576.238	1844.73
576.599	1879.98
576.96	1883.14
577.32	1863.93
577.681	1857.38
578.042	1842.47
578.403	1861.9
578.763	1872.75
579.124	1858.51
579.485	1872.52
579.845	1863.71
580.206	1896.48
580.566	1889.47
580.927	1869.81
581.287	1901.22
581.648	1898.06
582.008	1891.05
582.368	1908
582.728	1892.63
583.089	1905.51
583.449	1888.57
583.809	1893.99
584.169	1895.35
584.529	1856.93
584.889	1911.39
585.249	1917.49
585.609	1908.23
585.969	1897.38
586.329	1926.98
586.688	1902.8
587.048	1884.95
587.408	1910.71
587.768	1901
588.127	1915.01
588.487	1889.02
588.846	1915.68
589.206	1904.38
589.565	1899.64
589.925	1924.05
590.284	1886.98
590.643	1903.26
591.003	1898.28
591.362	1916.36
591.721	1931.28
592.08	1908.9
592.44	1943.93
592.799	1922.92
593.158	1919.53
593.517	1916.14
593.876	1904.16
594.235	1908.23
594.593	1917.72
594.952	1940.09
595.311	1923.59
595.67	1950.26
596.029	1935.57
596.387	1935.34
596.746	1916.59
597.104	1920.2
597.463	1923.37
597.822	1954.55
598.18	1959.98
598.538	1919.53
598.897	1933.99
599.255	1931.28
599.613	1947.55
599.972	1945.51
600.33	1934.44
600.688	1959.07
601.046	1973.54
601.404	1984.83
601.762	1963.14
602.12	1934.89
602.478	1959.98
602.836	1959.98
603.194	1977.38
603.552	1989.58
603.91	1968.79
604.268	1955.68
604.625	1953.2
604.983	1964.27
605.341	1974.44
605.698	2004.95
606.056	1980.09
606.413	1984.83
606.771	1976.25
607.128	1990.26
607.485	1999.52
607.843	1994.78
608.2	2023.48
608.557	1988
608.914	2008.11
609.272	1992.52
609.629	2026.19
609.986	2021.9
610.343	1996.36
610.7	1998.62
611.057	2025.74
611.414	2030.48
611.771	2013.76
612.127	2009.47
612.484	2025.06
612.841	2022.57
613.198	2015.57
613.554	2060.31
613.911	2070.03
614.267	2002.24
614.624	2030.03
614.98	2049.47
615.337	2055.34
615.693	2054.21
616.05	2061.67
616.406	2043.14
616.762	2044.95
617.118	2077.49
617.475	2075.68
617.831	2060.31
618.187	2063.93
618.543	2065.06
618.899	2078.39
619.255	2076.13
619.611	2059.86
619.967	2092.18
620.323	2096.24
620.678	2072.97
621.034	2080.2
621.39	2066.41
621.746	2073.19
622.101	2096.02
622.457	2066.41
622.812	2088.33
623.168	2093.76
623.523	2079.75
623.879	2102.12
624.234	2091.27
624.589	2101.89
624.945	2102.57
625.3	2128.33
625.655	2099.41
626.01	2118.39
626.365	2139.41
626.72	2117.94
627.075	2124.27
627.43	2147.09
627.785	2118.62
628.14	2100.09
628.495	2119.29
628.85	2128.56
629.205	2144.6
629.559	2141.21
629.914	2167.2
630.269	2159.52
630.623	2129.01
630.978	2163.59
631.332	2185.51
631.687	2166.98
632.041	2180.54
632.396	2164.94
632.75	2153.19
633.104	2173.98
633.459	2171.95
633.813	2140.08
634.167	2169.24
634.521	2176.69
634.875	2185.28
635.229	2192.96
635.583	2169.24
635.937	2200.42
636.291	2199.97
636.645	2205.17
636.999	2218.95
637.352	2211.27
637.706	2225.28
638.06	2171.72
638.413	2219.63
638.767	2215.56
639.121	2238.39
639.474	2214.21
639.828	2193.64
640.181	2241.1
640.534	2237.48
640.888	2229.35
641.241	2211.27
641.594	2210.59
641.947	2245.62
642.301	2236.13
642.654	2237.71
643.007	2286.75
643.36	2241.55
643.713	2281.32
644.066	2317.48
644.419	2274.09
644.771	2277.03
645.124	2247.2
645.477	2275
645.83	2250.14
646.182	2300.31
646.535	2244.71
646.888	2240.2
647.24	2269.35
647.593	2280.87
647.945	2286.52
648.298	2302.11
648.65	2309.12
649.002	2301.44
649.355	2344.6
649.707	2385.5
650.059	2317.26
650.411	2351.15
650.763	2411.72
651.115	2418.5
651.467	2413.3
651.819	2401.32
652.171	2442
652.523	2439.96
652.875	2418.27
653.227	2443.81
653.578	2485.61
653.93	2459.85
654.282	2446.97
654.633	2462.79
654.985	2464.37
655.337	2486.74
655.688	2519.51
656.039	2507.31
656.391	2522.22
656.742	2566.74
657.094	2518.83
657.445	2548.66
657.796	2574.88
658.147	2566.97
658.498	2569.9
658.849	2563.12
659.2	2631.6
659.551	2578.94
659.902	2579.85
660.253	2650.35
660.604	2650.13
660.955	2633.63
661.306	2666.17
661.656	2650.81
662.007	2657.59
662.358	2698.94
662.708	2700.97
663.059	2728.09
663.409	2714.31
663.76	2721.31
664.11	2763.12
664.461	2758.6
664.811	2776.68
665.161	2765.38
665.511	2780.52
665.862	2798.82
666.212	2832.95
666.562	2834.76
666.912	2821.2
667.262	2879.5
667.612	2841.99
667.962	2836.34
668.312	2860.74
668.662	2910.23
669.011	2893.51
669.361	2885.6
669.711	2933.74
670.06	2958.82
670.41	2916.11
670.76	2933.28
671.109	2984.36
671.459	2992.94
671.808	2987.29
672.157	3009.21
672.507	3010.34
672.856	3011.93
673.205	3009.44
673.554	3011.02
673.904	3063.22
674.253	3071.59
674.602	3039.72
674.951	3031.36
675.3	3057.57
675.649	3095.77
675.998	3113.84
676.346	3156.56
676.695	3122.43
677.044	3136.22
677.393	3140.28
677.741	3147.74
678.09	3138.25
678.438	3137.12
678.787	3167.63
679.135	3199.49
679.484	3173.05
679.832	3209.89
680.181	3192.03
680.529	3207.85
680.877	3228.19
681.225	3198.36
681.573	3283.78
681.922	3232.71
682.27	3259.83
682.618	3278.36
682.966	3265.03
683.314	3279.49
683.661	3292.37
684.009	3248.3
684.357	3310.22
684.705	3281.07
685.053	3324.23
685.4	3284.01
685.748	3316.33
686.095	3288.53
686.443	3302.54
686.79	3340.28
687.138	3305.48
687.485	3300.51
687.832	3369.21
688.18	3330.11
688.527	3318.59
688.874	3342.77
689.221	3361.3
689.568	3335.08
689.915	3385.7
690.262	3351.8
690.609	3331.24
690.956	3381.41
691.303	3415.53
691.65	3334.63
691.997	3397
692.344	3394.29
692.69	3400.62
693.037	3382.09
693.383	3385.25
693.73	3344.12
694.077	3391.13
694.423	3373.05
694.769	3340.73
695.116	3403.1
695.462	3376.66
695.808	3324.46
696.155	3370.34
696.501	3385.48
696.847	3372.14
697.193	3393.61
697.539	3335.99
697.885	3354.52
698.231	3379.15
698.577	3340.28
698.923	3318.36
699.269	3339.38
699.614	3328.98
699.96	3340.05
700.306	3326.04
700.651	3352.71
700.997	3289.89
701.342	3322.43
701.688	3331.92
702.033	3308.87
702.379	3277
702.724	3319.49
703.069	3308.42
703.415	3285.82
703.76	3277.46
704.105	3292.37
704.45	3286.95
704.795	3230.9
705.14	3300.05
705.485	3252.37
705.83	3233.84
706.175	3267.51
706.52	3265.03
706.865	3270.45
707.209	3258.7
707.554	3247.4
707.899	3270.22
708.243	3247.63
708.588	3267.74
708.932	3195.88
709.277	3228.87
709.621	3178.7
709.966	3230.9
710.31	3222.32
710.654	3198.59
710.998	3228.64
711.342	3229.32
711.687	3216.89
712.031	3204.69
712.375	3179.15
712.719	3233.84
713.063	3213.73
713.407	3203.33
713.75	3219.83
714.094	3218.93
714.438	3200.85
714.782	3213.28
715.125	3166.95
715.469	3175.76
715.812	3171.24
716.156	3173.28
716.499	3156.33
716.843	3195.65
717.186	3194.07
717.53	3225.93
717.873	3193.39
718.216	3145.71
718.559	3173.28
718.902	3154.07
719.246	3168.53
719.589	3194.52
719.932	3125.37
720.275	3197.01
720.617	3168.31
720.96	3193.39
721.303	3203.11
721.646	3167.18
721.989	3163.11
722.331	3160.4
722.674	3166.05
723.016	3160.85
723.359	3175.99
723.701	3169.21
724.044	3172.83
724.386	3180.96
724.729	3161.08
725.071	3185.48
725.413	3195.88
725.755	3187.74
726.097	3225.93
726.439	3157.01
726.782	3198.81
727.124	3179.61
727.465	3197.91
727.807	3196.33
728.149	3200.85
728.491	3196.1
728.833	3187.52
729.175	3215.08
729.516	3191.36
729.858	3170.34
730.199	3199.72
730.541	3229.32
730.882	3181.64
731.224	3214.86
731.565	3187.52
731.906	3232.03
732.248	3181.87
732.589	3206.72
732.93	3231.13
733.271	3194.07
733.612	3252.15
733.953	3245.14
734.294	3202.88
734.635	3210.11
734.976	3241.3
735.317	3232.26
735.658	3234.29
735.999	3207.18
736.339	3232.26
736.68	3255.76
737.021	3241.75
737.361	3240.17
737.702	3288.98
738.042	3249.21
738.383	3265.48
738.723	3305.48
739.063	3278.81
739.404	3297.34
739.744	3291.24
740.084	3317.23
740.424	3320.17
740.764	3317.91
741.104	3329.88
741.444	3297.57
741.784	3299.15
742.124	3335.99
742.464	3357
742.804	3375.31
743.143	3357
743.483	3398.58
743.823	3369.43
744.162	3366.95
744.502	3396.78
744.841	3454.63
745.181	3429.77
745.52	3408.53
745.86	3448.53
746.199	3403.55
746.538	3463.21
746.877	3474.97
747.216	3507.05
747.556	3496.43
747.895	3521.07
748.234	3524.46
748.573	3531.69
748.911	3569.2
749.25	3625.02
749.589	3554.96
749.928	3596.09
750.267	3614.17
750.605	3621.4
750.944	3677.22
751.283	3651.91
751.621	3650.1
751.96	3679.48
752.298	3721.29
752.636	3756.31
752.975	3716.99
753.313	3769.19
753.651	3839.02
753.989	3795.63
754.327	3826.14
754.666	3867.05
755.004	3884.9
755.342	3917.67
755.679	3914.73
756.017	3928.96
756.355	3924.22
756.693	3978.91
757.031	3973.03
757.368	3978
757.706	4007.61
758.044	4020.26
758.381	4044.89
758.719	4048.51
759.056	4066.59
759.394	4113.37
759.731	4043.09
760.068	4079.02
760.405	4139.58
760.743	4145.46
761.08	4159.01
761.417	4160.82
761.754	4157.66
762.091	4177.09
762.428	4194.04
762.765	4159.24
763.102	4227.04
763.438	4209.86
763.775	4212.57
764.112	4244.89
764.449	4252.35
764.785	4293.7
765.122	4258.67
765.458	4253.7
765.795	4253.93
766.131	4288.05
766.467	4273.14
766.804	4256.87
767.14	4249.41
767.476	4276.75
767.812	4280.59
768.148	4237.43
768.485	4263.42
768.821	4295.96
769.157	4239.46
769.492	4296.41
769.828	4283.98
770.164	4252.8
770.5	4255.06
770.836	4258.9
771.171	4272.01
771.507	4245.11
771.842	4230.43
772.178	4269.07
