Data from blue_surface_keyboard_FLMS001491_093.txt Node
Date: Tue Feb 07 11:13:54 GMT 2017
User: dcchb
Spectrometer: FLMS00149
Trigger mode: 0
Integration Time (sec): 2.000000E-2
Scans to average: 10
Electric dark correction enabled: true
Nonlinearity correction enabled: false
Boxcar width: 0
XAxis mode: Wavelengths
Number of Pixels in Spectrum: 2048
>>>>>Begin Spectral Data<<<<<
341.393	-29.45
341.776	-29.45
342.16	-29.45
342.543	-65.61
342.927	-63.12
343.31	-63.8
343.693	-74.64
344.077	-71.48
344.46	-59.96
344.843	-45.72
345.226	-43.46
345.61	-19.28
345.993	-35.55
346.376	9.65
346.759	16.88
347.142	28.4
347.525	32.02
347.908	80.38
348.291	66.59
348.674	93.03
349.057	86.93
349.44	136.87
349.823	149.08
350.206	154.73
350.588	189.3
350.971	175.74
351.354	203.77
351.737	209.42
352.119	202.86
352.502	229.3
352.884	253.71
353.267	253.03
353.65	268.4
354.032	296.42
354.414	288.51
354.797	277.66
355.179	288.74
355.562	275.85
355.944	303.42
356.326	308.85
356.709	320.15
357.091	316.76
357.473	331.9
357.855	315.63
358.238	319.47
358.62	301.84
359.002	310.43
359.384	315.4
359.766	317.44
360.148	298.45
360.53	295.51
360.912	307.49
361.294	301.84
361.676	311.33
362.057	301.62
362.439	315.18
362.821	316.08
363.203	305.68
363.584	307.72
363.966	291
364.348	302.75
364.729	297.55
365.111	294.61
365.493	306.59
365.874	296.87
366.256	291.45
366.637	292.8
367.019	267.27
367.4	269.53
367.781	273.37
368.163	279.47
368.544	307.04
368.925	276.53
369.306	276.08
369.688	281.73
370.069	289.64
370.45	287.38
370.831	285.8
371.212	290.32
371.593	282.86
371.974	270.88
372.355	291.22
372.736	290.77
373.117	313.82
373.498	282.41
373.879	277.21
374.26	294.84
374.641	269.3
375.021	275.85
375.402	264.56
375.783	277.21
376.163	275.63
376.544	297.32
376.925	300.49
377.305	268.85
377.686	282.18
378.066	291
378.447	274.72
378.827	291.45
379.208	293.71
379.588	275.85
379.968	280.6
380.349	292.8
380.729	299.58
381.109	296.64
381.489	315.85
381.87	294.38
382.25	301.84
382.63	294.61
383.01	294.61
383.39	289.19
383.77	314.95
384.15	294.38
384.53	312.92
384.91	297.1
385.29	327.38
385.67	308.62
386.049	291.22
386.429	313.14
386.809	332.12
387.189	314.72
387.568	313.14
387.948	300.71
388.328	310.88
388.707	301.84
389.087	330.54
389.466	331.45
389.846	300.03
390.225	329.19
390.605	332.35
390.984	319.92
391.363	321.95
391.743	309.98
392.122	300.49
392.501	329.19
392.881	335.97
393.26	321.05
393.639	334.84
394.018	337.77
394.397	340.26
394.776	329.64
395.155	329.86
395.534	338.45
395.913	334.38
396.292	325.12
396.671	349.98
397.05	326.25
397.429	330.77
397.808	347.72
398.186	319.92
398.565	328.96
398.944	319.02
399.323	323.08
399.701	311.33
400.08	320.6
400.458	341.16
400.837	342.97
401.215	359.47
401.594	337.32
401.972	325.12
402.351	323.54
402.729	360.82
403.107	342.75
403.486	347.26
403.864	347.04
404.242	364.89
404.62	358.11
404.999	357.21
405.377	348.85
405.755	346.36
406.133	355.17
406.511	345.68
406.889	348.39
407.267	365.34
407.645	387.26
408.023	368.73
408.401	360.82
408.779	374.61
409.156	361.5
409.534	360.6
409.912	342.29
410.29	370.32
410.667	366.7
411.045	364.21
411.422	348.39
411.8	361.73
412.178	375.29
412.555	386.36
412.933	382.74
413.31	374.38
413.687	366.7
414.065	385
414.442	378.45
414.819	395.4
415.197	387.49
415.574	368.96
415.951	386.36
416.328	385.91
416.705	371.9
417.082	399.92
417.46	409.41
417.837	412.8
418.214	392.91
418.591	382.52
418.967	406.02
419.344	396.08
419.721	400.6
420.098	378.68
420.475	392.46
420.852	388.17
421.228	388.85
421.605	403.08
421.982	409.18
422.358	403.99
422.735	413.48
423.111	415.51
423.488	402.4
423.864	424.33
424.241	402.63
424.617	415.06
424.994	420.94
425.37	408.96
425.746	413.93
426.123	399.69
426.499	401.95
426.875	406.47
427.251	424.33
427.627	425.23
428.003	432.01
428.379	416.87
428.756	446.92
429.132	449.41
429.507	427.71
429.883	434.49
430.259	425
430.635	439.01
431.011	461.39
431.387	445.57
431.763	433.59
432.138	444.21
432.514	448.96
432.89	468.62
433.265	474.27
433.641	457.32
434.016	477.88
434.392	469.97
434.767	467.94
435.143	495.51
435.518	476.08
435.894	481.05
436.269	478.79
436.644	476.53
437.02	493.93
437.395	474.27
437.77	479.46
438.145	505.9
438.52	483.98
438.895	488.5
439.271	514.04
439.646	512.23
440.021	521.05
440.395	506.58
440.77	487.83
441.145	497.32
441.52	516.75
441.895	517.66
442.27	521.27
442.645	504.1
443.019	514.94
443.394	491.22
443.769	528.05
444.143	515.62
444.518	514.27
444.892	534.15
445.267	542.51
445.641	525.57
446.016	534.83
446.39	527.6
446.764	509.07
447.139	540.48
447.513	523.31
447.887	530.31
448.262	533.25
448.636	534.83
449.01	543.64
449.384	562.4
449.758	545.23
450.132	562.17
450.506	575.73
450.88	557.2
451.254	542.74
451.628	556.98
452.002	559.46
452.376	571.89
452.75	563.98
453.123	577.77
453.497	561.95
453.871	577.99
454.244	585.45
454.618	591.1
454.992	585
455.365	599.46
455.739	620.7
456.112	601.04
456.486	597.88
456.859	623.87
457.232	617.54
457.606	609.86
457.979	614.6
458.352	629.07
458.725	630.2
459.099	603.53
459.472	648.05
459.845	641.49
460.218	631.33
460.591	632.46
460.964	616.18
461.337	640.59
461.71	656.18
462.083	648.05
462.456	656.64
462.829	629.74
463.201	667.71
463.574	658.44
463.947	665.9
464.32	688.5
464.692	687.59
465.065	694.15
465.438	678.56
465.81	697.54
466.183	712.45
466.555	717.88
466.928	698.67
467.3	708.84
467.672	695.05
468.045	756.07
468.417	727.37
468.789	727.82
469.161	730.76
469.534	760.81
469.906	738.22
470.278	764.43
470.65	773.02
471.022	791.1
471.394	772.56
471.766	784.54
472.138	769.17
472.51	783.64
472.882	818.66
473.253	799.23
473.625	814.82
473.997	821.15
474.369	801.94
474.74	824.77
475.112	816.86
475.484	841.04
475.855	883.75
476.227	829.74
476.598	871.32
476.97	901.37
477.341	856.4
477.713	917.42
478.084	912
478.455	897.31
478.827	914.26
479.198	916.06
479.569	938.21
479.94	950.19
480.311	954.71
480.682	967.36
481.053	980.92
481.424	987.25
481.795	996.51
482.166	989.51
482.537	1043.52
482.908	1014.14
483.279	1025.67
483.65	1033.8
484.021	1044.65
484.391	1064.08
484.762	1082.39
485.133	1062.05
485.503	1082.84
485.874	1083.29
486.244	1079.45
486.615	1106.11
486.985	1136.17
487.356	1121.26
487.726	1131.88
488.097	1136.85
488.467	1155.38
488.837	1187.47
489.207	1165.55
489.578	1198.99
489.948	1177.07
490.318	1204.42
490.688	1177.98
491.058	1193.12
491.428	1187.24
491.798	1229.95
492.168	1224.53
492.538	1255.04
492.908	1235.83
493.278	1267.01
493.648	1249.39
494.017	1269.05
494.387	1246.68
494.757	1273.34
495.126	1285.77
495.496	1314.47
495.866	1258.65
496.235	1263.4
496.605	1297.3
496.974	1295.26
497.344	1300.46
497.713	1308.14
498.082	1274.02
498.452	1303.4
498.821	1301.36
499.19	1328.48
499.559	1326.45
499.928	1313.34
500.298	1334.81
500.667	1329.16
501.036	1332.78
501.405	1335.94
501.774	1336.17
502.143	1339.33
502.512	1356.73
502.88	1334.58
503.249	1336.84
503.618	1353.57
503.987	1326.22
504.356	1380.01
504.724	1355.83
505.093	1367.13
505.462	1377.97
505.83	1358.54
506.199	1378.42
506.567	1403.51
506.936	1400.12
507.304	1405.32
507.672	1371.64
508.041	1408.03
508.409	1399.21
508.777	1397.86
509.145	1398.31
509.514	1416.16
509.882	1417.97
510.25	1403.96
510.618	1402.38
510.986	1427.01
511.354	1395.37
511.722	1440.34
512.09	1448.25
512.458	1414.81
512.826	1432.21
513.193	1449.61
513.561	1449.16
513.929	1411.87
514.297	1437.18
514.664	1434.24
515.032	1452.55
515.4	1472.66
515.767	1468.14
516.135	1448.7
516.502	1434.24
516.869	1466.56
517.237	1457.74
517.604	1474.92
517.972	1467.24
518.339	1448.25
518.706	1474.01
519.073	1456.16
519.44	1475.14
519.808	1481.02
520.175	1477.86
520.542	1496.39
520.909	1528.93
521.276	1461.13
521.643	1498.2
522.009	1507.69
522.376	1466.33
522.743	1504.07
523.11	1510.4
523.477	1537.29
523.843	1504.52
524.21	1499.32
524.577	1516.27
524.943	1545.43
525.31	1551.53
525.676	1533.45
526.043	1528.7
526.409	1565.09
526.776	1570.96
527.142	1537.74
527.508	1547.23
527.874	1534.58
528.241	1576.39
528.607	1554.69
528.973	1556.05
529.339	1606.21
529.705	1581.81
530.071	1562.37
530.437	1579.32
530.803	1577.29
531.169	1594.46
531.535	1565.09
531.901	1595.82
532.267	1608.7
532.632	1571.64
532.998	1599.21
533.364	1584.29
533.73	1601.7
534.095	1577.29
534.461	1623.39
534.826	1591.75
535.192	1594.01
535.557	1612.32
535.923	1627.68
536.288	1612.77
536.653	1637.17
537.019	1619.55
537.384	1625.65
537.749	1607.12
538.114	1608.93
538.479	1641.69
538.845	1606.67
539.21	1620.68
539.575	1600.11
539.94	1591.3
540.305	1625.88
540.67	1614.12
541.034	1599.21
541.399	1602.15
541.764	1607.8
542.129	1604.63
542.494	1614.12
542.858	1611.64
543.223	1606.21
543.587	1617.29
543.952	1584.75
544.316	1634.46
544.681	1611.19
545.045	1639.21
545.41	1635.82
545.774	1622.26
546.138	1631.3
546.503	1621.36
546.867	1647.8
547.231	1621.13
547.595	1606.67
547.959	1644.18
548.324	1637.17
548.688	1641.92
549.052	1638.53
549.416	1659.77
549.779	1641.02
550.143	1652.77
550.507	1645.76
550.871	1640.79
551.235	1604.18
551.599	1635.59
551.962	1637.17
552.326	1652.99
552.689	1645.31
553.053	1616.38
553.417	1634.69
553.78	1645.76
554.143	1661.58
554.507	1667.68
554.87	1632.65
555.234	1675.59
555.597	1647.12
555.96	1651.41
556.323	1656.16
556.686	1648.7
557.05	1634.91
557.413	1681.69
557.776	1668.13
558.139	1642.15
558.502	1655.48
558.865	1677.85
559.228	1670.17
559.59	1660.68
559.953	1652.32
560.316	1691.18
560.679	1691.41
561.041	1670.85
561.404	1652.54
561.767	1680.34
562.129	1677.63
562.492	1686.66
562.854	1680.34
563.217	1700.68
563.579	1679.21
563.941	1695.48
564.304	1703.39
564.666	1691.41
565.028	1701.35
565.39	1685.99
565.753	1697.06
566.115	1708.81
566.477	1716.04
566.839	1745.65
567.201	1743.61
567.563	1743.84
567.925	1723.95
568.287	1731.64
568.648	1730.96
569.01	1729.15
569.372	1752.88
569.734	1740.67
570.095	1754.91
570.457	1749.71
570.819	1735.48
571.18	1745.87
571.542	1761.46
571.903	1756.49
572.265	1741.35
572.626	1787
572.987	1778.87
573.349	1781.35
573.71	1755.14
574.071	1761.01
574.432	1764.63
574.794	1756.49
575.155	1782.93
575.516	1805.31
575.877	1785.19
576.238	1775.93
576.599	1784.97
576.96	1790.39
577.32	1770.73
577.681	1779.54
578.042	1787.9
578.403	1763.05
578.763	1765.08
579.124	1836.27
579.485	1801.92
579.845	1794.01
580.206	1788.81
580.566	1798.07
580.927	1819.32
581.287	1831.52
581.648	1816.15
582.008	1842.37
582.368	1799.2
582.728	1810.5
583.089	1835.59
583.449	1808.7
583.809	1792.2
584.169	1798.53
584.529	1829.03
584.889	1833.78
585.249	1846.89
585.609	1806.44
585.969	1853.67
586.329	1826.32
586.688	1830.84
587.048	1860.67
587.408	1827.23
587.768	1805.98
588.127	1809.6
588.487	1840.56
588.846	1842.59
589.206	1811.18
589.565	1806.44
589.925	1811.86
590.284	1854.57
590.643	1838.75
591.003	1858.86
591.362	1860.22
591.721	1838.3
592.08	1852.54
592.44	1849.82
592.799	1848.47
593.158	1862.93
593.517	1845.3
593.876	1832.65
594.235	1836.04
594.593	1848.92
594.952	1864.51
595.311	1846.21
595.67	1890.05
596.029	1854.8
596.387	1883.5
596.746	1871.97
597.104	1885.3
597.463	1882.59
597.822	1871.97
598.18	1871.97
598.538	1873.55
598.897	1860.67
599.255	1875.36
599.613	1878.3
599.972	1909.03
600.33	1859.32
600.688	1867.68
601.046	1868.35
601.404	1875.13
601.762	1885.53
602.12	1888.02
602.478	1902.25
602.836	1899.77
603.194	1889.37
603.552	1894.57
603.91	1872.65
604.268	1897.96
604.625	1901.8
604.983	1884.85
605.341	1895.47
605.698	1902.25
606.056	1892.53
606.413	1892.31
606.771	1902.25
607.128	1921.91
607.485	1913.78
607.843	1887.79
608.2	1935.02
608.557	1914.23
608.914	1943.38
609.272	1952.87
609.629	1948.58
609.986	1940.9
610.343	1933.44
610.7	1949.03
611.057	1948.8
611.414	1937.51
611.771	1924.4
612.127	1947.9
612.484	1953.32
612.841	1939.77
613.198	1981.57
613.554	1980.44
613.911	1984.51
614.267	1956.04
614.624	1937.96
614.98	1990.39
615.337	1991.97
615.693	1978.63
616.05	1975.92
616.406	1967.34
616.762	1968.69
617.118	1959.88
617.475	1983.15
617.831	1977.05
618.187	1976.83
618.543	1999.42
618.899	2005.98
619.255	1958.75
619.611	1990.61
619.967	1984.06
620.323	2002.14
620.678	1985.41
621.034	2000.1
621.39	2023.38
621.746	2003.49
622.101	2039.88
622.457	2042.81
622.812	2042.36
623.168	2015.92
623.523	2038.29
623.879	2022.02
624.234	2024.06
624.589	2026.99
624.945	2051.63
625.3	2045.53
625.655	2068.8
626.01	2069.71
626.365	2060.89
626.72	2057.73
627.075	2047.79
627.43	2053.89
627.785	2046.2
628.14	2052.76
628.495	2061.57
628.85	2090.95
629.205	2074.9
629.559	2078.52
629.914	2061.34
630.269	2130.49
630.623	2084.85
630.978	2080.78
631.332	2093.43
631.687	2102.02
632.041	2114.68
632.396	2125.07
632.75	2104.05
633.104	2100.44
633.459	2101.8
633.813	2096.15
634.167	2104.73
634.521	2127.11
634.875	2108.12
635.229	2150.61
635.583	2131.62
635.937	2138.18
636.291	2147.22
636.645	2160.32
636.999	2140.44
637.352	2138.4
637.706	2184.5
638.06	2192.87
638.413	2167.56
638.767	2206.43
639.121	2177.05
639.474	2166.2
639.828	2159.87
640.181	2155.35
640.534	2194.45
640.888	2197.16
641.241	2194.45
641.594	2171.4
641.947	2231.51
642.301	2222.7
642.654	2227.89
643.007	2266.31
643.36	2249.81
643.713	2222.02
644.066	2265.41
644.419	2250.49
644.771	2204.17
645.124	2209.36
645.477	2235.12
645.83	2216.82
646.182	2236.93
646.535	2264.95
646.888	2262.47
647.24	2259.76
647.593	2251.62
647.945	2267.44
648.298	2262.69
648.65	2235.58
649.002	2269.47
649.355	2295.01
649.707	2328
650.059	2306.08
650.411	2337.95
650.763	2348.34
651.115	2399.41
651.467	2403.03
651.819	2429.7
652.171	2438.96
652.523	2406.42
652.875	2383.14
653.227	2426.53
653.578	2456.36
653.93	2464.5
654.282	2450.03
654.633	2445.51
654.985	2444.38
655.337	2474.67
655.688	2527.77
656.039	2521.67
656.391	2491.39
656.742	2505.4
657.094	2527.55
657.445	2539.75
657.796	2565.74
658.147	2602.8
658.498	2588.79
658.849	2599.86
659.2	2610.03
659.551	2633.53
659.902	2638.73
660.253	2608.45
660.604	2615.91
660.955	2636.47
661.306	2683.47
661.656	2665.62
662.007	2678.28
662.358	2719.86
662.708	2711.04
663.059	2709.69
663.409	2719.41
663.76	2755.11
664.11	2728.9
664.461	2766.64
664.811	2798.5
665.161	2793.98
665.511	2807.77
665.862	2853.87
666.212	2842.57
666.562	2869.68
666.912	2852.28
667.262	2864.94
667.612	2882.57
667.962	2873.75
668.312	2927.76
668.662	2925.5
669.011	2907.88
669.361	2933.64
669.711	2956.91
670.06	3006.18
670.41	3036.91
670.76	2986.29
671.109	2984.71
671.459	3029.23
671.808	3040.08
672.157	3076.68
672.507	3056.12
672.856	3028.55
673.205	3088.66
673.554	3059.06
673.904	3061.32
674.253	3109.45
674.602	3115.1
674.951	3117.36
675.3	3121.43
675.649	3193.29
675.998	3198.94
676.346	3177.25
676.695	3236.68
677.044	3225.61
677.393	3244.82
677.741	3233.52
678.09	3268.32
678.438	3243.23
678.787	3242.1
679.135	3292.95
679.484	3290.24
679.832	3314.87
680.181	3302.22
680.529	3325.27
680.877	3301.31
681.225	3304.93
681.573	3360.97
681.922	3348.54
682.27	3333.18
682.618	3335.43
682.966	3374.08
683.314	3353.51
683.661	3384.47
684.009	3379.05
684.357	3387.86
684.705	3377.92
685.053	3421.99
685.4	3440.29
685.748	3427.86
686.095	3423.34
686.443	3435.77
686.79	3450.46
687.138	3465.6
687.485	3483.23
687.832	3462.21
688.18	3508.31
688.527	3458.82
688.874	3467.41
689.221	3477.8
689.568	3470.35
689.915	3537.24
690.262	3468.54
690.609	3468.09
690.956	3474.19
691.303	3470.8
691.65	3495.43
691.997	3536.56
692.344	3508.76
692.69	3489.1
693.037	3452.95
693.383	3484.36
693.73	3495.88
694.077	3513.51
694.423	3534.3
694.769	3525.94
695.116	3521.19
695.462	3551.02
695.808	3507.86
696.155	3551.93
696.501	3504.7
696.847	3512.83
697.193	3479.39
697.539	3547.18
697.885	3516.45
698.231	3545.15
698.577	3481.19
698.923	3502.21
699.269	3473.96
699.614	3488.2
699.96	3482.78
700.306	3489.56
700.651	3507.18
700.997	3499.95
701.342	3499.95
701.688	3490.91
702.033	3487.52
702.379	3463.57
702.724	3487.75
703.069	3499.05
703.415	3471.02
703.76	3487.3
704.105	3465.83
704.45	3449.33
704.795	3464.47
705.14	3449.33
705.485	3464.7
705.83	3493.85
706.175	3459.73
706.52	3431.48
706.865	3444.13
707.209	3431.93
707.554	3441.65
707.899	3427.86
708.243	3414.98
708.588	3458.37
708.932	3438.48
709.277	3406.85
709.621	3430.12
709.966	3448.65
710.31	3456.56
710.654	3377.24
710.998	3417.47
711.342	3412.72
711.687	3411.59
712.031	3374.76
712.375	3372.72
712.719	3421.08
713.063	3407.75
713.407	3431.7
713.75	3394.64
714.094	3414.75
714.438	3409.11
714.782	3394.87
715.125	3384.93
715.469	3377.47
715.812	3411.59
716.156	3373.85
716.499	3350.12
716.843	3385.15
717.186	3390.8
717.53	3394.87
717.873	3384.7
718.216	3419.95
718.559	3400.52
718.902	3366.17
719.246	3405.49
719.589	3384.47
719.932	3360.07
720.275	3321.88
720.617	3366.62
720.96	3377.69
721.303	3351.48
721.646	3397.13
721.989	3390.12
722.331	3403.46
722.674	3384.25
723.016	3395.09
723.359	3373.4
723.701	3389.44
724.044	3374.98
724.386	3344.25
724.729	3397.58
725.071	3381.54
725.413	3374.76
725.755	3377.24
726.097	3371.82
726.439	3374.76
726.782	3386.06
727.124	3390.8
727.465	3332.05
727.807	3367.52
728.149	3366.39
728.491	3358.49
728.833	3407.98
729.175	3405.26
729.516	3403.91
729.858	3415.43
730.199	3417.47
730.541	3374.76
730.882	3433.74
731.224	3430.12
731.565	3390.35
731.906	3400.29
732.248	3406.85
732.589	3399.39
732.93	3402.1
733.271	3424.47
733.612	3400.29
733.953	3457.92
734.294	3431.48
734.635	3464.25
734.976	3457.69
735.317	3414.53
735.658	3452.04
735.999	3438.71
736.339	3458.14
736.68	3472.83
737.021	3436.9
737.361	3444.13
737.702	3419.05
738.042	3451.36
738.383	3491.14
738.723	3483.23
739.063	3504.7
739.404	3451.59
739.744	3503.34
740.084	3478.26
740.424	3535.2
740.764	3520.29
741.104	3549.21
741.444	3550.8
741.784	3582.89
742.124	3535.43
742.464	3576.56
742.804	3522.77
743.143	3570.01
743.483	3592.15
743.823	3638.93
744.162	3617.01
744.502	3573.17
744.841	3625.6
745.181	3654.52
745.52	3643.22
745.86	3651.36
746.199	3618.82
746.538	3692.49
746.877	3694.07
747.216	3709.89
747.556	3750.11
747.895	3746.27
748.234	3757.8
748.573	3778.81
748.911	3752.83
749.25	3753.73
749.589	3813.39
749.928	3826.27
750.267	3838.47
750.605	3816.55
750.944	3898.36
751.283	3875.99
751.621	3918.92
751.96	3917.57
752.298	3951.69
752.636	3942.42
752.975	3970.9
753.313	3933.39
753.651	4049.54
753.989	4004.34
754.327	4069.2
754.666	4059.26
755.004	4056.55
755.342	4130.67
755.679	4148.07
756.017	4131.57
756.355	4179.03
756.693	4204.11
757.031	4195.3
757.368	4212.93
757.706	4241.85
758.044	4234.85
758.381	4292.92
758.719	4262.87
759.056	4283.88
759.394	4270.33
759.731	4328.63
760.068	4301.29
760.405	4349.65
760.743	4339.02
761.08	4390.77
761.417	4381.74
761.754	4393.26
762.091	4405.92
762.428	4377.44
762.765	4420.15
763.102	4444.33
763.438	4431
763.775	4413.37
764.112	4482.52
764.449	4487.95
764.785	4440.94
765.122	4461.06
765.458	4458.34
765.795	4490.66
766.131	4506.25
766.467	4408.63
766.804	4478.46
767.14	4506.25
767.476	4460.6
767.812	4429.87
768.148	4479.36
768.485	4487.95
768.821	4476.65
769.157	4466.7
769.492	4480.94
769.828	4469.64
770.164	4471.9
770.5	4543.99
770.836	4474.61
771.171	4475.74
771.507	4471.9
771.842	4470.32
772.178	4473.03
