Data from blue_clamp_base_FLMS001491_00007.txt Node
Date: Wed Feb 08 15:15:28 GMT 2017
User: dcchb
Spectrometer: FLMS00149
Trigger mode: 0
Integration Time (sec): 2.000000E-2
Scans to average: 10
Electric dark correction enabled: true
Nonlinearity correction enabled: false
Boxcar width: 0
XAxis mode: Wavelengths
Number of Pixels in Spectrum: 2048
>>>>>Begin Spectral Data<<<<<
341.393	3.14
341.776	3.14
342.16	3.14
342.543	-42.96
342.927	-56.52
343.31	-73.25
343.693	-47.03
344.077	-65.11
344.46	-63.76
344.843	-60.14
345.226	-59.91
345.61	-24.21
345.993	-37.77
346.376	18.28
346.759	17.82
347.142	23.25
347.525	37.48
347.908	47.65
348.291	73.42
348.674	95.79
349.057	117.48
349.44	132.4
349.823	143.7
350.206	191.61
350.588	201.77
350.971	234.54
351.354	213.3
351.737	235.67
352.119	249.46
352.502	281.09
352.884	290.59
353.267	279.74
353.65	290.81
354.032	299.4
354.414	300.3
354.797	296.01
355.179	333.07
355.562	319.51
355.944	301.21
356.326	331.71
356.709	335.78
357.091	321.77
357.473	352.28
357.855	334.65
358.238	355.67
358.62	355.67
359.002	332.39
359.384	319.96
359.766	338.95
360.148	343.47
360.53	348.44
360.912	328.1
361.294	338.27
361.676	345.27
362.057	324.71
362.439	345.5
362.821	318.38
363.203	326.97
363.584	327.87
363.966	307.08
364.348	295.78
364.729	317.25
365.111	336.69
365.493	312.96
365.874	333.3
366.256	312.96
366.637	328.55
367.019	305.73
367.4	310.47
367.781	330.81
368.163	310.02
368.544	295.33
368.925	294.65
369.306	306.4
369.688	309.34
370.069	300.08
370.45	319.29
370.831	306.4
371.212	325.61
371.593	339.4
371.974	292.85
372.355	325.84
372.736	319.51
373.117	324.71
373.498	310.25
373.879	305.05
374.26	322.45
374.641	312.51
375.021	311.6
375.402	310.92
375.783	298.95
376.163	331.71
376.544	338.72
376.925	321.09
377.305	332.62
377.686	319.96
378.066	336.23
378.447	315.9
378.827	324.26
379.208	327.87
379.588	321.55
379.968	345.95
380.349	341.21
380.729	328.32
381.109	324.48
381.489	349.57
381.87	334.2
382.25	359.74
382.63	351.15
383.01	338.95
383.39	325.61
383.77	360.87
384.15	358.38
384.53	338.27
384.91	336.01
385.29	363.35
385.67	364.71
386.049	353.63
386.429	353.63
386.809	366.97
387.189	354.99
387.568	384.82
387.948	358.15
388.328	377.36
388.707	371.26
389.087	360.64
389.466	364.93
389.846	366.29
390.225	374.65
390.605	389.57
390.984	381.2
391.363	389.79
391.743	396.57
392.122	393.41
392.501	397.7
392.881	390.02
393.26	414.88
393.639	399.06
394.018	415.1
394.397	427.53
394.776	411.03
395.155	435.67
395.534	421.2
395.913	428.89
396.292	425.5
396.671	438.6
397.05	436.57
397.429	448.1
397.808	432.28
398.186	447.87
398.565	437.02
398.944	434.54
399.323	449.23
399.701	470.24
400.08	497.81
400.458	459.17
400.837	465.72
401.215	474.31
401.594	495.1
401.972	499.39
402.351	485.16
402.729	455.55
403.107	490.13
403.486	474.31
403.864	476.34
404.242	524.48
404.62	519.05
404.999	513.63
405.377	508.43
405.755	543.69
406.133	539.17
406.511	543.23
406.889	531.26
407.267	554.08
407.645	547.75
408.023	541.65
408.401	549.56
408.779	575.78
409.156	562.22
409.534	583.46
409.912	589.11
410.29	596.34
410.667	611.03
411.045	606.74
411.422	606.28
411.8	609.67
412.178	628.66
412.555	640.41
412.933	627.75
413.31	636.11
413.687	683.57
414.065	672.27
414.442	678.6
414.819	704.13
415.197	680.86
415.574	679.28
415.951	712.27
416.328	691.03
416.705	710.01
417.082	703.23
417.46	707.07
417.837	699.61
418.214	737.81
418.591	727.86
418.967	736.68
419.344	774.19
419.721	771.02
420.098	764.7
420.475	792.49
420.852	784.36
421.228	788.2
421.605	778.93
421.982	807.86
422.358	827.29
422.735	833.4
423.111	798.82
423.488	844.7
423.864	830.01
424.241	844.24
424.617	858.03
424.994	869.1
425.37	842.89
425.746	872.94
426.123	862.77
426.499	873.4
426.875	915.2
427.251	916.11
427.627	930.79
428.003	966.05
428.379	935.54
428.756	989.55
429.132	976.9
429.507	977.12
429.883	978.03
430.259	1025.48
430.635	1000.4
431.011	1039.27
431.387	1059.83
431.763	1059.6
432.138	1070.45
432.514	1053.73
432.89	1096.67
433.265	1104.35
433.641	1150.68
434.016	1129.43
434.392	1136.67
434.767	1151.35
435.143	1157.23
435.518	1181.41
435.894	1209.88
436.269	1218.7
436.644	1227.06
437.02	1259.15
437.395	1230.22
437.77	1292.14
438.145	1269.32
438.52	1297.79
438.895	1328.52
439.271	1297.34
439.646	1335.53
440.021	1375.3
440.395	1361.74
440.77	1353.38
441.145	1372.14
441.52	1379.37
441.895	1382.76
442.27	1397.22
442.645	1420.73
443.019	1456.88
443.394	1469.09
443.769	1461.18
444.143	1440.61
444.518	1473.83
444.892	1500.5
445.267	1507.28
445.641	1527.39
446.016	1524.9
446.39	1540.5
446.764	1552.25
447.139	1544.11
447.513	1562.87
447.887	1575.3
448.262	1596.09
448.636	1580.72
449.01	1598.35
449.384	1623.43
449.758	1626.6
450.132	1674.05
450.506	1670.21
450.88	1672.92
451.254	1684.45
451.628	1706.14
452.002	1731.68
452.376	1729.64
452.75	1743.88
453.123	1795.18
453.497	1747.95
453.871	1800.83
454.244	1838.57
454.618	1846.02
454.992	1857.1
455.365	1883.99
455.739	1898.9
456.112	1916.76
456.486	1922.63
456.859	1969.41
457.232	2012.12
457.606	2006.02
457.979	2044.89
458.352	2050.31
458.725	2087.83
459.099	2083.76
459.472	2119.69
459.845	2162.4
460.218	2160.37
460.591	2172.57
460.964	2182.74
461.337	2219.8
461.71	2261.38
462.083	2322.17
462.456	2303.64
462.829	2298.67
463.201	2367.14
463.574	2344.09
463.947	2369.63
464.32	2426.12
464.692	2463.86
465.065	2465.44
465.438	2466.35
465.81	2515.39
466.183	2543.63
466.555	2583.63
466.928	2602.84
467.3	2574.37
467.672	2639.68
468.045	2663.4
468.417	2679.45
468.789	2728.94
469.161	2727.13
469.534	2752.67
469.906	2850.29
470.278	2818.2
470.65	2855.72
471.022	2961.93
471.394	2982.27
471.766	2992.21
472.138	3009.16
472.51	3094.35
472.882	3088.25
473.253	3115.37
473.625	3166.89
473.997	3245.08
474.369	3200.34
474.74	3297.74
475.112	3313.1
475.484	3339.54
475.855	3426.77
476.227	3411.86
476.598	3513.33
476.97	3483.5
477.341	3571.86
477.713	3621.57
478.084	3628.12
478.455	3754.68
478.827	3737.27
479.198	3821.79
479.569	3833.09
479.94	3907.21
480.311	3964.39
480.682	4012.97
481.053	4119.41
481.424	4143.14
481.795	4173.2
482.166	4203.7
482.537	4196.02
482.908	4359.41
483.279	4377.48
483.65	4392.62
484.021	4485.05
484.391	4539.74
484.762	4522.56
485.133	4525.73
485.503	4578.83
485.874	4696.12
486.244	4698.61
486.615	4747.64
486.985	4815.21
487.356	4853.86
487.726	4893.63
488.097	4980.63
488.467	4946.06
488.837	5071.02
489.207	5102.44
489.578	5105.6
489.948	5120.52
490.318	5196.45
490.688	5211.13
491.058	5248.2
491.428	5348.31
491.798	5324.13
492.168	5420.85
492.538	5456.1
492.908	5469.88
493.278	5517.57
493.648	5478.47
494.017	5602.08
494.387	5604.57
494.757	5593.27
495.126	5631.24
495.496	5655.64
495.866	5648.18
496.235	5736.77
496.605	5743.55
496.974	5753.72
497.344	5825.13
497.713	5806.82
498.082	5811.57
498.452	5879.14
498.821	5882.98
499.19	5821.97
499.559	5944.22
499.928	5926.14
500.298	5966.37
500.667	5924.11
501.036	5929.53
501.405	6021.51
501.774	5997.33
502.143	5959.82
502.512	6030.77
502.88	6077.1
503.249	6054.73
503.618	6075.29
503.987	6089.08
504.356	6212.92
504.724	6085.46
505.093	6124.33
505.462	6129.75
505.83	6193.71
506.199	6252.91
506.567	6301.05
506.936	6274.84
507.304	6281.84
507.672	6319.81
508.041	6353.48
508.409	6346.25
508.777	6355.28
509.145	6372.01
509.514	6368.62
509.882	6452.23
510.25	6423.76
510.618	6521.16
510.986	6456.07
511.354	6474.38
511.722	6566.8
512.09	6596.63
512.458	6512.34
512.826	6602.96
513.193	6626.24
513.561	6600.48
513.929	6611.55
514.297	6606.13
514.664	6612.23
515.032	6665.33
515.4	6697.2
515.767	6654.94
516.135	6687.25
516.502	6669.4
516.869	6804.09
517.237	6746.01
517.604	6736.29
517.972	6785.1
518.339	6849.28
518.706	6803.63
519.073	6812.67
519.44	6824.65
519.808	6960.69
520.175	6890.19
520.542	6998.66
520.909	6917.3
521.276	6992.1
521.643	6978.77
522.009	7041.14
522.376	7059.9
522.743	7055.15
523.11	7098.54
523.477	7157.52
523.843	7218.09
524.21	7214.02
524.577	7253.79
524.943	7283.85
525.31	7300.12
525.676	7339.89
526.043	7379.66
526.409	7394.35
526.776	7416.73
527.142	7476.39
527.508	7444.97
527.874	7516.84
528.241	7543.05
528.607	7517.06
528.973	7606.1
529.339	7559.77
529.705	7628.7
530.071	7720.45
530.437	7684.74
530.803	7740.79
531.169	7815.36
531.535	7761.12
531.901	7780.78
532.267	7753.67
532.632	7769.26
532.998	7803.38
533.364	7935.81
533.73	7853.55
534.095	7936.49
534.461	7910.95
534.826	7969.48
535.192	7975.81
535.557	8065.3
535.923	7980.1
536.288	8007.67
536.653	8095.8
537.019	8070.95
537.384	8055.35
537.749	8179.19
538.114	8164.28
538.479	8131.06
538.845	8154.79
539.21	8181.45
539.575	8140.32
539.94	8257.61
540.305	8250.38
540.67	8192.75
541.034	8259.19
541.399	8338.74
541.764	8290.15
542.129	8385.51
542.494	8349.58
542.858	8354.33
543.223	8347.77
543.587	8395.91
543.952	8361.56
544.316	8427.55
544.681	8398.62
545.045	8454.44
545.41	8485.4
545.774	8518.39
546.138	8495.79
546.503	8527.43
546.867	8538.96
547.231	8569.69
547.595	8590.25
547.959	8587.54
548.324	8612.4
548.688	8589.12
549.052	8669.8
549.416	8631.84
549.779	8685.17
550.143	8633.64
550.507	8666.41
550.871	8704.38
551.235	8717.71
551.599	8769.68
551.962	8737.37
552.326	8809.46
552.689	8812.4
553.053	8785.96
553.417	8827.31
553.78	8873.86
554.143	8807.2
554.507	8866.63
554.87	8862.34
555.234	8928.78
555.597	8881.55
555.96	8956.8
556.323	8970.81
556.686	8950.47
557.05	9016.23
557.413	8987.31
557.776	8930.13
558.139	9086.29
558.502	9024.14
558.865	9084.7
559.228	9143.69
559.59	9118.6
559.953	9113.4
560.316	9221.88
560.679	9237.92
561.041	9248.77
561.404	9255.55
561.767	9325.83
562.129	9244.47
562.492	9304.59
562.854	9364.47
563.217	9292.38
563.579	9340.74
563.941	9414.41
564.304	9403.11
564.666	9511.36
565.028	9467.52
565.39	9526.73
565.753	9503.45
566.115	9483.56
566.477	9640.62
566.839	9591.58
567.201	9630
567.563	9679.27
567.925	9684.91
568.287	9686.04
568.648	9737.12
569.01	9745.03
569.372	9795.65
569.734	9730.11
570.095	9815.53
570.457	9913.61
570.819	9927.62
571.18	9909.77
571.542	9965.36
571.903	9947.51
572.265	10027.73
572.626	10005.36
572.987	10050.55
573.349	10088.52
573.71	10100.72
574.071	10197.9
574.432	10172.81
574.794	10243.32
575.155	10288.51
575.516	10190.21
575.877	10219.14
576.238	10260.04
576.599	10287.16
576.96	10339.13
577.32	10332.13
577.681	10319.47
578.042	10407.38
578.403	10428.17
578.763	10345.01
579.124	10356.99
579.485	10472.24
579.845	10466.14
580.206	10544.33
580.566	10435.63
580.927	10555.63
581.287	10527.38
581.648	10515.85
582.008	10604.44
582.368	10531.9
582.728	10554.95
583.089	10590.65
583.449	10615.51
583.809	10648.96
584.169	10613.48
584.529	10563.08
584.889	10715.4
585.249	10637.21
585.609	10629.97
585.969	10628.39
586.329	10604.66
586.688	10733.02
587.048	10651.67
587.408	10691.44
587.768	10692.57
588.127	10662.97
588.487	10695.74
588.846	10749.97
589.206	10595.63
589.565	10664.78
589.925	10806.02
590.284	10712.46
590.643	10740.25
591.003	10670.65
591.362	10826.81
591.721	10789.29
592.08	10785.45
592.44	10842.17
592.799	10790.2
593.158	10805.34
593.517	10782.51
593.876	10838.78
594.235	10856.18
594.593	10825.45
594.952	10893.92
595.311	10807.82
595.67	10798.11
596.029	10919.46
596.387	10849.18
596.746	10831.78
597.104	10845.79
597.463	10821.61
597.822	10861.16
598.18	10865.45
598.538	10886.01
598.897	10965.79
599.255	10828.61
599.613	11042.62
599.972	10857.99
600.33	10969.63
600.688	10864.32
601.046	10924.43
601.404	10983.64
601.762	10951.32
602.12	10960.81
602.478	11029.29
602.836	11067.25
603.194	10945.67
603.552	10912
603.91	10953.58
604.268	10964.43
604.625	10932.79
604.983	11075.39
605.341	11032.45
605.698	11031.09
606.056	11017.31
606.413	11066.12
606.771	11038.55
607.128	11093.69
607.485	10945.9
607.843	11064.77
608.2	11169.4
608.557	11201.71
608.914	11109.28
609.272	11115.61
609.629	11213.91
609.986	11208.49
610.343	11134.59
610.7	11189.96
611.057	11216.63
611.414	11242.84
611.771	11184.08
612.127	11224.76
612.484	11248.04
612.841	11264.99
613.198	11260.47
613.554	11205.78
613.911	11309.28
614.267	11299.79
614.624	11376.62
614.98	11266.57
615.337	11354.7
615.693	11350.18
616.05	11325.55
616.406	11345.66
616.762	11351.76
617.118	11347.47
617.475	11375.49
617.831	11393.34
618.187	11496.62
618.543	11437.41
618.899	11520.57
619.255	11526.22
619.611	11477.64
619.967	11476.28
620.323	11526.67
620.678	11502.49
621.034	11496.17
621.39	11499.56
621.746	11527.8
622.101	11649.83
622.457	11529.16
622.812	11547.92
623.168	11586.79
623.523	11585.88
623.879	11638.31
624.234	11560.8
624.589	11520.35
624.945	11628.37
625.3	11649.83
625.655	11605.09
626.01	11660.23
626.365	11667.01
626.72	11649.61
627.075	11601.7
627.43	11676.95
627.785	11703.17
628.14	11680.57
628.495	11713.56
628.85	11761.92
629.205	11764.63
629.559	11751.53
629.914	11758.31
630.269	11798.76
630.623	11735.03
630.978	11700.68
631.332	11822.26
631.687	11815.25
632.041	11814.58
632.396	11761.02
632.75	11845.08
633.104	11857.29
633.459	11799.66
633.813	11794.69
634.167	11872.2
634.521	11857.97
634.875	11862.03
635.229	11867.23
635.583	11859.77
635.937	11941.58
636.291	11937.28
636.645	11882.15
636.999	11849.15
637.352	11934.57
637.706	11803.05
638.06	11911.75
638.413	12006.21
638.767	11891.41
639.121	11873.11
639.474	11889.15
639.828	11944.97
640.181	11932.54
640.534	12004.63
640.888	11951.07
641.241	11867
641.594	11909.94
641.947	11965.31
642.301	11927.34
642.654	12075.59
643.007	12040.33
643.36	12020.9
643.713	11890.28
644.066	12093.21
644.419	11990.84
644.771	12010.73
645.124	11921.01
645.477	11851.41
645.83	11876.95
646.182	11822.26
646.535	11772.54
646.888	11726.44
647.24	11746.56
647.593	11796.95
647.945	11842.6
648.298	11797.4
648.65	11866.55
649.002	11831.07
649.355	11892.77
649.707	11923.05
650.059	12065.87
650.411	12182.02
650.763	12170.5
651.115	12259.54
651.467	12277.16
651.819	12265.86
652.171	12272.87
652.523	12351.96
652.875	12248.24
653.227	12258.41
653.578	12419.53
653.93	12361.91
654.282	12302.25
654.633	12318.29
654.985	12325.3
655.337	12403.26
655.688	12378.86
656.039	12433.32
656.391	12384.28
656.742	12364.17
657.094	12421.79
657.445	12416.82
657.796	12451.85
658.147	12444.84
658.498	12426.54
658.849	12421.57
659.2	12417.05
659.551	12501.79
659.902	12466.76
660.253	12466.76
660.604	12481.45
660.955	12530.72
661.306	12365.52
661.656	12512.86
662.007	12471.96
662.358	12579.08
662.708	12593.09
663.059	12560.77
663.409	12512.19
663.76	12451.17
664.11	12563.71
664.461	12534.56
664.811	12513.32
665.161	12531.62
665.511	12464.73
665.862	12519.87
666.212	12604.16
666.562	12527.1
666.912	12534.56
667.262	12506.08
667.612	12539.3
667.962	12513.99
668.312	12544.27
668.662	12544.05
669.011	12442.13
669.361	12541.34
669.711	12436.71
670.06	12439.19
670.41	12381.34
670.76	12322.59
671.109	12391.51
671.459	12354.9
671.808	12337.5
672.157	12314.9
672.507	12309.03
672.856	12260.89
673.205	12287.78
673.554	12378.63
673.904	12261.57
674.253	12279.87
674.602	12231.74
674.951	11996.94
675.3	11926.44
675.649	12175.24
675.998	12088.92
676.346	12071.29
676.695	12098.18
677.044	12006.66
677.393	12147.22
677.741	12160.33
678.09	12031.29
678.438	12010.73
678.787	12064.51
679.135	12044.17
679.484	11930.51
679.832	11965.53
680.181	11900
680.529	11908.13
680.877	11841.92
681.225	11863.16
681.573	11852.54
681.922	11788.81
682.27	11734.35
682.618	11763.05
682.966	11680.57
683.314	11735.71
683.661	11674.47
684.009	11567.35
684.357	11606.22
684.705	11570.29
685.053	11578.88
685.4	11613.9
685.748	11493.68
686.095	11536.84
686.443	11451.87
686.79	11422.72
687.138	11462.04
687.485	11467.69
687.832	11402.61
688.18	11402.84
688.527	11376.62
688.874	11368.94
689.221	11328.49
689.568	11278.55
689.915	11337.07
690.262	11224.08
690.609	11266.79
690.956	11236.74
691.303	11257.98
691.65	11194.03
691.997	11187.7
692.344	11202.16
692.69	11177.76
693.037	11129.17
693.383	11106.35
693.73	11142.73
694.077	11085.56
694.423	11027.93
694.769	10993.36
695.116	11029.74
695.462	11007.82
695.808	10892.34
696.155	11107.7
696.501	10951.77
696.847	10981.15
697.193	10906.8
697.539	10967.59
697.885	10841.72
698.231	10815.05
698.577	10788.84
698.923	10866.13
699.269	10780.71
699.614	10766.92
699.96	10719.92
700.306	10768.5
700.651	10697.32
700.997	10716.53
701.342	10705.45
701.688	10683.31
702.033	10647.6
702.379	10630.43
702.724	10656.64
703.069	10676.98
703.415	10572.58
703.76	10586.59
704.105	10598.56
704.45	10643.53
704.795	10582.07
705.14	10484.67
705.485	10530.54
705.83	10495.97
706.175	10528.28
706.52	10600.82
706.865	10561.95
707.209	10471.33
707.554	10502.52
707.899	10544.78
708.243	10452.13
708.588	10422.07
708.932	10396.76
709.277	10408.29
709.621	10370.55
709.966	10317.44
710.31	10378.91
710.654	10332.81
710.998	10316.08
711.342	10321.96
711.687	10327.16
712.031	10347.27
712.375	10333.26
712.719	10350.89
713.063	10293.49
713.407	10362.41
713.75	10330.77
714.094	10269.31
714.438	10300.27
714.782	10273.15
715.125	10283.32
715.469	10328.74
715.812	10260.72
716.156	10179.14
716.499	10272.47
716.843	10254.17
717.186	10184.11
717.53	10238.57
717.873	10270.44
718.216	10254.84
718.559	10194.05
718.902	10149.31
719.246	10196.54
719.589	10242.41
719.932	10185.01
720.275	10136.43
720.617	10193.6
720.96	10147.28
721.303	10102.53
721.646	10179.82
721.989	10148.18
722.331	10196.99
722.674	10177.78
723.016	10229.76
723.359	10165.35
723.701	10165.81
724.044	10101.63
724.386	10111.12
724.729	10070.22
725.071	10165.13
725.413	10152.02
725.755	10145.02
726.097	10107.95
726.439	10054.4
726.782	10137.11
727.124	10235.63
727.465	10118.58
727.807	10123.55
728.149	10116.77
728.491	10039.71
728.833	10145.69
729.175	10151.34
729.516	10166.94
729.858	10091.91
730.199	10204.22
730.541	10122.87
730.882	10144.79
731.224	10193.38
731.565	10075.41
731.906	10136.2
732.248	10196.09
732.589	10138.24
732.93	10152.7
733.271	10204.68
733.612	10182.08
733.953	10242.41
734.294	10266.59
734.635	10202.42
734.976	10192.7
735.317	10209.42
735.658	10240.15
735.999	10211.91
736.339	10266.82
736.68	10337.55
737.021	10233.15
737.361	10256.43
737.702	10374.39
738.042	10283.77
738.383	10358.57
738.723	10337.33
739.063	10317.44
739.404	10415.52
739.744	10415.52
740.084	10366.25
740.424	10375.97
740.764	10360.83
741.104	10458.45
741.444	10394.5
741.784	10490.54
742.124	10568.73
742.464	10614.83
742.804	10578.9
743.143	10585.68
743.483	10637.21
743.823	10553.82
744.162	10583.42
744.502	10636.98
744.841	10685.34
745.181	10680.14
745.52	10625.68
745.86	10768.95
746.199	10756.3
746.538	10728.05
746.877	10848.5
747.216	10847.14
747.556	10877.43
747.895	10842.4
748.234	10899.57
748.573	10906.8
748.911	10952.45
749.25	11022.51
749.589	11029.29
749.928	11039.91
750.267	11195.84
750.605	11113.58
750.944	11199.9
751.283	11178.66
751.621	11197.42
751.96	11151.09
752.298	11168.04
752.636	11179.79
752.975	11237.64
753.313	11197.87
753.651	11327.81
753.989	11347.24
754.327	11304.53
754.666	11374.59
755.004	11427.24
755.342	11401.48
755.679	11450.07
756.017	11363.74
756.355	11471.99
756.693	11540.46
757.031	11543.17
757.368	11456.62
757.706	11515.83
758.044	11604.41
758.381	11606.9
758.719	11669.27
