Data from blue_surface_keyboard_FLMS001491_073.txt Node
Date: Tue Feb 07 11:13:37 GMT 2017
User: dcchb
Spectrometer: FLMS00149
Trigger mode: 0
Integration Time (sec): 2.000000E-2
Scans to average: 10
Electric dark correction enabled: true
Nonlinearity correction enabled: false
Boxcar width: 0
XAxis mode: Wavelengths
Number of Pixels in Spectrum: 2048
>>>>>Begin Spectral Data<<<<<
341.393	-30.58
341.776	-30.58
342.16	-30.58
342.543	-60.41
342.927	-80.75
343.31	-67.19
343.693	-78.26
344.077	-55.89
344.46	-55.66
344.843	-46.62
345.226	-49.33
345.61	-4.36
345.993	-27.19
346.376	-15.21
346.759	4.22
347.142	20.95
347.525	54.62
347.908	41.06
348.291	64.79
348.674	101.17
349.057	112.92
349.44	143.2
349.823	152.47
350.206	147.5
350.588	175.52
350.971	180.72
351.354	201.51
351.737	224.33
352.119	222.07
352.502	226.36
352.884	252.35
353.267	272.01
353.65	268.62
354.032	288.06
354.414	289.19
354.797	291.67
355.179	295.06
355.562	309.75
355.944	293.48
356.326	307.94
356.709	310.43
357.091	309.98
357.473	319.92
357.855	317.89
358.238	316.98
358.62	312.01
359.002	318.34
359.384	339.13
359.766	293.03
360.148	306.81
360.53	302.07
360.912	308.62
361.294	306.81
361.676	345.01
362.057	321.05
362.439	308.17
362.821	306.81
363.203	309.98
363.584	267.27
363.966	294.38
364.348	294.61
364.729	296.19
365.111	298.9
365.493	298
365.874	292.13
366.256	291.67
366.637	308.85
367.019	292.13
367.4	284.67
367.781	287.83
368.163	293.71
368.544	273.14
368.925	283.31
369.306	285.8
369.688	285.12
370.069	276.53
370.45	276.31
370.831	290.09
371.212	281.73
371.593	274.5
371.974	282.63
372.355	270.88
372.736	269.75
373.117	289.64
373.498	282.86
373.879	287.61
374.26	286.48
374.641	294.61
375.021	285.57
375.402	293.26
375.783	301.16
376.163	293.03
376.544	284.44
376.925	303.88
377.305	285.12
377.686	282.18
378.066	291.22
378.447	277.44
378.827	295.51
379.208	311.33
379.588	280.37
379.968	293.71
380.349	282.63
380.729	299.58
381.109	316.53
381.489	300.71
381.87	272.69
382.25	282.63
382.63	285.57
383.01	300.94
383.39	294.84
383.77	324.44
384.15	300.26
384.53	304.33
384.91	298.9
385.29	317.66
385.67	305.68
386.049	314.95
386.429	305.91
386.809	297.32
387.189	325.12
387.568	310.66
387.948	295.74
388.328	312.69
388.707	305.68
389.087	323.31
389.466	306.59
389.846	325.8
390.225	330.09
390.605	291.45
390.984	316.53
391.363	309.3
391.743	321.28
392.122	307.27
392.501	321.05
392.881	320.82
393.26	309.3
393.639	324.67
394.018	313.14
394.397	325.57
394.776	339.36
395.155	342.29
395.534	318.79
395.913	307.49
396.292	304.78
396.671	331.45
397.05	324.44
397.429	325.8
397.808	315.18
398.186	335.51
398.565	338.9
398.944	350.43
399.323	339.58
399.701	322.63
400.08	333.93
400.458	332.35
400.837	326.25
401.215	329.86
401.594	326.47
401.972	313.59
402.351	347.94
402.729	352.01
403.107	352.69
403.486	340.49
403.864	340.26
404.242	337.77
404.62	331.67
404.999	328.96
405.377	331.9
405.755	335.06
406.133	346.59
406.511	345.91
406.889	335.74
407.267	341.62
407.645	355.17
408.023	353.82
408.401	345.01
408.779	361.05
409.156	361.5
409.534	346.13
409.912	364.21
410.29	340.71
410.667	355.17
411.045	348.17
411.422	369.41
411.8	357.66
412.178	351.56
412.555	377.32
412.933	376.64
413.31	380.94
413.687	380.48
414.065	387.04
414.442	377.77
414.819	361.05
415.197	367.6
415.574	377.77
415.951	362.18
416.328	378.68
416.705	385.68
417.082	366.47
417.46	372.8
417.837	373.03
418.214	408.51
418.591	379.13
418.967	387.26
419.344	395.17
419.721	378.9
420.098	392.01
420.475	377.09
420.852	390.2
421.228	381.84
421.605	396.76
421.982	399.01
422.358	393.14
422.735	400.82
423.111	388.62
423.488	394.5
423.864	405.79
424.241	403.31
424.617	407.38
424.994	409.64
425.37	411.9
425.746	392.24
426.123	413.93
426.499	437.43
426.875	430.65
427.251	409.18
427.627	425
428.003	410.99
428.379	403.31
428.756	416.19
429.132	430.65
429.507	414.16
429.883	448.51
430.259	428.62
430.635	429.75
431.011	420.71
431.387	426.58
431.763	440.6
432.138	441.95
432.514	469.3
432.89	455.28
433.265	455.28
433.641	455.06
434.016	451.67
434.392	444.89
434.767	460.71
435.143	430.65
435.518	447.15
435.894	465.68
436.269	460.71
436.644	460.93
437.02	454.83
437.395	471.1
437.77	488.5
438.145	472.46
438.52	492.35
438.895	496.87
439.271	503.64
439.646	471.1
440.021	492.57
440.395	488.96
440.77	489.18
441.145	504.1
441.52	476.08
441.895	511.78
442.27	491.22
442.645	479.01
443.019	490.09
443.394	506.81
443.769	512.01
444.143	498
444.518	506.36
444.892	522.18
445.267	523.31
445.641	537.77
446.016	537.77
446.39	531.89
446.764	542.29
447.139	509.97
447.513	522.4
447.887	504.77
448.262	510.88
448.636	519.46
449.01	519.69
449.384	526.7
449.758	559.24
450.132	543.64
450.506	560.14
450.88	546.58
451.254	559.01
451.628	556.98
452.002	527.37
452.376	539.8
452.75	548.16
453.123	547.49
453.497	575.28
453.871	564.21
454.244	552.01
454.618	574.83
454.992	592.91
455.365	584.55
455.739	583.42
456.112	565.34
456.486	575.73
456.859	595.85
457.232	601.95
457.606	595.17
457.979	571.21
458.352	603.3
458.725	614.15
459.099	587.48
459.472	613.25
459.845	614.6
460.218	635.17
460.591	605.79
460.964	630.2
461.337	621.61
461.71	627.48
462.083	655.51
462.456	628.61
462.829	627.71
463.201	653.7
463.574	640.82
463.947	673.81
464.32	672.91
464.692	656.41
465.065	658.22
465.438	695.05
465.81	664.32
466.183	690.31
466.555	684.66
466.928	690.53
467.3	691.89
467.672	716.75
468.045	711.78
468.417	702.51
468.789	728.27
469.161	733.7
469.534	710.87
469.906	711.78
470.278	742.06
470.65	721.94
471.022	732.34
471.394	745.22
471.766	765.11
472.138	756.07
472.51	786.12
472.882	783.41
473.253	780.7
473.625	772.79
473.997	783.86
474.369	778.21
474.74	819.79
475.112	822.96
475.484	805.11
475.855	826.12
476.227	806.69
476.598	831.77
476.97	847.59
477.341	857.08
477.713	855.73
478.084	886.01
478.455	834.03
478.827	871.54
479.198	897.31
479.569	907.93
479.94	914.93
480.311	902.28
480.682	933.01
481.053	949.73
481.424	980.02
481.795	973.24
482.166	974.37
482.537	943.41
482.908	969.4
483.279	983.18
483.65	992.67
484.021	974.82
484.391	1014.59
484.762	1032.22
485.133	1006.23
485.503	1011.65
485.874	1051.65
486.244	1063.86
486.615	1043.07
486.985	1064.76
487.356	1044.87
487.726	1074.48
488.097	1075.61
488.467	1098.21
488.837	1107.92
489.207	1118.09
489.578	1110.41
489.948	1082.39
490.318	1132.33
490.688	1146.57
491.058	1132.78
491.428	1139.11
491.798	1172.33
492.168	1161.93
492.538	1168.94
492.908	1171.2
493.278	1192.44
493.648	1172.1
494.017	1194.93
494.387	1192.44
494.757	1182.5
495.126	1194.93
495.496	1204.42
495.866	1222.72
496.235	1218.43
496.605	1244.19
496.974	1233.34
497.344	1251.87
497.713	1249.61
498.082	1243.06
498.452	1262.95
498.821	1240.12
499.19	1270.63
499.559	1244.19
499.928	1220.69
500.298	1219.11
500.667	1262.27
501.036	1269.73
501.405	1260.24
501.774	1266.34
502.143	1276.05
502.512	1299.78
502.88	1275.38
503.249	1266.79
503.618	1278.77
503.987	1273.57
504.356	1287.13
504.724	1293
505.093	1286.45
505.462	1268.6
505.83	1291.19
506.199	1290.52
506.567	1322.61
506.936	1292.1
507.304	1315.15
507.672	1337.07
508.041	1302.04
508.409	1334.13
508.777	1340.46
509.145	1330.74
509.514	1349.5
509.882	1335.49
510.25	1332.78
510.618	1363.28
510.986	1352.21
511.354	1331.65
511.722	1325.77
512.09	1353.57
512.458	1365.77
512.826	1341.14
513.193	1361.93
513.561	1359.44
513.929	1356.28
514.297	1342.27
514.664	1386.33
515.032	1363.96
515.4	1385.88
515.767	1390.63
516.135	1361.25
516.502	1398.76
516.869	1370.51
517.237	1402.6
517.604	1396.5
517.972	1377.52
518.339	1396.28
518.706	1398.99
519.073	1390.63
519.44	1380.91
519.808	1435.37
520.175	1424.52
520.542	1416.16
520.909	1412.77
521.276	1431.08
521.643	1436.73
522.009	1408.03
522.376	1436.5
522.743	1452.32
523.11	1442.15
523.477	1439.67
523.843	1459.55
524.21	1437.18
524.577	1495.26
524.943	1479.44
525.31	1465.43
525.676	1492.77
526.043	1479.44
526.409	1467.91
526.776	1462.26
527.142	1471.98
527.508	1479.66
527.874	1529.15
528.241	1468.82
528.607	1456.16
528.973	1492.32
529.339	1461.81
529.705	1525.09
530.071	1511.08
530.437	1478.76
530.803	1502.49
531.169	1517.86
531.535	1525.76
531.901	1503.62
532.267	1523.96
532.632	1530.74
532.998	1538.87
533.364	1561.7
533.73	1513.79
534.095	1495.48
534.461	1498.42
534.826	1547.23
535.192	1539.55
535.557	1532.54
535.923	1544.75
536.288	1533
536.653	1527.12
537.019	1545.43
537.384	1544.07
537.749	1532.32
538.114	1539.1
538.479	1554.46
538.845	1536.16
539.21	1543.84
539.575	1533
539.94	1535.03
540.305	1554.46
540.67	1544.75
541.034	1545.65
541.399	1574.35
541.764	1544.07
542.129	1549.27
542.494	1563.73
542.858	1566.44
543.223	1549.49
543.587	1582.94
543.952	1561.7
544.316	1555.82
544.681	1564.63
545.045	1543.17
545.41	1556.72
545.774	1572.09
546.138	1556.95
546.503	1597.63
546.867	1577.97
547.231	1570.28
547.595	1604.18
547.959	1587.01
548.324	1548.14
548.688	1565.09
549.052	1557.18
549.416	1572.32
549.779	1558.98
550.143	1557.4
550.507	1586.55
550.871	1589.72
551.235	1562.6
551.599	1601.02
551.962	1577.97
552.326	1585.42
552.689	1614.12
553.053	1566.44
553.417	1594.46
553.78	1602.83
554.143	1578.42
554.507	1584.75
554.87	1602.15
555.234	1589.27
555.597	1596.95
555.96	1587.23
556.323	1621.13
556.686	1595.59
557.05	1604.86
557.413	1594.24
557.776	1599.21
558.139	1603.73
558.502	1626.33
558.865	1623.39
559.228	1612.77
559.59	1602.6
559.953	1614.35
560.316	1623.16
560.679	1631.98
561.041	1634.91
561.404	1651.86
561.767	1638.3
562.129	1662.48
562.492	1623.16
562.854	1646.21
563.217	1634.69
563.579	1678.53
563.941	1661.35
564.304	1666.1
564.666	1666.33
565.028	1658.64
565.39	1663.39
565.753	1636.95
566.115	1685.99
566.477	1715.14
566.839	1675.59
567.201	1661.35
567.563	1677.85
567.925	1727.79
568.287	1702.48
568.648	1705.2
569.01	1689.15
569.372	1673.78
569.734	1706.1
570.095	1712.88
570.457	1700.9
570.819	1718.53
571.18	1728.02
571.542	1692.77
571.903	1724.86
572.265	1689.15
572.626	1729.6
572.987	1734.57
573.349	1733.67
573.71	1720.11
574.071	1734.35
574.432	1743.84
574.794	1736.61
575.155	1748.36
575.516	1730.28
575.877	1744.74
576.238	1772.54
576.599	1731.18
576.96	1763.27
577.32	1755.14
577.681	1756.72
578.042	1753.78
578.403	1759.43
578.763	1777.28
579.124	1759.66
579.485	1758.08
579.845	1768.47
580.206	1780.67
580.566	1763.72
580.927	1757.85
581.287	1748.81
581.648	1763.5
582.008	1799.88
582.368	1761.01
582.728	1737.96
583.089	1760.79
583.449	1778.41
583.809	1804.18
584.169	1776.83
584.529	1796.04
584.889	1801.01
585.249	1767.79
585.609	1791.75
585.969	1796.94
586.329	1760.11
586.688	1780.45
587.048	1787
587.408	1777.51
587.768	1765.53
588.127	1780.9
588.487	1772.76
588.846	1801.24
589.206	1803.95
589.565	1784.97
589.925	1791.52
590.284	1796.49
590.643	1817.06
591.003	1782.71
591.362	1823.84
591.721	1801.69
592.08	1812.09
592.44	1788.81
592.799	1786.55
593.158	1812.76
593.517	1799.88
593.876	1793.78
594.235	1798.75
594.593	1790.62
594.952	1819.54
595.311	1785.87
595.67	1796.49
596.029	1831.97
596.387	1786.32
596.746	1838.53
597.104	1836.27
597.463	1813.22
597.822	1796.72
598.18	1828.81
598.538	1842.14
598.897	1831.52
599.255	1829.26
599.613	1845.3
599.972	1834.01
600.33	1822.93
600.688	1834.68
601.046	1826.1
601.404	1863.61
601.762	1836.27
602.12	1854.34
602.478	1836.49
602.836	1835.36
603.194	1831.97
603.552	1836.72
603.91	1805.31
604.268	1817.73
604.625	1857.51
604.983	1862.71
605.341	1861.8
605.698	1823.38
606.056	1828.36
606.413	1857.06
606.771	1857.96
607.128	1848.02
607.485	1843.04
607.843	1857.28
608.2	1845.76
608.557	1869.94
608.914	1855.93
609.272	1885.53
609.629	1900.67
609.986	1857.73
610.343	1860.67
610.7	1874.23
611.057	1888.02
611.414	1917.85
611.771	1902.93
612.127	1907.45
612.484	1895.92
612.841	1893.66
613.198	1905.19
613.554	1908.35
613.911	1885.98
614.267	1905.64
614.624	1888.92
614.98	1928.24
615.337	1905.87
615.693	1901.57
616.05	1923.04
616.406	1905.19
616.762	1901.35
617.118	1936.6
617.475	1902.25
617.831	1928.47
618.187	1947.9
618.543	1928.24
618.899	1945.64
619.255	1952.65
619.611	1950.84
619.967	1937.05
620.323	1921.91
620.678	1960.78
621.034	1958.3
621.39	1954.45
621.746	1956.04
622.101	1961.01
622.457	1962.82
622.812	1954.91
623.168	1971.18
623.523	1951.06
623.879	1967.11
624.234	1987.45
624.589	1995.58
624.945	1981.8
625.3	1985.19
625.655	1968.24
626.01	1968.24
626.365	1946.32
626.72	1998.97
627.075	2000.55
627.43	1994.91
627.785	1964.62
628.14	2006.66
628.495	1990.39
628.85	2008.01
629.205	1977.73
629.559	2025.86
629.914	1986.32
630.269	1995.58
630.623	2004.62
630.978	2012.31
631.332	2004.4
631.687	2005.75
632.041	2014.34
632.396	2059.76
632.75	2050.27
633.104	2020.67
633.459	2032.19
633.813	2020.22
634.167	2007.11
634.521	2066.32
634.875	2066.54
635.229	2044.4
635.583	2044.62
635.937	2052.98
636.291	2039.65
636.645	2049.14
636.999	2078.97
637.352	2076.03
637.706	2079.42
638.06	2066.99
638.413	2050.95
638.767	2077.84
639.121	2064.28
639.474	2049.37
639.828	2057.5
640.181	2083.72
640.534	2076.48
640.888	2090.72
641.241	2102.47
641.594	2094.11
641.947	2081.23
642.301	2095.92
642.654	2123.49
643.007	2133.88
643.36	2138.18
643.713	2124.17
644.066	2142.02
644.419	2144.05
644.771	2126.2
645.124	2167.33
645.477	2121.46
645.83	2100.44
646.182	2110.38
646.535	2134.34
646.888	2141.79
647.24	2148.35
647.593	2153.55
647.945	2153.55
648.298	2163.94
648.65	2155.13
649.002	2136.6
649.355	2118.29
649.707	2164.84
650.059	2189.48
650.411	2214.56
650.763	2222.47
651.115	2241.9
651.467	2255.46
651.819	2283.71
652.171	2279.64
652.523	2272.64
652.875	2276.48
653.227	2243.49
653.578	2320.32
653.93	2325.74
654.282	2319.19
654.633	2306.08
654.985	2326.65
655.337	2319.19
655.688	2348.34
656.039	2382.92
656.391	2357.16
656.742	2377.49
657.094	2392.63
657.445	2391.5
657.796	2411.17
658.147	2440.09
658.498	2419.53
658.849	2422.01
659.2	2437.61
659.551	2457.04
659.902	2464.72
660.253	2459.07
660.604	2499.75
660.955	2482.12
661.306	2504.04
661.656	2485.29
662.007	2508.11
662.358	2514.89
662.708	2543.14
663.059	2517.83
663.409	2552.86
663.76	2564.16
664.11	2562.57
664.461	2602.12
664.811	2592.18
665.161	2610.48
665.511	2605.28
665.862	2629.92
666.212	2604.15
666.562	2641.22
666.912	2660.42
667.262	2640.31
667.612	2674.89
667.962	2677.15
668.312	2706.52
668.662	2694.77
669.011	2735.9
669.361	2728.9
669.711	2726.86
670.06	2769.12
670.41	2752.85
670.76	2735
671.109	2770.93
671.459	2773.42
671.808	2737.03
672.157	2776.81
672.507	2762.79
672.856	2833.75
673.205	2839.63
673.554	2844.37
673.904	2849.12
674.253	2878.72
674.602	2877.82
674.951	2811.15
675.3	2859.29
675.649	2877.14
675.998	2847.09
676.346	2914.66
676.695	2918.27
677.044	2897.25
677.393	2916.91
677.741	2913.98
678.09	2926.86
678.438	2946.29
678.787	2965.28
679.135	2986.29
679.484	2974.09
679.832	2960.3
680.181	3003.92
680.529	2979.29
680.877	2980.64
681.225	3024.26
681.573	2993.3
681.922	3045.95
682.27	3028.1
682.618	3076.91
682.966	3030.81
683.314	3036.01
683.661	3024.26
684.009	3012.51
684.357	3042.11
684.705	3062.9
685.053	3056.57
685.4	3069.91
685.748	3107.42
686.095	3067.87
686.443	3065.84
686.79	3112.84
687.138	3097.93
687.485	3120.75
687.832	3119.85
688.18	3111.03
688.527	3112.62
688.874	3137.47
689.221	3115.78
689.568	3150.36
689.915	3099.73
690.262	3125.27
690.609	3095.67
690.956	3119.17
691.303	3134.08
691.65	3159.39
691.997	3141.32
692.344	3156.23
692.69	3114.2
693.037	3152.61
693.383	3080.3
693.73	3170.47
694.077	3148.32
694.423	3128.89
694.769	3112.84
695.116	3118.27
695.462	3125.95
695.808	3090.92
696.155	3105.38
696.501	3117.14
696.847	3097.93
697.193	3097.93
697.539	3117.36
697.885	3132.05
698.231	3066.52
698.577	3108.55
698.923	3121.88
699.269	3099.96
699.614	3150.58
699.96	3074.2
700.306	3076.01
700.651	3064.71
700.997	3049.79
701.342	3093.86
701.688	3047.76
702.033	3062.22
702.379	3064.03
702.724	3063.13
703.069	3076.23
703.415	3031.04
703.76	3046.85
704.105	3026.06
704.45	3031.04
704.795	3001.66
705.14	3022.45
705.485	3034.65
705.83	3022.45
706.175	3007.53
706.52	3002.11
706.865	3044.82
707.209	2994.65
707.554	2992.62
707.899	3029.91
708.243	2976.57
708.588	2982.45
708.932	2995.78
709.277	2993.97
709.621	3007.99
709.966	2992.39
710.31	2956.24
710.654	2933.64
710.998	3000.08
711.342	3013.18
711.687	2974.77
712.031	2996.91
712.375	2921.43
712.719	3013.18
713.063	3000.08
713.407	2966.63
713.75	2993.75
714.094	2964.37
714.438	2948.78
714.782	3002.11
715.125	2975.22
715.469	2968.44
715.812	2939.51
716.156	2938.38
716.499	2964.15
716.843	2936.12
717.186	2939.74
717.53	2954.65
717.873	2955.56
718.216	2939.29
718.559	2964.82
718.902	2925.95
719.246	2939.06
719.589	2960.3
719.932	2926.86
720.275	2897.93
720.617	2957.59
720.96	2940.87
721.303	2956.24
721.646	2895.22
721.989	2960.08
722.331	2928.44
722.674	2891.6
723.016	2927.08
723.359	2989
723.701	2945.61
724.044	2968.21
724.386	2917.59
724.729	2935.45
725.071	2915.56
725.413	2962.11
725.755	2925.95
726.097	2945.61
726.439	2923.92
726.782	2963.24
727.124	2977.48
727.465	2935.45
727.807	2958.5
728.149	2933.19
728.491	2953.07
728.833	2965.28
729.175	2962.56
729.516	2970.47
729.858	2919.4
730.199	2961.66
730.541	2954.88
730.882	2912.4
731.224	2937.93
731.565	2929.12
731.906	2965.28
732.248	2974.54
732.589	2952.85
732.93	2949.23
733.271	2950.36
733.612	2942
733.953	2980.42
734.294	2966.86
734.635	2962.34
734.976	2995.33
735.317	2980.87
735.658	2996.91
735.999	3026.29
736.339	2991.49
736.68	3014.54
737.021	2992.17
737.361	3002.11
737.702	3015.9
738.042	3037.36
738.383	3064.93
738.723	3029.23
739.063	3045.73
739.404	3089.57
739.744	3032.17
740.084	3030.13
740.424	3080.3
740.764	3083.01
741.104	3094.09
741.444	3067.42
741.784	3069.45
742.124	3104.03
742.464	3123.01
742.804	3092.73
743.143	3112.84
743.483	3156.23
743.823	3171.15
744.162	3148.77
744.502	3175.21
744.841	3159.85
745.181	3217.47
745.52	3159.62
745.86	3205.72
746.199	3220.41
746.538	3214.08
746.877	3245.27
747.216	3246.62
747.556	3271.93
747.895	3303.12
748.234	3303.57
748.573	3310.35
748.911	3346.06
749.25	3348.99
749.589	3350.8
749.928	3351.25
750.267	3424.25
750.605	3441.87
750.944	3407.98
751.283	3446.39
751.621	3451.82
751.96	3457.47
752.298	3464.25
752.636	3518.48
752.975	3486.62
753.313	3557.12
753.651	3520.06
753.989	3560.29
754.327	3554.86
754.666	3617.01
755.004	3601.19
755.342	3634.64
755.679	3651.81
756.017	3649.1
756.355	3687.97
756.693	3720.28
757.031	3731.58
757.368	3746.05
757.706	3752.37
758.044	3754.63
758.381	3784.01
758.719	3825.37
759.056	3873.73
759.394	3831.02
759.731	3818.81
760.068	3806.61
760.405	3862.2
760.743	3900.17
761.08	3896.55
761.417	3919.83
761.754	3937
762.091	3901.97
762.428	3949.88
762.765	3921.86
763.102	3965.47
763.438	3976.32
763.775	3981.29
764.112	3967.06
764.449	4012.25
764.785	4024.91
765.122	4038.69
765.458	3992.59
765.795	4007.06
766.131	4060.61
766.467	4030.78
766.804	4025.59
767.14	4034.85
767.476	4034.4
767.812	4034.17
768.148	4058.58
768.485	4006.15
768.821	3992.82
769.157	4015.87
769.492	4026.94
769.828	4033.5
770.164	4040.73
770.5	4033.04
770.836	4036.66
771.171	4033.95
771.507	4012.25
771.842	4009.99
