Data from blue_shiny_book_FLMS001491_00008.txt Node
Date: Wed Feb 08 15:26:27 GMT 2017
User: dcchb
Spectrometer: FLMS00149
Trigger mode: 0
Integration Time (sec): 2.000000E-2
Scans to average: 10
Electric dark correction enabled: true
Nonlinearity correction enabled: false
Boxcar width: 0
XAxis mode: Wavelengths
Number of Pixels in Spectrum: 2048
>>>>>Begin Spectral Data<<<<<
341.393	-1.68
341.776	-1.68
342.16	-1.68
342.543	-67.89
342.927	-82.13
343.31	-73.32
343.693	-69.25
344.077	-59.98
344.46	-71.96
344.843	-68.35
345.226	-58.18
345.61	-24.05
345.993	-18.63
346.376	0.35
346.759	19.34
347.142	20.47
347.525	32.22
347.908	64.76
348.291	90.29
348.674	104.76
349.057	111.54
349.44	119.67
349.823	144.08
350.206	135.04
350.588	224.08
350.971	210.97
351.354	220.69
351.737	249.61
352.119	251.87
352.502	288.03
352.884	274.02
353.267	297.07
353.65	279.44
354.032	320.57
354.414	304.75
354.797	338.88
355.179	329.61
355.562	317.63
355.944	333.45
356.326	354.69
356.709	330.29
357.091	346.56
357.473	350.63
357.855	353.11
358.238	349.95
358.62	336.39
359.002	341.36
359.384	375.71
359.766	363.73
360.148	354.69
360.53	355.6
360.912	349.5
361.294	345.88
361.676	373.9
362.057	343.17
362.439	325.99
362.821	374.35
363.203	333.45
363.584	338.65
363.966	334.36
364.348	343.62
364.729	340.23
365.111	325.09
365.493	347.69
365.874	348.14
366.256	327.12
366.637	337.07
367.019	350.17
367.4	330.06
367.781	332.77
368.163	325.77
368.544	326.67
368.925	349.72
369.306	360.57
369.688	340.23
370.069	332.1
370.45	354.02
370.831	349.5
371.212	329.61
371.593	343.39
371.974	369.83
372.355	359.21
372.736	365.54
373.117	370.06
373.498	348.82
373.879	359.44
374.26	342.49
374.641	359.21
375.021	363.28
375.402	356.05
375.783	367.8
376.163	401.7
376.544	410.96
376.925	378.2
377.305	365.99
377.686	375.26
378.066	388.82
378.447	359.89
378.827	404.41
379.208	388.59
379.588	420.68
379.968	394.47
380.349	399.66
380.729	399.44
381.109	398.31
381.489	403.51
381.87	395.14
382.25	419.78
382.63	434.47
383.01	413.68
383.39	427.01
383.77	442.15
384.15	430.85
384.53	447.57
384.91	427.46
385.29	454.8
385.67	449.38
386.049	438.53
386.429	445.54
386.809	450.96
387.189	454.58
387.568	473.56
387.948	463.62
388.328	486.89
388.707	478.98
389.087	467.46
389.466	499.77
389.846	483.05
390.225	508.36
390.605	522.37
390.984	519.66
391.363	493.67
391.743	532.99
392.122	525.76
392.501	536.16
392.881	530.06
393.26	539.1
393.639	535.71
394.018	550.17
394.397	548.59
394.776	561.24
395.155	566.67
395.534	555.37
395.913	584.52
396.292	594.01
396.671	587
397.05	595.82
397.429	625.87
397.808	609.6
398.186	604.86
398.565	618.19
398.944	604.41
399.323	625.65
399.701	627.23
400.08	624.07
400.458	662.48
400.837	658.19
401.215	676.04
401.594	671.07
401.972	674.01
402.351	685.08
402.729	679.88
403.107	708.13
403.486	702.26
403.864	711.52
404.242	726.21
404.62	717.17
404.999	738.19
405.377	742.25
405.755	756.94
406.133	752.2
406.511	758.53
406.889	777.06
407.267	789.94
407.645	822.7
408.023	802.82
408.401	811.18
408.779	832.42
409.156	855.47
409.534	863.38
409.912	854.34
410.29	864.74
410.667	895.92
411.045	914.23
411.422	911.06
411.8	939.76
412.178	939.31
412.555	966.88
412.933	961.91
413.31	987.22
413.687	982.02
414.065	986.77
414.442	1002.13
414.819	1060.89
415.197	1055.69
415.574	1056.14
415.951	1069.48
416.328	1090.27
416.705	1080.32
417.082	1083.26
417.46	1123.04
417.837	1151.96
418.214	1159.64
418.591	1167.78
418.967	1206.88
419.344	1189.93
419.721	1190.83
420.098	1199.19
420.475	1238.29
420.852	1228.8
421.228	1250.26
421.605	1257.04
421.982	1284.39
422.358	1282.35
422.735	1298.17
423.111	1320.09
423.488	1334.1
423.864	1346.76
424.241	1404.38
424.617	1374.33
424.994	1397.83
425.37	1410.03
425.746	1434.89
426.123	1452.97
426.499	1464.95
426.875	1494.33
427.251	1518.05
427.627	1540.43
428.003	1566.19
428.379	1582.91
428.756	1602.34
429.132	1624.04
429.507	1650.71
429.883	1673.98
430.259	1679.63
430.635	1710.36
431.011	1714.43
431.387	1762.34
431.763	1789.23
432.138	1783.36
432.514	1826.75
432.89	1851.83
433.265	1932.73
433.641	1913.98
434.016	1953.52
434.392	1996.46
434.767	2017.93
435.143	2050.92
435.518	2058.38
435.894	2050.69
436.269	2076
436.644	2129.11
437.02	2150.13
437.395	2169.56
437.77	2221.09
438.145	2243.01
438.52	2250.01
438.895	2297.02
439.271	2330.24
439.646	2360.29
440.021	2395.77
440.395	2384.47
440.77	2386.73
441.145	2414.3
441.52	2421.08
441.895	2442.1
442.27	2461.53
442.645	2488.2
443.019	2535.2
443.394	2539.04
443.769	2613.84
444.143	2634.86
444.518	2666.05
444.892	2647.06
445.267	2644.13
445.641	2687.06
446.016	2716.21
446.39	2691.36
446.764	2729.55
447.139	2712.37
447.513	2757.12
447.887	2796.89
448.262	2834.18
448.636	2866.49
449.01	2873.5
449.384	2894.06
449.758	2915.76
450.132	2971.57
450.506	2985.59
450.88	2996.43
451.254	2949.65
451.628	3037.11
452.002	3101.97
452.376	3067.84
452.75	3179.25
453.123	3201.17
453.497	3211.12
453.871	3248.63
454.244	3393.48
454.618	3390.09
454.992	3434.16
455.365	3457.89
455.739	3527.94
456.112	3542.63
456.486	3567.72
456.859	3608.17
457.232	3611.11
457.606	3637.77
457.979	3696.75
458.352	3775.85
458.725	3871.89
459.099	3885.9
459.472	4019.68
459.845	4074.6
460.218	4119.57
460.591	4141.71
460.964	4162.05
461.337	4265.1
461.71	4307.81
462.083	4332.44
462.456	4305.78
462.829	4373.8
463.201	4438.65
463.574	4454.02
463.947	4587.13
464.32	4687.46
464.692	4752.54
465.065	4783.5
465.438	4902.37
465.81	4946.89
466.183	4979.43
466.555	5087.22
466.928	5127.22
467.3	5100.78
467.672	5136.94
468.045	5291.06
468.417	5285.41
468.789	5370.83
469.161	5415.8
469.534	5586.42
469.906	5620.54
470.278	5739.64
470.65	5832.29
471.022	5938.5
471.394	6078.16
471.766	6146.86
472.138	6172.62
472.51	6331.03
472.882	6352.28
473.253	6419.62
473.625	6519.05
473.997	6634.08
474.369	6708.88
474.74	6754.75
475.112	6927.85
475.484	7072.71
475.855	7209.88
476.227	7286.04
476.598	7544.11
476.97	7575.75
477.341	7775.29
477.713	7856.64
478.084	7925.57
478.455	8142.06
478.827	8240.81
479.198	8427.25
479.569	8404.88
479.94	8700.92
480.311	8703.18
480.682	8943.39
481.053	9117.4
481.424	9280.56
481.795	9376.6
482.166	9725.75
482.537	9748.12
482.908	9965.74
483.279	10096.13
483.65	10265.17
484.021	10388.1
484.391	10501.32
484.762	10737.92
485.133	10736.79
485.503	10895.43
485.874	11102.89
486.244	11264.01
486.615	11466.72
486.985	11557.34
487.356	11870.55
487.726	11977.89
488.097	12275.51
488.467	12331.33
488.837	12685.67
489.207	12815.38
489.578	13077.98
489.948	13195.03
490.318	13257.18
490.688	13317.97
491.058	13571.52
491.428	13684.97
491.798	13824.4
492.168	14074.56
492.538	14114.33
492.908	14238.4
493.278	14471.39
493.648	14611.27
494.017	14788.66
494.387	15006.06
494.757	15077.7
495.126	15425.94
495.496	15458.7
495.866	15564.46
496.235	15772.37
496.605	15919.48
496.974	15969.42
497.344	16084.45
497.713	16163.77
498.082	16311.11
498.452	16439.24
498.821	16661.38
499.19	16700.25
499.559	16834.71
499.928	17062.5
500.298	17036.97
500.667	17308.15
501.036	17288.71
501.405	17614.13
501.774	17602.15
502.143	17807.79
502.512	17929.15
502.88	18139.76
503.249	18071.06
503.618	18204.17
503.987	18278.06
504.356	18384.05
504.724	18477.16
505.093	18611.62
505.462	18726.64
505.83	18854.09
506.199	19059.96
506.567	19312.61
506.936	19276
507.304	19650.23
507.672	19694.98
508.041	19784.69
508.409	20021.75
508.777	20251.12
509.145	20384.45
509.514	20260.39
509.882	20431
510.25	20488.85
510.618	20670.32
510.986	20809.75
511.354	20903.76
511.722	21097.2
512.09	21341.94
512.458	21338.1
512.826	21427.81
513.193	21656.05
513.561	21772.21
513.929	22056.04
514.297	22225.08
514.664	22378.07
515.032	22545.3
515.4	22692.86
515.767	22778.74
516.135	23062.35
516.502	22847.44
516.869	23296.01
517.237	23349.57
517.604	23343.24
517.972	23651.48
518.339	23743.68
518.706	23858.48
519.073	24075.43
519.44	24082.21
519.808	24495.53
520.175	24429.09
520.542	24912.47
520.909	24991.33
521.276	25048.96
521.643	25331.21
522.009	25574.6
522.376	25675.84
522.743	25844.19
523.11	26019.56
523.477	26324.41
523.843	26433.1
524.21	26751.06
524.577	26952.64
524.943	27104.73
525.31	27213.65
525.676	27478.73
526.043	27605.95
526.409	27758.95
526.776	28097.92
527.142	28202.32
527.508	28455.88
527.874	28705.14
528.241	28862.87
528.607	28936.77
528.973	29345.34
529.339	29188.74
529.705	29469.86
530.071	29712.57
530.437	29867.82
530.803	30023.74
531.169	30109.84
531.535	30199.56
531.901	30300.35
532.267	30573.11
532.632	30783.95
532.998	30910.5
533.364	31101.46
533.73	31441.56
534.095	31493.08
534.461	31721.55
534.826	31913.41
535.192	32112.05
535.557	32257.81
535.923	32183.01
536.288	32380.52
536.653	32522.66
537.019	32542.32
537.384	32586.84
537.749	32785.93
538.114	32688.31
538.479	32736.67
538.845	33088.75
539.21	32990.9
539.575	33310.44
539.94	33362.41
540.305	33469.98
540.67	33679.69
541.034	33885.34
541.399	33949.97
541.764	34172.79
542.129	34210.75
542.494	34476.96
542.858	34497.3
543.223	34598.77
543.587	34758.31
543.952	34768.25
544.316	34935.25
544.681	34791.98
545.045	35035.59
545.41	35112.65
545.774	35043.5
546.138	35265.64
546.503	35250.95
546.867	35231.74
547.231	35742.24
547.595	35564.16
547.959	35729.13
548.324	35822.01
548.688	36105.39
549.052	36407.76
549.416	36330.02
549.779	36480.07
550.143	36719.61
550.507	36815.43
550.871	36986.73
551.235	36929.1
551.599	37251.35
551.962	37292.48
552.326	37154.63
552.689	37440.72
553.053	37226.94
553.417	37247.28
553.78	37724.11
554.143	37576.54
554.507	37754.16
554.87	37902.18
555.234	38163.87
555.597	37962.52
555.96	38313.47
556.323	38497.42
556.686	38673.69
557.05	39019.89
557.413	39172.88
557.776	39245.65
558.139	39502.37
558.502	39606.32
558.865	39635.24
559.228	40051.73
559.59	39997.04
559.953	39965.86
560.316	40385.05
560.679	40380.08
561.041	40405.39
561.404	40599.29
561.767	40577.14
562.129	40552.06
562.492	40911.82
562.854	41017.35
563.217	41141.42
563.579	41166.5
563.941	41404.69
564.304	41618.02
564.666	41909.76
565.028	41938.46
565.39	42129.41
565.753	42354.04
566.115	42682.17
566.477	43109.5
566.839	43077.86
567.201	43313.56
567.563	43316.73
567.925	43577.06
568.287	43665.65
568.648	43586.55
569.01	43792.65
569.372	43848.47
569.734	43544.29
570.095	43917.39
570.457	43971.17
570.819	43828.13
571.18	43722.82
571.542	44189.47
571.903	44233.99
572.265	44433.54
572.626	44604.38
572.987	44799.4
573.349	45104.25
573.71	45104.03
574.071	45246.17
574.432	45483
574.794	45842.31
575.155	45885.93
575.516	45786.27
575.877	45932.7
576.238	46069.88
576.599	46360.94
576.96	46183.77
577.32	46226.03
577.681	46254.5
578.042	46437.32
578.403	46241.4
578.763	46235.75
579.124	46186.71
579.485	46299.02
579.845	46282.75
580.206	46244.11
580.566	46351.9
580.927	46231.68
581.287	46646.13
581.648	46371.11
582.008	46787.82
582.368	46775.39
582.728	46894.04
583.089	47152.11
583.449	47042.05
583.809	47201.6
584.169	47363.85
584.529	47445.89
584.889	47756.39
585.249	47433.23
585.609	47445.89
585.969	47687.91
586.329	47494.02
586.688	47371.76
587.048	47247.47
587.408	47263.29
587.768	47039.79
588.127	46963.41
588.487	46857.65
588.846	47204.76
589.206	46854.26
589.565	47019.68
589.925	47094.26
590.284	46892.45
590.643	47135.16
591.003	47259
591.362	47402.27
591.721	47440.01
592.08	47459.9
592.44	47770.85
592.799	47738.76
593.158	47707.12
593.517	47845.2
593.876	47972.88
594.235	47995.02
594.593	48148.47
594.952	48220.55
595.311	48084.96
595.67	47908.25
596.029	48080.9
596.387	48042.03
596.746	47945.08
597.104	47576.96
597.463	47715.26
597.822	47792.99
598.18	47538.99
598.538	47529.05
598.897	47740.57
599.255	47250.86
599.613	47891.98
599.972	47599.1
600.33	47834.58
600.688	47712.32
601.046	47983.5
601.404	48114.79
601.762	48032.76
602.12	48312.08
602.478	48472.52
602.836	48623.93
603.194	48418.29
603.552	48541
603.91	48455.35
604.268	48695.8
604.625	48482.69
604.983	48668.68
605.341	48421
605.698	48632.29
606.056	48616.25
606.413	48595.91
606.771	48647.89
607.128	48700.09
607.485	48324.73
607.843	48370.38
608.2	48525.18
608.557	48531.05
608.914	48362.02
609.272	48525.4
609.629	48629.81
609.986	48851.27
610.343	48641.33
610.7	48840.88
611.057	48891.04
611.414	48931.95
611.771	49143.69
612.127	49336.68
612.484	49418.94
612.841	49528.32
613.198	49383.24
613.554	49517.02
613.911	49816.22
614.267	49801.76
614.624	49659.61
614.98	49819.16
615.337	49840.17
615.693	49728.54
616.05	49662.1
616.406	50097.57
616.762	49721.98
617.118	49594.98
617.475	49585.49
617.831	49674.08
618.187	49576
618.543	49565.38
618.899	49630.91
619.255	49608.31
619.611	49541.42
619.967	49746.62
620.323	49754.53
620.678	49648.54
621.034	49643.57
621.39	49538.26
621.746	49670.23
622.101	50082.88
622.457	49905.48
622.812	50057.79
623.168	50131.69
623.523	50162.2
623.879	50428.41
624.234	50160.39
624.589	50351.12
624.945	50366.49
625.3	50472.92
625.655	50424.11
626.01	50340.95
626.365	50156.77
626.72	50272.48
627.075	50079.94
627.43	50143.89
627.785	49965.37
628.14	49862.54
628.495	49880.85
628.85	49898.02
629.205	49663.23
629.559	49872.26
629.914	49651.7
630.269	49662.78
630.623	49496
630.978	49479.96
631.332	49720.4
631.687	49706.39
632.041	49659.61
632.396	49757.46
632.75	49659.39
633.104	49806.05
633.459	49689.89
633.813	49820.06
634.167	49668.65
634.521	49846.27
634.875	49833.17
635.229	49776.67
635.583	49641.08
635.937	49771.47
636.291	49747.97
636.645	49703.23
636.999	49591.14
637.352	49657.13
637.706	49469.56
638.06	49505.72
638.413	49366.74
638.767	49155.44
639.121	49020.53
639.474	48839.29
639.828	48911.16
640.181	48761.78
640.534	48772.18
640.888	48624.39
641.241	48423.94
641.594	48508
641.947	48530.38
642.301	48401.11
642.654	48500.09
643.007	48459.42
643.36	48377.61
643.713	48423.49
644.066	48653.09
644.419	48636.81
644.771	48543.94
645.124	48406.54
645.477	48569.25
645.83	48182.36
646.182	47877.51
646.535	47578.54
646.888	47430.52
647.24	47283.4
647.593	47611.76
647.945	47394.81
648.298	47261.94
648.65	47049.96
649.002	46938.33
649.355	47200.02
649.707	47108.94
650.059	47275.95
650.411	47733.79
650.763	47779.66
651.115	47969.04
651.467	47569.72
651.819	47606.78
652.171	47558.42
652.523	47436.85
652.875	47487.01
653.227	47326.57
653.578	47711.87
653.93	47548.03
654.282	47264.87
654.633	47078.89
654.985	47308.49
655.337	47399.78
655.688	47377.86
656.039	47496.96
656.391	47104.43
656.742	47250.41
657.094	47520.69
657.445	47817.85
657.796	47607.91
658.147	47748.02
658.498	47735.37
658.849	47866.21
659.2	47747.12
659.551	47599.1
659.902	47818.3
660.253	47694.24
660.604	47654.92
660.955	47457.86
661.306	47596.84
661.656	47486.34
662.007	47403.4
662.358	47355.04
662.708	47302.84
663.059	47273.69
663.409	47008.83
663.76	47250.86
664.11	47018.33
664.461	46732.91
664.811	46721.38
665.161	46781.5
665.511	46713.48
665.862	46703.53
666.212	46764.77
666.562	46927.03
666.912	46820.59
667.262	46764.32
667.612	46818.78
667.962	46868.95
668.312	46941.04
668.662	47171.54
669.011	47060.36
669.361	47047.48
669.711	47142.62
670.06	47140.58
670.41	47185.33
670.76	47163.18
671.109	47316.4
671.459	47203.86
671.808	47107.59
672.157	47355.94
672.507	47034.6
672.856	47251.77
673.205	47163.63
673.554	47043.64
673.904	46917.31
674.253	47045.44
674.602	46812
674.951	46305.35
675.3	45898.36
675.649	46430.09
675.998	46325.69
676.346	46387.83
676.695	46212.47
677.044	45925.93
677.393	46115.07
677.741	46019.03
678.09	45892.25
678.438	45674.18
678.787	45857
679.135	45789.21
679.484	45517.12
679.832	45899.26
680.181	45537.23
680.529	45701.52
680.877	45631.7
681.225	45694.74
681.573	46035.53
681.922	45896.55
682.27	45751.47
682.618	45931.57
682.966	45878.69
683.314	45877.79
683.661	45670.79
684.009	45626.5
684.357	45586.05
684.705	45518.7
685.053	45580.62
685.4	45545.14
685.748	45159.84
686.095	45240.75
686.443	45108.77
686.79	44875.78
687.138	44862.45
687.485	44780.19
687.832	44651.38
688.18	44542.23
688.527	44274.67
688.874	44151.51
689.221	43956.03
689.568	43923.49
689.915	43793.55
690.262	43541.13
690.609	43564.86
690.956	43282.38
691.303	43258.2
691.65	42921.03
691.997	43003.06
692.344	42735.05
692.69	42737.76
693.037	42780.25
693.383	42394.94
693.73	42665.22
694.077	42475.62
694.423	42481.95
694.769	42448.73
695.116	42376.41
695.462	42416.86
695.808	42392.91
696.155	42467.49
696.501	42140.04
696.847	42123.31
697.193	41973.71
697.539	42160.83
697.885	41899.59
698.231	41759.71
698.577	41795.19
698.923	41704.34
699.269	41483.56
699.614	41244.24
699.96	41251.7
700.306	41217.35
700.651	40960.86
700.997	40787.53
701.342	40573.3
701.688	40441.1
702.033	40090.6
702.379	40051.96
702.724	39828.01
703.069	39905.07
703.415	39372.88
703.76	39374.69
704.105	39279.32
704.45	39065.99
704.795	38842.72
705.14	38780.12
705.485	38824.87
705.83	38508.27
706.175	38784.64
706.52	38527.02
706.865	38560.02
707.209	38457.42
707.554	38388.04
707.899	38486.8
708.243	38186.24
708.588	38310.53
708.932	38221.95
709.277	38325
709.621	38394.6
709.966	38207.71
710.31	38465.33
710.654	38134.04
710.998	38259.69
711.342	38249.06
711.687	38238.44
712.031	38211.55
712.375	37807.04
712.719	38081.61
713.063	37860.6
713.407	37822.86
713.75	37548.07
714.094	37403.44
714.438	37302.88
714.782	37345.59
715.125	36967.06
715.469	37165.7
715.812	36777.92
716.156	36513.29
716.499	36442.11
716.843	36471.94
717.186	36059.74
717.53	36197.82
717.873	36161.21
718.216	35927.09
718.559	35712.18
718.902	35546.99
719.246	35588.8
719.589	35598.97
719.932	35565.29
720.275	35483.49
720.617	35466.99
720.96	35396.26
721.303	35471.96
721.646	35527.1
721.989	35221.12
722.331	35564.84
722.674	35616.59
723.016	35549.7
723.359	35651.62
723.701	35445.52
724.044	35494.34
724.386	35419.31
724.729	35658.62
725.071	35459.31
725.413	35703.37
725.755	35601.68
726.097	35506.31
726.439	35356.94
726.782	35325.98
727.124	35315.58
727.465	35200.78
727.807	35253.89
728.149	35099.77
728.491	34986.33
728.833	35012.31
729.175	34791.98
729.516	34648.93
729.858	34668.82
730.199	34754.47
730.541	34443.06
730.882	34332.33
731.224	34408.04
731.565	34126.46
731.906	34144.31
732.248	34068.61
732.589	33949.29
732.93	33800.14
733.271	33880.37
733.612	33775.06
733.953	33934.83
734.294	33705
734.635	33589.3
734.976	33737.32
735.317	33659.58
735.658	33726.02
735.999	33894.6
736.339	33682.18
736.68	33984.77
737.021	33874.72
737.361	33784.55
737.702	33979.35
738.042	33987.26
738.383	33978.67
738.723	34201.49
739.063	34239.9
739.404	34335.04
739.744	34406.45
740.084	34259.57
740.424	34313.12
740.764	34473.12
741.104	34413.91
741.444	34185.89
741.784	34115.84
742.124	34318.77
742.464	34175.5
742.804	34186.12
743.143	34035.62
743.483	34005.11
743.823	34030.87
744.162	33850.31
744.502	33964.43
744.841	33682.63
745.181	33772.35
745.52	33582.07
745.86	33631.11
746.199	33594.5
746.538	33366.93
746.877	33505.01
747.216	33399.25
747.556	33386.14
747.895	33412.36
748.234	33126.26
748.573	33230.21
748.911	33241.06
749.25	33180.05
749.589	33163.77
749.928	33099.82
750.267	33314.28
750.605	33324.22
750.944	33288.74
751.283	33151.12
751.621	33286.48
751.96	33249.87
752.298	33282.64
752.636	33472.02
752.975	33437.89
753.313	33319.03
