Data from blue_shiny_book_FLMS001491_00053.txt Node
Date: Wed Feb 08 15:27:12 GMT 2017
User: dcchb
Spectrometer: FLMS00149
Trigger mode: 0
Integration Time (sec): 2.000000E-2
Scans to average: 10
Electric dark correction enabled: true
Nonlinearity correction enabled: false
Boxcar width: 0
XAxis mode: Wavelengths
Number of Pixels in Spectrum: 2048
>>>>>Begin Spectral Data<<<<<
341.393	-5.65
341.776	-5.65
342.16	-5.65
342.543	-56.27
342.927	-47.23
343.31	-69.15
343.693	-70.05
344.077	-61.69
344.46	-65.99
344.843	-53.78
345.226	-36.16
345.61	-28.02
345.993	0.23
346.376	-10.17
346.759	21.02
347.142	25.08
347.525	36.16
347.908	36.16
348.291	66.44
348.674	101.69
349.057	108.25
349.44	108.92
349.823	159.77
350.206	167.91
350.588	213.78
350.971	235.47
351.354	245.19
351.737	242.03
352.119	265.98
352.502	271.63
352.884	295.13
353.267	291.97
353.65	310.73
354.032	329.48
354.414	332.87
354.797	342.36
355.179	339.65
355.562	338.97
355.944	369.93
356.326	336.94
356.709	340.56
357.091	371.97
357.473	382.59
357.855	374.23
358.238	379.43
358.62	372.42
359.002	366.09
359.384	360.44
359.766	376.04
360.148	354.57
360.53	391.63
360.912	355.47
361.294	374.91
361.676	379.43
362.057	359.54
362.439	362.93
362.821	359.99
363.203	377.84
363.584	363.15
363.966	359.99
364.348	368.8
364.729	362.93
365.111	352.31
365.493	354.57
365.874	362.48
366.256	357.28
366.637	348.69
367.019	356.83
367.4	356.15
367.781	346.21
368.163	357.5
368.544	345.08
368.925	374.68
369.306	360.44
369.688	358.41
370.069	352.99
370.45	376.94
370.831	379.43
371.212	354.79
371.593	345.98
371.974	368.13
372.355	350.73
372.736	378.75
373.117	371.29
373.498	362.02
373.879	375.81
374.26	367
374.641	372.42
375.021	367
375.402	366.77
375.783	381.23
376.163	429.14
376.544	409.71
376.925	378.52
377.305	390.05
377.686	409.25
378.066	416.94
378.447	419.88
378.827	403.38
379.208	415.13
379.588	417.62
379.968	402.48
380.349	409.03
380.729	415.81
381.109	419.65
381.489	427.11
381.87	428.92
382.25	442.25
382.63	443.15
383.01	469.14
383.39	464.85
383.77	443.15
384.15	463.94
384.53	454.9
384.91	461.91
385.29	471.85
385.67	480.67
386.049	491.29
386.429	499.87
386.809	488.57
387.189	495.35
387.568	508.01
387.948	484.06
388.328	499.87
388.707	507.78
389.087	519.31
389.466	516.14
389.846	530.16
390.225	545.07
390.605	532.87
390.984	555.69
391.363	526.99
391.743	542.36
392.122	575.8
392.501	552.98
392.881	570.83
393.26	584.62
393.639	573.77
394.018	586.65
394.397	607.89
394.776	589.81
395.155	619.42
395.534	622.81
395.913	613.77
396.292	649.47
396.671	630.94
397.05	641.57
397.429	634.11
397.808	653.09
398.186	660.1
398.565	661.23
398.944	650.38
399.323	689.47
399.701	670.72
400.08	689.7
400.458	702.58
400.837	710.72
401.215	722.24
401.594	720.21
401.972	720.88
402.351	729.92
402.729	746.87
403.107	754.1
403.486	758.17
403.864	784.16
404.242	786.42
404.62	810.6
404.999	804.05
405.377	781.22
405.755	819.41
406.133	828.45
406.511	833.88
406.889	837.49
407.267	861.45
407.645	876.36
408.023	887.66
408.401	918.85
408.779	934.66
409.156	934.89
409.534	912.07
409.912	942.8
410.29	952.07
410.667	975.79
411.045	975.79
411.422	1012.63
411.8	1009.46
412.178	1035.68
412.555	1078.62
412.933	1052.63
413.31	1111.84
413.687	1098.95
414.065	1125.62
414.442	1122.23
414.819	1135.11
415.197	1169.23
415.574	1186.41
415.951	1190.93
416.328	1187.31
416.705	1227.54
417.082	1232.06
417.46	1263.02
417.837	1237.48
418.214	1278.16
418.591	1284.49
418.967	1289.46
419.344	1302.56
419.721	1314.77
420.098	1348.89
420.475	1355.67
420.852	1350.92
421.228	1370.13
421.605	1418.49
421.982	1410.13
422.358	1460.07
422.735	1443.58
423.111	1455.33
423.488	1492.62
423.864	1475.22
424.241	1490.36
424.617	1490.58
424.994	1523.58
425.37	1583.69
425.746	1588.43
426.123	1613.52
426.499	1608.09
426.875	1670.24
427.251	1666.85
427.627	1698.03
428.003	1734.64
428.379	1743.46
428.756	1744.36
429.132	1757.24
429.507	1840.86
429.883	1839.5
430.259	1886.5
430.635	1893.28
431.011	1929.21
431.387	1959.27
431.763	1995.88
432.138	2022.09
432.514	2060.28
432.89	2071.58
433.265	2133.73
433.641	2114.97
434.016	2124.92
434.392	2197.46
434.767	2256.21
435.143	2239.49
435.518	2263.9
435.894	2304.12
436.269	2348.64
436.644	2378.02
437.02	2393.84
437.395	2424.34
437.77	2453.04
438.145	2452.14
438.52	2483.55
438.895	2510.22
439.271	2544.34
439.646	2633.6
440.021	2660.27
440.395	2646.94
440.77	2643.77
441.145	2712.47
441.52	2744.33
441.895	2757.44
442.27	2778.23
442.645	2796.76
443.019	2822.3
443.394	2836.31
443.769	2854.16
444.143	2841.96
444.518	2889.64
444.892	2905.01
445.267	2967.83
445.641	2984.55
446.016	3018.23
446.39	3007.83
446.764	3061.16
447.139	3042.86
447.513	3106.81
447.887	3106.36
448.262	3125.79
448.636	3153.36
449.01	3202.85
449.384	3212.34
449.758	3273.81
450.132	3312.68
450.506	3320.36
450.88	3354.49
451.254	3375.05
451.628	3419.8
452.002	3469.29
452.376	3489.85
452.75	3516.74
453.123	3559
453.497	3603.75
453.871	3660.92
454.244	3727.59
454.618	3727.13
454.992	3832.44
455.365	3840.13
455.739	3915.38
456.112	4003.96
456.486	3990.63
456.859	4023.4
457.232	4135.71
457.606	4158.76
457.979	4187.69
458.352	4301.36
458.725	4316.27
459.099	4367.12
459.472	4477.17
459.845	4497.51
460.218	4554.46
460.591	4579.77
460.964	4602.59
461.337	4753.55
461.71	4824.73
462.083	4919.19
462.456	4936.82
462.829	4903.83
463.201	5067.21
463.574	5043.48
463.947	5162.12
464.32	5285.51
464.692	5318.73
465.065	5341.33
465.438	5479.4
465.81	5506.75
466.183	5553.98
466.555	5695.44
466.928	5748.78
467.3	5764.37
467.672	5865.16
468.045	5989.9
468.417	6039.39
468.789	6095.66
469.161	6178.14
469.534	6246.39
469.906	6379.04
470.278	6447.97
470.65	6504.46
471.022	6638.02
471.394	6758.47
471.766	6895.19
472.138	6909.87
472.51	7097.67
472.882	7191.22
473.253	7316.64
473.625	7421.73
473.997	7593.92
474.369	7600.93
474.74	7698.33
475.112	7913.69
475.484	8052.44
475.855	8132.44
476.227	8215.6
476.598	8402.72
476.97	8498.76
477.341	8697.4
477.713	8852.2
478.084	8927.22
478.455	9174
478.827	9228.68
479.198	9540.54
479.569	9524.27
479.94	9847.65
480.311	9903.69
480.682	10075.89
481.053	10340.97
481.424	10448.54
481.795	10533.06
482.166	10840.84
482.537	10941.63
482.908	11228.18
483.279	11322.87
483.65	11585.23
484.021	11793.81
484.391	11864.09
484.762	12055.73
485.133	12133.69
485.503	12341.82
485.874	12587.92
486.244	12738.65
486.615	12934.58
486.985	13112.42
487.356	13384.05
487.726	13426.99
488.097	13777.94
488.467	13821.78
488.837	14093.41
489.207	14296.8
489.578	14598.26
489.948	14703.57
490.318	14913.51
490.688	15006.16
491.058	15224.46
491.428	15457.9
491.798	15604.11
492.168	15912.58
492.538	15944.67
492.908	16089.07
493.278	16309.63
493.648	16426.69
494.017	16668.26
494.387	16876.17
494.757	17020.8
495.126	17221.47
495.496	17399.77
495.866	17511.18
496.235	17834.33
496.605	17988.45
496.974	18067.55
497.344	18282.91
497.713	18275.23
498.082	18375.11
498.452	18678.6
498.821	18811.03
499.19	18750.02
499.559	18946.17
499.928	19010.57
500.298	19196.11
500.667	19373.95
501.036	19452.6
501.405	19710.44
501.774	19869.53
502.143	19987.05
502.512	20232.46
502.88	20398.79
503.249	20450.08
503.618	20644.2
503.987	20643.07
504.356	20710.87
504.724	20981.37
505.093	20985.66
505.462	21082.61
505.83	21172.55
506.199	21368.7
506.567	21643.05
506.936	21577.06
507.304	21902.47
507.672	22003.04
508.041	22231.96
508.409	22515.57
508.777	22731.38
509.145	22844.15
509.514	23099.51
509.882	23235.32
510.25	23267.41
510.618	23408.65
510.986	23527.07
511.354	23864.46
511.722	23854.29
512.09	24157.78
512.458	24087.95
512.826	24385.35
513.193	24378.12
513.561	24546.93
513.929	24794.38
514.297	25045.44
514.664	25203.41
515.032	25348.94
515.4	25642.26
515.767	25770.4
516.135	26056.72
516.502	25973.33
516.869	26511.17
517.237	26618.28
517.604	26540.77
517.972	26922.68
518.339	27022.34
518.706	26927.65
519.073	26935.56
519.44	27187.53
519.808	27529.67
520.175	27482.89
520.542	27792.49
520.909	28067.96
521.276	27984.57
521.643	28372.81
522.009	28681.28
522.376	28903.42
522.743	29182.74
523.11	29427.47
523.477	29760.35
523.843	30065.88
524.21	30414.57
524.577	30602.81
524.943	30839.87
525.31	30983.37
525.676	31167.77
526.043	31285.28
526.409	31377.25
526.776	31711.26
527.142	31844.36
527.508	31899.05
527.874	32119.38
528.241	32401.86
528.607	32555.3
528.973	32995.29
529.339	33013.37
529.705	33365.9
530.071	33734.71
530.437	33984.19
530.803	34230.06
531.169	34608.36
531.535	34526.55
531.901	34714.57
532.267	34838.86
532.632	34998.4
532.998	35266.64
533.364	35371.95
533.73	35305.29
534.095	35421.67
534.461	35592.51
534.826	35821.66
535.192	35833.63
535.557	36043.12
535.923	36011.71
536.288	36142.55
536.653	36493.96
537.019	36648.98
537.384	36970.33
537.749	37129.19
538.114	37374.84
538.479	37277.66
538.845	37540.71
539.21	37555.62
539.575	37803.75
539.94	37848.5
540.305	38091.65
540.67	37936.63
541.034	38050.3
541.399	38170.52
541.764	38165.78
542.129	38325.32
542.494	38428.82
542.858	38592.21
543.223	38501.36
543.587	38627.68
543.952	38844.85
544.316	39114.23
544.681	39307.22
545.045	39485.97
545.41	39760.08
545.774	39887.99
546.138	40008.44
546.503	40287.75
546.867	40258.15
547.231	40643.9
547.595	40747.4
547.959	40772.26
548.324	40718.03
548.688	40732.94
549.052	40760.28
549.416	40865.59
549.779	40802.09
550.143	40847.51
550.507	40986.27
550.871	41193.72
551.235	41073.04
551.599	41458.8
551.962	41416.31
552.326	41620.6
552.689	41887.94
553.053	41844.55
553.417	42026.01
553.78	42532.21
554.143	42397.98
554.507	42795.94
554.87	43007.23
555.234	43318.18
555.597	43061.01
555.96	43272.31
556.323	43433.43
556.686	43455.13
557.05	43635.69
557.413	43590.49
557.776	43592.53
558.139	43686.99
558.502	43798.17
558.865	43665.52
559.228	43991.61
559.59	44089.46
559.953	44119.29
560.316	44566.29
560.679	44653.97
561.041	45115.88
561.404	45253.5
561.767	45556.54
562.129	45573.26
562.492	46154.04
562.854	46170.09
563.217	46120.37
563.579	46537.31
563.941	46714.48
564.304	46853.91
564.666	47064.07
565.028	47096.16
565.39	47171.87
565.753	47460.45
566.115	47453.44
566.477	47465.64
566.839	47454.8
567.201	47598.75
567.563	47668.13
567.925	47722.59
568.287	47823.6
568.648	47946.76
569.01	48140.66
569.372	48417.03
569.734	48284.83
570.095	48638.72
570.457	48793.97
570.819	48973.85
571.18	49076.9
571.542	49524.57
571.903	49559.6
572.265	49633.95
572.626	49752.59
572.987	49906.26
573.349	50007.95
573.71	50131.11
574.071	50107.38
574.432	50200.71
574.794	50213.59
575.155	50129.98
575.516	49868.52
575.877	50028.29
576.238	50013.83
576.599	50125.01
576.96	50150.55
577.32	50198.91
577.681	50311.45
578.042	50469.63
578.403	50382.4
578.763	50619.01
579.124	50709.85
579.485	50969.28
579.845	51041.37
580.206	51058.77
580.566	51159.56
580.927	51243.4
581.287	51499.44
581.648	51362.04
582.008	51529.49
582.368	51476.84
582.728	51498.08
583.089	51511.87
583.449	51414.24
583.809	51479.78
584.169	51506.44
584.529	51362.94
584.889	51475.48
585.249	51260.8
585.609	51167.24
585.969	51402.49
586.329	51245.66
586.688	51338.09
587.048	51381.02
587.408	51348.48
587.768	51418.54
588.127	51515.03
588.487	51523.62
588.846	51858.98
589.206	51718.87
589.565	51758.64
589.925	51961.57
590.284	51879.31
590.643	51885.19
591.003	52104.39
591.362	52159.76
591.721	52063.04
592.08	52065.07
592.44	52117.27
592.799	52151.62
593.158	51979.42
593.517	51807.45
593.876	51944.17
594.235	51781.92
594.593	51858.98
594.952	51976.71
595.311	51682.93
595.67	51748.7
596.029	51919.76
596.387	51953.66
596.746	51889.48
597.104	51729.26
597.463	51837.73
597.822	52101.23
598.18	51876.15
598.538	52006.77
598.897	52186.2
599.255	52061.68
599.613	52483.37
599.972	52271.17
600.33	52352.07
600.688	52277.04
601.046	52492.41
601.404	52634.77
601.762	52498.05
602.12	52624.15
602.478	52561.78
602.836	52586.64
603.194	52480.88
603.552	52530.14
603.91	52334.44
604.268	52416.7
604.625	52248.34
604.983	52284.5
605.341	52082.47
605.698	52341.45
606.056	52360.21
606.413	52401.79
606.771	52490.82
607.128	52579.63
607.485	52385.74
607.843	52567.66
608.2	52789.35
608.557	52994.54
608.914	52955.22
609.272	53121.09
609.629	53190.01
609.986	53292.84
610.343	53235.89
610.7	53405.15
611.057	53348.65
611.414	53440.4
611.771	53393.4
612.127	53531.7
612.484	53507.07
612.841	53611.47
613.198	53410.35
613.554	53491.93
613.911	53584.35
614.267	53480.4
614.624	53390.46
614.98	53427.97
615.337	53501.64
615.693	53501.87
616.05	53412.38
616.406	53612.6
616.762	53397.24
617.118	53421.42
617.475	53419.84
617.831	53452.15
618.187	53582.77
618.543	53643.79
618.899	53810.79
619.255	53725.37
619.611	53734.63
619.967	53878.81
620.323	54069.76
620.678	53899.37
621.034	53861.86
621.39	53950.9
621.746	53962.42
622.101	54163.55
622.457	53964.46
622.812	53956.55
623.168	54119.71
623.523	53994.74
623.879	54010.56
624.234	53886.72
624.589	53917
624.945	53843.1
625.3	53811.24
625.655	53747.06
626.01	53764.46
626.365	53749.77
626.72	53654.86
627.075	53602.43
627.43	53678.14
627.785	53574.41
628.14	53639.27
628.495	53671.13
628.85	53648.08
629.205	53565.6
629.559	53713.16
629.914	53667.06
630.269	53782.09
630.623	53771.24
630.978	53739.6
631.332	53878.81
631.687	54047.62
632.041	53896.66
632.396	53955.19
632.75	53907.51
633.104	53953.38
633.459	53803.78
633.813	53895.98
634.167	53847.62
634.521	53818.7
634.875	53770.11
635.229	53673.39
635.583	53486.5
635.937	53485.37
636.291	53421.19
636.645	53432.27
636.999	53277.24
637.352	53347.3
637.706	53049.9
638.06	53189.11
638.413	53104.82
638.767	52962
639.121	52825.28
639.474	52747.31
639.828	52759.97
640.181	52904.37
640.534	52880.87
640.888	52775.34
641.241	52718.61
641.594	52813.75
641.947	52844.71
642.301	52774.66
642.654	52933.07
643.007	52849.91
643.36	52845.62
643.713	52795
644.066	52940.08
644.419	52901.66
644.771	52904.6
645.124	52772.62
645.477	52663.93
645.83	52263.94
646.182	51886.32
646.535	51593.45
646.888	51552.09
647.24	51273.23
647.593	51478.87
647.945	51209.5
648.298	51108.03
648.65	50931.09
649.002	50860.13
649.355	50940.36
649.707	50940.81
650.059	51122.72
650.411	51555.25
650.763	51564.97
651.115	51957.05
651.467	51764.29
651.819	51809.94
652.171	51726.1
652.523	51740.33
652.875	51662.14
653.227	51609.49
653.578	51929.26
653.93	51911.86
654.282	51807.23
654.633	51731.97
654.985	51864.17
655.337	51863.27
655.688	51882.93
656.039	52079.76
656.391	51919.54
656.742	51830.95
657.094	51921.8
657.445	52080.21
657.796	51914.57
658.147	51928.35
658.498	51786.21
658.849	51872.99
659.2	51878.18
659.551	51778.98
659.902	51692.2
660.253	51697.62
660.604	51563.84
660.955	51491.98
661.306	51475.26
661.656	51308.71
662.007	51250.86
662.358	51272.55
662.708	51350.74
663.059	51252.44
663.409	50922.05
663.76	51308.48
664.11	51099.45
664.461	51248.37
664.811	51278.88
665.161	51245.88
665.511	51234.36
665.862	51299.67
666.212	51527.01
666.562	51547.12
666.912	51516.39
667.262	51425.99
667.612	51599.1
667.962	51676.16
668.312	51656.04
668.662	51722.03
669.011	51614.01
669.361	51708.24
669.711	51602.48
670.06	51394.13
670.41	51306.22
670.76	51173.12
671.109	51268.03
671.459	51120.24
671.808	51062.84
672.157	51054.48
672.507	50926.34
672.856	50812.68
673.205	50821.26
673.554	50794.6
673.904	50592.12
674.253	50681.61
674.602	50606.8
674.951	50037.78
675.3	49897.9
675.649	50369.07
675.998	50390.54
676.346	50079.59
676.695	50337.89
677.044	50209.08
677.393	50267.83
677.741	50451.33
678.09	50269.19
678.438	50319.13
678.787	50403.65
679.135	50491.55
679.484	50144.67
679.832	50448.62
680.181	50303.76
680.529	50452.68
680.877	50454.72
681.225	50507.37
681.573	50692.45
681.922	50428.05
682.27	50357.77
682.618	50311.22
682.966	50237.32
683.314	50263.54
683.661	50084.33
684.009	49859.93
684.357	49826.49
684.705	49769.31
685.053	49726.83
685.4	49402.99
685.748	49392.6
686.095	49163.23
686.443	49080.52
686.79	48976.34
687.138	48899.96
687.485	48872.61
687.832	48756.46
688.18	48735.67
688.527	48546.29
688.874	48397.6
689.221	48362.8
689.568	48259.97
689.915	48053.88
690.262	48290.48
690.609	48038.51
690.956	48214.1
691.303	48073.76
691.65	48037.61
691.997	48111.73
692.344	47749.7
692.69	47925.29
693.037	47812.53
693.383	47751.74
693.73	48005.52
694.077	47671.74
694.423	47628.13
694.769	47480.11
695.116	47350.62
695.462	47384.74
695.808	47265.42
696.155	47255.71
696.501	46926.22
696.847	46767.13
697.193	46711.77
697.539	46663.41
697.885	46327.37
698.231	46215.28
698.577	45938
698.923	45819.13
699.269	45603.77
699.614	45454.85
699.96	45315.87
700.306	45137.12
700.651	44791.14
700.997	44734.42
701.342	44638.15
701.688	44532.39
702.033	44310.47
702.379	44364.71
702.724	44328.1
703.069	44376.46
703.415	43897.6
703.76	43937.38
704.105	43920.88
704.45	43841.79
704.795	43692.64
705.14	43679.08
705.485	43589.36
705.83	43466.2
706.175	43614.67
706.52	43419.2
706.865	43526.09
707.209	43449.71
707.554	43398.41
707.899	43398.41
708.243	43062.6
708.588	43059.43
708.932	42970.17
709.277	43026.44
709.621	43112.99
709.966	42707.13
710.31	42802.94
710.654	42432.33
710.998	42489.5
711.342	42467.81
711.687	42200.47
712.031	41940.37
712.375	41849.97
712.719	41936.52
713.063	41665.57
713.407	41618.34
713.75	41339.7
714.094	41388.06
714.438	41125.92
714.782	41167.28
715.125	40883.9
715.469	41038.69
715.812	40783.79
716.156	40587.41
716.499	40558.71
716.843	40595.09
717.186	40249.11
717.53	40407.07
717.873	40533.85
718.216	40302.67
718.559	40226.06
718.902	40169.57
719.246	40526.39
719.589	40485.26
719.932	40257.02
720.275	40358.71
720.617	40406.17
720.96	40256.79
721.303	40502.21
721.646	40472.61
721.989	40334.53
722.331	40443.91
722.674	40411.82
723.016	40413.4
723.359	40398.26
723.701	40292.27
724.044	39978.61
724.386	39846.86
724.729	40128.44
725.071	40010.93
725.413	39920.53
725.755	39917.37
726.097	39629.47
726.439	39399.19
726.782	39198.97
727.124	39364.61
727.465	39111.06
727.807	38991.97
728.149	38784.97
728.491	38692.54
728.833	38797.85
729.175	38636.27
729.516	38516.95
729.858	38497.97
730.199	38309.73
730.541	38304.3
730.882	38376.39
731.224	38434.47
731.565	38154.93
731.906	38287.35
732.248	38344.53
732.589	38271.76
732.93	38057.3
733.271	38115.16
733.612	38198.32
733.953	38228.37
734.294	38121.71
734.635	38186.11
734.976	38350.4
735.317	38217.3
735.658	38110.86
735.999	38330.29
736.339	38208.94
736.68	38293.23
737.021	38242.84
737.361	38009.62
737.702	38301.14
738.042	38161.03
738.383	38099.34
738.723	38129.62
739.063	38081.03
739.404	38111.54
739.744	37964.65
740.084	37893.47
740.424	38028.83
740.764	37872.22
741.104	37977.98
741.444	37725.79
741.784	37657.09
742.124	37575.96
742.464	37506.36
742.804	37552.23
743.143	37488.51
743.483	37373.25
743.823	37207.84
744.162	37225.46
744.502	37378.68
744.841	37038.12
745.181	37245.35
745.52	37030.44
745.86	37160.38
746.199	36955.19
746.538	37149.76
746.877	37259.59
747.216	37074.28
747.556	37045.35
747.895	37116.31
748.234	36994.51
748.573	37120.38
748.911	37160.83
749.25	37152.92
749.589	37164.9
749.928	37259.81
750.267	37523.53
750.605	37293.71
750.944	37318.11
751.283	37351.33
751.621	37573.25
751.96	37354.05
752.298	37521.95
752.636	37631.55
