Data from blue_shiny_book_FLMS001491_00037.txt Node
Date: Wed Feb 08 15:26:53 GMT 2017
User: dcchb
Spectrometer: FLMS00149
Trigger mode: 0
Integration Time (sec): 2.000000E-2
Scans to average: 10
Electric dark correction enabled: true
Nonlinearity correction enabled: false
Boxcar width: 0
XAxis mode: Wavelengths
Number of Pixels in Spectrum: 2048
>>>>>Begin Spectral Data<<<<<
341.393	-13.15
341.776	-13.15
342.16	-13.15
342.543	-86.37
342.927	-47.05
343.31	-61.74
343.693	-40.72
344.077	-58.35
344.46	-68.74
344.843	-71.9
345.226	-27.61
345.61	-26.03
345.993	-20.15
346.376	1.09
346.759	-1.62
347.142	39.96
347.525	39.28
347.908	42.22
348.291	63.01
348.674	93.29
349.057	98.03
349.44	131.71
349.823	149.33
350.206	158.37
350.588	200.63
350.971	220.06
351.354	226.62
351.737	237.92
352.119	245.83
352.502	253.06
352.884	275.88
353.267	278.82
353.65	293.74
354.032	310.23
354.414	321.08
354.797	328.76
355.179	314.07
355.562	335.77
355.944	331.47
356.326	337.12
356.709	370.12
357.091	325.15
357.473	341.87
357.855	339.38
358.238	350.68
358.62	356.33
359.002	342.77
359.384	343.23
359.766	346.62
360.148	342.77
360.53	348.42
360.912	340.97
361.294	358.82
361.676	344.81
362.057	350.68
362.439	347.97
362.821	320.63
363.203	331.02
363.584	319.27
363.966	345.49
364.348	341.19
364.729	319.5
365.111	353.39
365.493	326.73
365.874	306.16
366.256	348.88
366.637	333.28
367.019	355.65
367.4	336.45
367.781	324.24
368.163	322.44
368.544	327.63
368.925	332.83
369.306	323.79
369.688	345.49
370.069	329.44
370.45	337.35
370.831	333.96
371.212	309.33
371.593	325.6
371.974	312.04
372.355	323.56
372.736	344.13
373.117	346.84
373.498	342.77
373.879	345.71
374.26	329.21
374.641	325.37
375.021	328.31
375.402	326.95
375.783	333.73
376.163	360.17
376.544	364.92
376.925	356.33
377.305	346.62
377.686	365.6
378.066	364.47
378.447	372.6
378.827	378.7
379.208	363.56
379.588	352.72
379.968	392.26
380.349	378.93
380.729	363.56
381.109	383.68
381.489	379.16
381.87	379.38
382.25	360.4
382.63	397.69
383.01	393.39
383.39	383.45
383.77	377.8
384.15	394.3
384.53	388.87
384.91	394.07
385.29	387.74
385.67	379.16
386.049	402.88
386.429	399.04
386.809	419.61
387.189	416.22
387.568	413.05
387.948	407.63
388.328	438.82
388.707	435.2
389.087	426.61
389.466	423
389.846	447.18
390.225	445.6
390.605	449.89
390.984	449.66
391.363	434.75
391.743	450.57
392.122	470
392.501	460.96
392.881	473.62
393.26	476.33
393.639	476.1
394.018	476.1
394.397	491.47
394.776	477.23
395.155	477.91
395.534	475.2
395.913	492.15
396.292	508.64
396.671	498.02
397.05	492.15
397.429	517.46
397.808	534.63
398.186	511.36
398.565	521.53
398.944	538.02
399.323	516.78
399.701	547.29
400.08	558.36
400.458	557.68
400.837	545.93
401.215	560.85
401.594	556.78
401.972	583.67
402.351	586.38
402.729	586.83
403.107	581.41
403.486	600.17
403.864	587.06
404.242	598.36
404.62	624.12
404.999	594.07
405.377	639.04
405.755	635.65
406.133	644.91
406.511	644.69
406.889	648.08
407.267	656.89
407.645	658.47
408.023	677
408.401	701.86
408.779	706.61
409.156	727.17
409.534	738.7
409.912	733.5
410.29	724.23
410.667	757.68
411.045	762.2
411.422	758.81
411.8	762.2
412.178	807.39
412.555	808.3
412.933	799.03
413.31	841.74
413.687	829.77
414.065	828.64
414.442	856.21
414.819	854.4
415.197	867.51
415.574	887.84
415.951	873.83
416.328	911.57
416.705	903.66
417.082	924.45
417.46	912.02
417.837	938.01
418.214	966.94
418.591	966.03
418.967	945.92
419.344	965.13
419.721	985.02
420.098	1011
420.475	994.28
420.852	1043.32
421.228	1031.12
421.605	1040.83
421.982	1083.54
422.358	1085.35
422.735	1074.28
423.111	1121.06
423.488	1104.56
423.864	1103.21
424.241	1140.27
424.617	1133.26
424.994	1144.79
425.37	1174.62
425.746	1186.37
426.123	1201.73
426.499	1206.25
426.875	1206.48
427.251	1251.68
427.627	1264.11
428.003	1285.8
428.379	1282.64
428.756	1287.83
429.132	1308.85
429.507	1342.97
429.883	1353.59
430.259	1394.27
430.635	1403.31
431.011	1407.83
431.387	1446.7
431.763	1451.44
432.138	1456.64
432.514	1487.15
432.89	1515.17
433.265	1544.32
433.641	1573.25
434.016	1594.72
434.392	1615.73
434.767	1609.86
435.143	1650.31
435.518	1697.77
435.894	1701.16
436.269	1698.22
436.644	1754.26
437.02	1768.27
437.395	1778.44
437.77	1793.13
438.145	1834.26
438.52	1839.46
438.895	1850.08
439.271	1869.74
439.646	1917.2
440.021	1953.13
440.395	1922.17
440.77	1968.95
441.145	1954.71
441.52	2049.17
441.895	2005.55
442.27	2036.06
442.645	2044.65
443.019	2068.6
443.394	2050.53
443.769	2090.52
444.143	2090.75
444.518	2129.17
444.892	2098.89
445.267	2169.62
445.641	2213.91
446.016	2187.47
446.39	2215.49
446.764	2234.48
447.139	2273.34
447.513	2266.79
447.887	2280.58
448.262	2289.61
448.636	2329.84
449.01	2338.2
449.384	2368.48
449.758	2380.46
450.132	2412.1
450.506	2419.78
450.88	2460.91
451.254	2477.41
451.628	2533.68
452.002	2507.24
452.376	2571.19
452.75	2577.97
453.123	2602.6
453.497	2682.15
453.871	2721.92
454.244	2716.72
454.618	2773.9
454.992	2776.61
455.365	2802.14
455.739	2841.69
456.112	2917.85
456.486	2894.8
456.859	2968.69
457.232	2965.98
457.606	2989.48
457.979	3072.42
458.352	3109.25
458.725	3130.5
459.099	3197.16
459.472	3232.19
459.845	3253.66
460.218	3311.28
460.591	3351.51
460.964	3372.98
461.337	3444.39
461.71	3502.92
462.083	3610.48
462.456	3584.27
462.829	3591.28
463.201	3678.96
463.574	3693.42
463.947	3747.2
464.32	3815.68
464.692	3855.68
465.065	3897.71
465.438	3974.77
465.81	4042.11
466.183	4020.42
466.555	4134.99
466.928	4159.4
467.3	4167.08
467.672	4249.79
468.045	4359.84
468.417	4393.29
468.789	4466.73
469.161	4445.94
469.534	4554.64
469.906	4638.93
470.278	4694.75
470.65	4738.14
471.022	4811.36
471.394	4899.94
471.766	4940.62
472.138	5011.35
472.51	5168.41
472.882	5198.01
473.253	5236.88
473.625	5324.56
473.997	5440.49
474.369	5485.24
474.74	5575.18
475.112	5642.07
475.484	5747.83
475.855	5844.32
476.227	5928.16
476.598	6056.52
476.97	6162.06
477.341	6307.36
477.713	6389.39
478.084	6438.21
478.455	6636.85
478.827	6590.07
479.198	6842.94
479.569	6894.24
479.94	7017.63
480.311	7123.16
480.682	7235.02
481.053	7437.73
481.424	7511.17
481.795	7633.88
482.166	7777.61
482.537	7904.61
482.908	8096.69
483.279	8090.14
483.65	8312.06
484.021	8456.46
484.391	8549.34
484.762	8651.48
485.133	8710.24
485.503	8868.43
485.874	9080.62
486.244	9099.38
486.615	9342.99
486.985	9441.97
487.356	9651
487.726	9714.28
488.097	9947.72
488.467	9972.12
488.837	10203.08
489.207	10328.05
489.578	10523.3
489.948	10613.24
490.318	10741.82
490.688	10803.52
491.058	10939.78
491.428	11121.25
491.798	11228.81
492.168	11429.71
492.538	11503.38
492.908	11650.72
493.278	11742.25
493.648	11791.29
494.017	11945.18
494.387	12130.71
494.757	12260.88
495.126	12527.31
495.496	12556.24
495.866	12625.39
496.235	12753.52
496.605	12946.28
496.974	12971.14
497.344	13116.22
497.713	13120.74
498.082	13207.97
498.452	13381.07
498.821	13464.91
499.19	13481.86
499.559	13615.19
499.928	13681.41
500.298	13764.57
500.667	14051.79
501.036	13987.16
501.405	14289.98
501.774	14293.37
502.143	14505.11
502.512	14578.33
502.88	14625.56
503.249	14695.62
503.618	14770.42
503.987	14885.67
504.356	14904.2
504.724	15019.68
505.093	15122.27
505.462	15097.19
505.83	15345.99
506.199	15324.3
506.567	15501.02
506.936	15543.73
507.304	15787.57
507.672	15863.5
508.041	16042.93
508.409	16208.12
508.777	16364.73
509.145	16538.51
509.514	16460.32
509.882	16601.78
510.25	16705.96
510.618	16789.57
510.986	16809.46
511.354	16989.12
511.722	17101.43
512.09	17220.07
512.458	17129.68
512.826	17344.81
513.193	17484.47
513.561	17523.11
513.929	17775.76
514.297	17992.25
514.664	18064.79
515.032	18197.67
515.4	18369.64
515.767	18408.06
516.135	18663.2
516.502	18588.17
516.869	18926.01
517.237	18881.04
517.604	18920.59
517.972	19168.95
518.339	19243.97
518.706	19170.75
519.073	19384.08
519.44	19498.43
519.808	19611.65
520.175	19642.15
520.542	20025.65
520.909	20067.45
521.276	20198.75
521.643	20362.59
522.009	20566.42
522.376	20781.56
522.743	20935.68
523.11	21200.53
523.477	21315.56
523.843	21447.3
524.21	21626.06
524.577	21850.46
524.943	21858.37
525.31	21822.66
525.676	22049.32
526.043	22169.09
526.409	22238.02
526.776	22612.47
527.142	22569.31
527.508	22765.91
527.874	22935.63
528.241	23140.59
528.607	23243.41
528.973	23504.65
529.339	23668.71
529.705	23788.48
530.071	24111.87
530.437	24153.67
530.803	24327.45
531.169	24376.72
531.535	24464.63
531.901	24560.67
532.267	24677.05
532.632	24710.49
532.998	24983.48
533.364	24771.74
533.73	24957.04
534.095	25249.24
534.461	25263.47
534.826	25474.09
535.192	25559.29
535.557	25725.38
535.923	25746.63
536.288	25854.65
536.653	26042.89
537.019	26067.52
537.384	26227.29
537.749	26488.75
538.114	26576.66
538.479	26636.55
538.845	26813.04
539.21	26614.4
539.575	26800.61
539.94	26780.72
540.305	26893.94
540.67	26787.95
541.034	26984.33
541.399	27088.74
541.764	26984.33
542.129	27176.19
542.494	27232.24
542.858	27374.61
543.223	27566.69
543.587	27752
543.952	27803.97
544.316	27894.59
544.681	27986.79
545.045	28075.15
545.41	28285.99
545.774	28384.97
546.138	28245.32
546.503	28319.89
546.867	28329.83
547.231	28614.12
547.595	28583.61
547.959	28631.75
548.324	28539.09
548.688	28606.66
549.052	28798.97
549.416	28635.14
549.779	28704.06
550.143	28789.48
550.507	28944.51
550.871	29016.37
551.235	29217.72
551.599	29382.69
551.962	29595.11
552.326	29598.5
552.689	29744.03
553.053	29741.1
553.417	29843.24
553.78	30091.37
554.143	30122.78
554.507	30245.49
554.87	30184.02
555.234	30605.25
555.597	30352.38
555.96	30297.92
556.323	30502.21
556.686	30530.23
557.05	30626.05
557.413	30652.48
557.776	30744.23
558.139	30962.76
558.502	30976.54
558.865	31106.48
559.228	31108.97
559.59	31188.97
559.953	31370.66
560.316	31677.99
560.679	31801.83
561.041	31989.62
561.404	32134.93
561.767	32364.53
562.129	32245.21
562.492	32570.4
562.854	32553.23
563.217	32592.77
563.579	32721.58
563.941	32856.95
564.304	32835.25
564.666	33089.94
565.028	32980.79
565.39	33232.3
565.753	33176.71
566.115	33194.57
566.477	33435.01
566.839	33630.49
567.201	33616.02
567.563	33849.01
567.925	34027.76
568.287	34013.98
568.648	34189.79
569.01	34398.38
569.372	34574.87
569.734	34497.13
570.095	34805.14
570.457	34807.86
570.819	34977.79
571.18	34978.92
571.542	35253.49
571.903	35179.6
572.265	35233.61
572.626	35461.62
572.987	35410.1
573.349	35561.73
573.71	35652.35
574.071	35643.77
574.432	35685.12
574.794	35833.59
575.155	35748.85
575.516	35663.2
575.877	35893.7
576.238	36067.03
576.599	36270.64
576.96	36175.73
577.32	36367.81
577.681	36602.84
578.042	36601.03
578.403	36668.15
578.763	36796.96
579.124	36968.7
579.485	37118.98
579.845	37196.95
580.206	37089.83
580.566	37003.05
580.927	37128.47
581.287	37153.78
581.648	37109.49
582.008	37220.22
582.368	37226.1
582.728	37171.86
583.089	37108.36
583.449	36985.88
583.809	37137.06
584.169	37309.26
584.529	37219.32
584.889	37336.83
585.249	37192.88
585.609	37105.87
585.969	37392.42
586.329	37365.98
586.688	37468.58
587.048	37381.8
587.408	37505.19
587.768	37575.92
588.127	37534.34
588.487	37555.35
588.846	37923.25
589.206	37712.19
589.565	37656.59
589.925	37779.76
590.284	37518.52
590.643	37650.95
591.003	37760.09
591.362	37878.51
591.721	37622.02
592.08	37655.24
592.44	37673.77
592.799	37777.95
593.158	37695.46
593.517	37767.1
593.876	37801.45
594.235	37697.05
594.593	37788.57
594.952	37886.19
595.311	37746.31
595.67	37864.95
596.029	38099.97
596.387	38244.83
596.746	38185.39
597.104	38031.27
597.463	37993.08
597.822	38273.08
598.18	38137.49
598.538	38293.41
598.897	38537.02
599.255	38017.26
599.613	38523.69
599.972	38302.68
600.33	38484.82
600.688	38288.22
601.046	38410.25
601.404	38563.24
601.762	38329.8
602.12	38516.68
602.478	38503.58
602.836	38510.36
603.194	38449.12
603.552	38530.92
603.91	38290.93
604.268	38433.75
604.625	38327.54
604.983	38439.17
605.341	38218.16
605.698	38487.08
606.056	38625.38
606.413	38673.52
606.771	38824.7
607.128	38795.32
607.485	38752.16
607.843	38873.74
608.2	39048.2
608.557	39164.58
608.914	38958.03
609.272	39274.18
609.629	39307.85
609.986	39472.59
610.343	39222.43
610.7	39331.13
611.057	39314.4
611.414	39439.15
611.771	39403.44
612.127	39475.53
612.484	39412.25
612.841	39517.11
613.198	39425.81
613.554	39452.03
613.911	39518.01
614.267	39585.58
614.624	39396.44
614.98	39740.38
615.337	39814.05
615.693	39647.05
616.05	39578.35
616.406	39935.4
616.762	39873.03
617.118	39981.28
617.475	40066.7
617.831	40031.67
618.187	40061.96
618.543	40170.88
618.899	40321.61
619.255	40278.9
619.611	40198.22
619.967	40456.97
620.323	40246.81
620.678	40195.28
621.034	40312.57
621.39	40217.21
621.746	40110.99
622.101	40616.52
622.457	40274.15
622.812	40236.64
623.168	40409.52
623.523	40321.84
623.879	40323.19
624.234	40171.78
624.589	40321.61
624.945	40232.35
625.3	40312.34
625.655	40264.21
626.01	40221.95
626.365	40373.81
626.72	40262.18
627.075	40291.33
627.43	40247.26
627.785	40361.61
628.14	40372.23
628.495	40432.11
628.85	40391.44
629.205	40234.15
629.559	40564.54
629.914	40330.87
630.269	40342.4
630.623	40271.44
630.978	40188.73
631.332	40292.01
631.687	40390.53
632.041	40293.14
632.396	40482.28
632.75	39991.67
633.104	40195.51
633.459	39979.92
633.813	39856.08
634.167	39800.95
634.521	39826.93
634.875	39701.29
635.229	39746.26
635.583	39583.1
635.937	39610.67
636.291	39545.58
636.645	39603.44
636.999	39563.89
637.352	39623.77
637.706	39519.82
638.06	39395.31
638.413	39458.58
638.767	39388.53
639.121	39302.65
639.474	39102.43
639.828	39212.49
640.181	39096.78
640.534	39125.93
640.888	39198.02
641.241	39012.49
641.594	39108.53
641.947	39310.11
642.301	39197.8
642.654	39340.62
643.007	39248.19
643.36	39118.25
643.713	39048.2
644.066	38998.71
644.419	38916.45
644.771	38701.09
645.124	38700.86
645.477	38703.12
645.83	38374.09
646.182	37953.08
646.535	37612.3
646.888	37499.54
647.24	37084.63
647.593	37093.9
647.945	37139.55
648.298	36944.07
648.65	36852.77
649.002	36865.65
649.355	37095.25
649.707	37239.2
650.059	37526.65
650.411	38193.53
650.763	38087.09
651.115	38421.09
651.467	38125.06
651.819	38203.7
652.171	38195.79
652.523	38046.41
652.875	38141.78
653.227	37937.04
653.578	38268.1
653.93	38175.45
654.282	38069.69
654.633	37641.45
654.985	37793.54
655.337	37922.12
655.688	37732.07
656.039	37926.19
656.391	37702.24
656.742	37771.17
657.094	37635.8
657.445	37872.41
657.796	37915.12
658.147	37678.06
658.498	37594.9
658.849	37678.06
659.2	37645.3
659.551	37480.55
659.902	37582.47
660.253	37536.6
660.604	37579.08
660.955	37503.83
661.306	37555.35
661.656	37497.05
662.007	37424.28
662.358	37492.08
662.708	37569.59
663.059	37422.48
663.409	37323.95
663.76	37597.39
664.11	37502.02
664.461	37524.62
664.811	37581.57
665.161	37620.44
665.511	37535.92
665.862	37606.88
666.212	37529.82
666.562	37712.64
666.912	37490.27
667.262	37401.91
667.612	37630.38
667.962	37594.22
668.312	37523.04
668.662	37703.83
669.011	37519.2
669.361	37387.68
669.711	37444.4
670.06	37155.14
670.41	37174.8
670.76	36952.66
671.109	37112.65
671.459	37026.1
671.808	37062.03
672.157	37156.49
672.507	36867.69
672.856	36841.02
673.205	36962.6
673.554	37058.42
673.904	36922.6
674.253	37065.2
674.602	36936.84
674.951	36445.1
675.3	36405.78
675.649	36915.15
675.998	36802.15
676.346	36829.05
676.695	36988.82
677.044	36695.72
677.393	36791.31
677.741	36849.84
678.09	36644.42
678.438	36613.23
678.787	36561.71
679.135	36617.3
679.484	36305.44
679.832	36508.38
680.181	36298.44
680.529	36329.85
680.877	36230.87
681.225	36116.52
681.573	36227.93
681.922	36203.3
682.27	35849.86
682.618	35873.14
682.966	35810.99
683.314	35830.43
683.661	35530.32
684.009	35355.64
684.357	35359.03
684.705	35228.18
685.053	35295.07
685.4	35209.2
685.748	35152.71
686.095	35147.51
686.443	35031.13
686.79	35015.08
687.138	35077.91
687.485	35191.35
687.832	35003.11
688.18	35026.83
688.527	34740.74
688.874	34733.28
689.221	34636.11
689.568	34495.32
689.915	34600.63
690.262	34463.68
690.609	34496.68
690.956	34339.85
691.303	34379.39
691.65	34139.4
691.997	34070.47
692.344	34002
692.69	33750.93
693.037	33763.82
693.383	33380.32
693.73	33605.18
694.077	33391.62
694.423	33230.5
694.769	33111.86
695.116	32896.49
695.462	32824.63
695.808	32884.52
696.155	32829.38
696.501	32645.43
696.847	32664.64
697.193	32417.18
697.539	32411.53
697.885	32271.43
698.231	32167.25
698.577	32123.86
698.923	32185.55
699.269	31883.64
699.614	31846.35
699.96	31758.22
700.306	31745.34
700.651	31698.79
700.997	31394.61
701.342	31577.21
701.688	31297.89
702.033	31407.72
702.379	31391.9
702.724	31332.24
703.069	31294.5
703.415	30988.52
703.76	30927.28
704.105	30934.06
704.45	30724.35
704.795	30652.26
705.14	30573.84
705.485	30397.35
705.83	30428.54
706.175	30362.32
706.52	30286.17
706.865	30072.16
707.209	30113.06
707.554	29937.02
707.899	29930.92
708.243	29607.09
708.588	29751.27
708.932	29554.89
709.277	29583.81
709.621	29496.58
709.966	29316.7
710.31	29521.44
710.654	29180.43
710.998	29228.79
711.342	29232.18
711.687	29184.05
712.031	28997.39
712.375	28909.71
712.719	29074.45
713.063	28902.93
713.407	29024.73
713.75	28849.37
714.094	28838.52
714.438	28742.03
714.782	28731.18
715.125	28693.21
715.469	28822.48
715.812	28568.92
716.156	28534.8
716.499	28443.5
716.843	28433.33
717.186	28206.9
717.53	28318.76
717.873	28269.5
718.216	28225.88
718.559	28118.77
718.902	27989.28
719.246	28080.12
719.589	27944.99
719.932	27911.31
720.275	27983.18
720.617	27859.56
720.96	27754.48
721.303	27754.26
721.646	27636.52
721.989	27631.55
722.331	27638.33
722.674	27643.75
723.016	27681.94
723.359	27609.18
723.701	27529.86
724.044	27315.62
724.386	27251.67
724.729	27408.73
725.071	27273.36
725.413	27356.3
725.755	27258.9
726.097	27279.92
726.439	27171.67
726.782	27161.96
727.124	27279.92
727.465	27002.86
727.807	26913.83
728.149	26928.97
728.491	26851.23
728.833	27076.99
729.175	26991.56
729.516	26871.12
729.858	27069.75
730.199	26998.12
730.541	26925.58
730.882	26943.2
731.224	27064.1
731.565	26893.04
731.906	26989.53
732.248	26971.45
732.589	26895.3
732.93	26865.01
733.271	26789.08
733.612	26779.59
733.953	26765.58
734.294	26752.47
734.635	26734.17
734.976	26767.84
735.317	26511.8
735.658	26639.03
735.999	26652.59
736.339	26617.56
736.68	26630.44
737.021	26653.72
737.361	26467.06
737.702	26586.6
738.042	26512.93
738.383	26597.68
738.723	26578.69
739.063	26544.8
739.404	26563.55
739.744	26558.81
740.084	26620.73
740.424	26604.68
740.764	26489.43
741.104	26616.66
741.444	26425.03
741.784	26528.98
742.124	26528.75
742.464	26506.38
742.804	26583.89
743.143	26565.81
743.483	26570.56
743.823	26465.7
744.162	26604.91
744.502	26765.58
744.841	26514.51
745.181	26642.87
745.52	26559.49
745.86	26612.59
746.199	26679.71
746.538	26712.25
746.877	26802.64
747.216	26752.25
747.556	26844
747.895	26741.85
748.234	26738.01
748.573	26739.14
748.911	26728.07
749.25	26784.11
749.589	26814.39
749.928	26810.55
750.267	26761.97
750.605	26735.53
750.944	26844
751.283	26755.64
751.621	26879.48
751.96	26809.87
752.298	26879.25
752.636	26907.27
752.975	26845.35
753.313	26764.9
753.651	26905.24
