Data from blue_shiny_book_FLMS001491_00026.txt Node
Date: Wed Feb 08 15:26:45 GMT 2017
User: dcchb
Spectrometer: FLMS00149
Trigger mode: 0
Integration Time (sec): 2.000000E-2
Scans to average: 10
Electric dark correction enabled: true
Nonlinearity correction enabled: false
Boxcar width: 0
XAxis mode: Wavelengths
Number of Pixels in Spectrum: 2048
>>>>>Begin Spectral Data<<<<<
341.393	-5.72
341.776	-5.72
342.16	-5.72
342.543	-65.83
342.927	-50.69
343.31	-53.4
343.693	-73.97
344.077	-49.79
344.46	-73.29
344.843	-57.02
345.226	-41.43
345.61	-53.4
345.993	-26.74
346.376	-3.23
346.759	11.23
347.142	40.83
347.525	54.17
347.908	39.7
348.291	63.88
348.674	118.57
349.057	103.88
349.44	126.03
349.823	161.06
350.206	170.55
350.588	209.42
350.971	239.02
351.354	240.38
351.737	237.21
352.119	248.96
352.502	262.07
352.884	263.43
353.267	284.89
353.65	279.02
354.032	300.03
354.414	310.88
354.797	322.41
355.179	333.03
355.562	330.99
355.944	328.96
356.326	350.2
356.709	346.13
357.091	338.68
357.473	374.61
357.855	359.92
358.238	341.16
358.62	364.89
359.002	349.52
359.384	342.75
359.766	332.35
360.148	355.4
360.53	360.6
360.912	366.47
361.294	359.24
361.676	341.84
362.057	331.9
362.439	341.16
362.821	346.81
363.203	329.86
363.584	343.42
363.966	351.78
364.348	344.55
364.729	340.71
365.111	320.15
365.493	363.99
365.874	333.48
366.256	362.18
366.637	340.49
367.019	334.61
367.4	327.6
367.781	337.32
368.163	334.84
368.544	333.03
368.925	344.1
369.306	353.59
369.688	351.33
370.069	337.77
370.45	336.42
370.831	348.39
371.212	322.63
371.593	344.1
371.974	350.65
372.355	333.93
372.736	359.92
373.117	349.3
373.498	348.85
373.879	356.98
374.26	366.47
374.641	355.17
375.021	312.24
375.402	365.8
375.783	348.17
376.163	381.39
376.544	385.68
376.925	369.19
377.305	375.96
377.686	383.87
378.066	371.67
378.447	371.45
378.827	391.33
379.208	385.68
379.588	407.38
379.968	382.74
380.349	385.46
380.729	394.04
381.109	415.74
381.489	402.18
381.87	403.99
382.25	403.31
382.63	404.89
383.01	405.79
383.39	415.74
383.77	418.22
384.15	426.36
384.53	422.97
384.91	433.36
385.29	418.22
385.67	448.28
386.049	439.69
386.429	451.22
386.809	450.99
387.189	441.27
387.568	470.88
387.948	451.67
388.328	463.65
388.707	479.69
389.087	472.46
389.466	473.14
389.846	470.88
390.225	483.98
390.605	482.85
390.984	504.77
391.363	509.29
391.743	491.44
392.122	518.56
392.501	523.08
392.881	530.54
393.26	511.33
393.639	519.24
394.018	525.57
394.397	544.1
394.776	557.65
395.155	542.29
395.534	554.72
395.913	546.13
396.292	561.95
396.671	589.52
397.05	597.65
397.429	597.43
397.808	588.84
398.186	599.91
398.565	609.86
398.944	596.75
399.323	611.89
399.701	628.16
400.08	631.78
400.458	612.12
400.837	632
401.215	633.81
401.594	639.91
401.972	650.08
402.351	667.03
402.729	690.76
403.107	684.21
403.486	695.05
403.864	683.08
404.242	695.73
404.62	730.98
404.999	737.09
405.377	719.91
405.755	732.79
406.133	730.08
406.511	750.19
406.889	766.69
407.267	770.3
407.645	776.18
408.023	796.07
408.401	813.69
408.779	810.53
409.156	829.06
409.534	839.91
409.912	848.49
410.29	871.32
410.667	877.87
411.045	889.17
411.422	889.17
411.8	921.49
412.178	919.68
412.555	927.59
412.933	944.31
413.31	982.28
413.687	974.59
414.065	959.9
414.442	1004.42
414.819	1018.21
415.197	1038.09
415.574	1040.81
415.951	1069.96
416.328	1078.32
416.705	1085.55
417.082	1102.73
417.46	1114.02
417.837	1114.48
418.214	1149.28
418.591	1136.4
418.967	1121.26
419.344	1157.41
419.721	1174.36
420.098	1182.95
420.475	1197.41
420.852	1220.24
421.228	1244.87
421.605	1246.22
421.982	1250.97
422.358	1291.87
422.735	1288.94
423.111	1290.06
423.488	1321.02
423.864	1323.51
424.241	1369.61
424.617	1359.44
424.994	1373.45
425.37	1394.47
425.746	1435.37
426.123	1448.93
426.499	1465.65
426.875	1466.78
427.251	1512.21
427.627	1548.36
428.003	1562.83
428.379	1542.71
428.756	1561.7
429.132	1615.48
429.507	1591.75
429.883	1641.92
430.259	1663.16
430.635	1709.71
431.011	1730.28
431.387	1760.56
431.763	1766.89
432.138	1808.02
432.514	1803.27
432.89	1849.37
433.265	1883.5
433.641	1886.43
434.016	1897.28
434.392	1922.14
434.767	1984.28
435.143	1992.87
435.518	2039.65
435.894	2042.36
436.269	2135.69
436.644	2153.32
437.02	2139.76
437.395	2175.92
437.77	2188.12
438.145	2189.02
438.52	2238.74
438.895	2275.12
439.271	2254.56
439.646	2350.83
440.021	2350.38
440.395	2398.06
440.77	2379.3
441.145	2395.57
441.52	2437.83
441.895	2477.15
442.27	2478.96
442.645	2512.63
443.019	2528.9
443.394	2518.51
443.769	2566.64
444.143	2565.51
444.518	2598.28
444.892	2594.44
445.267	2651.39
445.641	2683.7
446.016	2721.21
446.39	2730.71
446.764	2787.2
447.139	2772.06
447.513	2790.36
447.887	2800.76
448.262	2782.46
448.636	2816.8
449.01	2873.98
449.384	2894.77
449.758	2929.57
450.132	2947.42
450.506	3005.27
450.88	3001.66
451.254	3019.29
451.628	3072.16
452.002	3158.94
452.376	3141.09
452.75	3177.47
453.123	3224.93
453.497	3213.4
453.871	3284.81
454.244	3343.8
454.618	3356.45
454.992	3425.83
455.365	3475.77
455.739	3522.1
456.112	3550.12
456.486	3617.01
456.859	3666.5
457.232	3753.95
457.606	3687.29
457.979	3784.91
458.352	3838.25
458.725	3901.97
459.099	3943.1
459.472	3995.76
459.845	4049.54
460.218	4098.8
460.591	4141.97
460.964	4153.04
461.337	4288.18
461.71	4318.91
462.083	4430.32
462.456	4451.34
462.829	4484.11
463.201	4543.54
463.574	4576.53
463.947	4660.82
464.32	4760.48
464.692	4789.18
465.065	4812.23
465.438	4897.88
465.81	4918.9
466.183	5038.89
466.555	5161.6
466.928	5186.69
467.3	5194.37
467.672	5264.65
468.045	5430.97
468.417	5478.43
468.789	5486.56
469.161	5557.3
469.534	5669.84
469.906	5783.51
470.278	5787.12
470.65	5903.5
471.022	5969.72
471.394	6112.54
471.766	6167.9
472.138	6250.61
472.51	6385.75
472.882	6437.5
473.253	6571.06
473.625	6703.03
473.997	6826.87
474.369	6865.51
474.74	7009.24
475.112	7135.79
475.484	7216.91
475.855	7337.14
476.227	7372.16
476.598	7571.03
476.97	7693.74
477.341	7815.09
477.713	7981.87
478.084	8016.89
478.455	8257.57
478.827	8299.37
479.198	8647.39
479.569	8669.98
479.94	8852.58
480.311	8937.77
480.682	9167.82
481.053	9307.03
481.424	9479
481.795	9627.7
482.166	9738.66
482.537	9852.1
482.908	10067.24
483.279	10234.01
483.65	10450.5
484.021	10624.96
484.391	10684.85
484.762	10887.1
485.133	10958.74
485.503	11130.03
485.874	11468.55
486.244	11497.48
486.615	11721.66
486.985	11888.2
487.356	12090.01
487.726	12210.46
488.097	12543.78
488.467	12630.33
488.837	12760.05
489.207	12958.46
489.578	13179.02
489.948	13348.96
490.318	13494.72
490.688	13583.98
491.058	13804.99
491.428	14036.17
491.798	14183.51
492.168	14531.98
492.538	14523.62
492.908	14658.53
493.278	14816.49
493.648	14862.36
494.017	15101.23
494.387	15293.54
494.757	15450.82
495.126	15638.61
495.496	15712.96
495.866	15856.91
496.235	16080.64
496.605	16178.71
496.974	16301.42
497.344	16512.72
497.713	16613.73
498.082	16728.98
498.452	16978.24
498.821	17069.76
499.19	17118.58
499.559	17326.03
499.928	17433.37
500.298	17538.23
500.667	17648.05
501.036	17748.62
501.405	17995.16
501.774	18028.61
502.143	18081.49
502.512	18260.47
502.88	18506.56
503.249	18463.62
503.618	18643.06
503.987	18749.94
504.356	18859.09
504.724	19030.16
505.093	19101.57
505.462	19150.61
505.83	19345.64
506.199	19507.21
506.567	19708.79
506.936	19675.8
507.304	19914.89
507.672	20124.37
508.041	20176.8
508.409	20339.96
508.777	20680.74
509.145	20745.37
509.514	20842.77
509.882	21068.75
510.25	21091.58
510.618	21286.15
510.986	21391.68
511.354	21468.07
511.722	21686.82
512.09	21811.11
512.458	21815.4
512.826	22054.26
513.193	22133.13
513.561	22214.03
513.929	22503.74
514.297	22617.87
514.664	22758.65
515.032	22922.04
515.4	23124.29
515.767	23285.87
516.135	23498.29
516.502	23558.86
516.869	24025.96
517.237	24060.77
517.604	24012.18
517.972	24326.75
518.339	24521.32
518.706	24446.74
519.073	24604.25
519.44	24689
519.808	24959.95
520.175	25102.55
520.542	25488.75
520.909	25542.76
521.276	25568.3
521.643	25796.77
522.009	26052.35
522.376	26309.07
522.743	26438.56
523.11	26760.58
523.477	27097.3
523.843	27198.08
524.21	27427.91
524.577	27821.34
524.943	27737.28
525.31	27929.82
525.676	28134.78
526.043	28370.03
526.409	28573.64
526.776	28713.98
527.142	28777.03
527.508	28949.22
527.874	29158.26
528.241	29335.43
528.607	29584.01
528.973	29836.21
529.339	29951.91
529.705	30229.42
530.071	30554.83
530.437	30772.91
530.803	30964.99
531.169	31190.07
531.535	31185.55
531.901	31345.32
532.267	31491.3
532.632	31815.59
532.998	31838.64
533.364	31954.57
533.73	31872.31
534.095	32195.69
534.461	32228.01
534.826	32469.81
535.192	32507.32
535.557	32802.68
535.923	32716.81
536.288	32867.99
536.653	33027.99
537.019	33261.43
537.384	33340.97
537.749	33672.72
538.114	33839.94
538.479	33992.48
538.845	34058.02
539.21	34038.58
539.575	34305.92
539.94	34324.22
540.305	34645.57
540.67	34485.8
541.034	34647.83
541.399	34685.12
541.764	34773.93
542.129	34901.61
542.494	34839.69
542.858	34997.43
543.223	34929.41
543.587	35154.03
543.952	35216.86
544.316	35447.13
544.681	35596.51
545.045	35777.07
545.41	35955.37
545.774	36047.12
546.138	36160.33
546.503	36276.72
546.867	36475.58
547.231	36677.61
547.595	36727.33
547.959	36849.13
548.324	36881.22
548.688	36949.01
549.052	37001.44
549.416	36912.63
549.779	37068.56
550.143	37042.8
550.507	37218.39
550.871	37356.01
551.235	37227.2
551.599	37405.27
551.962	37548.55
552.326	37776.79
552.689	37903.57
553.053	37920.97
553.417	38091.81
553.78	38492.93
554.143	38570.67
554.507	38706.71
554.87	38895.18
555.234	39339.23
555.597	39096.75
555.96	39289.07
556.323	39414.26
556.686	39488.38
557.05	39659.45
557.413	39680.47
557.776	39713.91
558.139	39851.31
558.502	39760.01
558.865	39767.47
559.228	39908.03
559.59	40110.74
559.953	40162.04
560.316	40596.83
560.679	40669.82
561.041	40966.99
561.404	41103.03
561.767	41460.53
562.129	41330.14
562.492	41929.45
562.854	41898.49
563.217	42117.92
563.579	42303
563.941	42459.6
564.304	42646.49
564.666	42784.57
565.028	42857.79
565.39	42888.75
565.753	42986.37
566.115	42957.67
566.477	43295.51
566.839	43249.64
567.201	43279.02
567.563	43181.17
567.925	43479.01
568.287	43532.34
568.648	43658.89
569.01	43807.14
569.372	44102.72
569.734	44129.62
570.095	44409.38
570.457	44624.52
570.819	44674.91
571.18	44743.16
571.542	45012.31
571.903	45294.78
572.265	45501.33
572.626	45581.33
572.987	45660.65
573.349	45958.95
573.71	45970.02
574.071	46085.95
574.432	46127.98
574.794	46158.94
575.155	45889.34
575.516	45917.82
575.877	46084.37
576.238	46077.14
576.599	46111.26
576.96	46167.76
577.32	46168.66
577.681	46383.57
578.042	46471.25
578.403	46442.78
578.763	46669.21
579.124	46738.36
579.485	46950.56
579.845	47166.82
580.206	47301.51
580.566	47325.24
580.927	47350.77
581.287	47595.29
581.648	47460.83
582.008	47745.57
582.368	47536.31
582.728	47788.5
583.089	47624.89
583.449	47601.39
583.809	47670.99
584.169	47578.57
584.529	47450.43
584.889	47616.98
585.249	47382.41
585.609	47136.09
585.969	47390.55
586.329	47249.08
586.688	47254.28
587.048	47197.78
587.408	47267.61
587.768	47433.71
588.127	47543.54
588.487	47519.58
588.846	47783.98
589.206	47612.24
589.565	47787.6
589.925	47927.93
590.284	47819.01
590.643	47918.67
591.003	48088.61
591.362	48226.91
591.721	48025.79
592.08	48087.93
592.44	48251.32
592.799	48174.26
593.158	48096.74
593.517	47944.66
593.876	47981.94
594.235	47930.42
594.593	47927.93
594.952	47988.95
595.311	47774.49
595.67	47752.35
596.029	47833.7
596.387	48000.25
596.746	47963.87
597.104	47704.44
597.463	47899.23
597.822	48044.54
598.18	48076.18
598.538	48037.08
598.897	48265.55
599.255	48084.77
599.613	48641.36
599.972	48472.1
600.33	48659.89
600.688	48503.29
601.046	48732.43
601.404	48940.34
601.762	48730.17
602.12	48861.47
602.478	48907.12
602.836	48712.55
603.194	48617.41
603.552	48660.57
603.91	48491.54
604.268	48488.82
604.625	48366.57
604.983	48374.7
605.341	48221.26
605.698	48519.56
606.056	48463.06
606.413	48533.34
606.771	48578.54
607.128	48639.1
607.485	48413.57
607.843	48620.12
608.2	48965.2
608.557	49091.29
608.914	48952.77
609.272	49168.58
609.629	49187.79
609.986	49412.64
610.343	49305.53
610.7	49599.53
611.057	49645.18
611.414	49549.14
611.771	49646.08
612.127	49856.02
612.484	49820.77
612.841	49818.96
613.198	49643.37
613.554	49709.13
613.911	49788.22
614.267	49612.86
614.624	49596.59
614.98	49680.21
615.337	49743.71
615.693	49659.19
616.05	49441.12
616.406	49761.56
616.762	49604.05
617.118	49618.51
617.475	49486.76
617.831	49671.62
618.187	49679.98
618.543	49851.73
618.899	50058.95
619.255	50183.02
619.611	50087.2
619.967	50296.69
620.323	50381.43
620.678	50411.94
621.034	50467.08
621.39	50384.14
621.746	50382.79
622.101	50700.29
622.457	50447.87
622.812	50546.85
623.168	50615.32
623.523	50539.84
623.879	50658.94
624.234	50302.11
624.589	50373.29
624.945	50251.04
625.3	50254.88
625.655	50309.34
626.01	50205.16
626.365	50086.07
626.72	49939.86
627.075	50027.54
627.43	50075.9
627.785	49970.14
628.14	49960.65
628.495	50015.11
628.85	49957.03
629.205	49927.2
629.559	50131.72
629.914	50055.56
630.269	50158.61
630.623	50202.45
630.978	50137.37
631.332	50378.49
631.687	50502.56
632.041	50484.93
632.396	50510.01
632.75	50224.37
633.104	50403.8
633.459	50181.43
633.813	50238.83
634.167	50132.17
634.521	50018.28
634.875	50045.62
635.229	49950.03
635.583	49728.79
635.937	49743.71
636.291	49648.12
636.645	49675.01
636.999	49495.58
637.352	49495.58
637.706	49219.43
638.06	49352.3
638.413	49207
638.767	49053.55
639.121	48930.39
639.474	48813.11
639.828	48791.87
640.181	48863.28
640.534	49049.26
640.888	48917.74
641.241	48866.89
641.594	49041.8
641.947	49156.15
642.301	49128.13
642.654	49164.96
643.007	49152.99
643.36	49054.23
643.713	49128.58
644.066	49280.44
644.419	49101.01
644.771	49105.98
645.124	48987.34
645.477	48929.72
645.83	48548.71
646.182	48229.85
646.535	47893.36
646.888	47752.57
647.24	47305.13
647.593	47398.01
647.945	47235.98
648.298	47089.09
648.65	46900.17
649.002	46729.55
649.355	46937.68
649.707	47032.14
650.059	47306.26
650.411	47646.36
650.763	47753.7
651.115	48060.81
651.467	47948.27
651.819	47919.57
652.171	47761.61
652.523	47731.56
652.875	47869.18
653.227	47810.65
653.578	48161.37
653.93	48096.29
654.282	47989.18
654.633	47874.6
654.985	47910.08
655.337	48000.02
655.688	48040.25
656.039	48206.12
656.391	47790.54
656.742	47913.92
657.094	47916.86
657.445	48048.84
657.796	48070.53
658.147	47758.67
658.498	47867.82
658.849	47923.87
659.2	47750.09
659.551	47579.24
659.902	47768.16
660.253	47599.36
660.604	47533.82
660.955	47372.47
661.306	47480.71
661.656	47256.31
662.007	47266.03
662.358	47103.1
662.708	47147.16
663.059	47082.08
663.409	46848.64
663.76	47214.51
664.11	47191.68
664.461	47126.15
664.811	47164.34
665.161	47154.62
665.511	47293.83
665.862	47382.19
666.212	47578.57
666.562	47578.11
666.912	47485.69
667.262	47551
667.612	47602.52
667.962	47775.62
668.312	47493.14
668.662	47855.62
669.011	47764.32
669.361	47703.53
669.711	47565.46
670.06	47527.95
670.41	47399.59
670.76	47402.98
671.109	47467.16
671.459	47285.01
671.808	47146.49
672.157	47226.71
672.507	46931.58
672.856	46896.32
673.205	46914.4
673.554	46992.59
673.904	46712.83
674.253	46987.17
674.602	46533.85
674.951	45932.73
675.3	45824.71
675.649	46431.48
675.998	46290.69
676.346	46263.12
676.695	46385.15
677.044	46146.74
677.393	46394.64
677.741	46501.31
678.09	46266.06
678.438	46326.17
678.787	46483
679.135	46584.24
679.484	46186.06
679.832	46602.55
680.181	46311.93
680.529	46514.64
680.877	46478.26
681.225	46384.7
681.573	46567.29
681.922	46153.74
682.27	46299.28
682.618	46260.86
682.966	46088.21
683.314	46290.92
683.661	45986.52
684.009	45723.47
684.357	45483.71
684.705	45374.33
685.053	45411.62
685.4	45351.51
685.748	45020.21
686.095	44897.51
686.443	44800.33
686.79	44665.42
687.138	44488.25
687.485	44533.22
687.832	44206.9
688.18	44338.65
688.527	44144.76
688.874	44030.86
689.221	43892.79
689.568	43780.93
689.915	43803.98
690.262	43841.04
690.609	43798.55
690.956	43631.55
691.303	43548.61
691.65	43566.24
691.997	43733.47
692.344	43375.29
692.69	43415.74
693.037	43424.1
693.383	43283.09
693.73	43565.11
694.077	43274.05
694.423	43211
694.769	43100.04
695.116	42913.6
695.462	42822.98
695.808	42840.84
696.155	42822.08
696.501	42532.82
696.847	42352.49
697.193	42048.99
697.539	42165.6
697.885	41816.01
698.231	41696.01
698.577	41626.18
698.923	41501.66
699.269	41265.29
699.614	40953.2
699.96	40868.23
700.306	40712.08
700.651	40518.41
700.997	40409.26
701.342	40191.19
701.688	40074.36
702.033	39895.15
702.379	39854.25
702.724	39905.55
703.069	40015.37
703.415	39529.96
703.76	39533.13
704.105	39545.1
704.45	39533.58
704.795	39367.26
705.14	39229.86
705.485	39235.06
705.83	39225.56
706.175	39394.83
706.52	39304.88
706.865	39280.7
707.209	39292.46
707.554	39308.5
707.899	39233.25
708.243	38902.86
708.588	38980.83
708.932	38735.41
709.277	38693.83
709.621	38802.3
709.966	38521.63
710.31	38569.99
710.654	38172.03
710.998	38215.65
711.342	38258.81
711.687	38022.21
712.031	37627.41
712.375	37608.88
712.719	37726.17
713.063	37454.09
713.407	37593.29
713.75	37085.51
714.094	37200.99
714.438	36910.6
714.782	37054.55
715.125	36853.2
715.469	36756.03
715.812	36437.84
716.156	36253.44
716.499	36258.64
716.843	36303.38
717.186	36026.1
717.53	36097.06
717.873	36208.24
718.216	36024.52
718.559	36203.27
718.902	35907.46
719.246	36207.56
719.589	36225.64
719.932	36244.85
720.275	36132.31
720.617	36034.46
720.96	35960.34
721.303	36037.17
721.646	36074.91
721.989	35982.49
722.331	36140.67
722.674	36109.49
723.016	36003.5
723.359	36095.93
723.701	36042.82
724.044	35922.37
724.386	35744.75
724.729	35793.34
725.071	35786.33
725.413	35648.03
725.755	35561.25
726.097	35550.63
726.439	35210.53
726.782	35052.12
727.124	35179.8
727.465	34871.55
727.807	34742.29
728.149	34612.8
728.491	34704.33
728.833	34693.48
729.175	34620.26
729.516	34461.85
729.858	34462.75
730.199	34455.75
730.541	34394.28
730.882	34354.28
731.224	34464.79
731.565	34113.61
731.906	34160.84
732.248	34283.32
732.589	34093.95
732.93	34149.99
733.271	34226.6
733.612	34273.6
733.953	34291.46
734.294	34177.79
734.635	34233.38
734.976	34319.03
735.317	34246.03
735.658	34219.37
735.999	34434.28
736.339	34430.66
736.68	34688.51
737.021	34427.27
737.361	34293.04
737.702	34517.44
738.042	34375.3
738.383	34313.15
738.723	34513.37
739.063	34367.39
739.404	34534.16
739.744	34244.23
740.084	34216.66
740.424	34226.83
740.764	34284.9
741.104	34288.07
741.444	33898.7
741.784	33895.08
742.124	33952.93
742.464	33743.22
742.804	33717.01
743.143	33525.38
743.483	33667.29
743.823	33486.73
744.162	33473.4
744.502	33557.69
744.841	33423.01
745.181	33470.91
745.52	33375.77
745.86	33299.17
746.199	33327.41
746.538	33433.4
746.877	33634.75
747.216	33514.3
747.556	33517.47
747.895	33518.6
748.234	33481.53
748.573	33551.59
748.911	33429.11
749.25	33528.77
749.589	33476.34
749.928	33545.26
750.267	33718.82
750.605	33670
750.944	33657.8
751.283	33606.5
751.621	33840.4
751.96	33663
752.298	33917.23
752.636	33876.78
752.975	33881.75
