Data from blue_clamp_base_FLMS001491_00014.txt Node
Date: Wed Feb 08 15:15:37 GMT 2017
User: dcchb
Spectrometer: FLMS00149
Trigger mode: 0
Integration Time (sec): 2.000000E-2
Scans to average: 10
Electric dark correction enabled: true
Nonlinearity correction enabled: false
Boxcar width: 0
XAxis mode: Wavelengths
Number of Pixels in Spectrum: 2048
>>>>>Begin Spectral Data<<<<<
341.393	-15.14
341.776	-15.14
342.16	-15.14
342.543	-61.02
342.927	-55.37
343.31	-88.36
343.693	-65.99
344.077	-79.09
344.46	-60.56
344.843	-44.97
345.226	-42.03
345.61	-35.03
345.993	-5.88
346.376	-11.98
346.759	3.62
347.142	10.4
347.525	53.56
347.908	79.32
348.291	74.12
348.674	96.49
349.057	116.38
349.44	123.39
349.823	139.43
350.206	155.25
350.588	188.92
350.971	211.07
351.354	219.88
351.737	241.8
352.119	272.76
352.502	249.94
352.884	267.56
353.267	277.51
353.65	308.47
354.032	297.39
354.414	303.27
354.797	322.25
355.179	319.09
355.562	310.73
355.944	317.05
356.326	319.09
356.709	341.46
357.091	341.01
357.473	355.47
357.855	332.42
358.238	341.91
358.62	333.78
359.002	353.21
359.384	350.73
359.766	345.08
360.148	334.68
360.53	337.62
360.912	327.68
361.294	357.28
361.676	336.71
362.057	340.78
362.439	326.09
362.821	316.6
363.203	319.99
363.584	350.05
363.966	331.29
364.348	298.75
364.729	321.12
365.111	321.12
365.493	349.14
365.874	323.16
366.256	315.7
366.637	306.66
367.019	321.57
367.4	317.96
367.781	333.1
368.163	321.12
368.544	332.87
368.925	325.19
369.306	327.68
369.688	318.41
370.069	293.55
370.45	301.69
370.831	323.38
371.212	318.18
371.593	324.29
371.974	304.85
372.355	316.38
372.736	321.12
373.117	333.32
373.498	309.6
373.879	327.22
374.26	319.99
374.641	324.29
375.021	337.39
375.402	343.49
375.783	310.73
376.163	321.8
376.544	332.87
376.925	335.58
377.305	343.95
377.686	331.74
378.066	332.87
378.447	345.08
378.827	349.37
379.208	344.17
379.588	333.1
379.968	352.31
380.349	355.92
380.729	355.47
381.109	345.98
381.489	330.61
381.87	348.69
382.25	326.77
382.63	349.82
383.01	338.52
383.39	361.57
383.77	374.91
384.15	350.95
384.53	345.75
384.91	376.04
385.29	363.61
385.67	378.97
386.049	354.79
386.429	381.23
386.809	367.45
387.189	393.44
387.568	388.01
387.948	391.4
388.328	407.22
388.707	389.82
389.087	364.28
389.466	379.88
389.846	399.76
390.225	405.64
390.605	429.82
390.984	395.02
391.363	415.36
391.743	411.06
392.122	407.67
392.501	438.41
392.881	430.5
393.26	449.25
393.639	429.59
394.018	437.95
394.397	438.63
394.776	442.7
395.155	439.76
395.534	443.83
395.913	461.23
396.292	476.15
396.671	469.14
397.05	468.46
397.429	472.53
397.808	484.51
398.186	466.2
398.565	472.76
398.944	495.81
399.323	472.76
399.701	508.91
400.08	493.09
400.458	505.98
400.837	514.11
401.215	530.83
401.594	517.73
401.972	514.79
402.351	533.77
402.729	536.48
403.107	560.21
403.486	551.17
403.864	546.43
404.242	539.87
404.62	533.77
404.999	553.43
405.377	572.41
405.755	594.56
406.133	581.45
406.511	590.94
406.889	605.18
407.267	604.05
407.645	601.11
408.023	634.33
408.401	626.2
408.779	639.98
409.156	670.26
409.534	657.16
409.912	661.9
410.29	666.65
410.667	692.41
411.045	672.52
411.422	689.7
411.8	701.9
412.178	695.8
412.555	713.88
412.933	722.24
413.31	719.53
413.687	736.93
414.065	769.25
414.442	743.71
414.819	764.95
415.197	751.62
415.574	759.98
415.951	788.23
416.328	820.32
416.705	806.08
417.082	802.01
417.46	808.57
417.837	823.03
418.214	835.68
418.591	813.76
418.967	842.24
419.344	869.58
419.721	869.81
420.098	860.77
420.475	900.32
420.852	867.32
421.228	886.98
421.605	903.48
421.982	886.53
422.358	909.58
422.735	922.91
423.111	925.85
423.488	951.16
423.864	926.76
424.241	959.07
424.617	961.1
424.994	991.84
425.37	1020.09
425.746	1001.78
426.123	1010.14
426.499	1043.59
426.875	1025.51
427.251	1053.98
427.627	1074.1
428.003	1062.34
428.379	1079.97
428.756	1091.72
429.132	1111.38
429.507	1128.33
429.883	1134.66
430.259	1156.58
430.635	1165.39
431.011	1178.05
431.387	1218.27
431.763	1235
432.138	1247.42
432.514	1267.31
432.89	1237.26
433.265	1318.16
433.641	1321.32
434.016	1287.42
434.392	1329.23
434.767	1381.88
435.143	1348.21
435.518	1404.48
435.894	1394.31
436.269	1408.78
436.644	1445.39
437.02	1445.16
437.395	1436.8
437.77	1463.69
438.145	1494.42
438.52	1503.01
438.895	1503.01
439.271	1533.74
439.646	1561.99
440.021	1568.55
440.395	1587.3
440.77	1586.4
441.145	1611.03
441.52	1616.68
441.895	1662.33
442.27	1639.5
442.645	1659.17
443.019	1675.66
443.394	1658.26
443.769	1713.85
444.143	1675.44
444.518	1744.81
444.892	1727.86
445.267	1748.65
445.641	1793.17
446.016	1757.24
446.39	1804.02
446.764	1821.42
447.139	1815.77
447.513	1858.26
447.887	1859.84
448.262	1843.34
448.636	1843.57
449.01	1912.04
449.384	1907.07
449.758	1931.47
450.132	1934.64
450.506	1964.92
450.88	1959.95
451.254	1984.58
451.628	2013.51
452.002	2039.04
452.376	2045.6
452.75	2065.93
453.123	2109.55
453.497	2130.79
453.871	2109.1
454.244	2159.27
454.618	2162.66
454.992	2223.67
455.365	2235.87
455.739	2263.67
456.112	2253.27
456.486	2288.53
456.859	2307.28
457.232	2371.46
457.606	2382.08
457.979	2427.96
458.352	2428.64
458.725	2478.35
459.099	2487.39
459.472	2536.43
459.845	2533.72
460.218	2580.95
460.591	2570.55
460.964	2630.67
461.337	2642.42
461.71	2678.8
462.083	2744.79
462.456	2739.14
462.829	2741.17
463.201	2771
463.574	2801.73
463.947	2848.74
464.32	2874.5
464.692	2925.57
465.065	2951.33
465.438	2973.03
465.81	2995.4
466.183	3022.07
466.555	3092.8
466.928	3127.83
467.3	3105
467.672	3128.96
468.045	3262.74
468.417	3232.23
468.789	3247.82
469.161	3310.2
469.534	3369.18
469.906	3450.3
470.278	3458.89
470.65	3480.36
471.022	3513.81
471.394	3545.9
471.766	3580.47
472.138	3615.05
472.51	3701.37
472.882	3766.45
473.253	3812.1
473.625	3819.79
473.997	3925.77
474.369	3939.78
474.74	3974.36
475.112	4075.6
475.484	4077.63
475.855	4157.86
476.227	4173.9
476.598	4271.53
476.97	4292.99
477.341	4394.69
477.713	4467.91
478.084	4473.78
478.455	4573.67
478.827	4640.56
479.198	4669.71
479.569	4722.59
479.94	4822.47
480.311	4828.12
480.682	4932.98
481.053	5048
481.424	5115.12
481.795	5157.15
482.166	5207.55
482.537	5246.42
482.908	5335.23
483.279	5369.8
483.65	5410.71
484.021	5584.26
484.391	5594.43
484.762	5623.58
485.133	5642.11
485.503	5755.78
485.874	5800.98
486.244	5818.83
486.615	5923.23
486.985	5984.7
487.356	6052.72
487.726	6140.86
488.097	6168.43
488.467	6224.47
488.837	6357.8
489.207	6368.87
489.578	6461.07
489.948	6442.54
490.318	6498.59
490.688	6558.47
491.058	6662.2
491.428	6738.13
491.798	6770.9
492.168	6879.59
492.538	6859.25
492.908	6901.74
493.278	6936.54
493.648	6999.82
494.017	7044.79
494.387	7132.69
494.757	7135.18
495.126	7146.48
495.496	7169.98
495.866	7234.16
496.235	7249.53
496.605	7285.91
496.974	7340.6
497.344	7366.13
497.713	7398.68
498.082	7442.52
498.452	7477.54
498.821	7493.59
499.19	7483.42
499.559	7641.61
499.928	7631.66
500.298	7611.78
500.667	7702.17
501.036	7665.34
501.405	7760.47
501.774	7696.75
502.143	7700.14
502.512	7800.7
502.88	7838.89
503.249	7805.22
503.618	7944.65
503.987	7877.08
504.356	7964.31
504.724	7997.98
505.093	7952.79
505.462	8006.8
505.83	8041.82
506.199	8109.17
506.567	8163.85
506.936	8124.31
507.304	8151.65
507.672	8214.7
508.041	8180.58
508.409	8277.97
508.777	8335.37
509.145	8360.91
509.514	8383.73
509.882	8428.93
510.25	8456.05
510.618	8431.19
510.986	8513.22
511.354	8555.26
511.722	8549.38
512.09	8616.72
512.458	8621.47
512.826	8664.4
513.193	8700.79
513.561	8680.68
513.929	8764.74
514.297	8754.8
514.664	8819.66
515.032	8870.28
515.4	8866.89
515.767	8906.88
516.135	8951.18
516.502	8843.61
516.869	8996.6
517.237	9072.08
517.604	9020.1
517.972	9093.77
518.339	9042.93
518.706	9100.55
519.073	9108.46
519.44	9077.28
519.808	9281.56
520.175	9185.52
520.542	9282.92
520.909	9335.35
521.276	9355.91
521.643	9407.89
522.009	9448.11
522.376	9559.52
522.743	9530.14
523.11	9609.24
523.477	9717.94
523.843	9753.64
524.21	9785.28
524.577	9834.77
524.943	9863.7
525.31	9857.82
525.676	9967.2
526.043	10005.84
526.409	10069.34
526.776	10118.38
527.142	10154.31
527.508	10174.42
527.874	10235.66
528.241	10230.24
528.607	10302.33
528.973	10329.45
529.339	10413.96
529.705	10485.6
530.071	10515.88
530.437	10557.91
530.803	10625.71
531.169	10660.96
531.535	10579.61
531.901	10658.7
532.267	10641.53
532.632	10665.03
532.998	10750
533.364	10863.44
533.73	10874.52
534.095	10946.15
534.461	10926.94
534.826	11070.9
535.192	10994.51
535.557	11064.12
535.923	11013.5
536.288	11127.17
536.653	11199.48
537.019	11105.7
537.384	11142.76
537.749	11209.2
538.114	11192.02
538.479	11275.64
538.845	11320.61
539.21	11284.9
539.575	11328.29
539.94	11424.11
540.305	11413.71
540.67	11401.06
541.034	11382.07
541.399	11586.81
541.764	11572.13
542.129	11525.8
542.494	11604.67
542.858	11636.76
543.223	11654.16
543.587	11653.48
543.952	11668.62
544.316	11751.56
544.681	11690.09
545.045	11864.32
545.41	11822.06
545.774	11841.95
546.138	11900.48
546.503	11924.43
546.867	11845.56
547.231	12011.44
547.595	11956.75
547.959	11962.85
548.324	11936.18
548.688	11999.46
549.052	12084.88
549.416	12116.07
549.779	12132.11
550.143	12158.55
550.507	12204.42
550.871	12197.42
551.235	12230.86
551.599	12335.72
551.962	12317.87
552.326	12349.05
552.689	12386.79
553.053	12328.04
553.417	12350.18
553.78	12530.52
554.143	12475.38
554.507	12467.02
554.87	12521.93
555.234	12631.08
555.597	12634.24
555.96	12638.31
556.323	12610.29
556.686	12655.03
557.05	12729.83
557.413	12708.14
557.776	12760.79
558.139	12803.51
558.502	12829.49
558.865	12899.1
559.228	12932.77
559.59	12969.15
559.953	12986.78
560.316	13095.25
560.679	13140.67
561.041	13120.56
561.404	13235.81
561.767	13257.28
562.129	13253.66
562.492	13339.76
562.854	13329.59
563.217	13380.89
563.579	13470.15
563.941	13535.01
564.304	13519.42
564.666	13642.81
565.028	13556.25
565.39	13629.92
565.753	13663.14
566.115	13687.1
566.477	13790.82
566.839	13850.26
567.201	13829.01
567.563	13936.58
567.925	14065.39
568.287	13974.77
568.648	14149.23
569.01	14153.53
569.372	14251.6
569.734	14200.53
570.095	14298.38
570.457	14272.39
570.819	14402.11
571.18	14376.57
571.542	14527.53
571.903	14485.04
572.265	14585.83
572.626	14501.09
572.987	14609.56
573.349	14585.38
573.71	14711.7
574.071	14765.26
574.432	14850.46
574.794	14981.98
575.155	14868.54
575.516	14834.86
575.877	14976.56
576.238	14978.59
576.599	15020.62
576.96	15052.03
577.32	15054.97
577.681	15092.03
578.042	15134.07
578.403	15197.11
578.763	15164.57
579.124	15293.84
579.485	15249.32
579.845	15310.33
580.206	15262.65
580.566	15312.59
580.927	15402.08
581.287	15393.72
581.648	15344.46
582.008	15463.1
582.368	15399.82
582.728	15491.34
583.089	15483.43
583.449	15509.65
583.809	15492.7
584.169	15507.39
584.529	15525.24
584.889	15628.29
585.249	15531.57
585.609	15556.43
585.969	15567.05
586.329	15558.01
586.688	15590.55
587.048	15706.25
587.408	15633.49
587.768	15600.49
588.127	15622.41
588.487	15616.99
588.846	15713.71
589.206	15596.65
589.565	15666.48
589.925	15684.33
590.284	15638.46
590.643	15691.11
591.003	15789.64
591.362	15759.36
591.721	15784.22
592.08	15770.66
592.44	15927.26
592.799	15858.34
593.158	15783.99
593.517	15843.88
593.876	15897.89
594.235	15744.67
594.593	15829.64
594.952	15881.39
595.311	15819.47
595.67	15860.6
596.029	15968.85
596.387	15943.54
596.746	15976.08
597.104	15899.02
597.463	15966.59
597.822	15999.35
598.18	15916.87
598.538	15907.38
598.897	16034.15
599.255	15950.32
599.613	16120.48
599.972	16035.51
600.33	16066.92
600.688	16038.22
601.046	16038.45
601.404	16193.47
601.762	16120.25
602.12	16163.87
602.478	16173.59
602.836	16198.44
603.194	16102.18
603.552	16137.88
603.91	16105.79
604.268	16181.72
604.625	16202.51
604.983	16275.73
605.341	16148.05
605.698	16156.41
606.056	16232.79
606.413	16266.92
606.771	16323.86
607.128	16321.6
607.485	16256.3
607.843	16264.21
608.2	16377.65
608.557	16425.56
608.914	16352.11
609.272	16492.45
609.629	16470.53
609.986	16571.77
610.343	16435.5
610.7	16577.87
611.057	16588.04
611.414	16428.27
611.771	16496.52
612.127	16555.72
612.484	16547.59
612.841	16683.18
613.198	16626.46
613.554	16569.73
613.911	16683.63
614.267	16636.17
614.624	16664.42
614.98	16777.86
615.337	16814.93
615.693	16822.38
616.05	16721.14
616.406	16923.85
616.762	16820.35
617.118	16829.61
617.475	16865.09
617.831	17005.43
618.187	16917.3
618.543	17005.65
618.899	17034.35
619.255	17003.17
619.611	17057.4
619.967	17091.98
620.323	17091.75
620.678	17046.11
621.034	16995.71
621.39	17108.02
621.746	17052.43
622.101	17232.09
622.457	17021.47
622.812	17162.49
623.168	17181.02
623.523	17163.39
623.879	17279.55
624.234	17119.78
624.589	17249.26
624.945	17193.45
625.3	17221.47
625.655	17276.38
626.01	17254.01
626.365	17355.25
626.72	17297.4
627.075	17340.34
627.43	17373.1
627.785	17305.31
628.14	17490.84
628.495	17438.41
628.85	17325.42
629.205	17364.29
629.559	17506.21
629.914	17385.08
630.269	17537.17
630.623	17479.77
630.978	17390.96
631.332	17551.4
631.687	17531.97
632.041	17422.37
632.396	17484.06
632.75	17423.27
633.104	17517.51
633.459	17434.8
633.813	17513.44
634.167	17499.88
634.521	17630.27
634.875	17543.72
635.229	17492.87
635.583	17519.54
635.937	17526.54
636.291	17527.22
636.645	17440.9
636.999	17651.29
637.352	17583.04
637.706	17530.16
638.06	17597.73
638.413	17591.85
638.767	17543.27
639.121	17573.32
639.474	17460.78
639.828	17490.16
640.181	17536.04
640.534	17626.66
640.888	17640.67
641.241	17494
641.594	17578.75
641.947	17696.48
642.301	17552.53
642.654	17649.03
643.007	17626.66
643.36	17646.32
643.713	17623.72
644.066	17720.44
644.419	17581.23
644.771	17542.82
645.124	17317.06
645.477	17458.52
645.83	17312.09
646.182	17310.28
646.535	17253.11
646.888	17327.23
647.24	17187.57
647.593	17237.51
647.945	17316.61
648.298	17189.83
648.65	17156.84
649.002	17141.02
649.355	17378.3
649.707	17355.48
650.059	17322.93
650.411	17701.23
650.763	17766.76
651.115	17833.2
651.467	17818.06
651.819	17900.09
652.171	17835.69
652.523	17781.91
652.875	17843.15
653.227	17686.77
653.578	17974.22
653.93	17826.65
654.282	17740.1
654.633	17783.94
654.985	17868
655.337	17763.15
655.688	17874.33
656.039	18029.13
656.391	17797.95
656.742	17870.72
657.094	17907.55
657.445	17998.17
657.796	17993.2
658.147	17882.47
658.498	17932.86
658.849	17908.46
659.2	17917.72
659.551	17844.28
659.902	17979.19
660.253	17996.59
660.604	18027.32
660.955	17929.47
661.306	17915.01
661.656	17952.97
662.007	18030.94
662.358	17912.52
662.708	17950.26
663.059	17943.71
663.409	17939.19
663.76	18016.7
664.11	17899.87
664.461	18053.54
664.811	17967.21
665.161	18035.01
665.511	17934.22
665.862	17957.04
666.212	17970.6
666.562	18004.95
666.912	17956.82
667.262	17973.09
667.612	17988.23
667.962	18007.66
668.312	17978.06
668.662	18053.08
669.011	17880.21
669.361	17928.12
669.711	17896.48
670.06	17899.19
670.41	17775.58
670.76	17752.98
671.109	17858.29
671.459	17841.11
671.808	17782.81
672.157	17820.32
672.507	17703.94
672.856	17704.17
673.205	17770.61
673.554	17680.44
673.904	17696.26
674.253	17724.73
674.602	17612.64
674.951	17482.03
675.3	17332.65
675.649	17509.14
675.998	17536.04
676.346	17472.99
676.695	17525.64
677.044	17402.03
677.393	17422.82
677.741	17374.68
678.09	17356.83
678.438	17308.02
678.787	17308.92
679.135	17322.26
679.484	17242.71
679.832	17227.34
680.181	17117.29
680.529	17315.02
680.877	17157.74
681.225	17087.69
681.573	17220.79
681.922	17027.35
682.27	16931.31
682.618	17008.59
682.966	17041.36
683.314	17023.51
683.661	16867.81
684.009	16874.13
684.357	16790.07
684.705	16738.09
685.053	16791.65
685.4	16792.55
685.748	16738.77
686.095	16713.01
686.443	16682.05
686.79	16565.89
687.138	16641.82
687.485	16583.52
687.832	16437.99
688.18	16563.41
688.527	16408.38
688.874	16403.18
689.221	16390.08
689.568	16414.03
689.915	16335.62
690.262	16306.92
690.609	16392.11
690.956	16211.78
691.303	16282.96
691.65	16135.39
691.997	16157.32
692.344	16127.71
692.69	16039.8
693.037	16178.56
693.383	15953.03
693.73	16048.62
694.077	15972.46
694.423	15893.37
694.769	15940.37
695.116	15926.13
695.462	15864.67
695.808	15866.7
696.155	15952.57
696.501	15861.05
696.847	15796.19
697.193	15737.89
697.539	15793.03
697.885	15697.89
698.231	15548.52
698.577	15696.54
698.923	15626.93
699.269	15634.62
699.614	15588.29
699.96	15532.25
700.306	15577.44
700.651	15544.68
700.997	15424.68
701.342	15487.95
701.688	15398.24
702.033	15395.53
702.379	15385.36
702.724	15348.3
703.069	15444.11
703.415	15173.16
703.76	15338.81
704.105	15279.37
704.45	15305.59
704.795	15241.86
705.14	15256.55
705.485	15146.72
705.83	15187.17
706.175	15179.71
706.52	15104.01
706.865	15063.11
707.209	15092.94
707.554	14955.54
707.899	15105.14
708.243	15102.43
708.588	15001.41
708.932	14958.02
709.277	14995.09
709.621	14894.98
709.966	14871.7
710.31	14859.72
710.654	14800.06
710.998	14818.59
711.342	14880.74
711.687	14852.94
712.031	14868.54
712.375	14742.21
712.719	14864.24
713.063	14865.6
713.407	14785.83
713.75	14812.49
714.094	14746.28
714.438	14698.37
714.782	14667.41
715.125	14645.94
715.469	14786.73
715.812	14612.27
716.156	14548.77
716.499	14648.2
716.843	14623.34
717.186	14510.8
717.53	14620.41
717.873	14602.55
718.216	14587.41
718.559	14579.5
718.902	14430.81
719.246	14520.07
719.589	14549.67
719.932	14433.07
720.275	14414.31
720.617	14469.22
720.96	14438.04
721.303	14353.52
721.646	14494.76
721.989	14380.64
722.331	14420.19
722.674	14442.33
723.016	14388.32
723.359	14446.4
723.701	14406.17
724.044	14351.71
724.386	14347.19
724.729	14374.09
725.071	14339.96
725.413	14373.18
725.755	14348.55
726.097	14271.26
726.439	14257.93
726.782	14237.59
727.124	14370.92
727.465	14255.22
727.807	14168.89
728.149	14241.66
728.491	14197.82
728.833	14217.48
729.175	14228.33
729.516	14224.94
729.858	14255.9
730.199	14309
730.541	14160.31
730.882	14210.47
731.224	14222.22
731.565	14186.97
731.906	14226.52
732.248	14252.05
732.589	14200.53
732.93	14225.61
733.271	14222.9
733.612	14230.36
733.953	14315.33
734.294	14264.03
734.635	14241.43
734.976	14368.21
735.317	14257.93
735.658	14276.01
735.999	14370.92
736.339	14291.6
736.68	14375.22
737.021	14240.76
737.361	14319.85
737.702	14385.16
738.042	14420.19
738.383	14406.4
738.723	14479.39
739.063	14372.28
739.404	14400.07
739.744	14451.37
740.084	14430.13
740.424	14414.76
740.764	14492.73
741.104	14634.87
741.444	14411.37
741.784	14479.85
742.124	14546.06
742.464	14558.04
742.804	14575.89
743.143	14547.87
743.483	14700.4
743.823	14526.62
744.162	14546.96
744.502	14603.23
744.841	14579.5
745.181	14659.28
745.52	14636.23
745.86	14739.05
746.199	14699.27
746.538	14770.01
746.877	14902.88
747.216	14885.71
747.556	14829.67
747.895	14854.75
748.234	14869.67
748.573	14925.03
748.911	14856.56
749.25	14945.6
749.589	14975.88
749.928	14968.65
750.267	15027.4
750.605	15071.47
750.944	15116.21
751.283	15085.93
751.621	15186.72
751.96	15087.74
752.298	15075.54
752.636	15209.09
752.975	15146.49
753.313	15209.77
753.651	15174.29
753.989	15188.53
754.327	15225.81
754.666	15145.36
755.004	15254.06
755.342	15303.55
755.679	15264.68
