Data from blue_shiny_book_FLMS001491_00009.txt Node
Date: Wed Feb 08 15:26:27 GMT 2017
User: dcchb
Spectrometer: FLMS00149
Trigger mode: 0
Integration Time (sec): 2.000000E-2
Scans to average: 10
Electric dark correction enabled: true
Nonlinearity correction enabled: false
Boxcar width: 0
XAxis mode: Wavelengths
Number of Pixels in Spectrum: 2048
>>>>>Begin Spectral Data<<<<<
341.393	-9.97
341.776	-9.97
342.16	-9.97
342.543	-93.81
342.927	-57.65
343.31	-63.53
343.693	-73.25
344.077	-86.35
344.46	-42.29
344.843	-54.72
345.226	-50.2
345.61	-21.04
345.993	-24.21
346.376	1.1
346.759	-4.55
347.142	13.08
347.525	41.1
347.908	58.95
348.291	82.91
348.674	91.04
349.057	131.95
349.44	124.94
349.823	150.7
350.206	158.84
350.588	198.84
350.971	218.27
351.354	249.91
351.737	216.01
352.119	253.52
352.502	259.85
352.884	294.43
353.267	295.33
353.65	308.89
354.032	303.01
354.414	338.95
354.797	307.31
355.179	330.36
355.562	338.04
355.944	338.49
356.326	336.69
356.709	343.92
357.091	362.45
357.473	346.63
357.855	359.51
358.238	356.35
358.62	344.37
359.002	362.45
359.384	374.2
359.766	342.11
360.148	353.63
360.53	373.97
360.912	373.52
361.294	340.75
361.676	338.49
362.057	359.74
362.439	355.44
362.821	343.01
363.203	329.91
363.584	336.23
363.966	358.61
364.348	353.18
364.729	350.92
365.111	351.83
365.493	371.26
365.874	331.94
366.256	346.63
366.637	350.25
367.019	303.92
367.4	351.15
367.781	337.14
368.163	341.43
368.544	332.62
368.925	340.3
369.306	361.09
369.688	339.4
370.069	356.57
370.45	334.88
370.831	362
371.212	358.61
371.593	369.91
371.974	339.85
372.355	361.09
372.736	371.49
373.117	357.02
373.498	361.77
373.879	378.94
374.26	372.62
374.641	334.88
375.021	334.43
375.402	356.35
375.783	353.18
376.163	392.5
376.544	398.38
376.925	395.22
377.305	387.98
377.686	384.14
378.066	388.44
378.447	402.45
378.827	392.96
379.208	404.71
379.588	395.89
379.968	388.66
380.349	381.2
380.729	413.07
381.109	402.22
381.489	427.76
381.87	403.12
382.25	406.74
382.63	409.9
383.01	402.67
383.39	421.66
383.77	439.51
384.15	431.15
384.53	443.35
384.91	446.74
385.29	431.82
385.67	463.46
386.049	448.77
386.429	442.22
386.809	448.55
387.189	442.45
387.568	449.45
387.948	471.82
388.328	460.98
388.707	469.34
389.087	489.22
389.466	498.26
389.846	486.96
390.225	499.17
390.605	530.81
390.984	510.69
391.363	507.76
391.743	510.47
392.122	520.64
392.501	519.51
392.881	531.71
393.26	527.64
393.639	557.25
394.018	546.4
394.397	561.76
394.776	559.73
395.155	557.02
395.534	555.21
395.913	579.62
396.292	582.56
396.671	591.37
397.05	609
397.429	586.62
397.808	605.61
398.186	601.76
398.565	604.93
398.944	653.74
399.323	635.44
399.701	616.68
400.08	649.22
400.458	645.6
400.837	625.72
401.215	655.55
401.594	664.36
401.972	672.5
402.351	680.63
402.729	678.37
403.107	701.87
403.486	691.48
403.864	699.61
404.242	719.27
404.62	700.97
404.999	725.15
405.377	749.1
405.755	751.82
406.133	764.25
406.511	750.01
406.889	792.72
407.267	785.49
407.645	786.84
408.023	816.9
408.401	818.71
408.779	828.88
409.156	846.73
409.534	875.65
409.912	876.78
410.29	867.75
410.667	898.48
411.045	921.3
411.422	910.91
411.8	894.19
412.178	939.83
412.555	946.84
412.933	960.17
413.31	997.46
413.687	1022.09
414.065	1020.51
414.442	1011.47
414.819	1031.13
415.197	1044.92
415.574	1061.41
415.951	1078.36
416.328	1079.27
416.705	1095.54
417.082	1115.65
417.46	1149.55
417.837	1128.76
418.214	1152.26
418.591	1168.75
418.967	1199.49
419.344	1184.57
419.721	1197.68
420.098	1223.89
420.475	1233.61
420.852	1262.31
421.228	1226.83
421.605	1267.28
421.982	1291.24
422.358	1318.81
422.735	1342.54
423.111	1321.74
423.488	1349.31
423.864	1354.51
424.241	1394.29
424.617	1399.48
424.994	1404.68
425.37	1391.12
425.746	1457.11
426.123	1442.19
426.499	1453.72
426.875	1439.93
427.251	1516.77
427.627	1533.49
428.003	1592.47
428.379	1596.09
428.756	1598.57
429.132	1646.71
429.507	1644.67
429.883	1689.87
430.259	1679.7
430.635	1686.26
431.011	1700.27
431.387	1772.58
431.763	1794.27
432.138	1792.92
432.514	1818.68
432.89	1864.1
433.265	1921.5
433.641	1921.96
434.016	1968.28
434.392	1987.49
434.767	2032.91
435.143	2001.05
435.518	2054.38
435.894	2080.82
436.269	2088.96
436.644	2130.99
437.02	2148.84
437.395	2143.42
437.77	2200.14
438.145	2239.69
438.52	2296.63
438.895	2340.93
439.271	2310.65
439.646	2356.97
440.021	2360.36
440.395	2373.92
440.77	2334.15
441.145	2408.95
441.52	2436.52
441.895	2476.29
442.27	2469.51
442.645	2503.63
443.019	2535.5
443.394	2526.91
443.769	2598.55
444.143	2613.46
444.518	2667.92
444.892	2632.67
445.267	2604.2
445.641	2713.12
446.016	2697.98
446.39	2689.39
446.764	2727.36
447.139	2750.18
447.513	2781.14
447.887	2787.7
448.262	2834.47
448.636	2849.84
449.01	2887.13
449.384	2953.11
449.758	2940.91
450.132	2983.4
450.506	2975.03
450.88	2955.37
451.254	2987.69
451.628	3042.38
452.002	3054.13
452.376	3085.54
452.75	3132.32
453.123	3220.23
453.497	3260
453.871	3278.76
454.244	3359.88
454.618	3356.27
454.992	3414.12
455.365	3404.63
455.739	3512.87
456.112	3584.06
456.486	3557.84
456.859	3591.52
457.232	3662.02
457.606	3618.86
457.979	3726.88
458.352	3805.75
458.725	3860.21
459.099	3918.74
459.472	4009.36
459.845	4074.67
460.218	4120.99
460.591	4150.37
460.964	4173.2
461.337	4238.05
461.71	4242.35
462.083	4319.18
462.456	4372.96
462.829	4354.43
463.201	4448.22
463.574	4509.46
463.947	4544.49
464.32	4708.32
464.692	4730.02
465.065	4823.57
465.438	4899.28
465.81	4941.99
466.183	5019.5
466.555	5095.66
466.928	5109.67
467.3	5124.36
467.672	5127.07
468.045	5322.32
468.417	5324.58
468.789	5351.47
469.161	5440.05
469.534	5553.95
469.906	5707.84
470.278	5754.62
470.65	5847.5
471.022	5947.61
471.394	6057.67
471.766	6127.49
472.138	6214.05
472.51	6332.46
472.882	6356.64
473.253	6482.06
473.625	6492
473.997	6652.68
474.369	6690.87
474.74	6779
475.112	6894.48
475.484	7073.91
475.855	7249.95
476.227	7281.59
476.598	7503.73
476.97	7576.27
477.341	7725.42
477.713	7872.31
478.084	7959.99
478.455	8151.85
478.827	8175.58
479.198	8466.19
479.569	8403.82
479.94	8582.34
480.311	8731.49
480.682	8956.8
481.053	9096
481.424	9355.43
481.795	9383.91
482.166	9594.97
482.537	9735.08
482.908	10001.74
483.279	10104.34
483.65	10292.13
484.021	10446.93
484.391	10658.67
484.762	10658
485.133	10785.9
485.503	10881.72
485.874	11109.28
486.244	11286.23
486.615	11502.04
486.985	11579.1
487.356	11844.86
487.726	12023.61
488.097	12258.86
488.467	12326.65
488.837	12636.48
489.207	12763.93
489.578	13066.29
489.948	13151.04
490.318	13316.01
490.688	13305.16
491.058	13520.75
491.428	13757.12
491.798	13828.31
492.168	14075.31
492.538	14157.34
492.908	14353.94
493.278	14559.81
493.648	14625.58
494.017	14835.29
494.387	15016.3
494.757	15196.41
495.126	15358.66
495.496	15474.59
495.866	15655.83
496.235	15673.01
496.605	15898.99
496.974	15986.67
497.344	16113.45
497.713	16197.06
498.082	16305.53
498.452	16460.56
498.821	16554.11
499.19	16603.15
499.559	16825.52
499.928	16973.54
500.298	17162.23
500.667	17327.88
501.036	17341.21
501.405	17588.89
501.774	17645.84
502.143	17937.81
502.512	17878.15
502.88	18138.48
503.249	18074.75
503.618	18229.77
503.987	18340.73
504.356	18366.04
504.724	18575.98
505.093	18540.28
505.462	18726.26
505.83	18870.89
506.199	19026.36
506.567	19295.51
506.936	19297.32
507.304	19641.94
507.672	19687.59
508.041	19882.61
508.409	20033.57
508.777	20196.95
509.145	20281.92
509.514	20276.73
509.882	20451.41
510.25	20477.85
510.618	20640.11
510.986	20650.5
511.354	20965.97
511.722	21100.21
512.09	21288.9
512.458	21331.84
512.826	21468.11
513.193	21670.81
513.561	21784.48
513.929	21957.81
514.297	22200.07
514.664	22420.17
515.032	22431.92
515.4	22728.64
515.767	22783.55
516.135	23032.81
516.502	22866.72
516.869	23244.33
517.237	23258.57
517.604	23303.99
517.972	23676.86
518.339	23851.55
518.706	23854.94
519.073	24048.6
519.44	24305.55
519.808	24509.38
520.175	24497.86
520.542	24896.94
520.909	25045.41
521.276	25082.93
521.643	25421.22
522.009	25581.67
522.376	25628
522.743	25774.21
523.11	26117.93
523.477	26331.03
523.843	26498.94
524.21	26757.23
524.577	27011.24
524.943	27068.19
525.31	27158.13
525.676	27614.61
526.043	27632.92
526.409	27858.45
526.776	28041.04
527.142	28216.63
527.508	28479.22
527.874	28699.56
528.241	28864.07
528.607	28965.99
528.973	29302.48
529.339	29318.97
529.705	29628.8
530.071	29757.38
530.437	29904.95
530.803	30114.66
531.169	30113.53
531.535	30265.84
531.901	30418.15
532.267	30553.74
532.632	30901.98
532.998	30916.22
533.364	31090.45
533.73	31453.38
534.095	31656.54
534.461	31722.53
534.826	31890.66
535.192	31958
535.557	32157.32
535.923	32282.29
536.288	32447.03
536.653	32643.41
537.019	32387.14
537.384	32699.22
537.749	32785.1
538.114	32795.04
538.479	32895.83
538.845	32981.03
539.21	33050.63
539.575	33220.34
539.94	33430.51
540.305	33580.78
540.67	33639.31
541.034	33796.82
541.399	33994.56
541.764	34113.2
542.129	34281.33
542.494	34320.43
542.858	34412.63
543.223	34635.67
543.587	34874.31
543.952	34785.5
544.316	34919.96
544.681	34900.75
545.045	35049.22
545.41	35173.06
545.774	35177.8
546.138	35145.26
546.503	35339.83
546.867	35241.53
547.231	35664.12
547.595	35550.45
547.959	35801.97
548.324	35940.95
548.688	36071.57
549.052	36303.2
549.416	36388.62
549.779	36525.57
550.143	36552.01
550.507	36990.41
550.871	36910.64
551.235	36977.3
551.599	37259.56
551.962	37308.6
552.326	37395.37
552.689	37504.07
553.053	37342.72
553.417	37391.3
553.78	37765.98
554.143	37520.79
554.507	37739.77
554.87	37819.32
555.234	38098.18
555.597	38086.88
555.96	38313.77
556.323	38507.89
556.686	38593.99
557.05	39059.06
557.413	39165.5
557.776	39155.55
558.139	39553.28
558.502	39661.75
558.865	39746.5
559.228	39997.79
559.59	40079.37
559.953	40058.58
560.316	40409.53
560.679	40306.93
561.041	40412.47
561.404	40425.35
561.767	40765
562.129	40579.92
562.492	40945.56
562.854	40844.32
563.217	41018.1
563.579	41277.3
563.941	41532.67
564.304	41669.84
564.666	41893.33
565.028	42122.93
565.39	42170.39
565.753	42508.23
566.115	42813.31
566.477	42963.59
566.839	42944.38
567.201	43279.74
567.563	43388.44
567.925	43580.29
568.287	43497.36
568.648	43610.58
569.01	43760.86
569.372	43933.51
569.734	43643.57
570.095	43851.93
570.457	43900.51
570.819	43905.71
571.18	43855.54
571.542	44230.45
571.903	44296.43
572.265	44319.03
572.626	44567.61
572.987	44786.36
573.349	44961.5
573.71	45322.17
574.071	45440.13
574.432	45459.79
574.794	45887.8
575.155	45837.64
575.516	45870.63
575.877	46003.96
576.238	46113.56
576.599	46146.1
576.96	46127.57
577.32	46216.84
577.681	46365.53
578.042	46281.24
578.403	46178.87
578.763	46219.1
579.124	46275.59
579.485	46438.75
579.845	46290.28
580.206	46201.69
580.566	46302.26
580.927	46336.61
581.287	46582.7
581.648	46488.69
582.008	46636.03
582.368	46809.59
582.728	47026.53
583.089	47113.76
583.449	47097.72
583.809	47278.05
584.169	47351.04
584.529	47383.58
584.889	47627.65
585.249	47452.28
585.609	47454.09
585.969	47650.92
586.329	47462
586.688	47459.29
587.048	47315.34
587.408	47246.41
587.768	47188.34
588.127	46907.66
588.487	46837.38
588.846	47238.96
589.206	46796.26
589.565	47002.58
589.925	47155.79
590.284	47062.01
590.643	47166.87
591.003	47279.86
591.362	47411.15
591.721	47514.2
592.08	47438.5
592.44	47783.57
592.799	47818.83
593.158	47858.37
593.517	47821.77
593.876	47958.48
594.235	47944.93
594.593	48218.36
594.952	48217.01
595.311	47915.32
595.67	48046.17
596.029	48216.78
596.387	48030.12
596.746	47944.7
597.104	47642.56
597.463	47686.4
597.822	47720.98
598.18	47513.07
598.538	47468.1
598.897	47666.97
599.255	47210.03
599.613	47830.13
599.972	47665.39
600.33	47836.23
600.688	47756.68
601.046	47985.38
601.404	48234.18
601.762	48163.45
602.12	48408.19
602.478	48467.4
602.836	48567.51
603.194	48399.15
603.552	48609.99
603.91	48451.58
604.268	48699.93
604.625	48445.7
604.983	48521.63
605.341	48420.85
605.698	48603.21
606.056	48730.89
606.413	48652.03
606.771	48761.18
607.128	48621.97
607.485	48326.16
607.843	48304.69
608.2	48468.3
608.557	48522.99
608.914	48422.43
609.272	48582.65
609.629	48676.88
609.986	48796.43
610.343	48655.64
610.7	48866.26
611.057	48900.15
611.414	48984.9
611.771	49135.4
612.127	49359.13
612.484	49448.62
612.841	49556.86
613.198	49477.54
613.554	49535.84
613.911	49710.53
614.267	49643.41
614.624	49805.22
614.98	49751.21
615.337	49991.2
615.693	49813.58
616.05	49769.28
616.406	49891.99
616.762	49659.23
617.118	49693.35
617.475	49628.95
617.831	49670.53
618.187	49625.79
618.543	49541.95
618.899	49724.31
619.255	49560.25
619.611	49605.45
619.967	49794.82
620.323	49709.17
620.678	49639.8
621.034	49579.01
621.39	49684.32
621.746	49644.99
622.101	50081.14
622.457	49997.98
622.812	50020.58
623.168	50180.35
623.523	50172.66
623.879	50378.53
624.234	50217.41
624.589	50305.54
624.945	50377.63
625.3	50448.59
625.655	50429.61
626.01	50375.14
626.365	50315.03
626.72	50216.28
627.075	50189.16
627.43	50006.34
627.785	50004.76
628.14	49902.84
628.495	49913.46
628.85	49873.01
629.205	49689.29
629.559	49880.69
629.914	49644.99
630.269	49660.81
630.623	49629.18
630.978	49479.35
631.332	49627.14
631.687	49862.84
632.041	49696.07
632.396	49880.47
632.75	49776.97
633.104	49783.52
633.459	49785.78
633.813	49842.73
634.167	49797.98
634.521	49807.7
634.875	49951.2
635.229	49790.53
635.583	49835.72
635.937	49747.36
636.291	49822.84
636.645	49865.78
636.999	49649.29
637.352	49670.53
637.706	49390.31
638.06	49585.79
638.413	49369.52
638.767	49135.4
639.121	49278.22
639.474	48762.76
639.828	48848.86
640.181	48871.46
640.534	48726.15
640.888	48622.42
641.241	48393.73
641.594	48564.12
641.947	48671.46
642.301	48508.07
642.654	48638.92
643.007	48420.39
643.36	48410.68
643.713	48441.41
644.066	48640.5
644.419	48500.84
644.771	48555.76
645.124	48343.79
645.477	48622.2
645.83	48259.49
646.182	47837.58
646.535	47587.2
646.888	47542.22
647.24	47237.15
647.593	47587.65
647.945	47455.22
648.298	47137.49
648.65	46985.63
649.002	46980.66
649.355	47227.66
649.707	47074.89
650.059	47360.31
650.411	47789.9
650.763	47739.28
651.115	47947.19
651.467	47777.92
651.819	47634.65
652.171	47575.67
652.523	47527.99
652.875	47525.5
653.227	47357.82
653.578	47483.47
653.93	47589.45
654.282	47341.33
654.633	47191.27
654.985	47326.18
655.337	47314.21
655.688	47299.52
656.039	47529.57
656.391	47164.61
656.742	47388.78
657.094	47417.48
657.445	47681.88
657.796	47734.08
658.147	47719.17
658.498	47765.72
658.849	47831.48
659.2	47774.53
659.551	47732.95
659.902	47839.39
660.253	47762.56
660.604	47792.16
660.955	47522.56
661.306	47486.18
661.656	47563.01
662.007	47400.76
662.358	47241.22
662.708	47248.9
663.059	47227.88
663.409	47034.67
663.76	47174.1
664.11	46984.73
664.461	46831.73
664.811	46710.38
665.161	46717.39
665.511	46653.43
665.862	46755.8
666.212	46878.74
666.562	46897.72
666.912	46925.74
667.262	46798.74
667.612	46918.51
667.962	46885.52
668.312	46982.92
668.662	47212.97
669.011	47138.17
669.361	47075.57
669.711	47203.7
670.06	47192.18
670.41	47159.64
670.76	47056.81
671.109	47269.01
671.459	47264.27
671.808	47198.05
672.157	47370.7
672.507	47020.43
672.856	47118.73
673.205	47182.01
673.554	47100.2
673.904	46876.71
674.253	47005.74
674.602	46907.89
674.951	46187.46
675.3	45861.14
675.649	46441.01
675.998	46325.99
676.346	46355.82
676.695	46305.87
677.044	46031.08
677.393	46012.77
677.741	46005.54
678.09	45842.61
678.438	45763.97
678.787	45900.91
679.135	45922.83
679.484	45529.17
679.832	45807.35
680.181	45519.68
680.529	45750.18
680.877	45714.48
681.225	45733.91
681.573	45926
681.922	45783.85
682.27	45655.72
682.618	45932.55
682.966	45802.16
683.314	45891.87
683.661	45831.08
684.009	45522.39
684.357	45664.99
684.705	45621.82
685.053	45603.52
685.4	45594.25
685.748	45280.36
686.095	45264.77
686.443	44997.21
686.79	45059.13
687.138	45001.73
687.485	44798.12
687.832	44656.65
688.18	44606.93
688.527	44207.17
688.874	44160.39
689.221	43995.88
689.568	43831.59
689.915	43680.86
690.262	43665.26
690.609	43477.7
690.956	43286.52
691.303	43280.64
691.65	43083.36
691.997	43082.45
692.344	42647.21
692.69	42859.41
693.037	42714.33
693.383	42501.91
693.73	42553.43
694.077	42445.64
694.423	42550.72
694.769	42346.2
695.116	42375.35
695.462	42598.63
695.808	42376.71
696.155	42407.9
696.501	42146.43
696.847	42305.53
697.193	41940.79
697.539	42128.36
697.885	41826.22
698.231	41905.54
698.577	41755.26
698.923	41720.68
699.269	41554.59
699.614	41299.22
699.96	41235.5
700.306	41147.82
700.651	40986.01
700.997	40852.68
701.342	40712.8
701.688	40393.03
702.033	40128.41
702.379	40061.29
702.724	39946.04
703.069	40056.55
703.415	39391.93
703.76	39356.45
704.105	39208.43
704.45	39127.53
704.795	38892.96
705.14	38780.2
705.485	38778.16
705.83	38711.04
706.175	38790.36
706.52	38591.95
706.865	38473.54
707.209	38372.52
707.554	38417.49
707.899	38495.46
708.243	38449.81
708.588	38427.66
708.932	38158.52
709.277	38212.07
709.621	38371.39
709.966	38179.76
710.31	38456.59
710.654	38093.21
710.998	38313.77
711.342	38322.13
711.687	38206.88
712.031	37990.61
712.375	37802.82
712.719	37981.35
713.063	37809.37
713.407	37957.84
713.75	37552.43
714.094	37607.34
714.438	37349.05
714.782	37254.13
715.125	37011.2
715.469	36993.8
715.812	36689.85
716.156	36543.19
716.499	36481.72
716.843	36473.36
717.186	36243.09
717.53	36293.93
717.873	36207.16
718.216	35793.38
718.559	35723.78
718.902	35435.88
719.246	35728.75
719.589	35557.23
719.932	35552.26
720.275	35437.01
720.617	35471.36
720.96	35353.84
721.303	35472.26
721.646	35333.51
721.989	35351.13
722.331	35592.48
722.674	35596.1
723.016	35641.75
723.359	35603.1
723.701	35656.89
724.044	35521.52
724.386	35372.83
724.729	35660.28
725.071	35575.53
725.413	35566.27
725.755	35667.06
726.097	35462.99
726.439	35259.61
726.782	35211.93
727.124	35329.21
727.465	35139.39
727.807	35122.21
728.149	35191.14
728.491	34932.61
728.833	34979.62
729.175	34883.8
729.516	34734.2
729.858	34643.81
730.199	34684.03
730.541	34477.94
730.882	34465.05
731.224	34483.13
731.565	34186.87
731.906	34199.3
732.248	34252.18
732.589	34041.11
732.93	33853.32
733.271	33881.79
733.612	33846.09
733.953	33951.62
734.294	33851.96
734.635	33701.46
734.976	33719.54
735.317	33726.09
735.658	33805.18
735.999	33973.32
736.339	33924.05
736.68	34016.03
737.021	34023.71
737.361	33881.79
737.702	34058.06
738.042	34118.62
738.383	34049.7
738.723	34206.08
739.063	34244.27
739.404	34265.06
739.744	34310.26
740.084	34202.01
740.424	34359.29
740.764	34341.67
741.104	34434.32
741.444	34197.04
741.784	34105.97
742.124	34335.57
742.464	34226.87
742.804	34090.37
743.143	34129.7
743.483	34011.28
743.823	33849.7
744.162	33859.87
744.502	33901.91
744.841	33693.55
745.181	33872.75
745.52	33587.56
745.86	33654.68
746.199	33528.13
746.538	33504.85
746.877	33475.7
747.216	33435.93
747.556	33485.19
747.895	33442.26
748.234	33217.63
748.573	33210.17
748.911	33261.7
749.25	33249.27
749.589	33138.54
749.928	33126.11
750.267	33295.37
750.605	33241.13
750.944	33240.45
751.283	33153
751.621	33282.94
751.96	33133.79
752.298	33314.35
752.636	33416.04
752.975	33361.81
753.313	33453.33
