Data from blue_chair_FLMS001491_00015.txt Node
Date: Wed Feb 08 10:29:32 GMT 2017
User: dcchb
Spectrometer: FLMS00149
Trigger mode: 0
Integration Time (sec): 2.000000E-2
Scans to average: 10
Electric dark correction enabled: true
Nonlinearity correction enabled: false
Boxcar width: 0
XAxis mode: Wavelengths
Number of Pixels in Spectrum: 2048
>>>>>Begin Spectral Data<<<<<
341.393	-7.7
341.776	-7.7
342.16	-7.7
342.543	-68.26
342.927	-51.99
343.31	-73.91
343.693	-38.43
344.077	-72.78
344.46	-55.61
344.843	-61.26
345.226	-35.49
345.61	-19.45
345.993	-26.23
346.376	-7.47
346.759	20.1
347.142	25.75
347.525	29.82
347.908	39.08
348.291	75.46
348.674	84.5
349.057	115.92
349.44	136.48
349.823	147.1
350.206	141.45
350.588	184.16
350.971	186.87
351.354	184.84
351.737	206.08
352.119	209.92
352.502	242.92
352.884	239.08
353.267	256.25
353.65	283.82
354.032	277.27
354.414	281.56
354.797	278.62
355.179	278.85
355.562	297.61
355.944	286.98
356.326	310.71
356.709	301.67
357.091	290.83
357.473	300.77
357.855	339.64
358.238	304.16
358.62	310.03
359.002	319.53
359.384	308.45
359.766	317.94
360.148	319.53
360.53	306.64
360.912	316.81
361.294	308.45
361.676	303.25
362.057	300.54
362.439	316.36
362.821	306.19
363.203	287.44
363.584	320.43
363.966	306.42
364.348	300.99
364.729	301.9
365.111	294.44
365.493	284.72
365.874	312.07
366.256	284.95
366.637	299.64
367.019	277.04
367.4	269.36
367.781	277.04
368.163	288.34
368.544	268.23
368.925	290.37
369.306	292.86
369.688	274.78
370.069	269.81
370.45	289.02
370.831	300.99
371.212	275.23
371.593	289.92
371.974	276.81
372.355	292.86
372.736	273.65
373.117	292.63
373.498	297.38
373.879	283.59
374.26	278.4
374.641	276.81
375.021	284.5
375.402	287.89
375.783	297.83
376.163	288.57
376.544	275.01
376.925	285.18
377.305	274.78
377.686	292.18
378.066	299.64
378.447	304.16
378.827	296.93
379.208	283.59
379.588	290.37
379.968	279.98
380.349	298.74
380.729	284.95
381.109	305.74
381.489	308.45
381.87	295.35
382.25	278.17
382.63	287.89
383.01	296.48
383.39	300.77
383.77	307.55
384.15	286.53
384.53	295.8
384.91	298.74
385.29	295.8
385.67	303.71
386.049	316.59
386.429	298.96
386.809	313.88
387.189	293.76
387.568	287.89
387.948	297.83
388.328	300.09
388.707	315.01
389.087	316.14
389.466	315.23
389.846	302.8
390.225	308.45
390.605	315.23
390.984	319.07
391.363	322.24
391.743	309.81
392.122	301.9
392.501	316.59
392.881	305.29
393.26	290.6
393.639	322.69
394.018	309.58
394.397	310.03
394.776	317.94
395.155	323.59
395.534	320.88
395.913	320.43
396.292	331.28
396.671	347.77
397.05	316.59
397.429	315.01
397.808	325.4
398.186	335.57
398.565	345.97
398.944	313.88
399.323	327.89
399.701	327.66
400.08	337.38
400.458	350.49
400.837	352.07
401.215	342.8
401.594	336.93
401.972	372.41
402.351	343.03
402.729	340.99
403.107	343.93
403.486	372.18
403.864	348.23
404.242	350.71
404.62	359.07
404.999	367.89
405.377	358.39
405.755	367.66
406.133	331.28
406.511	351.39
406.889	377.83
407.267	339.41
407.645	378.96
408.023	385.51
408.401	388.45
408.779	358.62
409.156	377.6
409.534	365.85
409.912	384.38
410.29	403.37
410.667	374.21
411.045	404.72
411.422	379.41
411.8	384.61
412.178	401.56
412.555	396.13
412.933	371.73
413.31	410.37
413.687	389.35
414.065	393.87
414.442	414.21
414.819	405.4
415.197	393.65
415.574	406.08
415.951	406.08
416.328	431.39
416.705	414.89
417.082	428.22
417.46	407.21
417.837	428.68
418.214	410.6
418.591	413.31
418.967	394.55
419.344	434.55
419.721	407.43
420.098	420.54
420.475	422.35
420.852	407.43
421.228	433.42
421.605	435.68
421.982	426.87
422.358	453.08
422.735	435.68
423.111	463.7
423.488	467.32
423.864	473.42
424.241	448.79
424.617	468.67
424.994	467.77
425.37	462.12
425.746	465.96
426.123	488.11
426.499	471.61
426.875	470.48
427.251	482.69
427.627	474.78
428.003	490.59
428.379	522.91
428.756	523.14
429.132	500.99
429.507	485.85
429.883	498.5
430.259	524.04
430.635	525.17
431.011	532.18
431.387	514.32
431.763	512.51
432.138	546.41
432.514	514.55
432.89	539.86
433.265	541.44
433.641	538.73
434.016	541.21
434.392	552.51
434.767	566.98
435.143	559.29
435.518	578.28
435.894	589.57
436.269	585.28
436.644	575.11
437.02	607.65
437.395	606.75
437.77	616.69
438.145	620.08
438.52	623.02
438.895	621.66
439.271	651.27
439.646	646.75
440.021	637.94
440.395	651.27
440.77	659.4
441.145	642.68
441.52	657.37
441.895	652.62
442.27	690.82
442.645	658.05
443.019	684.71
443.394	685.84
443.769	732.85
444.143	701.21
444.518	697.37
444.892	697.14
445.267	703.92
445.641	721.77
446.016	722.45
446.39	721.32
446.764	727.88
447.139	704.37
447.513	738.72
447.887	771.04
448.262	740.53
448.636	736.46
449.01	765.84
449.384	750.7
449.758	755.22
450.132	751.83
450.506	755.67
450.88	757.48
451.254	776.24
451.628	761.32
452.002	774.2
452.376	792.28
452.75	799.51
453.123	801.09
453.497	817.37
453.871	812.85
454.244	846.29
454.618	859.62
454.992	867.31
455.365	838.61
455.739	853.3
456.112	870.47
456.486	853.07
456.859	877.93
457.232	889
457.606	885.84
457.979	893.52
458.352	903.24
458.725	926.29
459.099	912.73
459.472	929.45
459.845	950.02
460.218	948.44
460.591	949.57
460.964	936.46
461.337	939.17
461.71	923.8
462.083	978.04
462.456	972.39
462.829	969.9
463.201	1012.84
463.574	973.75
463.947	994.08
464.32	972.84
464.692	1018.94
465.065	1022.78
465.438	1017.59
465.81	1039.51
466.183	1043.57
466.555	1053.52
466.928	1047.64
467.3	1039.96
467.672	1068.66
468.045	1084.7
468.417	1111.6
468.789	1091.48
469.161	1097.13
469.534	1097.36
469.906	1122.44
470.278	1151.82
470.65	1133.97
471.022	1167.19
471.394	1166.73
471.766	1146.85
472.138	1186.85
472.51	1190.01
472.882	1206.06
473.253	1219.39
473.625	1196.56
473.997	1247.86
474.369	1256.68
474.74	1222.1
475.112	1258.48
475.484	1264.36
475.855	1320.63
476.227	1308.2
476.598	1334.19
476.97	1342.32
477.341	1336.9
477.713	1354.07
478.084	1346.84
478.455	1398.14
478.827	1380.06
479.198	1380.97
479.569	1417.58
479.94	1414.64
480.311	1456.22
480.682	1465.71
481.053	1451.47
481.424	1504.35
481.795	1505.03
482.166	1491.92
482.537	1539.83
482.908	1547.06
483.279	1524.92
483.65	1563.11
484.021	1605.14
484.391	1574.41
484.762	1581.41
485.133	1601.07
485.503	1583.22
485.874	1624.58
486.244	1664.35
486.615	1624.8
486.985	1656.89
487.356	1651.02
487.726	1688.76
488.097	1691.69
488.467	1708.42
488.837	1726.95
489.207	1736.44
489.578	1759.04
489.948	1762.88
490.318	1780.73
490.688	1731.47
491.058	1784.12
491.428	1791.8
491.798	1777.57
492.168	1815.98
492.538	1813.72
492.908	1788.41
493.278	1832.93
493.648	1801.52
494.017	1825.02
494.387	1805.81
494.757	1814.85
495.126	1824.57
495.496	1846.72
495.866	1823.21
496.235	1854.63
496.605	1862.76
496.974	1839.49
497.344	1845.14
497.713	1852.37
498.082	1854.85
498.452	1852.82
498.821	1823.89
499.19	1855.53
499.559	1862.08
499.928	1826.15
500.298	1856.66
500.667	1875.64
501.036	1817.57
501.405	1875.19
501.774	1868.64
502.143	1860.5
502.512	1864.57
502.88	1872.93
503.249	1871.35
503.618	1839.49
503.987	1840.84
504.356	1883.33
504.724	1857.56
505.093	1838.81
505.462	1851.46
505.83	1856.89
506.199	1863.21
506.567	1860.05
506.936	1844.23
507.304	1858.92
507.672	1819.15
508.041	1827.51
508.409	1849.43
508.777	1860.05
509.145	1867.73
509.514	1848.75
509.882	1847.62
510.25	1833.84
510.618	1856.66
510.986	1838.13
511.354	1825.25
511.722	1858.92
512.09	1867.28
512.458	1821.86
512.826	1852.82
513.193	1851.69
513.561	1813.72
513.929	1802.42
514.297	1821.18
514.664	1834.74
515.032	1820.73
515.4	1852.14
515.767	1814.63
516.135	1816.66
516.502	1757.91
516.869	1825.93
517.237	1780.5
517.604	1785.7
517.972	1793.39
518.339	1790.45
518.706	1797.45
519.073	1798.13
519.44	1769.2
519.808	1831.58
520.175	1772.14
520.542	1778.47
520.909	1804.68
521.276	1768.98
521.643	1779.15
522.009	1776.66
522.376	1761.75
522.743	1807.85
523.11	1761.75
523.477	1781.63
523.843	1768.53
524.21	1783.67
524.577	1804.23
524.943	1743.89
525.31	1782.31
525.676	1773.05
526.043	1781.86
526.409	1774.63
526.776	1778.24
527.142	1781.18
527.508	1757.45
527.874	1751.8
528.241	1778.47
528.607	1775.76
528.973	1735.08
529.339	1730.79
529.705	1772.59
530.071	1757.91
530.437	1771.01
530.803	1774.85
531.169	1792.26
531.535	1764.23
531.901	1750.67
532.267	1745.93
532.632	1739.83
532.998	1781.18
533.364	1756.1
533.73	1735.31
534.095	1742.99
534.461	1751.13
534.826	1736.89
535.192	1718.36
535.557	1723.1
535.923	1734.18
536.288	1756.1
536.653	1748.19
537.019	1722.65
537.384	1728.3
537.749	1734.4
538.114	1719.71
538.479	1705.03
538.845	1710
539.21	1733.5
539.575	1721.75
539.94	1688.08
540.305	1717
540.67	1697.34
541.034	1693.5
541.399	1695.76
541.764	1727.62
542.129	1720.17
542.494	1706.38
542.858	1700.73
543.223	1719.71
543.587	1684.24
543.952	1662.09
544.316	1666.38
544.681	1674.97
545.045	1690.79
545.41	1664.57
545.774	1662.32
546.138	1689.88
546.503	1657.8
546.867	1664.35
547.231	1662.77
547.595	1674.74
547.959	1667.74
548.324	1651.47
548.688	1643.56
549.052	1657.12
549.416	1645.37
549.779	1653.95
550.143	1634.52
550.507	1655.54
550.871	1632.49
551.235	1671.13
551.599	1649.89
551.962	1637
552.326	1658.02
552.689	1630.23
553.053	1630.23
553.417	1650.34
553.78	1642.2
554.143	1617.34
554.507	1625.93
554.87	1627.97
555.234	1635.42
555.597	1642.88
555.96	1622.09
556.323	1590.68
556.686	1639.04
557.05	1610.34
557.413	1582.77
557.776	1620.06
558.139	1634.07
558.502	1603.56
558.865	1615.31
559.228	1603.33
559.59	1622.99
559.953	1626.38
560.316	1601.98
560.679	1620.28
561.041	1586.16
561.404	1630.45
561.767	1640.17
562.129	1613.95
562.492	1620.51
562.854	1601.75
563.217	1571.24
563.579	1592.71
563.941	1592.49
564.304	1613.73
564.666	1628.87
565.028	1633.62
565.39	1633.39
565.753	1621.86
566.115	1602.66
566.477	1652.6
566.839	1634.29
567.201	1646.27
567.563	1637.68
567.925	1627.97
568.287	1645.82
568.648	1639.04
569.01	1646.27
569.372	1675.2
569.734	1644.91
570.095	1695.31
570.457	1692.37
570.819	1680.62
571.18	1693.5
571.542	1691.24
571.903	1666.83
572.265	1673.39
572.626	1660.73
572.987	1705.93
573.349	1691.69
573.71	1693.5
574.071	1698.47
574.432	1695.31
574.794	1708.42
575.155	1696.21
575.516	1725.36
575.877	1709.09
576.238	1735.31
576.599	1758.36
576.96	1738.7
577.32	1734.4
577.681	1728.98
578.042	1737.34
578.403	1719.49
578.763	1761.52
579.124	1718.58
579.485	1784.35
579.845	1757.68
580.206	1738.7
580.566	1736.89
580.927	1754.97
581.287	1785.7
581.648	1776.21
582.008	1735.08
582.368	1766.04
582.728	1758.36
583.089	1760.62
583.449	1777.11
583.809	1789.77
584.169	1802.42
584.529	1768.75
584.889	1776.21
585.249	1781.86
585.609	1754.74
585.969	1792.71
586.329	1784.12
586.688	1786.83
587.048	1767.17
587.408	1758.13
587.768	1749.09
588.127	1785.7
588.487	1774.18
588.846	1791.8
589.206	1746.61
589.565	1768.75
589.925	1793.61
590.284	1773.95
590.643	1815.98
591.003	1814.63
591.362	1792.93
591.721	1774.4
592.08	1797.45
592.44	1775.31
592.799	1787.74
593.158	1788.87
593.517	1784.12
593.876	1767.62
594.235	1768.75
594.593	1792.71
594.952	1799.71
595.311	1807.85
595.67	1768.53
596.029	1796.32
596.387	1786.61
596.746	1764.91
597.104	1777.11
597.463	1775.98
597.822	1772.37
598.18	1790.22
598.538	1777.11
598.897	1762.65
599.255	1771.01
599.613	1824.8
599.972	1788.64
600.33	1759.26
600.688	1779.37
601.046	1785.02
601.404	1789.32
601.762	1785.7
602.12	1773.95
602.478	1781.86
602.836	1794.06
603.194	1806.04
603.552	1764.91
603.91	1759.04
604.268	1772.37
604.625	1801.29
604.983	1764.46
605.341	1791.58
605.698	1776.66
606.056	1795.42
606.413	1770.33
606.771	1800.62
607.128	1765.82
607.485	1789.32
607.843	1750.9
608.2	1791.8
608.557	1776.66
608.914	1778.24
609.272	1798.36
609.629	1787.28
609.986	1804.68
610.343	1799.26
610.7	1807.85
611.057	1816.66
611.414	1777.11
611.771	1811.92
612.127	1811.46
612.484	1815.08
612.841	1793.61
613.198	1808.75
613.554	1813.27
613.911	1830.9
614.267	1812.59
614.624	1802.65
614.98	1791.13
615.337	1799.49
615.693	1797.68
616.05	1813.72
616.406	1836.1
616.762	1816.44
617.118	1797.45
617.475	1828.19
617.831	1804.68
618.187	1797.68
618.543	1819.15
618.899	1832.71
619.255	1816.21
619.611	1823.89
619.967	1840.39
620.323	1825.7
620.678	1825.02
621.034	1820.28
621.39	1832.93
621.746	1826.38
622.101	1799.26
622.457	1833.61
622.812	1837
623.168	1813.95
623.523	1830.22
623.879	1829.32
624.234	1841.97
624.589	1826.83
624.945	1841.07
625.3	1858.92
625.655	1833.38
626.01	1833.16
626.365	1864.12
626.72	1818.92
627.075	1808.07
627.43	1854.85
627.785	1846.94
628.14	1825.7
628.495	1825.02
628.85	1833.61
629.205	1850.11
629.559	1843.33
629.914	1814.63
630.269	1830.9
630.623	1839.94
630.978	1853.95
631.332	1830.45
631.687	1833.84
632.041	1840.16
632.396	1844.01
632.75	1802.65
633.104	1839.03
633.459	1828.19
633.813	1818.7
634.167	1806.49
634.521	1812.14
634.875	1825.93
635.229	1824.12
635.583	1813.5
635.937	1808.07
636.291	1791.35
636.645	1839.03
636.999	1828.86
637.352	1821.86
637.706	1823.89
638.06	1846.27
638.413	1818.7
638.767	1841.97
639.121	1818.92
639.474	1814.63
639.828	1804.68
640.181	1821.63
640.534	1846.94
640.888	1845.81
641.241	1783.22
641.594	1837.68
641.947	1813.95
642.301	1814.63
642.654	1827.51
643.007	1852.37
643.36	1804.01
643.713	1798.36
644.066	1811.92
644.419	1845.81
644.771	1812.14
645.124	1800.62
645.477	1786.15
645.83	1801.97
646.182	1784.12
646.535	1791.35
646.888	1773.05
647.24	1766.49
647.593	1782.99
647.945	1780.5
648.298	1796.1
648.65	1766.95
649.002	1771.46
649.355	1806.49
649.707	1753.16
650.059	1803.33
650.411	1822.31
650.763	1829.32
651.115	1846.27
651.467	1847.17
651.819	1840.84
652.171	1892.37
652.523	1812.37
652.875	1811.24
653.227	1848.3
653.578	1842.2
653.93	1843.1
654.282	1834.97
654.633	1870.9
654.985	1849.2
655.337	1875.64
655.688	1852.59
656.039	1860.28
656.391	1871.12
656.742	1843.33
657.094	1856.89
657.445	1866.15
657.796	1861.18
658.147	1860.5
658.498	1849.88
658.849	1869.54
659.2	1868.64
659.551	1853.5
659.902	1875.87
660.253	1865.93
660.604	1866.15
660.955	1883.33
661.306	1863.67
661.656	1851.69
662.007	1835.87
662.358	1871.58
662.708	1884.68
663.059	1874.06
663.409	1843.55
663.76	1854.85
664.11	1887.17
664.461	1895.98
664.811	1872.48
665.161	1883.1
665.511	1871.12
665.862	1888.07
666.212	1894.85
666.562	1880.61
666.912	1858.69
667.262	1838.81
667.612	1849.2
667.962	1860.5
668.312	1857.79
668.662	1844.01
669.011	1865.47
669.361	1831.58
669.711	1864.57
670.06	1855.3
670.41	1848.3
670.76	1856.21
671.109	1885.81
671.459	1857.79
671.808	1858.69
672.157	1884.46
672.507	1856.43
672.856	1824.34
673.205	1870.45
673.554	1845.81
673.904	1874.06
674.253	1846.04
674.602	1841.07
674.951	1823.89
675.3	1806.49
675.649	1823.44
675.998	1799.94
676.346	1794.29
676.695	1848.3
677.044	1819.37
677.393	1852.14
677.741	1824.57
678.09	1804.01
678.438	1794.74
678.787	1811.01
679.135	1821.63
679.484	1793.39
679.832	1789.54
680.181	1767.85
680.529	1813.05
680.877	1805.81
681.225	1779.37
681.573	1770.56
681.922	1761.97
682.27	1759.49
682.618	1804.01
682.966	1794.74
683.314	1780.5
683.661	1768.3
684.009	1792.26
684.357	1788.64
684.705	1758.36
685.053	1761.52
685.4	1746.83
685.748	1732.14
686.095	1738.47
686.443	1757
686.79	1768.3
687.138	1719.49
687.485	1728.75
687.832	1745.7
688.18	1749.09
688.527	1718.13
688.874	1721.97
689.221	1711.81
689.568	1714.97
689.915	1724.01
690.262	1733.05
690.609	1712.03
690.956	1690.79
691.303	1667.96
691.65	1712.94
691.997	1686.5
692.344	1696.44
692.69	1668.87
693.037	1668.64
693.383	1677.91
693.73	1677.46
694.077	1647.85
694.423	1644.01
694.769	1644.01
695.116	1645.59
695.462	1632.26
695.808	1622.99
696.155	1623.9
696.501	1622.99
696.847	1632.03
697.193	1635.88
697.539	1608.98
697.885	1621.41
698.231	1626.61
698.577	1612.6
698.923	1601.53
699.269	1601.53
699.614	1580.06
699.96	1610.11
700.306	1592.71
700.651	1580.06
700.997	1583.45
701.342	1610.56
701.688	1605.59
702.033	1566.72
702.379	1556.78
702.724	1564.01
703.069	1577.12
703.415	1562.88
703.76	1585.71
704.105	1567.85
704.45	1557.23
704.795	1552.04
705.14	1573.5
705.485	1568.76
705.83	1585.03
706.175	1553.62
706.52	1576.67
706.865	1530.79
707.209	1546.84
707.554	1556.33
707.899	1552.49
708.243	1536.89
708.588	1547.74
708.932	1549.32
709.277	1550.23
709.621	1519.72
709.966	1544.58
710.31	1514.3
710.654	1553.17
710.998	1538.48
711.342	1540.96
711.687	1563.79
712.031	1570.11
712.375	1552.94
712.719	1551.13
713.063	1568.76
713.407	1574.86
713.75	1559.94
714.094	1554.75
714.438	1545.03
714.782	1584.35
715.125	1531.47
715.469	1581.19
715.812	1563.56
716.156	1523.34
716.499	1550
716.843	1581.41
717.186	1555.43
717.53	1556.1
717.873	1562.88
718.216	1567.63
718.559	1565.59
718.902	1564.46
719.246	1557.91
719.589	1588.42
719.932	1588.19
720.275	1624.58
720.617	1586.61
720.96	1577.35
721.303	1594.52
721.646	1595.65
721.989	1611.92
722.331	1610.11
722.674	1630.23
723.016	1618.7
723.359	1624.58
723.701	1603.79
724.044	1597.46
724.386	1594.97
724.729	1597.01
725.071	1627.97
725.413	1635.88
725.755	1646.72
726.097	1640.39
726.439	1670.45
726.782	1634.75
727.124	1654.18
727.465	1660.06
727.807	1652.82
728.149	1647.17
728.491	1644.01
728.833	1658.25
729.175	1670.22
729.516	1678.13
729.858	1697.57
730.199	1687.17
730.541	1694.63
730.882	1696.89
731.224	1724.23
731.565	1738.02
731.906	1725.59
732.248	1728.98
732.589	1741.86
732.93	1746.38
733.271	1756.55
733.612	1760.84
733.953	1759.49
734.294	1769.88
734.635	1786.61
734.976	1757.45
735.317	1776.89
735.658	1783.44
735.999	1816.89
736.339	1825.7
736.68	1826.15
737.021	1839.03
737.361	1844.68
737.702	1862.54
738.042	1852.14
738.383	1883.78
738.723	1879.03
739.063	1886.72
739.404	1918.58
739.744	1906.38
740.084	1947.96
740.424	1943.66
740.764	1961.29
741.104	1968.97
741.444	2007.39
741.784	1992.25
742.124	2035.41
742.464	2055.98
742.804	2038.35
743.143	2077.9
743.483	2104.34
743.823	2060.72
744.162	2112.92
744.502	2141.62
744.841	2169.19
745.181	2208.29
745.52	2226.14
745.86	2264.33
746.199	2273.37
746.538	2305.46
746.877	2280.38
747.216	2329.87
747.556	2340.72
747.895	2390.43
748.234	2410.32
748.573	2429.75
748.911	2464.78
749.25	2503.42
749.589	2541.16
749.928	2562.63
750.267	2626.13
750.605	2623.87
750.944	2685.79
751.283	2718.11
751.621	2734.38
751.96	2792.23
752.298	2861.15
752.636	2867.03
752.975	2903.19
753.313	3008.72
753.651	3047.82
753.989	3053.46
754.327	3110.41
754.666	3163.52
755.004	3194.7
755.342	3261.82
755.679	3301.82
756.017	3345.21
756.355	3450.74
756.693	3462.27
757.031	3506.79
757.368	3580.46
757.706	3649.61
758.044	3671.53
758.381	3735.48
758.719	3801.02
759.056	3863.39
759.394	3908.58
759.731	3950.16
760.068	4050.95
760.405	4071.74
760.743	4168.01
761.08	4231.06
761.417	4236.26
761.754	4318.74
762.091	4369.81
762.428	4440.1
762.765	4495.91
763.102	4600.77
763.438	4626.98
763.775	4687.55
764.112	4695.23
764.449	4825.62
764.785	4818.16
765.122	4819.75
765.458	4937.26
765.795	4910.82
766.131	4997.14
766.467	5076.91
766.804	5103.81
767.14	5136.8
767.476	5218.61
767.812	5261.09
768.148	5383.57
768.485	5358.49
768.821	5391.26
769.157	5411.37
769.492	5513.29
769.828	5512.84
770.164	5548.99
770.5	5611.82
770.836	5627.86
771.171	5662.44
