Data from blue_shiny_book_FLMS001491_00022.txt Node
Date: Wed Feb 08 15:26:44 GMT 2017
User: dcchb
Spectrometer: FLMS00149
Trigger mode: 0
Integration Time (sec): 2.000000E-2
Scans to average: 10
Electric dark correction enabled: true
Nonlinearity correction enabled: false
Boxcar width: 0
XAxis mode: Wavelengths
Number of Pixels in Spectrum: 2048
>>>>>Begin Spectral Data<<<<<
341.393	-14.31
341.776	-14.31
342.16	-14.31
342.543	-79.39
342.927	-64.02
343.31	-61.54
343.693	-78.26
344.077	-56.11
344.46	-51.14
344.843	-49.11
345.226	-16.57
345.61	-37.36
345.993	-24.7
346.376	6.03
346.759	6.71
347.142	10.1
347.525	34.05
347.908	54.17
348.291	53.04
348.674	107.27
349.057	103.43
349.44	130.55
349.823	153.15
350.206	156.31
350.588	198.57
350.971	234.05
351.354	226.36
351.737	255.06
352.119	266.36
352.502	268.62
352.884	280.6
353.267	299.81
353.65	317.89
354.032	287.15
354.414	321.73
354.797	329.86
355.179	345.01
355.562	353.37
355.944	342.07
356.326	344.78
356.709	361.5
357.091	355.17
357.473	345.68
357.855	368.96
358.238	364.89
358.62	351.56
359.002	358.11
359.384	359.69
359.766	352.46
360.148	352.01
360.53	355.4
360.912	360.82
361.294	360.37
361.676	361.5
362.057	330.77
362.439	348.62
362.821	355.4
363.203	371.67
363.584	335.74
363.966	369.64
364.348	343.42
364.729	354.5
365.111	358.34
365.493	356.08
365.874	341.62
366.256	361.28
366.637	336.87
367.019	342.52
367.4	356.98
367.781	322.41
368.163	343.42
368.544	337.77
368.925	342.29
369.306	367.15
369.688	361.28
370.069	333.25
370.45	332.35
370.831	348.39
371.212	342.29
371.593	362.18
371.974	361.73
372.355	363.08
372.736	369.86
373.117	364.44
373.498	347.94
373.879	348.85
374.26	359.02
374.641	349.52
375.021	348.17
375.402	359.69
375.783	377.55
376.163	394.95
376.544	394.04
376.925	393.37
377.305	375.06
377.686	369.41
378.066	371.9
378.447	403.99
378.827	398.11
379.208	393.37
379.588	409.86
379.968	418.45
380.349	411.44
380.729	402.63
381.109	432.46
381.489	427.49
381.87	383.42
382.25	417.77
382.63	412.57
383.01	410.99
383.39	428.17
383.77	418.68
384.15	425.68
384.53	437.21
384.91	411.22
385.29	438.34
385.67	439.69
386.049	449.86
386.429	437.66
386.809	465.45
387.189	447.6
387.568	447.15
387.948	474.49
388.328	462.74
388.707	484.44
389.087	467.26
389.466	489.86
389.846	476.53
390.225	491.89
390.605	499.58
390.984	512.91
391.363	521.05
391.743	510.2
392.122	511.78
392.501	523.98
392.881	525.57
393.26	533.93
393.639	556.3
394.018	544.32
394.397	556.52
394.776	552.46
395.155	595.17
395.534	556.3
395.913	563.53
396.292	573.02
396.671	566.02
397.05	596.75
397.429	585.68
397.808	603.76
398.186	580.48
398.565	609.86
398.944	661.38
399.323	627.94
399.701	637.43
400.08	633.81
400.458	636.07
400.837	647.82
401.215	651.21
401.594	643.53
401.972	672.68
402.351	656.41
402.729	672.91
403.107	677.65
403.486	682.62
403.864	678.1
404.242	707.03
404.62	712.23
404.999	703.41
405.377	733.7
405.755	741.6
406.133	754.94
406.511	780.93
406.889	767.14
407.267	801.04
407.645	790.87
408.023	808.95
408.401	828.83
408.779	813.02
409.156	832.9
409.534	824.09
409.912	838.1
410.29	861.38
410.667	885.1
411.045	901.15
411.422	903.86
411.8	908.83
412.178	951.99
412.555	959.45
412.933	975.04
413.31	969.85
413.687	992.9
414.065	1007.36
414.442	1001.48
414.819	1009.85
415.197	1039.68
415.574	1053.46
415.951	1061.14
416.328	1079.45
416.705	1074.48
417.082	1095.49
417.46	1135.27
417.837	1135.49
418.214	1129.17
418.591	1152.44
418.967	1121.71
419.344	1157.19
419.721	1194.93
420.098	1199.67
420.475	1229.5
420.852	1242.38
421.228	1227.24
421.605	1241.7
421.982	1284.42
422.358	1328.03
422.735	1293.45
423.111	1296.39
423.488	1345.66
423.864	1343.62
424.241	1360.12
424.617	1386.11
424.994	1384.98
425.37	1405.09
425.746	1425.65
426.123	1460.23
426.499	1466.78
426.875	1493.22
427.251	1536.84
427.627	1535.71
428.003	1508.14
428.379	1567.57
428.756	1590.4
429.132	1593.56
429.507	1626.1
429.883	1658.64
430.259	1678.53
430.635	1716.49
431.011	1721.69
431.387	1769.15
431.763	1795.59
432.138	1786.55
432.514	1826.32
432.89	1841.01
433.265	1871.74
433.641	1903.83
434.016	1939.99
434.392	1982.48
434.767	1997.39
435.143	2006.43
435.518	2031.74
435.894	2067.45
436.269	2090.72
436.644	2130.04
437.02	2137.73
437.395	2156.71
437.77	2202.58
438.145	2229.02
438.52	2229.48
438.895	2295.01
439.271	2258.18
439.646	2325.52
440.021	2343.82
440.395	2411.84
440.77	2383.37
441.145	2407.32
441.52	2479.64
441.895	2473.76
442.27	2491.16
442.645	2496.13
443.019	2539.98
443.394	2525.51
443.769	2566.64
444.143	2538.17
444.518	2592.63
444.892	2630.14
445.267	2645.06
445.641	2700.88
446.016	2717.37
446.39	2772.74
446.764	2742.46
447.139	2757.6
447.513	2813.19
447.887	2757.15
448.262	2840.98
448.636	2816.58
449.01	2863.58
449.384	2903.13
449.758	2923.69
450.132	2959.85
450.506	3036.91
450.88	3044.14
451.254	3035.56
451.628	3083.24
452.002	3156.46
452.376	3153.74
452.75	3186.06
453.123	3234.87
453.497	3239.39
453.871	3297.24
454.244	3348.99
454.618	3364.13
454.992	3456.11
455.365	3445.71
455.739	3548.54
456.112	3597.35
456.486	3644.81
456.859	3651.13
457.232	3723.45
457.606	3743.33
457.979	3792.37
458.352	3901.3
458.725	3910.79
459.099	3916.44
459.472	4047.96
459.845	4052.48
460.218	4123.89
460.591	4136.54
460.964	4206.15
461.337	4281.62
461.71	4369.31
462.083	4417.89
462.456	4489.08
462.829	4517.78
463.201	4543.76
463.574	4528.62
463.947	4647.94
464.32	4758.45
464.692	4795.06
465.065	4827.37
465.438	4872.57
465.81	4966.58
466.183	5048.16
466.555	5152.11
466.928	5182.39
467.3	5175.16
467.672	5296.29
468.045	5468.03
468.417	5472.33
468.789	5498.54
469.161	5583.51
469.534	5659.44
469.906	5783.28
470.278	5808.82
470.65	5901.7
471.022	5985.08
471.394	6126.1
471.766	6188.92
472.138	6239.77
472.51	6403.83
472.882	6512.98
473.253	6556.59
473.625	6667.1
473.997	6837.49
474.369	6841.56
474.74	6994.32
475.112	7162.45
475.484	7253.52
475.855	7327.19
476.227	7420.3
476.598	7585.49
476.97	7651.03
477.341	7875.65
477.713	7974.41
478.084	8073.39
478.455	8342.99
478.827	8394.74
479.198	8615.07
479.569	8616.65
479.94	8849.64
480.311	8961.28
480.682	9144.32
481.053	9390.87
481.424	9493.92
481.795	9603.07
482.166	9772.33
482.537	9899.56
482.908	10192.66
483.279	10266.78
483.65	10310.84
484.021	10630.84
484.391	10772.75
484.762	10902.47
485.133	10972.97
485.503	11232.4
485.874	11487.76
486.244	11542
486.615	11745.61
486.985	11855.44
487.356	12196.44
487.726	12181.08
488.097	12475.31
488.467	12562.76
488.837	12786.71
489.207	13033.48
489.578	13227.38
489.948	13283.2
490.318	13612.23
490.688	13581.27
491.058	13815.84
491.428	14075.49
491.798	14239.55
492.168	14534.01
492.538	14598.19
492.908	14675.25
493.278	14842.03
493.648	14871.85
494.017	15194.11
494.387	15335.12
494.757	15391.39
495.126	15607.88
495.496	15783.47
495.866	15922.9
496.235	16070.69
496.605	16312.95
496.974	16296
497.344	16453.28
497.713	16601.3
498.082	16737.79
498.452	16957.9
498.821	17077.45
499.19	17127.84
499.559	17310.66
499.928	17393.6
500.298	17465.23
500.667	17722.18
501.036	17664.55
501.405	17886.24
501.774	17989.29
502.143	18278.32
502.512	18328.94
502.88	18515.37
503.249	18448.48
503.618	18662.94
503.987	18832.43
504.356	18935.02
504.724	18914.91
505.093	19093.89
505.462	19187.9
505.83	19369.82
506.199	19584.73
506.567	19683.25
506.936	19715.34
507.304	19957.82
507.672	20048.89
508.041	20263.58
508.409	20387.87
508.777	20594.87
509.145	20802.32
509.514	20838.93
509.882	20989.21
510.25	21171.8
510.618	21253.38
510.986	21377.9
511.354	21554.39
511.722	21839.36
512.09	21912.35
512.458	21901.5
512.826	21987.83
513.193	22206.58
513.561	22236.41
513.929	22404.99
514.297	22793.45
514.664	22893.34
515.032	22981.25
515.4	23292.65
515.767	23349.82
516.135	23660.32
516.502	23461.23
516.869	23915.68
517.237	24045.4
517.604	24056.7
517.972	24276.58
518.339	24333.98
518.706	24528.55
519.073	24564.71
519.44	24759.73
519.808	25117.69
520.175	25054.41
520.542	25395.87
520.909	25522.65
521.276	25508.86
521.643	25816.2
522.009	26016.87
522.376	26276.53
522.743	26586.57
523.11	26825.89
523.477	27021.37
523.843	27191.08
524.21	27623.38
524.577	27761.01
524.943	27799.88
525.31	27932.3
525.676	28206.42
526.043	28400.76
526.409	28398.96
526.776	28711.04
527.142	28864.48
527.508	28977.25
527.874	29127.07
528.241	29479.61
528.607	29546.5
528.973	29888.41
529.339	29970.89
529.705	30296.08
530.071	30614.04
530.437	30639.35
530.803	31100.35
531.169	31087.93
531.535	31179.67
531.901	31378.77
532.267	31616.5
532.632	31718.64
532.998	31899.66
533.364	31953.67
533.73	32051.29
534.095	32220.78
534.461	32284.05
534.826	32513.65
535.192	32597.94
535.557	32790.71
535.923	32800.2
536.288	32963.58
536.653	33121.09
537.019	33216.46
537.384	33466.62
537.749	33657.58
538.114	33940.96
538.479	33846.72
538.845	34092.37
539.21	34039.94
539.575	34244.68
539.94	34360.16
540.305	34574.16
540.67	34530.77
541.034	34645.12
541.399	34728.06
541.764	34780.94
542.129	34765.79
542.494	34912.91
542.858	35146.58
543.223	34960.14
543.587	35329.17
543.952	35323.75
544.316	35462.05
544.681	35554.7
545.045	35876.5
545.41	36121.47
545.774	36125.99
546.138	36099.77
546.503	36284.63
546.867	36403.49
547.231	36865.85
547.595	36848.45
547.959	36934.33
548.324	36915.57
548.688	36922.8
549.052	36993.53
549.416	37032.85
549.779	37026.07
550.143	37145.62
550.507	37296.58
550.871	37187.65
551.235	37306.52
551.599	37556.91
551.962	37525.27
552.326	37650.69
552.689	37887.29
553.053	37860.63
553.417	38123.22
553.78	38708.06
554.143	38540.38
554.507	38774.5
554.87	39060.15
555.234	39422.17
555.597	39199.58
555.96	39152.12
556.323	39460.59
556.686	39542.17
557.05	39615.16
557.413	39755.95
557.776	39692.67
558.139	39881.14
558.502	39713.46
558.865	39864.87
559.228	40026
559.59	40113.22
559.953	40145.77
560.316	40515.25
560.679	40702.14
561.041	40932.19
561.404	41236.59
561.767	41474.55
562.129	41344.38
562.492	41913.4
562.854	41985.27
563.217	42024.59
563.579	42278.82
563.941	42464.58
564.304	42564.69
564.666	42752.7
565.028	42808.52
565.39	42909.76
565.753	43101.62
566.115	43151.11
566.477	43140.49
566.839	43212.8
567.201	43291.67
567.563	43257.78
567.925	43513.59
568.287	43475.62
568.648	43629.52
569.01	43837.42
569.372	44214.81
569.734	44056.62
570.095	44448.03
570.457	44666.55
570.819	44695.7
571.18	44890.95
571.542	45279.87
571.903	45372.97
572.265	45535
572.626	45643.7
572.987	45736.13
573.349	45904.49
573.71	45998.27
574.071	46090.47
574.432	46195.55
574.794	46200.75
575.155	46076.91
575.516	45861.55
575.877	46033.75
576.238	46087.31
576.599	46292.27
576.96	46062.22
577.32	46266.96
577.681	46421.76
578.042	46582.21
578.403	46547.63
578.763	46634.18
579.124	46700.17
579.485	46987.62
579.845	47137.45
580.206	47239.37
580.566	47400.72
580.927	47415.41
581.287	47616.08
581.648	47532.46
582.008	47768.62
582.368	47623.08
582.728	47765
583.089	47746.02
583.449	47560.26
583.809	47635.51
584.169	47587.83
584.529	47433.71
584.889	47685.91
585.249	47384.22
585.609	47187.16
585.969	47411.34
586.329	47170.21
586.688	47293.15
587.048	47382.64
587.408	47428.51
587.768	47446.59
588.127	47477.55
588.487	47488.4
588.846	47863.53
589.206	47642.29
589.565	47719.13
589.925	47966.8
590.284	47939.69
590.643	48082.51
591.003	48081.83
591.362	48313.24
591.721	48083.41
592.08	48046.58
592.44	48236.85
592.799	48192.33
593.158	48099.68
593.517	47996.18
593.876	47986.69
594.235	47922.96
594.593	47914.38
594.952	47958.67
595.311	47820.37
595.67	47853.81
596.029	47915.51
596.387	48099.23
596.746	48026.01
597.104	47887.71
597.463	47923.42
597.822	48179.68
598.18	48127.03
598.538	48100.36
598.897	48402.95
599.255	48099.68
599.613	48769.27
599.972	48603.4
600.33	48724.98
600.688	48631.42
601.046	48798.42
601.404	48952.54
601.762	48835.26
602.12	49001.13
602.478	48809.04
602.836	48771.08
603.194	48637.75
603.552	48711.87
603.91	48535.83
604.268	48666.22
604.625	48450.63
604.983	48531.31
605.341	48349.84
605.698	48369.28
606.056	48518.2
606.413	48477.52
606.771	48688.37
607.128	48680.46
607.485	48570.86
607.843	48601.82
608.2	49004.52
608.557	49078.41
608.914	49126.1
609.272	49259.43
609.629	49383.49
609.986	49553.2
610.343	49355.24
610.7	49641.11
611.057	49651.51
611.414	49664.16
611.771	49714.55
612.127	49924.49
612.484	49789.35
612.841	49847.21
613.198	49691.28
613.554	49691.73
613.911	49892.4
614.267	49786.42
614.624	49630.26
614.98	49681.79
615.337	49645.4
615.693	49714.55
616.05	49574.67
616.406	49849.92
616.762	49646.53
617.118	49532.64
617.475	49688.11
617.831	49680.43
618.187	49852.63
618.543	49859.41
618.899	50176.01
619.255	50131.27
619.611	50089.23
619.967	50282.9
620.323	50410.36
620.678	50380.75
621.034	50424.37
621.39	50463.24
621.746	50331.71
622.101	50713.85
622.457	50453.74
622.812	50537.81
623.168	50644.47
623.523	50555.21
623.879	50724.92
624.234	50331.94
624.589	50447.64
624.945	50432.95
625.3	50325.39
625.655	50216.46
626.01	50158.61
626.365	50122.45
626.72	50092.85
627.075	50139.85
627.43	50125.39
627.785	50078.84
628.14	50074.32
628.495	50056.01
628.85	49947.09
629.205	49939.86
629.559	50146.63
629.914	50058.95
630.269	50241.32
630.623	50311.83
630.978	50307.08
631.332	50398.83
631.687	50616
632.041	50371.26
632.396	50487.19
632.75	50395.89
633.104	50386.63
633.459	50316.57
633.813	50222.79
634.167	50132.85
634.521	50099.18
634.875	50035.45
635.229	49863.25
635.583	49810.6
635.937	49806.08
636.291	49637.72
636.645	49559.53
636.999	49528.34
637.352	49489.02
637.706	49205.64
638.06	49337.84
638.413	49316.82
638.767	49115.93
639.121	49065.08
639.474	48867.35
639.828	48942.37
640.181	48897.85
640.534	49030.5
640.888	48947.79
641.241	48958.87
641.594	49083.84
641.947	49256.71
642.301	49166.55
642.654	49226.43
643.007	49261.68
643.36	49194.79
643.713	49129.71
644.066	49392.08
644.419	49195.7
644.771	49239.99
645.124	49041.35
645.477	48983.5
645.83	48485.21
646.182	48343.07
646.535	47883.64
646.888	47654.5
647.24	47255.41
647.593	47417.44
647.945	47136.77
648.298	47031.01
648.65	46884.12
649.002	46786.95
649.355	47065.36
649.707	46959.82
650.059	47483.65
650.411	47822.63
650.763	47765
651.115	48037.76
651.467	48039.8
651.819	47898.56
652.171	47986.46
652.523	47865.34
652.875	47893.36
653.227	47839.35
653.578	48317.3
653.93	48170.87
654.282	48104.2
654.633	47957.99
654.985	48076.63
655.337	48071.21
655.688	48018.78
656.039	48279.11
656.391	47956.63
656.742	47895.62
657.094	47986.46
657.445	48046.8
657.796	48093.81
658.147	47883.19
658.498	47870.54
658.849	47958.89
659.2	47719.58
659.551	47643.2
659.902	47583.54
660.253	47569.3
660.604	47543.76
660.955	47404.56
661.306	47515.06
661.656	47310.32
662.007	47323.43
662.358	47217.22
662.708	47266.26
663.059	47238.46
663.409	47024.46
663.76	47266.94
664.11	47272.58
664.461	47248.18
664.811	47262.64
665.161	47183.1
665.511	47304.22
665.862	47418.57
666.212	47570.2
666.562	47662.63
666.912	47642.52
667.262	47586.47
667.612	47733.59
667.962	47736.75
668.312	47637.55
668.662	47850.87
669.011	47732.91
669.361	47674.83
669.711	47756.64
670.06	47506.02
670.41	47471
670.76	47445.91
671.109	47470.09
671.459	47258.57
671.808	47070.56
672.157	47172.47
672.507	46962.54
672.856	47073.95
673.205	46938.81
673.554	46932.03
673.904	46751.02
674.253	46973.61
674.602	46678.25
674.951	46164.59
675.3	45874.43
675.649	46473.06
675.998	46363
676.346	46350.58
676.695	46526.39
677.044	46200.07
677.393	46393.06
677.741	46571.81
678.09	46513.96
678.438	46418.82
678.787	46497.92
679.135	46471.48
679.484	46426.51
679.832	46633.96
680.181	46371.14
680.529	46576.56
680.877	46554.19
681.225	46462.66
681.573	46668.31
681.922	46353.51
682.27	46230.8
682.618	46461.76
682.966	46233.29
683.314	46115.78
683.661	46044.37
684.009	45749.01
684.357	45603.25
684.705	45528.9
685.053	45427.89
685.4	45261.34
685.748	44964.4
686.095	45038.75
686.443	44818.86
686.79	44567.8
687.138	44694.35
687.485	44610.28
687.832	44354.47
688.18	44404.64
688.527	44165.77
688.874	44197.86
689.221	44044.42
689.568	44046.23
689.915	43952.22
690.262	43858.66
690.609	43816.63
690.956	43638.78
691.303	43664.54
691.65	43554.26
691.997	43602.85
692.344	43460.71
692.69	43381.16
693.037	43573.25
693.383	43206.93
693.73	43509.29
694.077	43341.16
694.423	43278.11
694.769	43136.87
695.116	42950.89
695.462	42808.3
695.808	42626.61
696.155	42822.08
696.501	42514.74
696.847	42317.01
697.193	42182.1
697.539	42257.58
697.885	41938.71
698.231	41724.93
698.577	41624.82
698.923	41518.16
699.269	41226.19
699.614	41039.08
699.96	40810.16
700.306	40799.76
700.651	40646.77
700.997	40319.55
701.342	40279.77
701.688	40130.17
702.033	40094.92
702.379	39969.95
702.724	39906
703.069	40038.88
703.415	39691.09
703.76	39660.81
704.105	39712.56
704.45	39668.94
704.795	39594.37
705.14	39386.92
705.485	39529.29
705.83	39289.52
706.175	39497.2
706.52	39281.83
706.865	39228.05
707.209	39320.03
707.554	39292.23
707.899	39196.41
708.243	39068.28
708.588	39110.99
708.932	38948.28
709.277	38845.46
709.621	38859.02
709.966	38688.4
710.31	38553.94
710.654	38247.06
710.998	38285.02
711.342	38287.06
711.687	38115.54
712.031	37882.78
712.375	37601.2
712.719	37633.52
713.063	37464.71
713.407	37482.11
713.75	37261.77
714.094	37131.83
714.438	36973.42
714.782	36992.86
715.125	36682.35
715.469	36801.67
715.812	36484.85
716.156	36265.19
716.499	36216.38
716.843	36351.06
717.186	36086.44
717.53	36174.35
717.873	36297.73
718.216	36235.36
718.559	36073.78
718.902	36067.91
719.246	36318.97
719.589	36204.63
719.932	36290.73
720.275	36226.55
720.617	36085.76
720.96	36124.4
721.303	36245.08
721.646	36114.01
721.989	36163.72
722.331	36163.95
722.674	36099.09
723.016	36125.99
723.359	36131.86
723.701	36082.6
724.044	35943.84
724.386	35781.14
724.729	35891.19
725.071	35787.46
725.413	35760.35
725.755	35590.18
726.097	35427.92
726.439	35237.65
726.782	35185.44
727.124	35205.11
727.465	34985.68
727.807	34833.14
728.149	34627.72
728.491	34534.16
728.833	34650.32
729.175	34538.46
729.516	34489.87
729.858	34345.47
730.199	34455.97
730.541	34417.78
730.882	34319.48
731.224	34433.6
731.565	34188.86
731.906	34270.67
732.248	34370.78
732.589	34153.16
732.93	34066.83
733.271	34309.08
733.612	34280.84
733.953	34330.55
734.294	34263.66
734.635	34148.64
734.976	34421.4
735.317	34284
735.658	34312.02
735.999	34443.32
736.339	34422.3
736.68	34580.94
737.021	34610.54
737.361	34326.03
737.702	34591.34
738.042	34486.03
738.383	34391.57
738.723	34465.24
739.063	34454.84
739.404	34512.47
739.744	34348.86
740.084	34109.77
740.424	34279.71
740.764	34259.59
741.104	34362.64
741.444	33974.86
741.784	33998.81
742.124	33942.77
742.464	33872.03
742.804	33688.99
743.143	33644.92
743.483	33761.08
743.823	33448.99
744.162	33562.44
744.502	33476.56
744.841	33534.41
745.181	33442.21
745.52	33388.66
745.86	33408.32
746.199	33381.2
746.538	33405.15
746.877	33591.59
747.216	33534.64
747.556	33504.36
747.895	33504.59
748.234	33455.09
748.573	33354.76
748.911	33575.77
749.25	33604.92
749.589	33579.61
749.928	33602.89
750.267	33712.26
750.605	33684.47
750.944	33775.09
751.283	33671.81
751.621	33901.18
751.96	33788.65
752.298	33926.27
752.636	33928.98
752.975	33784.13
