Data from blue_chair_FLMS001491_00067.txt Node
Date: Wed Feb 08 10:31:34 GMT 2017
User: dcchb
Spectrometer: FLMS00149
Trigger mode: 0
Integration Time (sec): 2.000000E-2
Scans to average: 10
Electric dark correction enabled: true
Nonlinearity correction enabled: false
Boxcar width: 0
XAxis mode: Wavelengths
Number of Pixels in Spectrum: 2048
>>>>>Begin Spectral Data<<<<<
341.393	-26.98
341.776	-26.98
342.16	-26.98
342.543	-52.29
342.927	-79.86
343.31	-73.3
343.693	-63.13
344.077	-54.32
344.46	-54.32
344.843	-38.95
345.226	-47.99
345.61	-36.47
345.993	-16.58
346.376	-11.61
346.759	3.98
347.142	22.74
347.525	54.38
347.908	53.02
348.291	67.03
348.674	76.98
349.057	118.56
349.44	128.5
349.823	145
350.206	159.01
350.588	187.93
350.971	189.51
351.354	170.53
351.737	208.95
352.119	211.21
352.502	238.55
352.884	250.98
353.267	259.8
353.65	257.31
354.032	252.11
354.414	279.23
354.797	262.96
355.179	271.09
355.562	291.66
355.944	293.01
356.326	297.31
356.709	301.15
357.091	303.41
357.473	346.35
357.855	313.81
358.238	310.87
358.62	312.22
359.002	302.73
359.384	298.21
359.766	294.14
360.148	287.37
360.53	309.74
360.912	306.8
361.294	312.9
361.676	302.73
362.057	302.73
362.439	292.34
362.821	294.37
363.203	302.28
363.584	300.25
363.966	290.98
364.348	295.5
364.729	293.01
365.111	287.59
365.493	295.73
365.874	284.65
366.256	279.46
366.637	275.61
367.019	288.72
367.4	297.76
367.781	283.52
368.163	305.22
368.544	274.03
368.925	252.56
369.306	285.78
369.688	267.93
370.069	285.11
370.45	275.84
370.831	283.75
371.212	289.17
371.593	278.55
371.974	295.95
372.355	290.53
372.736	292.11
373.117	274.48
373.498	282.39
373.879	295.5
374.26	280.13
374.641	286.69
375.021	279.23
375.402	298.44
375.783	291.43
376.163	298.21
376.544	282.85
376.925	282.39
377.305	286.01
377.686	305.22
378.066	302.28
378.447	288.04
378.827	300.7
379.208	283.07
379.588	295.27
379.968	280.36
380.349	285.33
380.729	299.34
381.109	289.85
381.489	297.31
381.87	301.6
382.25	303.18
382.63	323.97
383.01	299.12
383.39	312.45
383.77	317.65
384.15	296.86
384.53	309.29
384.91	312.68
385.29	296.63
385.67	310.64
386.049	306.8
386.429	283.07
386.809	314.03
387.189	307.48
387.568	314.48
387.948	309.29
388.328	305.22
388.707	311.09
389.087	297.08
389.466	314.71
389.846	313.58
390.225	301.15
390.605	322.62
390.984	306.12
391.363	314.94
391.743	325.33
392.122	325.56
392.501	320.58
392.881	330.98
393.26	322.39
393.639	336.63
394.018	329.17
394.397	308.38
394.776	326.46
395.155	297.31
395.534	337.99
395.913	335.73
396.292	323.52
396.671	340.92
397.05	328.95
397.429	321.04
397.808	326.46
398.186	338.89
398.565	344.54
398.944	327.14
399.323	330.3
399.701	343.86
400.08	329.17
400.458	344.99
400.837	344.76
401.215	334.37
401.594	357.19
401.972	337.99
402.351	351.32
402.729	353.13
403.107	342.51
403.486	368.27
403.864	379.57
404.242	354.71
404.62	383.86
404.999	368.72
405.377	362.62
405.755	371.88
406.133	359
406.511	363.97
406.889	370.3
407.267	374.14
407.645	375.72
408.023	369.17
408.401	375.05
408.779	384.54
409.156	387.48
409.534	374.59
409.912	379.79
410.29	393.35
410.667	385.44
411.045	375.27
411.422	404.65
411.8	410.3
412.178	397.64
412.555	392
412.933	406.23
413.31	415.5
413.687	403.97
414.065	429.73
414.442	443.29
414.819	419.11
415.197	434.71
415.574	406.23
415.951	420.02
416.328	427.47
416.705	452.11
417.082	428.83
417.46	435.16
417.837	426.34
418.214	421.15
418.591	421.83
418.967	448.94
419.344	431.32
419.721	443.52
420.098	446.23
420.475	444.2
420.852	457.08
421.228	443.52
421.605	461.37
421.982	464.99
422.358	464.31
422.735	475.83
423.111	472.67
423.488	475.61
423.864	462.5
424.241	487.81
424.617	479.68
424.994	479.9
425.37	511.09
425.746	494.59
426.123	465.67
426.499	492.78
426.875	507.92
427.251	489.62
427.627	520.13
428.003	530.3
428.379	520.35
428.756	530.97
429.132	516.74
429.507	546.57
429.883	549.73
430.259	544.08
430.635	567.36
431.011	534.36
431.387	543.86
431.763	553.8
432.138	561.26
432.514	596.51
432.89	576.85
433.265	575.27
433.641	571.65
434.016	593.12
434.392	607.36
434.767	599.67
435.143	629.05
435.518	611.65
435.894	624.08
436.269	616.4
436.644	656.4
437.02	617.98
437.395	660.01
437.77	650.52
438.145	685.09
438.52	664.3
438.895	674.93
439.271	673.57
439.646	701.37
440.021	709.28
440.395	720.8
440.77	695.49
441.145	697.98
441.52	724.64
441.895	716.51
442.27	726.9
442.645	745.88
443.019	742.72
443.394	738.43
443.769	741.59
444.143	724.64
444.518	752.66
444.892	779.33
445.267	760.57
445.641	752.89
446.016	785.21
446.39	770.52
446.764	783.17
447.139	782.95
447.513	808.48
447.887	805.54
448.262	800.57
448.636	817.97
449.01	799.67
449.384	813.23
449.758	822.04
450.132	842.38
450.506	828.59
450.88	847.12
451.254	834.47
451.628	842.83
452.002	875.82
452.376	848.03
452.75	870.4
453.123	878.54
453.497	892.1
453.871	888.03
454.244	939.78
454.618	886.9
454.992	901.81
455.365	926.22
455.739	915.37
456.112	940.46
456.486	952.88
456.859	930.29
457.232	969.16
457.606	937.52
457.979	948.36
458.352	960.79
458.725	1003.5
459.099	984.75
459.472	996.95
459.845	1014.58
460.218	1016.39
460.591	1020.68
460.964	1024.3
461.337	1047.8
461.71	1057.06
462.083	1042.37
462.456	1055.25
462.829	1060.68
463.201	1089.15
463.574	1079.43
463.947	1092.09
464.32	1114.91
464.692	1123.73
465.065	1113.33
465.438	1113.11
465.81	1121.92
466.183	1122.37
466.555	1147.91
466.928	1148.59
467.3	1156.04
467.672	1162.14
468.045	1181.81
468.417	1186.1
468.789	1184.06
469.161	1233.33
469.534	1227.45
469.906	1236.04
470.278	1232.65
470.65	1230.17
471.022	1257.51
471.394	1304.74
471.766	1305.64
472.138	1290.73
472.51	1302.71
472.882	1347.45
473.253	1322.14
473.625	1356.49
473.997	1371.4
474.369	1347.45
474.74	1347.45
475.112	1398.52
475.484	1392.87
475.855	1405.08
476.227	1414.57
476.598	1432.65
476.97	1434
477.341	1474.45
477.713	1504.06
478.084	1481.23
478.455	1514.45
478.827	1530.95
479.198	1562.81
479.569	1539.31
479.94	1561.68
480.311	1566.88
480.682	1603.04
481.053	1607.1
481.424	1652.75
481.795	1632.64
482.166	1672.87
482.537	1676.03
482.908	1689.59
483.279	1687.33
483.65	1695.69
484.021	1706.99
484.391	1715.58
484.762	1738.85
485.133	1761.9
485.503	1744.95
485.874	1793.54
486.244	1813.2
486.615	1782.47
486.985	1799.64
487.356	1797.83
487.726	1844.61
488.097	1845.06
488.467	1839.19
488.837	1864.5
489.207	1852.97
489.578	1877.61
489.948	1881.45
490.318	1882.35
490.688	1894.55
491.058	1907.44
491.428	1924.61
491.798	1921.22
492.168	1918.51
492.538	1923.03
492.908	1935.68
493.278	1951.5
493.648	1975.23
494.017	1941.79
494.387	2003.93
494.757	1962.12
495.126	1964.16
495.496	1936.81
495.866	1980.88
496.235	1960.99
496.605	1958.28
496.974	1942.24
497.344	1977.72
497.713	1962.58
498.082	1969.13
498.452	1986.53
498.821	1974.1
499.19	1974.1
499.559	1946.08
499.928	1953.99
500.298	1975.91
500.667	1957.38
501.036	1967.1
501.405	1954.44
501.774	1969.13
502.143	1970.94
502.512	1953.99
502.88	1963.93
503.249	1941.11
503.618	1949.24
503.987	1989.02
504.356	1924.16
504.724	1955.57
505.093	1912.63
505.462	1948.11
505.83	1936.14
506.199	1946.08
506.567	1962.35
506.936	1929.81
507.304	1944.95
507.672	1904.5
508.041	1935.23
508.409	1924.16
508.777	1952.18
509.145	1936.81
509.514	1924.84
509.882	1920.09
510.25	1894.55
510.618	1923.25
510.986	1903.14
511.354	1933.65
511.722	1923.03
512.09	1923.93
512.458	1883.71
512.826	1902.01
513.193	1873.99
513.561	1882.13
513.929	1901.56
514.297	1906.53
514.664	1857.49
515.032	1865.4
515.4	1876.48
515.767	1859.08
516.135	1897.49
516.502	1866.76
516.869	1844.84
517.237	1837.61
517.604	1843.48
517.972	1833.31
518.339	1849.36
518.706	1833.54
519.073	1810.94
519.44	1814.1
519.808	1860.66
520.175	1801.22
520.542	1787.89
520.909	1806.87
521.276	1840.32
521.643	1801.9
522.009	1802.13
522.376	1764.16
522.743	1807.33
523.11	1787.66
523.477	1789.7
523.843	1791.51
524.21	1786.31
524.577	1810.04
524.943	1807.33
525.31	1793.31
525.676	1798.29
526.043	1795.57
526.409	1798.51
526.776	1786.31
527.142	1784.28
527.508	1802.13
527.874	1806.65
528.241	1815.01
528.607	1794.44
528.973	1809.81
529.339	1762.58
529.705	1808
530.071	1768.91
530.437	1813.65
530.803	1805.29
531.169	1810.72
531.535	1774.78
531.901	1813.43
532.267	1807.1
532.632	1783.15
532.998	1788.57
533.364	1786.08
533.73	1772.75
534.095	1780.89
534.461	1756.25
534.826	1800.09
535.192	1791.73
535.557	1804.39
535.923	1768.68
536.288	1819.75
536.653	1815.69
537.019	1784.95
537.384	1788.12
537.749	1794.9
538.114	1794.67
538.479	1794.44
538.845	1782.24
539.21	1770.72
539.575	1732.07
539.94	1758.74
540.305	1779.98
540.67	1785.18
541.034	1810.72
541.399	1784.73
541.764	1769.59
542.129	1736.14
542.494	1776.37
542.858	1757.61
543.223	1751.96
543.587	1757.16
543.952	1741.79
544.316	1753.77
544.681	1767.78
545.045	1731.17
545.41	1732.98
545.774	1729.81
546.138	1750.38
546.503	1737.95
546.867	1741.56
547.231	1761.45
547.595	1744.73
547.959	1756.93
548.324	1708.34
548.688	1712.86
549.052	1737.95
549.416	1714.67
549.779	1710.6
550.143	1694.56
550.507	1737.72
550.871	1674.9
551.235	1686.88
551.599	1721
551.962	1685.97
552.326	1699.98
552.689	1688.46
553.053	1730.94
553.417	1705.86
553.78	1727.1
554.143	1709.7
554.507	1704.96
554.87	1692.3
555.234	1735.91
555.597	1707.21
555.96	1717.16
556.323	1713.77
556.686	1692.98
557.05	1709.93
557.413	1706.76
557.776	1695.01
558.139	1704.96
558.502	1687.33
558.865	1685.07
559.228	1737.95
559.59	1699.98
559.953	1691.62
560.316	1695.01
560.679	1715.8
561.041	1687.1
561.404	1713.99
561.767	1712.41
562.129	1719.87
562.492	1702.24
562.854	1718.06
563.217	1721.68
563.579	1728.01
563.941	1732.53
564.304	1703.15
564.666	1739.53
565.028	1716.71
565.39	1721.45
565.753	1724.16
566.115	1737.5
566.477	1702.7
566.839	1765.07
567.201	1732.53
567.563	1746.08
567.925	1754.45
568.287	1748.34
568.648	1751.96
569.01	1765.97
569.372	1761.45
569.734	1752.64
570.095	1767.55
570.457	1800.77
570.819	1773.88
571.18	1789.47
571.542	1806.65
571.903	1788.57
572.265	1789.47
572.626	1771.17
572.987	1804.84
573.349	1810.49
573.71	1824.27
574.071	1826.99
574.432	1824.05
574.794	1837.16
575.155	1858.17
575.516	1829.25
575.877	1836.7
576.238	1859.08
576.599	1876.25
576.96	1853.88
577.32	1837.83
577.681	1849.36
578.042	1840.77
578.403	1846.87
578.763	1863.14
579.124	1858.85
579.485	1869.02
579.845	1872.41
580.206	1895.23
580.566	1904.05
580.927	1906.98
581.287	1900.88
581.648	1897.72
582.008	1881.22
582.368	1900.2
582.728	1915.35
583.089	1902.01
583.449	1913.54
583.809	1931.84
584.169	1904.72
584.529	1916.48
584.889	1921.9
585.249	1936.81
585.609	1888.68
585.969	1927.32
586.329	1948.11
586.688	1944.72
587.048	1933.65
587.408	1943.59
587.768	1928
588.127	1948.34
588.487	1941.56
588.846	1937.49
589.206	1951.05
589.565	1933.2
589.925	1934.55
590.284	1954.67
590.643	1943.14
591.003	1924.16
591.362	1953.76
591.721	1942.01
592.08	1925.97
592.44	1929.36
592.799	1950.37
593.158	1935.46
593.517	1918.51
593.876	1943.59
594.235	1944.95
594.593	1974.33
594.952	1934.55
595.311	1939.98
595.67	1956.7
596.029	1931.62
596.387	1929.81
596.746	1951.28
597.104	1934.55
597.463	1956.93
597.822	1934.33
598.18	1963.03
598.538	1951.28
598.897	1956.7
599.255	1919.64
599.613	1974.1
599.972	1934.55
600.33	1957.15
600.688	1949.69
601.046	1921.9
601.404	1977.04
601.762	1965.74
602.12	1973.42
602.478	1968.23
602.836	1954.44
603.194	1946.3
603.552	1949.47
603.91	1922.12
604.268	1945.63
604.625	1950.37
604.983	1922.58
605.341	1941.79
605.698	1956.47
606.056	1958.96
606.413	1933.42
606.771	1966.87
607.128	1955.8
607.485	1965.06
607.843	1970.26
608.2	1995.12
608.557	1945.85
608.914	1931.84
609.272	1958.96
609.629	1975.91
609.986	1967.55
610.343	1967.77
610.7	1963.48
611.057	1962.12
611.414	1968.23
611.771	1972.29
612.127	1972.74
612.484	1972.07
612.841	1975.23
613.198	1984.5
613.554	1962.35
613.911	1960.09
614.267	1981.33
614.624	2006.42
614.98	1958.06
615.337	1990.6
615.693	1968.23
616.05	1971.61
616.406	1998.51
616.762	1997.83
617.118	1989.69
617.475	2017.49
617.831	2004.16
618.187	1990.37
618.543	2019.3
618.899	2005.51
619.255	1992.86
619.611	1971.84
619.967	2018.39
620.323	1975
620.678	1998.05
621.034	1971.61
621.39	1978.17
621.746	1997.15
622.101	2040.77
622.457	1983.14
622.812	2017.04
623.168	2020.2
623.523	2002.57
623.879	2025.4
624.234	2014.33
624.589	2004.38
624.945	1995.57
625.3	2002.8
625.655	2008.22
626.01	2005.74
626.365	2037.6
626.72	2019.52
627.075	2016.59
627.43	2029.47
627.785	2027.43
628.14	2019.3
628.495	2046.19
628.85	2026.53
629.205	1991.05
629.559	2010.94
629.914	2026.3
630.269	2036.7
630.623	2037.6
630.978	2031.95
631.332	2023.14
631.687	2036.92
632.041	2021.33
632.396	2031.27
632.75	2038.96
633.104	2031.95
633.459	2022.01
633.813	2031.95
634.167	2004.61
634.521	2022.23
634.875	1987.43
635.229	2027.21
635.583	2005.74
635.937	2033.53
636.291	1986.08
636.645	2014.1
636.999	2007.55
637.352	2028.56
637.706	1986.76
638.06	2017.26
638.413	2020.88
638.767	2026.08
639.121	2045.29
639.474	2016.59
639.828	2002.12
640.181	2036.7
640.534	2032.86
640.888	2010.71
641.241	2013.42
641.594	2027.43
641.947	2014.33
642.301	2040.09
642.654	2031.5
643.007	2009.13
643.36	2021.11
643.713	2059.3
644.066	2056.13
644.419	2008
644.771	2046.87
645.124	2034.89
645.477	2003.03
645.83	1993.54
646.182	2013.65
646.535	1974.78
646.888	1995.57
647.24	1951.5
647.593	1996.02
647.945	1964.84
648.298	2005.96
648.65	2025.85
649.002	1999.41
649.355	2004.16
649.707	1996.47
650.059	2030.82
650.411	2018.62
650.763	2025.17
651.115	2059.75
651.467	2069.01
651.819	2071.95
652.171	2062.01
652.523	2060.43
652.875	2031.73
653.227	2053.42
653.578	2096.81
653.93	2081.89
654.282	2097.49
654.633	2053.19
654.985	2084.83
655.337	2056.13
655.688	2104.94
656.039	2059.97
656.391	2086.87
656.742	2069.92
657.094	2079.63
657.445	2094.55
657.796	2093.42
658.147	2110.37
658.498	2117.83
658.849	2103.14
659.2	2102.91
659.551	2116.47
659.902	2129.8
660.253	2118.96
660.604	2133.42
660.955	2118.5
661.306	2124.15
661.656	2142.01
662.007	2125.51
662.358	2111.05
662.708	2112.85
663.059	2115.11
663.409	2106.98
663.76	2127.09
664.11	2099.97
664.461	2124.61
664.811	2107.43
665.161	2112.18
665.511	2136.13
665.862	2101.33
666.212	2114.21
666.562	2154.89
666.912	2134.1
667.262	2150.59
667.612	2126.19
667.962	2131.38
668.312	2108.33
668.662	2124.38
669.011	2125.96
669.361	2125.28
669.711	2117.83
670.06	2119.41
670.41	2135.9
670.76	2091.39
671.109	2127.09
671.459	2133.19
671.808	2118.73
672.157	2114.44
672.507	2114.21
672.856	2114.44
673.205	2085.28
673.554	2088.9
673.904	2039.64
674.253	2101.55
674.602	2127.32
674.951	2067.21
675.3	2061.78
675.649	2088.22
675.998	2074.44
676.346	2069.24
676.695	2066.08
677.044	2074.89
677.393	2059.97
677.741	2058.62
678.09	2079.86
678.438	2065.4
678.787	2055.68
679.135	2054.78
679.484	2031.95
679.832	2056.13
680.181	2055.23
680.529	2070.37
680.877	2024.27
681.225	2013.65
681.573	2056.36
681.922	1989.24
682.27	2018.17
682.618	2018.62
682.966	2025.4
683.314	2019.75
683.661	2013.2
684.009	2015.23
684.357	2007.32
684.705	1993.31
685.053	1965.06
685.4	1986.3
685.748	1984.72
686.095	1964.38
686.443	1958.28
686.79	1940.2
687.138	1988.34
687.485	1917.38
687.832	1961.22
688.18	1969.35
688.527	1956.47
688.874	1941.79
689.221	1959.86
689.568	1956.02
689.915	1929.58
690.262	1939.75
690.609	1897.04
690.956	1893.2
691.303	1903.37
691.65	1889.58
691.997	1893.2
692.344	1855.46
692.69	1882.58
693.037	1861.56
693.383	1871.73
693.73	1875.12
694.077	1851.39
694.423	1863.82
694.769	1871.73
695.116	1866.53
695.462	1876.02
695.808	1850.94
696.155	1848.91
696.501	1829.7
696.847	1838.74
697.193	1823.37
697.539	1802.58
697.885	1807.33
698.231	1802.35
698.577	1773.88
698.923	1782.92
699.269	1780.66
699.614	1777.27
699.96	1796.7
700.306	1771.17
700.651	1784.5
700.997	1799.42
701.342	1776.59
701.688	1760.77
702.033	1757.61
702.379	1754.45
702.724	1739.98
703.069	1777.27
703.415	1758.29
703.76	1721.68
704.105	1749.93
704.45	1764.16
704.795	1728.68
705.14	1741.11
705.485	1772.52
705.83	1743.15
706.175	1707.44
706.52	1723.49
706.865	1738.4
707.209	1721.9
707.554	1748.57
707.899	1721.23
708.243	1737.5
708.588	1755.12
708.932	1695.01
709.277	1719.19
709.621	1737.27
709.966	1749.25
710.31	1710.83
710.654	1710.15
710.998	1710.6
711.342	1679.87
711.687	1698.4
712.031	1723.49
712.375	1702.92
712.719	1706.99
713.063	1720.55
713.407	1716.25
713.75	1725.07
714.094	1716.93
714.438	1726.42
714.782	1781.34
715.125	1716.93
715.469	1748.34
715.812	1738.17
716.156	1737.72
716.499	1750.6
716.843	1707.44
717.186	1730.04
717.53	1762.35
717.873	1769.36
718.216	1753.77
718.559	1772.52
718.902	1751.73
719.246	1771.39
719.589	1750.38
719.932	1753.32
720.275	1757.38
720.617	1752.64
720.96	1770.72
721.303	1788.12
721.646	1774.56
721.989	1769.36
722.331	1815.01
722.674	1775.46
723.016	1780.21
723.359	1810.94
723.701	1810.72
724.044	1832.41
724.386	1813.43
724.729	1827.89
725.071	1836.48
725.413	1818.85
725.755	1846.19
726.097	1879.19
726.439	1860.88
726.782	1832.86
727.124	1853.2
727.465	1874.67
727.807	1894.33
728.149	1874.44
728.491	1901.33
728.833	1881.67
729.175	1899.98
729.516	1894.78
729.858	1904.95
730.199	1910.6
730.541	1869.02
730.882	1937.72
731.224	1935.91
731.565	1936.59
731.906	1962.35
732.248	1942.69
732.589	1944.95
732.93	1961.67
733.271	1965.06
733.612	2026.98
733.953	2019.07
734.294	2026.08
734.635	2023.36
734.976	2052.29
735.317	2029.92
735.658	2054.32
735.999	2055.68
736.339	2073.31
736.68	2079.86
737.021	2094.78
737.361	2092.52
737.702	2131.38
738.042	2119.41
738.383	2154.43
738.723	2202.12
739.063	2205.51
739.404	2230.82
739.744	2210.7
740.084	2239.4
740.424	2228.11
740.764	2306.75
741.104	2309.46
741.444	2315.56
741.784	2331.83
742.124	2353.53
742.464	2347.88
742.804	2343.81
743.143	2391.72
743.483	2406.18
743.823	2433.07
744.162	2469.91
744.502	2502
744.841	2502.45
745.181	2555.1
745.52	2585.61
745.86	2641.88
746.199	2633.07
746.538	2631.71
746.877	2694.31
747.216	2733.18
747.556	2784.25
747.895	2816.34
748.234	2779.05
748.573	2850.24
748.911	2888.88
749.25	2912.38
749.589	2972.04
749.928	3026.73
750.267	3056.56
750.605	3099.49
750.944	3123.67
751.283	3193.05
751.621	3234.41
751.96	3235.76
752.298	3335.42
752.636	3357.57
752.975	3391.24
753.313	3489.09
753.651	3464.23
753.989	3548.52
754.327	3581.52
754.666	3626.94
755.004	3742.19
755.342	3769.99
755.679	3816.76
756.017	3887.5
756.355	3956.42
756.693	3948.06
757.031	4028.28
757.368	4085.01
757.706	4144.67
758.044	4192.57
758.381	4266.92
758.719	4294.72
759.056	4384.88
759.394	4404.55
759.731	4466.92
760.068	4530.42
760.405	4548.27
760.743	4621.04
761.08	4715.05
761.417	4756.17
761.754	4812.9
762.091	4832.1
762.428	4949.84
762.765	4948.26
763.102	5028.71
763.438	5043.4
763.775	5076.39
764.112	5121.59
764.449	5230.51
764.785	5241.36
765.122	5286.78
765.458	5369.27
765.795	5326.33
766.131	5405.2
766.467	5481.81
766.804	5541.46
767.14	5518.64
767.476	5599.54
767.812	5628.47
768.148	5642.93
768.485	5708.24
768.821	5737.84
769.157	5743.95
769.492	5788.01
769.828	5878.18
770.164	5814.45
770.5	5911.85
770.836	5907.78
771.171	6005.63
