Data from blue_shiny_book_FLMS001491_00094.txt Node
Date: Wed Feb 08 15:27:48 GMT 2017
User: dcchb
Spectrometer: FLMS00149
Trigger mode: 0
Integration Time (sec): 2.000000E-2
Scans to average: 10
Electric dark correction enabled: true
Nonlinearity correction enabled: false
Boxcar width: 0
XAxis mode: Wavelengths
Number of Pixels in Spectrum: 2048
>>>>>Begin Spectral Data<<<<<
341.393	6.65
341.776	6.65
342.16	6.65
342.543	-49.17
342.927	-70.18
343.31	-71.31
343.693	-63.18
344.077	-54.36
344.46	-75.83
344.843	-52.78
345.226	-52.33
345.61	-14.82
345.993	-20.47
346.376	-1.48
346.759	19.76
347.142	8.23
347.525	40.1
347.908	54.11
348.291	76.48
348.674	97.5
349.057	110.38
349.44	136.37
349.823	155.35
350.206	168.23
350.588	177.95
350.971	216.14
351.354	202.81
351.737	232.64
352.119	259.75
352.502	276.02
352.884	263.37
353.267	255.23
353.65	288
354.032	281.45
354.414	297.04
354.797	334.55
355.179	324.61
355.562	318.28
355.944	344.72
356.326	337.49
356.709	351.5
357.091	333.88
357.473	345.4
357.855	338.62
358.238	337.04
358.62	355.12
359.002	351.05
359.384	331.39
359.766	342.69
360.148	352.41
360.53	348.11
360.912	340.2
361.294	333.42
361.676	342.91
362.057	339.52
362.439	346.08
362.821	319.64
363.203	332.07
363.584	318.28
363.966	310.83
364.348	342.24
364.729	338.17
365.111	319.64
365.493	310.83
365.874	315.57
366.256	342.24
366.637	326.19
367.019	316.93
367.4	325.51
367.781	306.08
368.163	326.42
368.544	308.57
368.925	325.29
369.306	325.51
369.688	302.69
370.069	292.97
370.45	321.9
370.831	325.29
371.212	319.19
371.593	331.84
371.974	333.2
372.355	310.15
372.736	309.24
373.117	314.89
373.498	330.94
373.879	322.35
374.26	323.93
374.641	323.48
375.021	337.04
375.402	329.36
375.783	328.9
376.163	327.77
376.544	346.53
376.925	341.78
377.305	328.23
377.686	338.85
378.066	324.38
378.447	372.97
378.827	345.63
379.208	344.72
379.588	332.97
379.968	355.12
380.349	331.84
380.729	354.21
381.109	355.12
381.489	358.51
381.87	376.36
382.25	360.54
382.63	346.98
383.01	363.48
383.39	354.89
383.77	360.54
384.15	361.9
384.53	384.72
384.91	395.79
385.29	373.42
385.67	371.39
386.049	390.37
386.429	385.17
386.809	391.28
387.189	384.95
387.568	379.52
387.948	390.6
388.328	404.38
388.707	383.82
389.087	411.16
389.466	417.04
389.846	419.3
390.225	408.9
390.605	392.63
390.984	431.73
391.363	443.48
391.743	429.01
392.122	414.78
392.501	430.82
392.881	443.7
393.26	452.29
393.639	431.73
394.018	452.06
394.397	456.36
394.776	461.33
395.155	468.56
395.534	449.13
395.913	486.41
396.292	477.37
396.671	469.01
397.05	476.47
397.429	488.67
397.808	499.29
398.186	480.09
398.565	474.44
398.944	497.94
399.323	486.87
399.701	513.08
400.08	508.11
400.458	494.1
400.837	516.92
401.215	518.05
401.594	524.6
401.972	525.96
402.351	520.31
402.729	529.12
403.107	548.79
403.486	525.28
403.864	547.2
404.242	565.96
404.62	563.7
404.999	563.02
405.377	566.64
405.755	592.85
406.133	575.22
406.511	558.95
406.889	580.42
407.267	625.39
407.645	601.89
408.023	604.38
408.401	595.34
408.779	629.91
409.156	636.47
409.534	653.87
409.912	656.8
410.29	643.02
410.667	666.07
411.045	654.32
411.422	663.13
411.8	704.04
412.178	711.72
412.555	717.59
412.933	710.36
413.31	729.8
413.687	728.22
414.065	732.73
414.442	763.24
414.819	762.34
415.197	753.53
415.574	781.77
415.951	794.43
416.328	763.69
416.705	813.18
417.082	810.25
417.46	806.63
417.837	850.25
418.214	846.63
418.591	865.16
418.967	852.28
419.344	869.68
419.721	881.43
420.098	855.9
420.475	855.9
420.852	873.3
421.228	910.13
421.605	906.52
421.982	923.01
422.358	946.06
422.735	931.83
423.111	940.64
423.488	961.66
423.864	959.85
424.241	1002.33
424.617	998.94
424.994	977.7
425.37	1000.07
425.746	1014.54
426.123	1043.46
426.499	1041.43
426.875	1056.79
427.251	1077.58
427.627	1088.66
428.003	1101.31
428.379	1127.98
428.756	1123.69
429.132	1137.02
429.507	1155.55
429.883	1150.58
430.259	1167.3
430.635	1198.71
431.011	1234.64
431.387	1258.6
431.763	1254.3
432.138	1265.83
432.514	1305.83
432.89	1313.96
433.265	1302.66
433.641	1328.65
434.016	1347.86
434.392	1365.03
434.767	1383.57
435.143	1386.28
435.518	1411.59
435.894	1436.9
436.269	1472.15
436.644	1476.22
437.02	1481.19
437.395	1526.16
437.77	1533.84
438.145	1542.21
438.52	1553.73
438.895	1577.01
439.271	1565.93
439.646	1618.81
440.021	1646.84
440.395	1651.81
440.77	1651.58
441.145	1707.85
441.52	1700.39
441.895	1718.02
442.27	1738.13
442.645	1717.79
443.019	1734.74
443.394	1779.26
443.769	1762.99
444.143	1746.72
444.518	1800.05
444.892	1809.54
445.267	1835.3
445.641	1834.63
446.016	1836.43
446.39	1872.37
446.764	1872.37
447.139	1896.55
447.513	1903.33
447.887	1924.34
448.262	1940.39
448.636	1956.88
449.01	1984.68
449.384	1981.74
449.758	2004.11
450.132	2031.91
450.506	2047.73
450.88	2048.41
451.254	2054.06
451.628	2080.72
452.002	2114.17
452.376	2113.49
452.75	2184.67
453.123	2157.1
453.497	2222.64
453.871	2223.32
454.244	2287.04
454.618	2286.37
454.992	2311.9
455.365	2346.03
455.739	2397.78
456.112	2376.31
456.486	2447.27
456.859	2465.12
457.232	2529.75
457.606	2522.97
457.979	2543.31
458.352	2589.86
458.725	2646.13
459.099	2623.08
459.472	2652.01
459.845	2733.81
460.218	2748.5
460.591	2781.49
460.964	2795.73
461.337	2848.61
461.71	2904.43
462.083	2941.94
462.456	2953.24
462.829	2995.05
463.201	3019.91
463.574	3030.98
463.947	3079.79
464.32	3168.83
464.692	3176.29
465.065	3199.79
465.438	3240.24
465.81	3339.67
466.183	3310.07
466.555	3435.71
466.928	3449.95
467.3	3480.23
467.672	3487.01
468.045	3602.49
468.417	3632.55
468.789	3614.47
469.161	3685.65
469.534	3754.12
469.906	3832.09
470.278	3849.94
470.65	3894.69
471.022	3967
471.394	4007.23
471.766	4054.46
472.138	4072.76
472.51	4217.84
472.882	4298.74
473.253	4305.52
473.625	4399.76
473.997	4499.42
474.369	4501.9
474.74	4571.28
475.112	4647.89
475.484	4721.33
475.855	4796.36
476.227	4855.11
476.598	4887.43
476.97	5024.37
477.341	5126.97
477.713	5179.4
478.084	5241.99
478.455	5384.82
478.827	5479.95
479.198	5598.6
479.569	5647.63
479.94	5795.2
480.311	5798.59
480.682	5976.66
481.053	6042.43
481.424	6171.01
481.795	6220.05
482.166	6312.02
482.537	6370.55
482.908	6557.67
483.279	6634.95
483.65	6775.51
484.021	6911.78
484.391	6978.9
484.762	7050.31
485.133	7071.55
485.503	7168.72
485.874	7362.39
486.244	7503.18
486.615	7612.1
486.985	7664.3
487.356	7808.93
487.726	7909.04
488.097	8035.59
488.467	8072.65
488.837	8237.85
489.207	8337.73
489.578	8523.49
489.948	8634.9
490.318	8715.8
490.688	8785.4
491.058	8959.19
491.428	9086.87
491.798	9178.39
492.168	9397.82
492.538	9414.31
492.908	9517.36
493.278	9548.32
493.648	9649.79
494.017	9725.94
494.387	9801.2
494.757	9885.26
495.126	10028.99
495.496	10104.69
495.866	10196.21
496.235	10363.67
496.605	10417
496.974	10571.12
497.344	10636.2
497.713	10745.13
498.082	10881.62
498.452	10916.87
498.821	11097.21
499.19	11089.07
499.559	11109.19
499.928	11099.47
500.298	11285.68
500.667	11289.75
501.036	11317.99
501.405	11446.35
501.774	11558.44
502.143	11651.77
502.512	11691.99
502.88	11897.41
503.249	11899
503.618	12036.39
503.987	12096.73
504.356	12220.34
504.724	12256.73
505.093	12322.03
505.462	12404.07
505.83	12462.37
506.199	12546.44
506.567	12700.56
506.936	12592.08
507.304	12780.55
507.672	12853.55
508.041	12814
508.409	12970.38
508.777	13135.12
509.145	13310.94
509.514	13291.95
509.882	13405.4
510.25	13564.49
510.618	13605.62
510.986	13722
511.354	13923.57
511.722	13973.74
512.09	14109.33
512.458	14178.94
512.826	14225.71
513.193	14314.75
513.561	14245.6
513.929	14427.52
514.297	14424.13
514.664	14598.81
515.032	14596.1
515.4	14706.38
515.767	14816.88
516.135	14984.34
516.502	14954.06
516.869	15284.89
517.237	15258.91
517.604	15392.24
517.972	15653.7
518.339	15646.47
518.706	15776.18
519.073	15734.37
519.44	15968.49
519.808	15990.64
520.175	15927.14
520.542	16231.76
520.909	16307.47
521.276	16351.31
521.643	16399.22
522.009	16470.17
522.376	16645.31
522.743	16790.62
523.11	16932.76
523.477	17209.59
523.843	17296.37
524.21	17548.79
524.577	17782.46
524.943	17870.82
525.31	17934.09
525.676	18080.98
526.043	18182.9
526.409	18342.67
526.776	18396.45
527.142	18313.29
527.508	18417.69
527.874	18565.49
528.241	18685.26
528.607	18726.84
528.973	18996.44
529.339	18794.63
529.705	19070.33
530.071	19346.26
530.437	19446.37
530.803	19671.67
531.169	19770.43
531.535	19840.48
531.901	19970.87
532.267	20149.4
532.632	20210.64
532.998	20337.87
533.364	20395.04
533.73	20567.69
534.095	20682.04
534.461	20654.7
534.826	20717.52
535.192	20668.48
535.557	20815.6
535.923	20846.78
536.288	20814.69
536.653	20987.34
537.019	20898.53
537.384	21173.55
537.749	21324.06
538.114	21348.46
538.479	21459.65
538.845	21595.46
539.21	21720.21
539.575	21814.44
539.94	21915.23
540.305	21991.84
540.67	21907.09
541.034	22064.83
541.399	22152.28
541.764	22169.69
542.129	22234.54
542.494	22169.01
542.858	22269.34
543.223	22159.74
543.587	22268.21
543.952	22253.75
544.316	22415.33
544.681	22436.8
545.045	22606.51
545.41	22636.57
545.774	22809.67
546.138	22702.78
546.503	22924.47
546.867	22829.78
547.231	23248.75
547.595	23355.19
547.959	23536.66
548.324	23367.39
548.688	23484.91
549.052	23590.21
549.416	23621.85
549.779	23473.61
550.143	23498.69
550.507	23592.02
550.871	23643.77
551.235	23528.97
551.599	23754.95
551.962	23609.87
552.326	23752.69
552.689	23799.02
553.053	23716.54
553.417	23906.36
553.78	24281.72
554.143	24176.41
554.507	24406.01
554.87	24419.34
555.234	24877.86
555.597	24679
555.96	24700.69
556.323	24911.53
556.686	24943.85
557.05	25025.43
557.413	25169.38
557.776	25017.52
558.139	25187.23
558.502	25153.56
558.865	25218.42
559.228	25342.94
559.59	25315.14
559.953	25164.41
560.316	25462.71
560.679	25553.78
561.041	25669.25
561.404	25779.53
561.767	25902.02
562.129	25945.18
562.492	26211.39
562.854	26276.47
563.217	26335
563.579	26600.3
563.941	26767.76
564.304	26966.62
564.666	27029.67
565.028	27123.45
565.39	27160.97
565.753	27294.97
566.115	27371.36
566.477	27509.21
566.839	27456.55
567.201	27517.57
567.563	27466.04
567.925	27581.29
568.287	27505.14
568.648	27523.67
569.01	27571.58
569.372	27737.9
569.734	27751.69
570.095	27987.61
570.457	28041.85
570.819	28103.31
571.18	28239.81
571.542	28529.07
571.903	28581.27
572.265	28760.92
572.626	28850.64
572.987	28956.4
573.349	29058.09
573.71	29216.73
574.071	29306.45
574.432	29224.19
574.794	29400.46
575.155	29294.24
575.516	29122.95
575.877	29332.89
576.238	29252.21
576.599	29442.04
576.96	29350.29
577.32	29325.2
577.681	29452.43
578.042	29509.83
578.403	29501.7
578.763	29543.05
579.124	29774.46
579.485	29878.41
579.845	29922.02
580.206	29912.31
580.566	30007.45
580.927	30182.58
581.287	30286.76
581.648	30216.48
582.008	30425.06
582.368	30457.6
582.728	30576.47
583.089	30492.63
583.449	30413.99
583.809	30448.56
584.169	30550.93
584.529	30564.94
584.889	30612.63
585.249	30435
585.609	30380.99
585.969	30432.52
586.329	30428.68
586.688	30322.92
587.048	30291.73
587.408	30263.71
587.768	30283.14
588.127	30421.22
588.487	30441.78
588.846	30643.36
589.206	30480.65
589.565	30612.63
589.925	30739.18
590.284	30733.08
590.643	30663.25
591.003	30920.87
591.362	31056.46
591.721	31040.41
592.08	31087.42
592.44	31081.54
592.799	31102.78
593.158	31142.78
593.517	31099.62
593.876	31138.72
594.235	31118.15
594.593	31049.68
594.952	31003.58
595.311	30962.22
595.67	30897.14
596.029	31093.07
596.387	31116.79
596.746	31039.51
597.104	30984.14
597.463	30882.22
597.822	31089.68
598.18	31023.46
598.538	30838.84
598.897	31221.2
599.255	30939.4
599.613	31475.88
599.972	31259.84
600.33	31497.12
600.688	31421.42
601.046	31507.97
601.404	31819.6
601.762	31536.9
602.12	31740.73
602.478	31700.51
602.836	31777.12
603.194	31636.1
603.552	31673.39
603.91	31589.55
604.268	31721.98
604.625	31464.81
604.983	31654.63
605.341	31399.73
605.698	31528.54
606.056	31588.19
606.413	31594.07
606.771	31715.2
607.128	31721.98
607.485	31572.15
607.843	31595.2
608.2	31860.28
608.557	31982.53
608.914	31836.78
609.272	32010.56
609.629	32022.31
609.986	32256.65
610.343	32053.04
610.7	32346.82
611.057	32364.9
611.414	32441.05
611.771	32499.36
612.127	32667.04
612.484	32654.61
612.841	32733.02
613.198	32643.53
613.554	32549.53
613.911	32841.04
614.267	32730.31
614.624	32657.55
614.98	32726.24
615.337	32939.8
615.693	32667.26
616.05	32594.72
616.406	32810.31
616.762	32567.38
617.118	32767.6
617.475	32610.99
617.831	32795.39
618.187	32795.39
618.543	32755.17
618.899	33027.48
619.255	32904.09
619.611	32922.17
619.967	33126.46
620.323	33264.31
620.678	33094.6
621.034	33070.64
621.39	33410.75
621.746	33213.46
622.101	33555.15
622.457	33351.31
622.812	33373.01
623.168	33573
623.523	33530.52
623.879	33678.08
624.234	33382.27
624.589	33600.8
624.945	33528.26
625.3	33618.88
625.655	33654.36
626.01	33436.06
626.365	33408.71
626.72	33347.92
627.075	33304.99
627.43	33322.61
627.785	33213.01
628.14	33231.99
628.495	33262.5
628.85	33205.55
629.205	33155.16
629.559	33118.55
629.914	33163.29
630.269	33157.19
630.623	33056.63
630.978	33081.71
631.332	33337.08
631.687	33185.89
632.041	33136.63
632.396	33447.81
632.75	33205.1
633.104	33265.66
633.459	33124.65
633.813	33053.92
634.167	33146.12
634.521	33054.82
634.875	33203.97
635.229	33029.29
635.583	32944.32
635.937	32925.79
636.291	33016.86
636.645	32897.31
636.999	32857.77
637.352	32786.13
637.706	32570.99
638.06	32701.16
638.413	32599.69
638.767	32447.61
639.121	32431.11
639.474	32190.66
639.828	32291.68
640.181	32356.99
640.534	32104.57
640.888	32161.51
641.241	31965.59
641.594	32120.38
641.947	32298.91
642.301	32267.27
642.654	32232.25
643.007	32279.48
643.36	32211.23
643.713	32243.32
644.066	32442.64
644.419	32375.07
644.771	32306.59
645.124	32191.79
645.477	32172.59
645.83	32115.41
646.182	31854.63
646.535	31554.3
646.888	31425.26
647.24	31018.72
647.593	31093.74
647.945	31025.05
648.298	30940.75
648.65	30737.14
649.002	30755.22
649.355	30832.96
649.707	30958.15
650.059	31138.26
650.411	31515.65
650.763	31315.21
651.115	31730.56
651.467	31528.31
651.819	31526.28
652.171	31424.36
652.523	31359.05
652.875	31430.91
653.227	31261.42
653.578	31592.71
653.93	31483.79
654.282	31383
654.633	31282.21
654.985	31479.05
655.337	31468.88
655.688	31399.5
656.039	31673.39
656.391	31407.86
656.742	31578.25
657.094	31637.23
657.445	31764.46
657.796	31730.79
658.147	31592.94
658.498	31528.99
658.849	31714.52
659.2	31494.64
659.551	31514.98
659.902	31604.24
660.253	31453.74
660.604	31554.3
660.955	31286.96
661.306	31378.03
661.656	31361.76
662.007	31190.01
662.358	31070.24
662.708	31211.48
663.059	31096.46
663.409	30927.65
663.76	31039.96
664.11	30986.63
664.461	30919.06
664.811	30989.79
665.161	30943.69
665.511	30759.06
665.862	30932.39
666.212	31072.05
666.562	31096
666.912	31007.19
667.262	31196.34
667.612	31227.53
667.962	31233.18
668.312	31276.79
668.662	31402.44
669.011	31406.28
669.361	31360.86
669.711	31479.05
670.06	31276.34
670.41	31322.21
670.76	31360.86
671.109	31341.65
671.459	31228.2
671.808	31152.95
672.157	31199.96
672.507	31001.09
672.856	31003.8
673.205	30953.64
673.554	31020.07
673.904	30779.18
674.253	30883.81
674.602	30750.02
674.951	30078.63
675.3	30177.16
675.649	30611.95
675.998	30414.44
676.346	30294.22
676.695	30352.52
677.044	30032.08
677.393	30230.26
677.741	30149.36
678.09	30275.46
678.438	30203.6
678.787	30208.12
679.135	30191.62
679.484	30041.12
679.832	30278.62
680.181	30084.28
680.529	30183.03
680.877	30317.72
681.225	30244.95
681.573	30490.37
681.922	30386.19
682.27	30291.28
682.618	30343.93
682.966	30254.22
683.314	30367.21
683.661	30178.06
684.009	30111.62
684.357	29918.18
684.705	29905.98
685.053	29844.29
685.4	29747.11
685.748	29587.12
686.095	29459.44
686.443	29454.47
686.79	29322.72
687.138	29386.9
687.485	29191.42
687.832	29130.63
688.18	29078.88
688.527	28813.35
688.874	28633.02
689.221	28490.88
689.568	28485.23
689.915	28509.18
690.262	28409.97
690.609	28380.14
690.956	28288.39
691.303	28174.05
691.65	28049.53
691.997	28045.01
692.344	27863.55
692.69	28001.62
693.037	27887.28
693.383	27693.38
693.73	27838.01
694.077	27567.74
694.423	27873.49
694.769	27707.39
695.116	27548.98
695.462	27671.91
695.808	27558.24
696.155	27699.26
696.501	27660.61
696.847	27415.2
697.193	27238.03
697.539	27283.22
697.885	27048.2
698.231	26923.68
698.577	26918.26
698.923	26873.29
699.269	26769.56
699.614	26606.4
699.96	26527.99
700.306	26456.58
700.651	26284.38
700.997	26210.03
701.342	26055.23
701.688	25933.2
702.033	25829.48
702.379	25787.22
702.724	25506.77
703.069	25699.99
703.415	25354.69
703.76	25409.6
704.105	25438.3
704.45	25321.02
704.795	25232.43
705.14	25126.9
705.485	25195.59
705.83	25038.99
706.175	24993.34
706.52	25069.04
706.865	25075.82
707.209	25123.28
707.554	25067.24
707.899	25130.74
708.243	24870.41
708.588	24991.53
708.932	24753.57
709.277	24987.69
709.621	25012.55
709.966	24677.19
710.31	24919.67
710.654	24502.96
710.998	24626.12
711.342	24652.78
711.687	24449.85
712.031	24417.99
712.375	24339.57
712.719	24269.97
713.063	24196.07
713.407	24199.01
713.75	24018.9
714.094	23947.72
714.438	23744.11
714.782	23772.13
715.125	23656.65
715.469	23636.09
715.812	23445.36
716.156	23388.41
716.499	23414.62
716.843	23348.19
717.186	23124.01
717.53	23298.7
717.873	23256.44
718.216	23144.35
718.559	23054.63
718.902	22962.66
719.246	23080.62
719.589	23049.44
719.932	22952.49
720.275	22983.68
720.617	22930.34
720.96	23094.41
721.303	23094.18
721.646	23143.45
721.989	23069.32
722.331	23182.54
722.674	23182.99
723.016	23213.73
723.359	23162.65
723.701	23109.1
724.044	23088.98
724.386	22927.18
724.729	23174.4
725.071	22961.76
725.413	23051.02
725.755	22989.1
726.097	22890.12
726.439	22701.2
726.782	22748.65
727.124	22828.43
727.465	22616.91
727.807	22587.53
728.149	22507.98
728.491	22541.2
728.833	22586.17
729.175	22489
729.516	22473.63
729.858	22370.58
730.199	22394.54
730.541	22459.62
730.882	22354.99
731.224	22343.01
731.565	22181.89
731.906	22178.27
732.248	22242.23
732.589	22116.58
732.93	22148.9
733.271	22112.74
733.612	22222.34
733.953	22332.39
734.294	22203.58
734.635	22086.3
734.976	22273.86
735.317	22130.14
735.658	22248.78
735.999	22266.18
736.339	22295.33
736.68	22395.22
737.021	22315.9
737.361	22206.75
737.702	22468.89
738.042	22402.9
738.383	22377.82
738.723	22416.46
739.063	22497.13
739.404	22603.57
739.744	22598.15
740.084	22525.16
740.424	22611.71
740.764	22587.08
741.104	22711.59
741.444	22391.15
741.784	22397.02
742.124	22541.2
742.464	22370.13
742.804	22406.29
743.143	22444.25
743.483	22391.15
743.823	22324.48
744.162	22219.4
744.502	22314.31
744.841	22199.52
745.181	22300.76
745.52	22210.14
745.86	22251.72
746.199	22291.26
746.538	22230.47
746.877	22370.58
747.216	22328.33
747.556	22304.37
747.895	22427.31
748.234	22244.03
748.573	22316.8
748.911	22352.73
749.25	22479.06
749.589	22370.36
749.928	22437.93
750.267	22520.64
750.605	22457.81
750.944	22549.56
751.283	22583.23
751.621	22685.15
751.96	22580.52
752.298	22635.44
752.636	22764.92
752.975	22630.92
753.313	22710.91
753.651	22959.72
753.989	22821.87
754.327	22904.13
754.666	22977.35
