Data from blue_shiny_book_FLMS001491_00059.txt Node
Date: Wed Feb 08 15:27:14 GMT 2017
User: dcchb
Spectrometer: FLMS00149
Trigger mode: 0
Integration Time (sec): 2.000000E-2
Scans to average: 10
Electric dark correction enabled: true
Nonlinearity correction enabled: false
Boxcar width: 0
XAxis mode: Wavelengths
Number of Pixels in Spectrum: 2048
>>>>>Begin Spectral Data<<<<<
341.393	-16.62
341.776	-16.62
342.16	-16.62
342.543	-41.71
342.927	-46.68
343.31	-73.8
343.693	-74.48
344.077	-75.15
344.46	-62.95
344.843	-50.97
345.226	-49.84
345.61	-30.63
345.993	-35.61
346.376	2.36
346.759	4.62
347.142	35.13
347.525	60.21
347.908	60.66
348.291	62.7
348.674	103.82
349.057	123.94
349.44	141.34
349.823	156.25
350.206	186.99
350.588	215.23
350.971	224.73
351.354	258.85
351.737	265.63
352.119	243.26
352.502	290.03
352.884	295.91
353.267	309.47
353.65	313.54
354.032	325.97
354.414	323.93
354.797	312.41
355.179	352.41
355.562	354.44
355.944	345.63
356.326	356.93
356.709	370.48
357.091	353.08
357.473	374.55
357.855	346.08
358.238	372.74
358.62	370.71
359.002	373.87
359.384	374.33
359.766	366.87
360.148	383.82
360.53	385.4
360.912	370.48
361.294	368.68
361.676	367.55
362.057	351.5
362.439	352.18
362.821	372.29
363.203	347.21
363.584	379.3
363.966	349.92
364.348	359.41
364.729	359.64
365.111	353.99
365.493	339.98
365.874	369.13
366.256	359.64
366.637	368.45
367.019	354.89
367.4	361.67
367.781	353.08
368.163	381.11
368.544	372.74
368.925	363.48
369.306	381.78
369.688	363.48
370.069	349.92
370.45	366.42
370.831	348.11
371.212	342.24
371.593	360.32
371.974	365.51
372.355	381.11
372.736	377.26
373.117	377.94
373.498	358.73
373.879	394.89
374.26	384.04
374.641	398.73
375.021	332.97
375.402	366.64
375.783	379.75
376.163	416.13
376.544	409.81
376.925	404.61
377.305	406.64
377.686	412.74
378.066	408.22
378.447	390.37
378.827	405.29
379.208	411.16
379.588	406.64
379.968	416.81
380.349	415.91
380.729	440.99
381.109	422.23
381.489	430.37
381.87	435.79
382.25	449.58
382.63	458.39
383.01	436.25
383.39	448.67
383.77	451.61
384.15	469.92
384.53	454.55
384.91	461.1
385.29	471.72
385.67	454.55
386.049	493.65
386.429	489.35
386.809	485.28
387.189	509.46
387.568	488.67
387.948	527.77
388.328	519.41
388.707	515.79
389.087	521.89
389.466	512.4
389.846	525.96
390.225	530.25
390.605	538.84
390.984	547.66
391.363	533.19
391.743	553.53
392.122	546.3
392.501	576.81
392.881	577.48
393.26	563.47
393.639	572.97
394.018	610.93
394.397	598.73
394.776	593.3
395.155	609.12
395.534	624.04
395.913	626.07
396.292	622.68
396.671	618.16
397.05	624.04
397.429	637.6
397.808	669.46
398.186	663.58
398.565	647.31
398.944	669.46
399.323	704.49
399.701	680.76
400.08	716.92
400.458	734.32
400.837	732.73
401.215	720.76
401.594	737.48
401.972	700.65
402.351	725.73
402.729	753.75
403.107	758.72
403.486	777.71
403.864	764.15
404.242	778.84
404.62	775.45
404.999	796.24
405.377	810.47
405.755	815.22
406.133	835.33
406.511	818.61
406.889	825.84
407.267	877.14
407.645	871.49
408.023	906.97
408.401	917.81
408.779	905.61
409.156	957.14
409.534	912.62
409.912	940.87
410.29	982.45
410.667	977.93
411.045	1006.4
411.422	1024.7
411.8	1032.61
412.178	1061.54
412.555	1045.04
412.933	1062.44
413.31	1073.29
413.687	1087.3
414.065	1098.6
414.442	1105.61
414.819	1152.84
415.197	1151.71
415.574	1192.84
415.951	1196.68
416.328	1222.21
416.705	1203.01
417.082	1226.73
417.46	1253.63
417.837	1270.12
418.214	1292.49
418.591	1269.9
418.967	1280.07
419.344	1296.11
419.721	1320.29
420.098	1313.28
420.475	1347.18
420.852	1360.29
421.228	1414.52
421.605	1414.07
421.982	1444.58
422.358	1444.35
422.735	1476.22
423.111	1466.5
423.488	1481.19
423.864	1479.61
424.241	1494.52
424.617	1511.7
424.994	1550.79
425.37	1579.27
425.746	1594.63
426.123	1617.68
426.499	1640.73
426.875	1644.12
427.251	1673.05
427.627	1723.67
428.003	1729.32
428.379	1750.56
428.756	1743.1
429.132	1785.36
429.507	1824.91
429.883	1828.53
430.259	1859.49
430.635	1885.47
431.011	1947.62
431.387	1964.34
431.763	1980.61
432.138	1981.52
432.514	2073.04
432.89	2052.47
433.265	2103.55
433.641	2094.06
434.016	2136.54
434.392	2188.74
434.767	2259.25
435.143	2265.8
435.518	2259.47
435.894	2292.92
436.269	2361.62
436.644	2409.08
437.02	2392.58
437.395	2398.91
437.77	2420.83
438.145	2456.31
438.52	2518.22
438.895	2559.35
439.271	2559.58
439.646	2626.7
440.021	2618.34
440.395	2685.9
440.77	2666.24
441.145	2686.81
441.52	2770.42
441.895	2738.11
442.27	2800.25
442.645	2782.85
443.019	2817.2
443.394	2820.14
443.769	2846.13
444.143	2861.49
444.518	2929.06
444.892	2930.42
445.267	2970.42
445.641	3030.08
446.016	3057.42
446.39	3052
446.764	3055.16
447.139	3068.04
447.513	3099.23
447.887	3124.31
448.262	3110.53
448.636	3157.98
449.01	3199.56
449.384	3248.38
449.758	3228.26
450.132	3294.25
450.506	3359.78
450.88	3378.09
451.254	3409.95
451.628	3460.12
452.002	3522.49
452.376	3513
452.75	3528.37
453.123	3595.94
453.497	3635.48
453.871	3664.18
454.244	3727.68
454.618	3781.24
454.992	3826.89
455.365	3835.03
455.739	3952.54
456.112	4012.87
456.486	3990.73
456.859	4107.79
457.232	4153.66
457.606	4181.91
457.979	4193.43
458.352	4319.99
458.725	4365.18
459.099	4358.85
459.472	4505.97
459.845	4491.51
460.218	4597.94
460.591	4569.7
460.964	4619.86
461.337	4751.61
461.71	4813.31
462.083	4925.62
462.456	4944.6
462.829	4987.09
463.201	5043.81
463.574	5036.8
463.947	5157.7
464.32	5259.17
464.692	5280.41
465.065	5356.34
465.438	5447.19
465.81	5493.06
466.183	5571.93
466.555	5711.81
466.928	5764.02
467.3	5783.68
467.672	5932.6
468.045	6065.02
468.417	6064.8
468.789	6167.39
469.161	6210.78
469.534	6290.33
469.906	6483.77
470.278	6448.74
470.65	6543.88
471.022	6723.54
471.394	6842.4
471.766	6876.08
472.138	6977.99
472.51	7155.62
472.882	7218.67
473.253	7267.7
473.625	7427.47
473.997	7580.46
474.369	7570.75
474.74	7707.92
475.112	7855.26
475.484	7998.53
475.855	8112.88
476.227	8255.48
476.598	8407.79
476.97	8518.29
477.341	8739.76
477.713	8921.22
478.084	8897.27
478.455	9177.71
478.827	9318.95
479.198	9612.95
479.569	9643.46
479.94	9771.82
480.311	9924.13
480.682	10085.03
481.053	10369.77
481.424	10499.48
481.795	10697.67
482.166	10804.33
482.537	10921.85
482.908	11269.41
483.279	11416.97
483.65	11555.5
484.021	11802.95
484.391	11924.76
484.762	12049.05
485.133	12126.11
485.503	12310.28
485.874	12665.75
486.244	12693.55
486.615	13068.91
486.985	13131.73
487.356	13423.47
487.726	13460.54
488.097	13821.43
488.467	13868.21
488.837	14230.46
489.207	14281.53
489.578	14566.27
489.948	14704.35
490.318	14942.53
490.688	15067.73
491.058	15296.65
491.428	15541.39
491.798	15676.3
492.168	15959
492.538	15955.39
492.908	16078.55
493.278	16398.09
493.648	16490.74
494.017	16729.15
494.387	16838.07
494.757	17086.2
495.126	17312.41
495.496	17422.69
495.866	17585.17
496.235	17847.54
496.605	18001.21
496.974	18160.98
497.344	18261.99
497.713	18408.65
498.082	18502.21
498.452	18772.94
498.821	18836.67
499.19	18921.18
499.559	18992.37
499.928	19151.69
500.298	19330.66
500.667	19494.05
501.036	19447.5
501.405	19793.48
501.774	19983.3
502.143	20073.7
502.512	20338.1
502.88	20472.33
503.249	20478.2
503.618	20560.46
503.987	20748.71
504.356	20895.59
504.724	20943.05
505.093	21005.87
505.462	21104.4
505.83	21251.52
506.199	21471.85
506.567	21698.96
506.936	21700.09
507.304	21969.92
507.672	22170.82
508.041	22243.36
508.409	22607.19
508.777	22740.07
509.145	23046.27
509.514	23097.12
509.882	23270.45
510.25	23286.27
510.618	23543.21
510.986	23686.93
511.354	23832.47
511.722	23937.77
512.09	24173.47
512.458	24098.9
512.826	24263.42
513.193	24448.5
513.561	24587.7
513.929	24764.65
514.297	25035.15
514.664	25283.05
515.032	25476.49
515.4	25750.16
515.767	25958.51
516.135	26205.74
516.502	26201.22
516.869	26570.25
517.237	26713.97
517.604	26688.89
517.972	26897.47
518.339	27060.86
518.706	27025.6
519.073	27143.34
519.44	27233.73
519.808	27596.44
520.175	27559.15
520.542	28049.98
520.909	28102.86
521.276	28146.25
521.643	28540.82
522.009	28778.33
522.376	29043.18
522.743	29264.87
523.11	29496.5
523.477	29998.63
523.843	30198.17
524.21	30577.37
524.577	30824.83
524.943	30997.25
525.31	30984.14
525.676	31138.94
526.043	31364.92
526.409	31495.32
526.776	31865.25
527.142	31893.27
527.508	32078.35
527.874	32244.9
528.241	32425.69
528.607	32485.8
528.973	33088.04
529.339	33148.83
529.705	33549.27
530.071	33878.53
530.437	34146.55
530.803	34350.61
531.169	34621.79
531.535	34582.47
531.901	34899.75
532.267	35087.54
532.632	35303.8
532.998	35368.89
533.364	35455.21
533.73	35445.27
534.095	35695.88
534.461	35711.48
534.826	35853.85
535.192	35937.01
535.557	36182.88
535.923	36082.09
536.288	36303.55
536.653	36686.59
537.019	36537.9
537.384	36906.47
537.749	37310.08
538.114	37420.36
538.479	37494.25
538.845	37713.68
539.21	37785.77
539.575	37901.02
539.94	37947.35
540.305	38235.48
540.67	38196.38
541.034	38180.11
541.399	38353.89
541.764	38415.59
542.129	38321.8
542.494	38442.25
542.858	38505.98
543.223	38550.05
543.587	38880.21
543.952	38874.33
544.316	39185.28
544.681	39228.9
545.045	39564.71
545.41	39763.35
545.774	39937.58
546.138	40175.77
546.503	40340.73
546.867	40326.95
547.231	40778.24
547.595	40846.71
547.959	40865.69
548.324	40889.65
548.688	40883.54
549.052	40989.98
549.416	40876.99
549.779	40893.26
550.143	41017.78
550.507	41173.25
550.871	41214.61
551.235	41175.74
551.599	41538.67
551.962	41481.27
552.326	41726.91
552.689	41987.7
553.053	41888.26
553.417	42143.85
553.78	42741.8
554.143	42665.87
554.507	42832.87
554.87	43027.22
555.234	43548.11
555.597	43285.29
555.96	43417.04
556.323	43508.11
556.686	43596.69
557.05	43776.8
557.413	43767.31
557.776	43736.35
558.139	43846.63
558.502	43928.44
558.865	43876.69
559.228	44173.85
559.59	44008.89
559.953	44201.65
560.316	44746.04
560.679	44620.39
561.041	45114.84
561.404	45367.95
561.767	45837.54
562.129	45696.52
562.492	46163.4
562.854	46204.99
563.217	46328.15
563.579	46617.86
563.941	46862.14
564.304	47061.46
564.666	47286.77
565.028	47175.13
565.39	47428.46
565.753	47574.67
566.115	47617.38
566.477	47691.95
566.839	47593.88
567.201	47741.44
567.563	47671.39
567.925	47894.21
568.287	47827.32
568.648	48063.69
569.01	48376.68
569.372	48572.16
569.734	48521.08
570.095	48803.11
570.457	48894.41
570.819	49200.39
571.18	49273.83
571.542	49596.08
571.903	49721.05
572.265	49775.97
572.626	49854.83
572.987	49919.24
573.349	50080.82
573.71	50238.55
574.071	50217.54
574.432	50208.27
574.794	50423.18
575.155	50203.52
575.516	50067.48
575.877	50129.85
576.238	50035.17
576.599	50249.85
576.96	50096.86
577.32	50252.11
577.681	50403.07
578.042	50523.97
578.403	50668.37
578.763	50587.02
579.124	50817.29
579.485	51061.36
579.845	51031.75
580.206	51121.24
580.566	51309.03
580.927	51363.27
581.287	51545.86
581.648	51431.29
582.008	51589.02
582.368	51533.89
582.728	51718.06
583.089	51669.47
583.449	51496.6
583.809	51562.36
584.169	51569.82
584.529	51506.54
584.889	51684.84
585.249	51398.75
585.609	51321.46
585.969	51433.1
586.329	51420.89
586.688	51391.97
587.048	51472.87
587.408	51567.1
587.768	51561.45
588.127	51612.75
588.487	51584.96
588.846	51955.79
589.206	51761.45
589.565	51885.29
589.925	52028.56
590.284	51976.13
590.643	52027.21
591.003	52292.74
591.362	52167.77
591.721	52184.49
592.08	52034.44
592.44	52224.49
592.799	52194.66
593.158	52040.76
593.517	52017.26
593.876	52069.92
594.235	51957.38
594.593	51919.86
594.952	52014.32
595.311	51779.98
595.67	51762.58
596.029	52095
596.387	52012.29
596.746	51992.4
597.104	51936.13
597.463	51874.89
597.822	52166.18
598.18	52053.65
598.538	52044.15
598.897	52306.97
599.255	52163.02
599.613	52566.63
599.972	52313.75
600.33	52525.27
600.688	52459.28
601.046	52629
601.404	52626.51
601.762	52572.95
602.12	52758.94
602.478	52586.29
602.836	52661.99
603.194	52485.95
603.552	52600.07
603.91	52504.93
604.268	52500.64
604.625	52345.84
604.983	52464.71
605.341	52295
605.698	52302.45
606.056	52504.26
606.413	52383.35
606.771	52568.66
607.128	52662.89
607.485	52457.7
607.843	52696.34
608.2	52909.44
608.557	53004.81
608.914	52989.44
609.272	53161.41
609.629	53273.27
609.986	53363.67
610.343	53329.54
610.7	53525.7
611.057	53527.05
611.414	53483.89
611.771	53609.99
612.127	53649.76
612.484	53601.4
612.841	53683.43
613.198	53586.71
613.554	53560.5
613.911	53747.84
614.267	53573.83
614.624	53508.07
614.98	53495.87
615.337	53679.59
615.693	53506.04
616.05	53485.25
616.406	53713.04
616.762	53610.89
617.118	53566.15
617.475	53499.48
617.831	53546.94
618.187	53562.76
618.543	53697.67
618.899	53878.46
619.255	53866.25
619.611	53777.67
619.967	53933.6
620.323	54008.4
620.678	53907.38
621.034	53994.61
621.39	54005.46
621.746	53984.67
622.101	54292
622.457	54111.9
622.812	54030.77
623.168	54042.75
623.523	54172.69
623.879	54149.18
624.234	53758.91
624.589	53958.68
624.945	53963.65
625.3	54003.65
625.655	53850.43
626.01	53855.41
626.365	53823.32
626.72	53740.61
627.075	53735.64
627.43	53751.23
627.785	53645.02
628.14	53740.15
628.495	53723.66
628.85	53655.41
629.205	53624.45
629.559	53816.76
629.914	53698.35
630.269	53874.84
630.623	53858.8
630.978	53881.17
631.332	53970.21
631.687	53995.29
632.041	54020.6
632.396	54094.95
632.75	53835.52
633.104	53990.09
633.459	53867.16
633.813	53919.13
634.167	54015.63
634.521	53862.86
634.875	53817.21
635.229	53791.23
635.583	53622.19
635.937	53600.27
636.291	53536.09
636.645	53539.26
636.999	53377.9
637.352	53430.33
637.706	53189.43
638.06	53310.56
638.413	53176.33
638.767	53092.94
639.121	52980.63
639.474	52728.43
639.828	52898.14
640.181	52819.73
640.534	52853.85
640.888	52847.97
641.241	52831.48
641.594	52807.07
641.947	52915.32
642.301	52901.76
642.654	52970.91
643.007	52974.07
643.36	52929.33
643.713	52898.82
644.066	52982.21
644.419	52914.41
644.771	52933.62
645.124	52687.3
645.477	52699.5
645.83	52387.2
646.182	51992.18
646.535	51745.63
646.888	51656.82
647.24	51398.75
647.593	51480.1
647.945	51337.73
648.298	51129.15
648.65	50961.7
649.002	50958.98
649.355	51020.68
649.707	51130.28
650.059	51224.97
650.411	51541.34
650.763	51608.46
651.115	52012.97
651.467	51752.86
651.819	51677.16
652.171	51765.74
652.523	51712.41
652.875	51709.93
653.227	51636.26
653.578	51971.84
653.93	52043.25
654.282	51920.99
654.633	51879.19
654.985	51924.38
655.337	51933.65
655.688	52031.95
656.039	52087.77
656.391	52052.74
656.742	52005.74
657.094	52025.17
657.445	52069.92
657.796	52087.32
658.147	51930.71
658.498	51961.44
658.849	51941.33
659.2	51849.81
659.551	51774.78
659.902	51838.96
660.253	51676.48
660.604	51794.44
660.955	51619.08
661.306	51570.49
661.656	51393.55
662.007	51278.52
662.358	51378.86
662.708	51310.16
663.059	51279.88
663.409	51085.99
663.76	51342.03
664.11	51268.81
664.461	51128.92
664.811	51277.39
665.161	51279.43
665.511	51372.31
665.862	51453.89
666.212	51570.49
666.562	51566.88
666.912	51595.35
667.262	51593.09
667.612	51670.15
667.962	51680.1
668.312	51728.46
668.662	51815.69
669.011	51723.94
669.361	51673.09
669.711	51662.02
670.06	51550.61
670.41	51422.48
670.76	51325.08
671.109	51452.53
671.459	51182.03
671.808	51084.86
672.157	51176.83
672.507	50884.86
672.856	50880.12
673.205	50907.23
673.554	50937.52
673.904	50681.03
674.253	50810.51
674.602	50619.11
674.951	50099.8
675.3	49919.69
675.649	50483.74
675.998	50357.19
676.346	50312.22
676.695	50533.69
677.044	50242.85
677.393	50420.69
677.741	50468.83
678.09	50286.69
678.438	50430.86
678.787	50431.54
679.135	50458.21
679.484	50357.19
679.832	50578.88
680.181	50410.07
680.529	50595.6
680.877	50532.1
681.225	50528.94
681.573	50701.59
681.922	50536.4
682.27	50390.19
682.618	50464.08
682.966	50288.27
683.314	50284.43
683.661	50101.38
684.009	49948.16
684.357	49876.3
684.705	49763.99
685.053	49839.92
685.4	49658
685.748	49453.04
686.095	49387.27
686.443	49181.63
686.79	49019.37
687.138	49064.35
687.485	48917
687.832	48830.91
688.18	48827.74
688.527	48534.87
688.874	48528.77
689.221	48411.93
689.568	48271.82
689.915	48327.19
690.262	48279.06
690.609	48234.99
690.956	48228.21
691.303	48208.1
691.65	48237.93
691.997	48134.65
692.344	47911.16
692.69	48035.45
693.037	48037.93
693.383	47797.03
693.73	48059.4
694.077	47702.57
694.423	47723.14
694.769	47571.73
695.116	47463.71
695.462	47411.96
695.808	47217.39
696.155	47368.34
696.501	47196.6
696.847	47075.25
697.193	46705.99
697.539	46837.96
697.885	46322.72
698.231	46138.09
698.577	46126.12
698.923	45917.76
699.269	45725.9
699.614	45480.26
699.96	45314.84
700.306	45142.19
700.651	45056.77
700.997	44870.33
701.342	44674.4
701.688	44617
702.033	44528.65
702.379	44499.95
702.724	44538.14
703.069	44513.73
703.415	44064.25
703.76	44050.24
704.105	43871.49
704.45	43909.45
704.795	43861.54
705.14	43725.05
705.485	43650.25
705.83	43533.87
706.175	43736.58
706.52	43681.89
706.865	43564.83
707.209	43576.13
707.554	43641.66
707.899	43552.85
708.243	43288.68
708.588	43381.11
708.932	43061.79
709.277	43091.17
709.621	43101.11
709.966	42866.09
710.31	43016.37
710.654	42432.2
710.998	42533.9
711.342	42536.83
711.687	42351.3
712.031	42174.36
712.375	41971.42
712.719	42145.21
713.063	41845.33
713.407	41825.21
713.75	41627.48
714.094	41501.15
714.438	41232.91
714.782	41376.86
715.125	40864.34
715.469	40975.29
715.812	40791.57
716.156	40607.39
716.499	40708.63
716.843	40515.87
717.186	40408.53
717.53	40636.54
717.873	40562.2
718.216	40402.43
718.559	40462.54
718.902	40286.72
719.246	40392.48
719.589	40539.15
719.932	40568.75
720.275	40359.04
720.617	40477.9
720.96	40577.11
721.303	40570.33
721.646	40518.36
721.989	40385.48
722.331	40601.07
722.674	40448.98
723.016	40522.2
723.359	40392.94
723.701	40468.64
724.044	40194.52
724.386	39917.02
724.729	40219.38
725.071	40068.2
725.413	40004.02
725.755	40012.15
726.097	39746.62
726.439	39446.75
726.782	39489.46
727.124	39630.7
727.465	39116.13
727.807	39137.37
728.149	38895.8
728.491	38869.59
728.833	38784.62
729.175	38625.52
729.516	38561.12
729.858	38518.18
730.199	38649.48
730.541	38357.51
730.882	38394.57
731.224	38679.31
731.565	38439.54
731.906	38337.85
732.248	38419.43
732.589	38192.09
732.93	38301.92
733.271	38156.38
733.612	38356.15
733.953	38397.06
734.294	38332.65
734.635	38183.05
734.976	38409.94
735.317	38178.76
735.658	38173.78
735.999	38242.71
736.339	38348.92
736.68	38414.68
737.021	38440.67
737.361	38159.1
737.702	38364.51
738.042	38178.08
738.383	38096.72
738.723	38355.93
739.063	38149.15
739.404	38197.51
739.744	38319.32
740.084	38067.8
740.424	38082.26
740.764	38064.86
741.104	38078.42
741.444	37937.18
741.784	37663.06
742.124	37649.96
742.464	37499.23
742.804	37532.67
743.143	37535.38
743.483	37418.1
743.823	37162.06
744.162	37351.21
744.502	37390.53
744.841	37237.31
745.181	37381.49
745.52	37114.83
745.86	37175.84
746.199	37157.77
746.538	37146.92
746.877	37129.29
747.216	37354.82
747.556	37237.76
747.895	37297.88
748.234	37158.22
748.573	37286.35
748.911	37122.96
749.25	37271.21
749.589	37249.51
749.928	37442.05
750.267	37491.99
750.605	37330.19
750.944	37461.26
751.283	37434.82
751.621	37566.57
751.96	37463.75
752.298	37529.96
752.636	37611.09
752.975	37597.98
