Data from blue_chair_FLMS001491_00094.txt Node
Date: Wed Feb 08 10:32:18 GMT 2017
User: dcchb
Spectrometer: FLMS00149
Trigger mode: 0
Integration Time (sec): 2.000000E-2
Scans to average: 10
Electric dark correction enabled: true
Nonlinearity correction enabled: false
Boxcar width: 0
XAxis mode: Wavelengths
Number of Pixels in Spectrum: 2048
>>>>>Begin Spectral Data<<<<<
341.393	-46.5
341.776	-46.5
342.16	-46.5
342.543	-52.6
342.927	-62.77
343.31	-53.5
343.693	-44.69
344.077	-74.07
344.46	-71.13
344.843	-62.31
345.226	-30.68
345.61	-39.72
345.993	-28.42
346.376	-6.05
346.759	-1.07
347.142	21.07
347.525	50
347.908	69.21
348.291	75.99
348.674	94.29
349.057	101.07
349.44	124.12
349.823	134.29
350.206	151.69
350.588	158.7
350.971	175.19
351.354	194.63
351.737	215.42
352.119	219.49
352.502	230.56
352.884	239.15
353.267	252.25
353.65	282.53
354.032	266.04
354.414	278.02
354.797	286.83
355.179	306.26
355.562	299.03
355.944	312.36
356.326	299.03
356.709	300.84
357.091	326.38
357.473	315.75
357.855	298.13
358.238	324.34
358.62	311.01
359.002	294.51
359.384	291.8
359.766	300.61
360.148	327.51
360.53	303.78
360.912	282.31
361.294	299.48
361.676	301.29
362.057	298.35
362.439	317.56
362.821	303.78
363.203	300.84
363.584	295.19
363.966	297.22
364.348	290.44
364.729	291.12
365.111	287.05
365.493	312.82
365.874	297.9
366.256	268.07
366.637	296.32
367.019	276.89
367.4	283.44
367.781	307.39
368.163	277.56
368.544	291.12
368.925	274.17
369.306	289.54
369.688	266.26
370.069	271.46
370.45	285.47
370.831	283.89
371.212	278.24
371.593	266.94
371.974	255.64
372.355	261.52
372.736	278.02
373.117	292.48
373.498	283.66
373.879	291.8
374.26	275.76
374.641	275.3
375.021	262.87
375.402	270.56
375.783	282.99
376.163	270.56
376.544	285.47
376.925	275.76
377.305	280.95
377.686	280.05
378.066	294.29
378.447	290.67
378.827	272.59
379.208	278.47
379.588	279.37
379.968	282.99
380.349	278.69
380.729	308.75
381.109	275.08
381.489	297.68
381.87	275.76
382.25	291.35
382.63	295.19
383.01	284.12
383.39	294.74
383.77	295.42
384.15	291.12
384.53	298.35
384.91	301.97
385.29	311.46
385.67	303.78
386.049	290.67
386.429	304.68
386.809	285.47
387.189	300.39
387.568	292.48
387.948	286.15
388.328	307.85
388.707	302.2
389.087	301.97
389.466	303.55
389.846	309.65
390.225	300.61
390.605	298.81
390.984	306.72
391.363	308.52
391.743	307.62
392.122	293.61
392.501	308.52
392.881	309.65
393.26	301.74
393.639	314.62
394.018	305.13
394.397	301.52
394.776	314.17
395.155	316.21
395.534	293.16
395.913	319.6
396.292	324.34
396.671	317.11
397.05	346.94
397.429	331.8
397.808	326.6
398.186	322.08
398.565	328.18
398.944	292.25
399.323	321.18
399.701	312.59
400.08	330.22
400.458	345.36
400.837	340.84
401.215	321.18
401.594	320.5
401.972	341.06
402.351	332.7
402.729	339.71
403.107	342.19
403.486	339.71
403.864	350.56
404.242	337.67
404.62	337.22
404.999	345.36
405.377	318.92
405.755	341.52
406.133	326.83
406.511	370.22
406.889	337.22
407.267	319.6
407.645	358.47
408.023	369.09
408.401	365.7
408.779	378.58
409.156	380.84
409.534	355.3
409.912	375.19
410.29	382.19
410.667	373.15
411.045	360.5
411.422	371.8
411.8	374.96
412.178	386.49
412.555	355.75
412.933	377.67
413.31	407.05
413.687	405.7
414.065	389.42
414.442	394.62
414.819	397.56
415.197	394.85
415.574	391.01
415.951	381.06
416.328	398.46
416.705	400.95
417.082	393.94
417.46	409.09
417.837	393.72
418.214	401.63
418.591	412.25
418.967	416.09
419.344	393.49
419.721	424.9
420.098	399.59
420.475	427.39
420.852	416.09
421.228	418.12
421.605	408.86
421.982	426.49
422.358	436.66
422.735	431.46
423.111	421.29
423.488	438.01
423.864	426.71
424.241	463.55
424.617	444.34
424.994	431.23
425.37	426.94
425.746	441.85
426.123	468.74
426.499	445.24
426.875	452.47
427.251	451.34
427.627	455.19
428.003	453.38
428.379	489.31
428.756	464.68
429.132	459.03
429.507	483.66
429.883	473.72
430.259	484.11
430.635	500.38
431.011	484.11
431.387	496.99
431.763	506.26
432.138	506.48
432.514	523.21
432.89	497.22
433.265	513.49
433.641	512.59
434.016	523.66
434.392	551.45
434.767	543.09
435.143	553.04
435.518	522.75
435.894	543.77
436.269	558.23
436.644	569.99
437.02	569.99
437.395	569.76
437.77	570.21
438.145	570.44
438.52	561.62
438.895	588.52
439.271	586.71
439.646	574.73
440.021	615.63
440.395	605.46
440.77	622.86
441.145	635.52
441.52	640.72
441.895	599.14
442.27	637.55
442.645	626.48
443.019	636.65
443.394	660.38
443.769	666.48
444.143	654.28
444.518	673.71
444.892	643.88
445.267	676.2
445.641	674.62
446.016	692.24
446.39	682.52
446.764	688.85
447.139	699.93
447.513	687.95
447.887	712.81
448.262	714.16
448.636	704.44
449.01	722.52
449.384	697.44
449.758	725.91
450.132	706.7
450.506	697.21
450.88	729.3
451.254	745.35
451.628	728.4
452.002	726.14
452.376	751.68
452.75	773.14
453.123	766.14
453.497	761.39
453.871	773.37
454.244	768.85
454.618	793.71
454.992	770.43
455.365	796.42
455.739	805.91
456.112	791.9
456.486	823.31
456.859	813.37
457.232	829.19
457.606	844.78
457.979	814.72
458.352	874.61
458.725	851.79
459.099	869.41
459.472	839.13
459.845	873.25
460.218	875.97
460.591	889.98
460.964	870.09
461.337	910.99
461.71	917.77
462.083	898.34
462.456	921.61
462.829	941.27
463.201	927.26
463.574	949.64
463.947	900.82
464.32	949.86
464.692	962.07
465.065	948.05
465.438	965.23
465.81	1000.03
466.183	998.9
466.555	996.87
466.928	986.47
467.3	1010.2
467.672	1026.24
468.045	1033.93
468.417	1033.02
468.789	1031.67
469.161	1035.96
469.534	1052.91
469.906	1086.81
470.278	1079.12
470.65	1087.71
471.022	1097.88
471.394	1096.52
471.766	1126.81
472.138	1111.67
472.51	1120.03
472.882	1156.86
473.253	1151.44
473.625	1149.4
473.997	1194.15
474.369	1212.91
474.74	1195.96
475.112	1187.37
475.484	1228.5
475.855	1205
476.227	1265.11
476.598	1258.55
476.97	1270.08
477.341	1258.55
477.713	1286.35
478.084	1280.02
478.455	1313.24
478.827	1319.8
479.198	1337.2
479.569	1342.62
479.94	1384.65
480.311	1378.78
480.682	1401.6
481.053	1403.64
481.424	1416.06
481.795	1442.28
482.166	1429.85
482.537	1463.97
482.908	1514.59
483.279	1489.28
483.65	1517.53
484.021	1513.69
484.391	1520.92
484.762	1544.65
485.133	1543.07
485.503	1544.65
485.874	1576.29
486.244	1589.17
486.615	1612.67
486.985	1626.23
487.356	1642.27
487.726	1651.09
488.097	1649.05
488.467	1635.27
488.837	1676.62
489.207	1713.91
489.578	1679.79
489.948	1692.22
490.318	1702.61
490.688	1731.08
491.058	1755.94
491.428	1742.61
491.798	1766.11
492.168	1770.86
492.538	1801.14
492.908	1750.52
493.278	1784.87
493.648	1778.31
494.017	1778.99
494.387	1807.92
494.757	1806.34
495.126	1807.69
495.496	1827.58
495.866	1843.62
496.235	1810.4
496.605	1833.91
496.974	1804.53
497.344	1861.48
497.713	1846.56
498.082	1849.27
498.452	1828.71
498.821	1834.36
499.19	1856.73
499.559	1854.25
499.928	1856.05
500.298	1867.13
500.667	1883.17
501.036	1830.29
501.405	1870.29
501.774	1867.35
502.143	1848.6
502.512	1858.54
502.88	1873.45
503.249	1869.61
503.618	1871.42
503.987	1878.65
504.356	1908.71
504.724	1877.97
505.093	1837.07
505.462	1897.41
505.83	1873.45
506.199	1864.87
506.567	1885.88
506.936	1876.62
507.304	1907.58
507.672	1876.39
508.041	1852.66
508.409	1870.29
508.777	1900.57
509.145	1906
509.514	1870.29
509.882	1871.65
510.25	1853.79
510.618	1883.4
510.986	1883.17
511.354	1857.41
511.722	1866.45
512.09	1898.54
512.458	1856.5
512.826	1866.9
513.193	1874.36
513.561	1858.54
513.929	1875.26
514.297	1890.85
514.664	1876.84
515.032	1858.54
515.4	1861.93
515.767	1828.26
516.135	1840.46
516.502	1844.75
516.869	1834.36
517.237	1843.62
517.604	1820.12
517.972	1848.14
518.339	1821.25
518.706	1834.13
519.073	1805.43
519.44	1845.88
519.808	1827.58
520.175	1835.49
520.542	1844.98
520.909	1830.06
521.276	1803.17
521.643	1853.79
522.009	1824.42
522.376	1820.8
522.743	1837.52
523.11	1816.51
523.477	1823.29
523.843	1786
524.21	1812.89
524.577	1824.64
524.943	1795.04
525.31	1782.61
525.676	1816.28
526.043	1806.79
526.409	1798.2
526.776	1821.93
527.142	1810.86
527.508	1786.9
527.874	1821.7
528.241	1781.93
528.607	1803.4
528.973	1785.09
529.339	1790.07
529.705	1784.19
530.071	1780.57
530.437	1777.64
530.803	1777.18
531.169	1805.43
531.535	1764.76
531.901	1765.89
532.267	1752.33
532.632	1763.63
532.998	1768.6
533.364	1763.17
533.73	1738.09
534.095	1754.59
534.461	1743.51
534.826	1764.76
535.192	1737.41
535.557	1759.11
535.923	1762.04
536.288	1723.4
536.653	1733.12
537.019	1727.92
537.384	1744.19
537.749	1705.55
538.114	1720.24
538.479	1709.16
538.845	1695.15
539.21	1683.63
539.575	1715.49
539.94	1672.33
540.305	1701.03
540.67	1706.9
541.034	1680.46
541.399	1670.52
541.764	1649.5
542.129	1661.03
542.494	1652.67
542.858	1659.67
543.223	1621.26
543.587	1670.75
543.952	1644.31
544.316	1623.06
544.681	1599.79
545.045	1629.62
545.41	1622.16
545.774	1633.46
546.138	1624.87
546.503	1599.79
546.867	1567.47
547.231	1606.79
547.595	1591.88
547.959	1623.74
548.324	1588.04
548.688	1566.12
549.052	1567.47
549.416	1559.56
549.779	1586.91
550.143	1541.26
550.507	1539.23
550.871	1550.52
551.235	1534.93
551.599	1548.49
551.962	1522.28
552.326	1528.6
552.689	1554.82
553.053	1547.36
553.417	1531.77
553.78	1508.94
554.143	1516.17
554.507	1475.95
554.87	1497.42
555.234	1505.1
555.597	1498.1
555.96	1509.4
556.323	1494.48
556.686	1482.5
557.05	1500.81
557.413	1479.79
557.776	1456.74
558.139	1480.24
558.502	1465.33
558.865	1489.06
559.228	1465.78
559.59	1446.57
559.953	1465.1
560.316	1454.48
560.679	1468.04
561.041	1494.48
561.404	1454.93
561.767	1480.02
562.129	1441.37
562.492	1466.01
562.854	1489.06
563.217	1471.43
563.579	1466.23
563.941	1460.58
564.304	1465.1
564.666	1454.71
565.028	1473.46
565.39	1490.41
565.753	1503.75
566.115	1506.68
566.477	1465.78
566.839	1480.92
567.201	1484.31
567.563	1492.22
567.925	1483.41
568.287	1443.18
568.648	1480.92
569.01	1483.41
569.372	1488.38
569.734	1467.81
570.095	1485.89
570.457	1493.12
570.819	1476.18
571.18	1491.77
571.542	1525.67
571.903	1500.58
572.265	1532.67
572.626	1514.82
572.987	1513.01
573.349	1507.36
573.71	1492.67
574.071	1523.86
574.432	1548.26
574.794	1518.89
575.155	1529.73
575.516	1528.38
575.877	1555.5
576.238	1522.73
576.599	1539.45
576.96	1581.48
577.32	1524.08
577.681	1547.59
578.042	1549.17
578.403	1540.13
578.763	1532.45
579.124	1555.72
579.485	1535.38
579.845	1528.6
580.206	1559.56
580.566	1562.5
580.927	1569.05
581.287	1570.18
581.648	1581.48
582.008	1562.05
582.368	1579.9
582.728	1572.9
583.089	1576.51
583.449	1553.46
583.809	1574.7
584.169	1587.59
584.529	1590.3
584.889	1581.26
585.249	1576.96
585.609	1589.17
585.969	1611.54
586.329	1565.89
586.688	1591.65
587.048	1585.78
587.408	1587.59
587.768	1601.14
588.127	1578.55
588.487	1566.57
588.846	1603.4
589.206	1577.64
589.565	1592.78
589.925	1592.11
590.284	1590.3
590.643	1599.56
591.003	1578.77
591.362	1601.6
591.721	1579.22
592.08	1625.1
592.44	1616.51
592.799	1620.58
593.158	1613.35
593.517	1606.57
593.876	1598.66
594.235	1601.6
594.593	1579.9
594.952	1592.78
595.311	1586.46
595.67	1594.14
596.029	1608.6
596.387	1604.31
596.746	1602.73
597.104	1577.42
597.463	1594.59
597.822	1586.46
598.18	1590.52
598.538	1583.74
598.897	1589.85
599.255	1592.78
599.613	1587.81
599.972	1628.26
600.33	1589.62
600.688	1595.27
601.046	1578.77
601.404	1562.5
601.762	1611.99
602.12	1569.73
602.478	1614.48
602.836	1609.05
603.194	1584.87
603.552	1583.52
603.91	1583.74
604.268	1590.3
604.625	1575.61
604.983	1583.74
605.341	1594.82
605.698	1590.52
606.056	1579.22
606.413	1575.61
606.771	1579
607.128	1597.3
607.485	1574.7
607.843	1567.02
608.2	1579.68
608.557	1578.09
608.914	1596.62
609.272	1606.34
609.629	1589.62
609.986	1581.03
610.343	1582.84
610.7	1611.09
611.057	1601.6
611.414	1591.2
611.771	1583.74
612.127	1592.78
612.484	1599.34
612.841	1587.81
613.198	1594.14
613.554	1580.13
613.911	1606.79
614.267	1568.6
614.624	1585.78
614.98	1587.36
615.337	1621.71
615.693	1603.4
616.05	1605.89
616.406	1604.76
616.762	1600.24
617.118	1615.83
617.475	1591.65
617.831	1613.8
618.187	1602.27
618.543	1607.02
618.899	1607.02
619.255	1632.78
619.611	1577.64
619.967	1601.14
620.323	1615.38
620.678	1613.12
621.034	1621.26
621.39	1628.26
621.746	1614.48
622.101	1589.85
622.457	1635.95
622.812	1618.55
623.168	1603.86
623.523	1642.5
623.879	1623.97
624.234	1622.84
624.589	1615.83
624.945	1626.23
625.3	1647.47
625.655	1629.39
626.01	1640.69
626.365	1609.51
626.72	1616.29
627.075	1603.86
627.43	1624.42
627.785	1632.56
628.14	1601.6
628.495	1621.48
628.85	1629.17
629.205	1612.9
629.559	1591.43
629.914	1603.86
630.269	1639.34
630.623	1623.06
630.978	1602.73
631.332	1618.32
631.687	1634.36
632.041	1614.48
632.396	1620.8
632.75	1622.16
633.104	1632.33
633.459	1595.49
633.813	1608.6
634.167	1627.58
634.521	1623.52
634.875	1640.47
635.229	1611.77
635.583	1645.21
635.937	1617.19
636.291	1642.27
636.645	1629.62
636.999	1620.8
637.352	1671.2
637.706	1623.06
638.06	1621.48
638.413	1625.32
638.767	1619.67
639.121	1609.73
639.474	1619.9
639.828	1604.99
640.181	1618.32
640.534	1607.25
640.888	1603.4
641.241	1630.3
641.594	1611.31
641.947	1626.91
642.301	1606.79
642.654	1615.61
643.007	1594.14
643.36	1621.71
643.713	1608.38
644.066	1608.83
644.419	1605.66
644.771	1600.01
645.124	1592.33
645.477	1587.59
645.83	1610.18
646.182	1634.14
646.535	1575.83
646.888	1586.91
647.24	1580.13
647.593	1596.62
647.945	1595.04
648.298	1586
648.65	1577.19
649.002	1596.17
649.355	1609.05
649.707	1568.38
650.059	1583.74
650.411	1607.47
650.763	1593.01
651.115	1633.46
651.467	1633.46
651.819	1641.82
652.171	1616.51
652.523	1612.9
652.875	1642.73
653.227	1592.33
653.578	1637.75
653.93	1629.62
654.282	1641.6
654.633	1657.64
654.985	1620.13
655.337	1623.06
655.688	1642.95
656.039	1661.93
656.391	1612.22
656.742	1633.69
657.094	1623.06
657.445	1640.92
657.796	1648.6
658.147	1618.77
658.498	1625.1
658.849	1605.89
659.2	1659.9
659.551	1644.31
659.902	1643.18
660.253	1652.67
660.604	1660.58
660.955	1637.3
661.306	1650.18
661.656	1635.27
662.007	1625.78
662.358	1646.11
662.708	1652.44
663.059	1638.88
663.409	1659
663.76	1656.74
664.11	1663.29
664.461	1651.31
664.811	1621.71
665.161	1638.66
665.511	1633.46
665.862	1671.2
666.212	1661.93
666.562	1663.06
666.912	1652.44
667.262	1666.68
667.612	1649.96
667.962	1619
668.312	1652.89
668.662	1655.61
669.011	1650.86
669.361	1645.66
669.711	1655.38
670.06	1627.58
670.41	1641.6
670.76	1628.49
671.109	1635.95
671.459	1645.44
671.808	1627.58
672.157	1641.14
672.507	1639.56
672.856	1626.91
673.205	1637.3
673.554	1654.02
673.904	1603.86
674.253	1637.3
674.602	1630.07
674.951	1628.26
675.3	1615.83
675.649	1612.67
675.998	1592.11
676.346	1638.66
676.695	1647.7
677.044	1610.41
677.393	1616.51
677.741	1635.04
678.09	1590.52
678.438	1584.87
678.787	1582.61
679.135	1572.22
679.484	1611.31
679.832	1603.86
680.181	1607.25
680.529	1601.6
680.877	1598.88
681.225	1603.18
681.573	1617.64
681.922	1606.79
682.27	1589.17
682.618	1622.61
682.966	1554.59
683.314	1593.91
683.661	1552.56
684.009	1567.7
684.357	1548.26
684.705	1531.09
685.053	1538.55
685.4	1545.33
685.748	1535.38
686.095	1531.32
686.443	1540.81
686.79	1544.2
687.138	1534.71
687.485	1528.6
687.832	1531.54
688.18	1528.38
688.527	1527.25
688.874	1551.2
689.221	1522.95
689.568	1522.95
689.915	1517.3
690.262	1494.71
690.609	1482.73
690.956	1492.22
691.303	1503.75
691.65	1490.64
691.997	1483.86
692.344	1498.1
692.69	1467.36
693.037	1489.96
693.383	1443.41
693.73	1473.92
694.077	1474.37
694.423	1449.28
694.769	1433.92
695.116	1452.67
695.462	1450.87
695.808	1447.7
696.155	1451.77
696.501	1444.31
696.847	1464.88
697.193	1472.33
697.539	1432.79
697.885	1437.08
698.231	1424.2
698.577	1409.51
698.923	1433.24
699.269	1417.19
699.614	1408.61
699.96	1407.7
700.306	1417.19
700.651	1403.18
700.997	1381.72
701.342	1410.41
701.688	1397.76
702.033	1385.33
702.379	1412.67
702.724	1394.37
703.069	1399.57
703.415	1403.64
703.76	1376.74
704.105	1398.66
704.45	1383.52
704.795	1379.23
705.14	1356.63
705.485	1382.84
705.83	1397.76
706.175	1384.2
706.52	1381.94
706.865	1370.64
707.209	1377.2
707.554	1373.35
707.899	1384.43
708.243	1360.02
708.588	1404.09
708.932	1355.5
709.277	1355.95
709.621	1380.81
709.966	1358.66
710.31	1355.73
710.654	1350.3
710.998	1363.18
711.342	1363.64
711.687	1368.16
712.031	1390.98
712.375	1380.13
712.719	1351.89
713.063	1356.63
713.407	1398.89
713.75	1393.47
714.094	1377.65
714.438	1393.01
714.782	1379.68
715.125	1364.09
715.469	1395.05
715.812	1377.2
716.156	1356.86
716.499	1354.6
716.843	1390.75
717.186	1385.56
717.53	1399.34
717.873	1385.1
718.216	1379.68
718.559	1396.63
718.902	1402.73
719.246	1395.5
719.589	1415.39
719.932	1382.84
720.275	1393.92
720.617	1417.42
720.96	1422.62
721.303	1417.87
721.646	1407.7
721.989	1440.92
722.331	1429.4
722.674	1453.58
723.016	1433.01
723.359	1441.6
723.701	1448.61
724.044	1407.7
724.386	1426.01
724.729	1470.07
725.071	1445.89
725.413	1436.18
725.755	1463.07
726.097	1445.44
726.439	1473.92
726.782	1475.72
727.124	1461.04
727.465	1460.81
727.807	1470.07
728.149	1488.15
728.491	1488.83
728.833	1469.4
729.175	1500.36
729.516	1510.75
729.858	1519.34
730.199	1513.46
730.541	1533.8
730.882	1526.34
731.224	1534.48
731.565	1519.11
731.906	1541.94
732.248	1569.51
732.589	1542.39
732.93	1533.8
733.271	1566.34
733.612	1571.54
733.953	1576.29
734.294	1577.42
734.635	1577.19
734.976	1583.74
735.317	1604.31
735.658	1598.66
735.999	1627.13
736.339	1629.17
736.68	1670.07
737.021	1655.38
737.361	1652.67
737.702	1686.79
738.042	1659.22
738.383	1706.45
738.723	1706.9
739.063	1694.7
739.404	1741.71
739.744	1767.47
740.084	1732.67
740.424	1760.91
740.764	1757.3
741.104	1794.13
741.444	1753.68
741.784	1794.59
742.124	1818.99
742.464	1843.85
742.804	1830.29
743.143	1856.5
743.483	1872.55
743.823	1923.17
744.162	1909.61
744.502	1931.53
744.841	1868.48
745.181	1968.82
745.52	1986.67
745.86	2014.01
746.199	2033.22
746.538	2077.06
746.877	2070.96
747.216	2120.68
747.556	2135.59
747.895	2142.15
748.234	2200.9
748.573	2224.63
748.911	2236.38
749.25	2267.34
749.589	2331.75
749.928	2331.97
750.267	2345.31
750.605	2384.17
750.944	2407
751.283	2477.51
751.621	2524.51
751.96	2538.07
752.298	2583.94
752.636	2613.77
752.975	2655.35
753.313	2648.12
753.651	2751.4
753.989	2785.07
754.327	2749.36
754.666	2818.74
755.004	2895.12
755.342	2933.54
755.679	3021.67
756.017	3002.01
756.355	3069.13
756.693	3112.74
757.031	3205.4
757.368	3192.97
757.706	3265.73
758.044	3285.39
758.381	3383.47
758.719	3397.71
759.056	3418.05
759.394	3476.58
759.731	3562.22
760.068	3578.04
760.405	3646.29
760.743	3656.01
761.08	3757.02
761.417	3781.2
761.754	3832.72
762.091	3881.54
762.428	3918.37
762.765	3958.6
763.102	3980.06
763.438	4058.48
763.775	4076.79
764.112	4127.18
764.449	4128.31
764.785	4193.39
765.122	4220.74
765.458	4309.1
765.795	4333.28
766.131	4401.3
766.467	4381.18
766.804	4401.75
767.14	4447.85
767.476	4511.12
767.812	4568.75
768.148	4598.13
768.485	4623.21
768.821	4671.8
769.157	4680.61
769.492	4737.79
769.828	4748.63
770.164	4772.59
770.5	4774.17
770.836	4817.56
771.171	4815.07
771.507	4887.39
771.842	4864.34
