Data from blue_surface_keyboard_FLMS001491_048.txt Node
Date: Tue Feb 07 11:13:11 GMT 2017
User: dcchb
Spectrometer: FLMS00149
Trigger mode: 0
Integration Time (sec): 2.000000E-2
Scans to average: 10
Electric dark correction enabled: true
Nonlinearity correction enabled: false
Boxcar width: 0
XAxis mode: Wavelengths
Number of Pixels in Spectrum: 2048
>>>>>Begin Spectral Data<<<<<
341.393	-20.56
341.776	-20.56
342.16	-20.56
342.543	-60.56
342.927	-56.72
343.31	-71.86
343.693	-84.07
344.077	-73.44
344.46	-59.66
344.843	-43.84
345.226	-35.25
345.61	-29.83
345.993	-18.76
346.376	-5.42
346.759	2.26
347.142	22.37
347.525	38.87
347.908	77.74
348.291	56.95
348.674	95.59
349.057	128.36
349.44	136.04
349.823	136.49
350.206	160.9
350.588	153.67
350.971	200.9
351.354	191.86
351.737	209.26
352.119	213.33
352.502	239.99
352.884	255.36
353.267	256.72
353.65	280.44
354.032	273.44
354.414	284.51
354.797	277.96
355.179	299.65
355.562	301.91
355.944	306.88
356.326	293.78
356.709	317.51
357.091	304.85
357.473	318.18
357.855	314.57
358.238	302.14
358.62	317.28
359.002	306.43
359.384	300.78
359.766	308.01
360.148	324.51
360.53	315.7
360.912	316.15
361.294	278.41
361.676	307.79
362.057	302.14
362.439	301.91
362.821	284.51
363.203	291.74
363.584	305.08
363.966	310.73
364.348	300.11
364.729	292.87
365.111	303.49
365.493	293.1
365.874	301.46
366.256	299.43
366.637	284.74
367.019	297.85
367.4	279.77
367.781	268.02
368.163	284.51
368.544	274.8
368.925	285.19
369.306	287.9
369.688	290.16
370.069	298.52
370.45	286.55
370.831	287.9
371.212	273.67
371.593	288.35
371.974	297.85
372.355	299.2
372.736	292.65
373.117	289.71
373.498	300.11
373.879	289.48
374.26	295.59
374.641	280.67
375.021	286.32
375.402	286.09
375.783	281.8
376.163	292.42
376.544	309.37
376.925	287.9
377.305	289.71
377.686	286.32
378.066	293.33
378.447	302.14
378.827	290.16
379.208	292.42
379.588	291.07
379.968	305.08
380.349	301.01
380.729	289.48
381.109	294
381.489	297.85
381.87	307.34
382.25	293.78
382.63	301.01
383.01	319.99
383.39	313.66
383.77	302.82
384.15	309.82
384.53	318.86
384.91	292.2
385.29	304.85
385.67	317.73
386.049	311.4
386.429	308.24
386.809	327.9
387.189	309.82
387.568	295.13
387.948	310.27
388.328	309.6
388.707	303.27
389.087	286.77
389.466	289.94
389.846	296.04
390.225	317.51
390.605	293.1
390.984	309.6
391.363	325.42
391.743	321.8
392.122	300.11
392.501	302.14
392.881	321.57
393.26	330.61
393.639	323.16
394.018	314.34
394.397	323.38
394.776	335.58
395.155	338.3
395.534	324.29
395.913	337.17
396.292	316.38
396.671	322.48
397.05	324.51
397.429	336.71
397.808	324.74
398.186	328.58
398.565	351.63
398.944	340.33
399.323	335.36
399.701	334.68
400.08	340.1
400.458	329.03
400.837	334.23
401.215	331.97
401.594	338.75
401.972	349.6
402.351	351.63
402.729	352.99
403.107	338.75
403.486	357.96
403.864	347.11
404.242	345.98
404.62	348.69
404.999	349.37
405.377	360.22
405.755	332.65
406.133	347.56
406.511	342.14
406.889	359.76
407.267	337.39
407.645	349.37
408.023	351.4
408.401	359.09
408.779	357.5
409.156	353.89
409.534	382.81
409.912	351.4
410.29	382.36
410.667	370.39
411.045	377.62
411.422	347.56
411.8	357.96
412.178	372.42
412.555	374.23
412.933	359.99
413.31	371.52
413.687	384.85
414.065	386.2
414.442	362.02
414.819	376.49
415.197	380.55
415.574	388.92
415.951	380.55
416.328	375.81
416.705	374.68
417.082	381.91
417.46	385.3
417.837	380.33
418.214	382.59
418.591	385.53
418.967	396.6
419.344	395.47
419.721	403.61
420.098	382.14
420.475	405.19
420.852	407.22
421.228	399.31
421.605	387.79
421.982	416.49
422.358	405.41
422.735	395.47
423.111	416.03
423.488	419.2
423.864	409.71
424.241	417.16
424.617	407.9
424.994	399.31
425.37	440.21
425.746	440.67
426.123	411.06
426.499	417.84
426.875	439.08
427.251	415.81
427.627	431.4
428.003	427.11
428.379	423.04
428.756	450.84
429.132	426.66
429.507	421.23
429.883	429.59
430.259	443.6
430.635	452.64
431.011	445.19
431.387	467.78
431.763	465.3
432.138	456.71
432.514	438.63
432.89	449.25
433.265	450.16
433.641	464.17
434.016	456.71
434.392	453.32
434.767	486.09
435.143	476.15
435.518	472.98
435.894	473.21
436.269	482.02
436.644	494.9
437.02	491.74
437.395	476.37
437.77	488.12
438.145	502.13
438.52	489.25
438.895	512.75
439.271	504.62
439.646	494.22
440.021	519.76
440.395	482.02
440.77	495.58
441.145	506.43
441.52	531.29
441.895	510.04
442.27	514.11
442.645	515.69
443.019	516.37
443.394	490.83
443.769	522.25
444.143	502.81
444.518	503.94
444.892	534.9
445.267	541
445.641	554.79
446.016	551.4
446.39	535.13
446.764	531.74
447.139	515.01
447.513	560.21
447.887	546.88
448.262	534.45
448.636	541.45
449.01	532.87
449.384	550.27
449.758	537.84
450.132	553.66
450.506	562.7
450.88	577.39
451.254	564.96
451.628	581.45
452.002	584.62
452.376	570.38
452.75	582.58
453.123	557.27
453.497	581.91
453.871	586.88
454.244	586.88
454.618	575.35
454.992	597.95
455.365	599.98
455.739	595.92
456.112	599.98
456.486	596.59
456.859	604.5
457.232	608.8
457.606	595.69
457.979	616.93
458.352	616.03
458.725	621.68
459.099	603.6
459.472	627.78
459.845	625.75
460.218	614.67
460.591	644.5
460.964	650.6
461.337	680.89
461.71	636.14
462.083	659.19
462.456	667.33
462.829	686.76
463.201	672.3
463.574	650.83
463.947	670.94
464.32	683.6
464.692	678.17
465.065	687.89
465.438	690.38
465.81	703.71
466.183	699.42
466.555	704.61
466.928	710.72
467.3	699.87
467.672	710.94
468.045	715.46
468.417	727.89
468.789	739.42
469.161	747.1
469.534	758.17
469.906	768.57
470.278	762.92
470.65	765.63
471.022	766.08
471.394	767.44
471.766	784.39
472.138	770.6
472.51	787.78
472.882	808.34
473.253	808.34
473.625	815.35
473.997	819.19
474.369	812.86
474.74	828.23
475.112	869.36
475.484	854.21
475.855	854.21
476.227	859.41
476.598	876.36
476.97	855.57
477.341	887.21
477.713	917.04
478.084	880.65
478.455	933.76
478.827	928.56
479.198	911.39
479.569	937.38
479.94	959.3
480.311	950.03
480.682	961.78
481.053	997.04
481.424	1001.33
481.795	1003.36
482.166	999.3
482.537	1012.4
482.908	989.58
483.279	1011.05
483.65	1043.81
484.021	1035.23
484.391	1057.15
484.762	1076.58
485.133	1046.75
485.503	1079.52
485.874	1086.98
486.244	1093.08
486.615	1116.81
486.985	1116.58
487.356	1149.8
487.726	1129.01
488.097	1147.09
488.467	1126.98
488.837	1137.6
489.207	1133.3
489.578	1168.1
489.948	1192.74
490.318	1172.4
490.688	1178.5
491.058	1200.19
491.428	1191.38
491.798	1221.89
492.168	1233.41
492.538	1230.7
492.908	1224.6
493.278	1265.28
493.648	1230.48
494.017	1246.07
494.387	1257.59
494.757	1266.63
495.126	1292.4
495.496	1318.61
495.866	1288.1
496.235	1279.74
496.605	1273.86
496.974	1272.73
497.344	1296.92
497.713	1321.1
498.082	1289.46
498.452	1324.03
498.821	1307.08
499.19	1315.9
499.559	1337.37
499.928	1303.92
500.298	1334.88
500.667	1340.98
501.036	1323.81
501.405	1360.19
501.774	1355.22
502.143	1346.18
502.512	1342.34
502.88	1366.29
503.249	1350.25
503.618	1344.6
503.987	1352.51
504.356	1391.15
504.724	1367.65
505.093	1351.38
505.462	1379.85
505.83	1343.47
506.199	1380.3
506.567	1364.03
506.936	1367.65
507.304	1413.52
507.672	1397.7
508.041	1399.74
508.409	1378.49
508.777	1389.79
509.145	1419.17
509.514	1394.31
509.882	1410.36
510.25	1415.33
510.618	1422.11
510.986	1402.67
511.354	1434.09
511.722	1412.39
512.09	1441.54
512.458	1424.82
512.826	1459.4
513.193	1429.79
513.561	1465.72
513.929	1437.02
514.297	1438.15
514.664	1451.26
515.032	1456.91
515.4	1449.23
515.767	1453.75
516.135	1475.67
516.502	1461.88
516.869	1444.71
517.237	1467.98
517.604	1460.3
517.972	1477.25
518.339	1457.81
518.706	1469.11
519.073	1480.19
519.44	1453.3
519.808	1474.99
520.175	1467.53
520.542	1486.29
520.909	1487.42
521.276	1484.71
521.643	1460.53
522.009	1506.63
522.376	1504.37
522.743	1505.5
523.11	1520.86
523.477	1508.43
523.843	1519.28
524.21	1525.61
524.577	1552.5
524.943	1535.78
525.31	1541.2
525.676	1538.26
526.043	1533.07
526.409	1535.1
526.776	1552.73
527.142	1557.7
527.508	1566.06
527.874	1576.46
528.241	1562.9
528.607	1577.36
528.973	1539.62
529.339	1552.95
529.705	1568.77
530.071	1572.61
530.437	1580.3
530.803	1602.9
531.169	1590.24
531.535	1587.75
531.901	1560.86
532.267	1597.02
532.632	1576.68
532.998	1578.49
533.364	1597.47
533.73	1583.01
534.095	1593.18
534.461	1610.13
534.826	1628.43
535.192	1580.3
535.557	1612.39
535.923	1614.19
536.288	1587.98
536.653	1614.42
537.019	1625.49
537.384	1614.42
537.749	1616.68
538.114	1654.19
538.479	1603.35
538.845	1615.55
539.21	1611.26
539.575	1606.51
539.94	1634.31
540.305	1620.75
540.67	1613.29
541.034	1618.04
541.399	1601.31
541.764	1628.43
542.129	1635.44
542.494	1620.3
542.858	1632.27
543.223	1623.23
543.587	1648.32
543.952	1611.94
544.316	1635.21
544.681	1607.42
545.045	1623.46
545.41	1628.21
545.774	1614.87
546.138	1634.08
546.503	1620.07
546.867	1613.29
547.231	1639.28
547.595	1636.12
547.959	1613.29
548.324	1638.37
548.688	1628.43
549.052	1631.14
549.416	1632.5
549.779	1655.78
550.143	1623.69
550.507	1639.28
550.871	1642.67
551.235	1661.88
551.599	1641.99
551.962	1661.88
552.326	1638.15
552.689	1657.13
553.053	1637.7
553.417	1619.17
553.78	1653.97
554.143	1643.12
554.507	1679.96
554.87	1657.13
555.234	1663.91
555.597	1639.5
555.96	1655.1
556.323	1649.67
556.686	1659.17
557.05	1641.31
557.413	1662.33
557.776	1644.02
558.139	1676.11
558.502	1687.19
558.865	1660.52
559.228	1698.26
559.59	1667.75
559.953	1673.4
560.316	1697.36
560.679	1686.96
561.041	1665.72
561.404	1688.09
561.767	1703.46
562.129	1699.39
562.492	1696.9
562.854	1721.54
563.217	1690.8
563.579	1719.5
563.941	1697.81
564.304	1757.02
564.666	1702.78
565.028	1716.34
565.39	1742.78
565.753	1727.19
566.115	1750.01
566.477	1737.81
566.839	1715.89
567.201	1759.05
567.563	1735.55
567.925	1742.55
568.287	1740.52
568.648	1738.94
569.01	1744.13
569.372	1775.09
569.734	1752.5
570.095	1768.77
570.457	1764.25
570.819	1767.64
571.18	1804.25
571.542	1778.48
571.903	1786.39
572.265	1788.2
572.626	1763.12
572.987	1782.1
573.349	1780.07
573.71	1783.46
574.071	1765.6
574.432	1787.07
574.794	1815.09
575.155	1808.31
575.516	1780.29
575.877	1830.91
576.238	1785.72
576.599	1796.34
576.96	1843.79
577.32	1806.28
577.681	1820.52
578.042	1810.35
578.403	1804.7
578.763	1823.91
579.124	1805.38
579.485	1789.11
579.845	1848.31
580.206	1835.66
580.566	1825.94
580.927	1835.66
581.287	1837.24
581.648	1831.82
582.008	1833.85
582.368	1867.75
582.728	1835.88
583.089	1825.26
583.449	1790.69
583.809	1863
584.169	1859.39
584.529	1827.52
584.889	1837.47
585.249	1826.62
585.609	1832.95
585.969	1870.23
586.329	1843.34
586.688	1831.14
587.048	1856.22
587.408	1857.8
587.768	1858.93
588.127	1849.89
588.487	1851.48
588.846	1824.58
589.206	1863.68
589.565	1856.67
589.925	1862.1
590.284	1870.91
590.643	1862.55
591.003	1847.18
591.362	1848.76
591.721	1879.72
592.08	1859.61
592.44	1868.65
592.799	1866.84
593.158	1868.65
593.517	1853.06
593.876	1865.49
594.235	1845.38
594.593	1867.97
594.952	1862.55
595.311	1844.92
595.67	1859.16
596.029	1881.08
596.387	1881.53
596.746	1878.82
597.104	1851.02
597.463	1860.52
597.822	1895.09
598.18	1892.83
598.538	1863.45
598.897	1844.02
599.255	1869.33
599.613	1883.79
599.972	1869.1
600.33	1894.19
600.688	1859.16
601.046	1882.89
601.404	1905.71
601.762	1923.57
602.12	1918.82
602.478	1909.55
602.836	1895.77
603.194	1867.07
603.552	1920.18
603.91	1872.95
604.268	1917.69
604.625	1905.26
604.983	1938.25
605.341	1885.83
605.698	1938.48
606.056	1921.08
606.413	1898.03
606.771	1934.41
607.128	1920.4
607.485	1886.96
607.843	1921.98
608.2	1921.31
608.557	1956.33
608.914	1940.06
609.272	1935.09
609.629	1958.14
609.986	1964.47
610.343	1936.9
610.7	1957.69
611.057	1953.62
611.414	1955.88
611.771	1961.76
612.127	1946.16
612.484	1979.61
612.841	1992.94
613.198	1977.12
613.554	1964.47
613.911	1988.2
614.267	1985.48
614.624	1991.81
614.98	1970.34
615.337	2040.85
615.693	1974.41
616.05	1968.76
616.406	1986.61
616.762	2004.02
617.118	2000.17
617.475	1981.42
617.831	2015.77
618.187	2046.5
618.543	2028.87
618.899	2035.2
619.255	2043.34
619.611	2060.96
619.967	2019.61
620.323	2059.38
620.678	2019.38
621.034	2030.91
621.39	2037.23
621.746	2039.04
622.101	2063.45
622.457	2046.27
622.812	2048.08
623.168	2025.48
623.523	2043.11
623.879	2032.71
624.234	2041.08
624.589	2039.49
624.945	2071.13
625.3	2055.77
625.655	2037.91
626.01	2092.37
626.365	2060.06
626.72	2087.63
627.075	2093.96
627.43	2063.67
627.785	2066.16
628.14	2104.58
628.495	2098.02
628.85	2080.85
629.205	2103.9
629.559	2118.14
629.914	2096.22
630.269	2084.01
630.623	2114.29
630.978	2093.05
631.332	2098.93
631.687	2089.44
632.041	2100.51
632.396	2140.96
632.75	2123.33
633.104	2086.5
633.459	2098.25
633.813	2094.41
634.167	2141.19
634.521	2133.28
634.875	2122.2
635.229	2158.59
635.583	2140.28
635.937	2149.77
636.291	2140.06
636.645	2154.29
636.999	2167.85
637.352	2164.24
637.706	2157.68
638.06	2174.41
638.413	2177.34
638.767	2145.93
639.121	2170.79
639.474	2162.2
639.828	2175.08
640.181	2168.08
640.534	2188.42
640.888	2190.22
641.241	2188.64
641.594	2220.05
641.947	2242.65
642.301	2240.17
642.654	2228.87
643.007	2241.07
643.36	2243.33
643.713	2251.69
644.066	2256.66
644.419	2249.88
644.771	2248.53
645.124	2239.72
645.477	2239.26
645.83	2206.27
646.182	2217.79
646.535	2240.85
646.888	2251.69
647.24	2232.94
647.593	2270
647.945	2266.61
648.298	2258.02
648.65	2281.75
649.002	2279.49
649.355	2285.14
649.707	2313.61
650.059	2302.31
650.411	2377.56
650.763	2363.55
651.115	2403.55
651.467	2386.15
651.819	2407.85
652.171	2416.89
652.523	2401.29
652.875	2430.9
653.227	2421.41
653.578	2458.01
653.93	2421.41
654.282	2449.88
654.633	2454.4
654.985	2463.44
655.337	2458.47
655.688	2517
656.039	2510.44
656.391	2494.85
656.742	2521.74
657.094	2527.84
657.445	2555.19
657.796	2581.4
658.147	2583.21
658.498	2573.72
658.849	2603.77
659.2	2625.47
659.551	2580.27
659.902	2603.1
660.253	2637.44
660.604	2653.49
660.955	2651.23
661.306	2678.57
661.656	2671.57
662.007	2671.57
662.358	2674.73
662.708	2703.21
663.059	2756.09
663.409	2721.96
663.76	2742.98
664.11	2759.48
664.461	2777.55
664.811	2789.31
665.161	2771.23
665.511	2812.13
665.862	2825.46
666.212	2875.4
666.562	2842.64
666.912	2870.66
667.262	2844.9
667.612	2878.79
667.962	2874.73
668.312	2897.1
668.662	2924.89
669.011	2932.8
669.361	2969.41
669.711	2962.63
670.06	2966.02
670.41	3002.41
670.76	2987.04
671.109	3004.89
671.459	3013.25
671.808	3029.75
672.157	3055.29
672.507	3021.62
672.856	3034.5
673.205	3082.18
673.554	3063.42
673.904	3098
674.253	3094.38
674.602	3096.87
674.951	3109.75
675.3	3092.35
675.649	3141.16
675.998	3148.62
676.346	3181.39
676.695	3240.82
677.044	3194.04
677.393	3178.45
677.741	3276.52
678.09	3253.25
678.438	3227.03
678.787	3242.85
679.135	3260.03
679.484	3248.5
679.832	3302.29
680.181	3286.92
680.529	3334.38
680.877	3321.27
681.225	3333.02
681.573	3390.42
681.922	3351.32
682.27	3341.83
682.618	3375.28
682.966	3389.97
683.314	3396.97
683.661	3395.16
684.009	3346.35
684.357	3356.07
684.705	3416.18
685.053	3380.93
685.4	3432.23
685.748	3429.06
686.095	3422.96
686.443	3439.68
686.79	3458.89
687.138	3460.47
687.485	3443.3
687.832	3498.44
688.18	3495.5
688.527	3462.06
688.874	3513.13
689.221	3488.27
689.568	3505.67
689.915	3577.53
690.262	3476.74
690.609	3497.08
690.956	3484.65
691.303	3517.2
691.65	3475.84
691.997	3540.02
692.344	3507.03
692.69	3532.34
693.037	3540.02
693.383	3495.28
693.73	3538.44
694.077	3482.17
694.423	3534.82
694.769	3534.82
695.116	3521.26
695.462	3511.09
695.808	3575.73
696.155	3536.86
696.501	3536.86
696.847	3506.8
697.193	3552.67
697.539	3577.53
697.885	3539.12
698.231	3527.59
698.577	3500.25
698.923	3509.29
699.269	3487.37
699.614	3497.99
699.96	3474.03
700.306	3494.6
700.651	3475.16
700.997	3495.95
701.342	3538.66
701.688	3476.07
702.033	3514.26
702.379	3519
702.724	3506.57
703.069	3469.06
703.415	3450.08
703.76	3494.37
704.105	3467.03
704.45	3491.66
704.795	3479.23
705.14	3451.21
705.485	3464.54
705.83	3491.21
706.175	3428.16
706.52	3448.04
706.865	3484.65
707.209	3458.89
707.554	3457.99
707.899	3472
708.243	3424.32
708.588	3422.51
708.932	3430.64
709.277	3450.3
709.621	3469.06
709.966	3421.6
710.31	3417.54
710.654	3374.83
710.998	3403.53
711.342	3423.64
711.687	3394.04
712.031	3382.51
712.375	3383.64
712.719	3439.01
713.063	3385.67
713.407	3420.7
713.75	3373.02
714.094	3398.1
714.438	3371.89
714.782	3420.48
715.125	3368.95
715.469	3418.67
715.812	3401.27
716.156	3394.94
716.499	3369.18
716.843	3404.43
717.186	3409.63
717.53	3420.02
717.873	3407.59
718.216	3367.37
718.559	3390.19
718.902	3394.94
719.246	3387.71
719.589	3386.35
719.932	3337.09
720.275	3396.75
720.617	3361.72
720.96	3334.6
721.303	3383.41
721.646	3383.19
721.989	3366.24
722.331	3370.31
722.674	3397.2
723.016	3389.52
723.359	3399.46
723.701	3367.37
724.044	3366.92
724.386	3392.45
724.729	3423.86
725.071	3417.09
725.413	3416.86
725.755	3407.14
726.097	3400.59
726.439	3400.59
726.782	3389.29
727.124	3387.26
727.465	3425.9
727.807	3436.29
728.149	3376.41
728.491	3408.95
728.833	3388.16
729.175	3352.91
729.516	3416.86
729.858	3419.57
730.199	3435.39
730.541	3439.23
730.882	3385.9
731.224	3454.82
731.565	3399.68
731.906	3394.94
732.248	3405.11
732.589	3418.67
732.93	3403.3
733.271	3425.9
733.612	3460.02
733.953	3424.09
734.294	3464.54
734.635	3441.04
734.976	3431.32
735.317	3473.81
735.658	3397.88
735.999	3465.45
736.339	3440.14
736.68	3498.67
737.021	3483.07
737.361	3482.62
737.702	3516.97
738.042	3508.38
738.383	3460.47
738.723	3515.39
739.063	3484.43
739.404	3509.96
739.744	3501.83
740.084	3502.28
740.424	3556.74
740.764	3549.29
741.104	3537.76
741.444	3565.1
741.784	3578.89
742.124	3584.09
742.464	3607.59
742.804	3565.78
743.143	3611.88
743.483	3597.87
743.823	3583.41
744.162	3616.18
744.502	3610.75
744.841	3631.54
745.181	3639.9
745.52	3634.25
745.86	3660.92
746.199	3723.52
746.538	3683.07
746.877	3734.82
747.216	3718.77
747.556	3694.59
747.895	3761.93
748.234	3765.78
748.573	3794.02
748.911	3759.68
749.25	3808.49
749.589	3807.58
749.928	3868.82
750.267	3828.6
750.605	3849.62
750.944	3907.47
751.283	3911.76
751.621	3950.86
751.96	3938.65
752.298	3958.09
752.636	3976.17
752.975	3974.13
753.313	3967.35
753.651	4017.52
753.989	4055.49
754.327	4050.29
754.666	4065.66
755.004	4095.94
755.342	4112.43
755.679	4165.31
756.017	4152.21
756.355	4154.47
756.693	4155.14
757.031	4209.15
757.368	4181.36
757.706	4272.66
758.044	4252.09
758.381	4243.73
758.719	4253.45
759.056	4268.36
759.394	4327.12
759.731	4265.42
760.068	4308.59
760.405	4317.85
760.743	4388.36
761.08	4301.58
761.417	4355.59
761.754	4411.41
762.091	4376.16
762.428	4392.88
762.765	4364.86
763.102	4411.86
763.438	4440.34
763.775	4443.27
764.112	4423.16
764.449	4462.26
764.785	4418.64
765.122	4379.09
765.458	4391.3
765.795	4399.43
766.131	4446.21
766.467	4454.57
766.804	4466.55
767.14	4444.4
767.476	4429.26
767.812	4449.83
768.148	4490.28
768.485	4462.48
768.821	4448.02
769.157	4436.95
769.492	4505.19
769.828	4489.6
770.164	4476.72
770.5	4484.4
770.836	4478.53
771.171	4411.86
771.507	4422.48
771.842	4435.82
772.178	4446.21
772.513	4451.18
