Data from blue_clamp_base_FLMS001491_00028.txt Node
Date: Wed Feb 08 15:15:47 GMT 2017
User: dcchb
Spectrometer: FLMS00149
Trigger mode: 0
Integration Time (sec): 2.000000E-2
Scans to average: 10
Electric dark correction enabled: true
Nonlinearity correction enabled: false
Boxcar width: 0
XAxis mode: Wavelengths
Number of Pixels in Spectrum: 2048
>>>>>Begin Spectral Data<<<<<
341.393	-8.4
341.776	-8.4
342.16	-8.4
342.543	-70.77
342.927	-79.59
343.31	-64.67
343.693	-75.52
344.077	-53.83
344.46	-79.59
344.843	-66.03
345.226	-27.84
345.61	-23.54
345.993	-14.28
346.376	-1.17
346.759	4.48
347.142	37.47
347.525	46.06
347.908	42.89
348.291	66.85
348.674	97.58
349.057	111.14
349.44	127.41
349.823	137.81
350.206	161.54
350.588	198.14
350.971	222.32
351.354	214.87
351.737	240.4
352.119	225.71
352.502	251.7
352.884	246.28
353.267	286.5
353.65	277.69
354.032	293.74
354.414	316.11
354.797	320.85
355.179	328.54
355.562	317.46
355.944	332.38
356.326	338.48
356.709	334.41
357.091	308.65
357.473	325.37
357.855	343
358.238	335.32
358.62	335.09
359.002	339.16
359.384	335.77
359.766	355.2
360.148	311.14
360.53	338.25
360.912	329.21
361.294	323.56
361.676	338.71
362.057	328.31
362.439	322.21
362.821	319.72
363.203	316.11
363.584	309.1
363.966	312.72
364.348	313.85
364.729	328.08
365.111	319.27
365.493	301.19
365.874	330.34
366.256	319.05
366.637	288.31
367.019	312.04
367.4	305.26
367.781	311.81
368.163	295.32
368.544	306.84
368.925	309.78
369.306	298.03
369.688	313.4
370.069	298.71
370.45	312.72
370.831	311.36
371.212	314.53
371.593	329.89
371.974	297.8
372.355	305.26
372.736	315.88
373.117	314.53
373.498	304.81
373.879	312.72
374.26	290.12
374.641	309.78
375.021	291.25
375.402	310.68
375.783	307.97
376.163	322.21
376.544	326.73
376.925	330.12
377.305	318.37
377.686	341.64
378.066	326.5
378.447	318.82
378.827	331.93
379.208	303.9
379.588	325.82
379.968	305.49
380.349	335.32
380.729	326.05
381.109	326.73
381.489	324.47
381.87	328.08
382.25	351.13
382.63	330.8
383.01	349.78
383.39	344.13
383.77	334.19
384.15	318.14
384.53	349.1
384.91	335.09
385.29	327.18
385.67	340.97
386.049	351.59
386.429	357.01
386.809	356.56
387.189	344.58
387.568	343.9
387.948	377.12
388.328	350.46
388.707	346.39
389.087	378.48
389.466	377.35
389.846	369.67
390.225	368.99
390.605	366.95
390.984	354.75
391.363	382.77
391.743	372.6
392.122	382.55
392.501	384.58
392.881	367.41
393.26	398.59
393.639	384.13
394.018	388.2
394.397	402.43
394.776	399.04
395.155	401.08
395.534	396.56
395.913	399.95
396.292	392.49
396.671	402.66
397.05	407.4
397.429	418.03
397.808	419.61
398.186	432.71
398.565	427.97
398.944	436.56
399.323	427.97
399.701	433.17
400.08	431.36
400.458	432.26
400.837	448.76
401.215	452.6
401.594	446.73
401.972	462.32
402.351	466.84
402.729	470.23
403.107	454.18
403.486	459.38
403.864	478.14
404.242	465.48
404.62	507.06
404.999	502.77
405.377	494.18
405.755	514.52
406.133	499.15
406.511	499.83
406.889	519.72
407.267	533.5
407.645	515.88
408.023	533.05
408.401	507.74
408.779	550.68
409.156	538.02
409.534	573.5
409.912	535.08
410.29	567.17
410.667	542.09
411.045	591.58
411.422	573.95
411.8	563.33
412.178	616.21
412.555	595.2
412.933	597.23
413.31	599.04
413.687	638.36
414.065	633.39
414.442	617.34
414.819	588.64
415.197	634.29
415.574	637.23
415.951	662.31
416.328	662.31
416.705	672.93
417.082	677.45
417.46	672.93
417.837	680.39
418.214	704.35
418.591	675.87
418.967	676.78
419.344	693.72
419.721	699.6
420.098	715.87
420.475	736.89
420.852	724.91
421.228	738.92
421.605	731.69
421.982	761.75
422.358	736.66
422.735	754.06
423.111	737.57
423.488	809.43
423.864	785.02
424.241	780.5
424.617	796.32
424.994	793.16
425.37	806.94
425.746	801.97
426.123	816.89
426.499	843.1
426.875	855.75
427.251	841.97
427.627	876.09
428.003	882.42
428.379	899.14
428.756	878.35
429.132	908.86
429.507	906.15
429.883	940.72
430.259	933.49
430.635	944.11
431.011	944.34
431.387	975.07
431.763	1000.61
432.138	1001.29
432.514	1011
432.89	1030.89
433.265	1026.37
433.641	1052.81
434.016	1064.56
434.392	1078.12
434.767	1084.22
435.143	1094.62
435.518	1096.65
435.894	1131.23
436.269	1126.26
436.644	1139.59
437.02	1169.64
437.395	1157.67
437.77	1176.2
438.145	1220.72
438.52	1191.56
438.895	1214.84
439.271	1219.36
439.646	1209.42
440.021	1243.77
440.395	1295.29
440.77	1239.93
441.145	1259.59
441.52	1333.03
441.895	1305.01
442.27	1323.09
442.645	1334.39
443.019	1366.48
443.394	1343.43
443.769	1342.75
444.143	1355.4
444.518	1377.1
444.892	1379.36
445.267	1411.9
445.641	1403.08
446.016	1422.75
446.39	1448.06
446.764	1449.41
447.139	1432.46
447.513	1472.46
447.887	1476.75
448.262	1497.77
448.636	1505.91
449.01	1528.73
449.384	1526.25
449.758	1540.48
450.132	1552.01
450.506	1585.68
450.88	1566.02
451.254	1566.92
451.628	1635.62
452.002	1616.86
452.376	1622.29
452.75	1653.93
453.123	1650.99
453.497	1687.14
453.871	1686.01
454.244	1704.77
454.618	1739.57
454.992	1757.43
455.365	1781.83
455.739	1821.83
456.112	1844.65
456.486	1830.19
456.859	1862.51
457.232	1869.29
457.606	1878.33
457.979	1873.13
458.352	1946.8
458.725	1960.36
459.099	1992.9
459.472	2036.97
459.845	2043.52
460.218	2044.42
460.591	2056.17
460.964	2102.73
461.337	2095.5
461.71	2140.69
462.083	2167.58
462.456	2175.72
462.829	2200.58
463.201	2190.63
463.574	2214.36
463.947	2257.07
464.32	2297.75
464.692	2318.54
465.065	2329.84
465.438	2344.53
465.81	2353.57
466.183	2413.23
466.555	2446.67
466.928	2462.04
467.3	2436.96
467.672	2498.65
468.045	2517.86
468.417	2541.36
468.789	2561.02
469.161	2613.22
469.534	2642.15
469.906	2668.36
470.278	2710.62
470.65	2692.99
471.022	2786.1
471.394	2794.01
471.766	2814.12
472.138	2856.38
472.51	2923.72
472.882	2937.96
473.253	2987.45
473.625	2995.81
473.997	3089.82
474.369	3075.81
474.74	3113.55
475.112	3183.6
475.484	3174.79
475.855	3259.08
476.227	3250.72
476.598	3355.35
476.97	3335.46
477.341	3438.96
477.713	3458.4
478.084	3486.19
478.455	3582.91
478.827	3617.26
479.198	3667.88
479.569	3685.96
479.94	3745.85
480.311	3760.08
480.682	3844.83
481.053	3901.78
481.424	3975.9
481.795	3963.02
482.166	4083.92
482.537	4061.09
482.908	4151.03
483.279	4179.51
483.65	4232.16
484.021	4326.62
484.391	4328.66
484.762	4374.31
485.133	4383.57
485.503	4426.73
485.874	4511.03
486.244	4519.84
486.615	4623.79
486.985	4670.34
487.356	4744.69
487.726	4719.38
488.097	4773.39
488.467	4794.86
488.837	4893.16
489.207	4903.78
489.578	4988.08
489.948	5007.51
490.318	5045.25
490.688	5082.08
491.058	5085.02
491.428	5187.84
491.798	5181.97
492.168	5286.37
492.538	5281.63
492.908	5354.17
493.278	5391
493.648	5410.44
494.017	5435.07
494.387	5462.19
494.757	5485.92
495.126	5552.58
495.496	5516.42
495.866	5526.82
496.235	5569.53
496.605	5626.93
496.974	5600.94
497.344	5683.2
497.713	5640.26
498.082	5715.06
498.452	5822.63
498.821	5755.29
499.19	5768.62
499.559	5804.78
499.928	5843.42
500.298	5816.53
500.667	5909.18
501.036	5899.46
501.405	5927.26
501.774	5911.67
502.143	6002.06
502.512	5961.61
502.88	5985.34
503.249	5964.55
503.618	6052.23
503.987	6042.96
504.356	6072.79
504.724	6080.93
505.093	6146.24
505.462	6136.07
505.83	6122.51
506.199	6197.08
506.567	6263.97
506.936	6186.69
507.304	6284.31
507.672	6230.98
508.041	6290.87
508.409	6345.55
508.777	6381.26
509.145	6346.91
509.514	6416.96
509.882	6440.69
510.25	6449.96
510.618	6466.23
510.986	6429.62
511.354	6488.37
511.722	6561.82
512.09	6566.34
512.458	6573.57
512.826	6607.92
513.193	6543.74
513.561	6600.46
513.929	6656.51
514.297	6724.98
514.664	6725.2
515.032	6687.24
515.4	6750.97
515.767	6733.34
516.135	6787.35
516.502	6750.74
516.869	6800
517.237	6884.75
517.604	6832.32
517.972	6884.07
518.339	6910.06
518.706	6921.81
519.073	6908.48
519.44	6934.92
519.808	6986.21
520.175	6939.21
520.542	7087.45
520.909	7035.25
521.276	7084.07
521.643	7127.68
522.009	7123.61
522.376	7141.92
522.743	7138.3
523.11	7234.57
523.477	7297.62
523.843	7297.84
524.21	7339.65
524.577	7405.64
524.943	7395.24
525.31	7421.91
525.676	7435.02
526.043	7484.96
526.409	7518.86
526.776	7578.06
527.142	7559.53
527.508	7610.6
527.874	7654.67
528.241	7661.68
528.607	7649.7
528.973	7757.27
529.339	7687.21
529.705	7799.98
530.071	7864.84
530.437	7853.31
530.803	7896.93
531.169	7951.16
531.535	7942.57
531.901	7964.04
532.267	7948.45
532.632	8030.93
532.998	8086.75
533.364	8030.93
533.73	8086.52
534.095	8175.79
534.461	8115.22
534.826	8155.45
535.192	8186.86
535.557	8237.48
535.923	8231.38
536.288	8257.37
536.653	8207.88
537.019	8236.58
537.384	8256.24
537.749	8331.26
538.114	8360.87
538.479	8303.69
538.845	8310.47
539.21	8364.48
539.575	8368.78
539.94	8423.01
540.305	8447.19
540.67	8384.14
541.034	8428.44
541.399	8528.32
541.764	8484.25
542.129	8510.47
542.494	8473.18
542.858	8522.45
543.223	8551.82
543.587	8597.02
543.952	8552.5
544.316	8647.41
544.681	8638.15
545.045	8651.26
545.41	8693.74
545.774	8694.42
546.138	8717.02
546.503	8694.42
546.867	8751.82
547.231	8773.06
547.595	8836.34
547.959	8797.47
548.324	8799.73
548.688	8783.46
549.052	8847.63
549.416	8796.79
549.779	8736.23
550.143	8791.36
550.507	8857.13
550.871	8839.27
551.235	8913.85
551.599	8928.99
551.962	8937.35
552.326	8916.11
552.689	9054.18
553.053	8978.48
553.417	8957.24
553.78	8983.9
554.143	9048.08
554.507	9043.11
554.87	9040.62
555.234	9154.52
555.597	9040.17
555.96	9144.12
556.323	9058.7
556.686	9077.69
557.05	9225.93
557.413	9154.29
557.776	9187.29
558.139	9243.33
558.502	9195.42
558.865	9191.58
559.228	9290.11
559.59	9286.04
559.953	9317.23
560.316	9338.47
560.679	9371.01
561.041	9411.69
561.404	9350.67
561.767	9506.37
562.129	9390.9
562.492	9451.01
562.854	9455.75
563.217	9521.74
563.579	9524
563.941	9619.14
564.304	9606.03
564.666	9640.83
565.028	9654.85
565.39	9685.35
565.753	9750.44
566.115	9693.04
566.477	9769.19
566.839	9799.25
567.201	9877.44
567.563	9866.59
567.925	9970.32
568.287	9904.78
568.648	9916.99
569.01	9972.58
569.372	9991.11
569.734	10030.2
570.095	10103.19
570.457	10113.14
570.819	10023.2
571.18	10137.77
571.542	10124.66
571.903	10235.85
572.265	10245.34
572.626	10254.38
572.987	10209.86
573.349	10228.62
573.71	10329.4
574.071	10234.94
574.432	10311.32
574.794	10387.03
575.155	10377.54
575.516	10363.3
575.877	10409.85
576.238	10506.57
576.599	10472.22
576.96	10445.78
577.32	10447.59
577.681	10561.71
578.042	10540.7
578.403	10563.75
578.763	10583.86
579.124	10651.2
579.485	10674.25
579.845	10690.98
580.206	10673.12
580.566	10635.61
580.927	10695.95
581.287	10704.31
581.648	10732.78
582.008	10728.04
582.368	10795.15
582.728	10812.1
583.089	10798.09
583.449	10786.11
583.809	10783.18
584.169	10732.56
584.529	10796.51
584.889	10866.79
585.249	10838.77
585.609	10770.75
585.969	10853.91
586.329	10809.16
586.688	10810.52
587.048	10856.85
587.408	10806.68
587.768	10886
588.127	10783.63
588.487	10874.47
588.846	10979.1
589.206	10813.23
589.565	10823.63
589.925	10939.33
590.284	10900.91
590.643	10908.37
591.003	10944.75
591.362	10907.69
591.721	10960.57
592.08	10933.46
592.44	11046.9
592.799	10917.18
593.158	10971.87
593.517	10977.75
593.876	10982.04
594.235	10993.34
594.593	10908.15
594.952	10994.24
595.311	10897.98
595.67	10947.47
596.029	10998.09
596.387	10995.37
596.746	11085.32
597.104	11106.78
597.463	11038.54
597.822	11129.61
598.18	11027.46
598.538	11050.29
598.897	11169.83
599.255	11057.75
599.613	11138.87
599.972	11155.82
600.33	11148.59
600.688	11106.11
601.046	11174.81
601.404	11156.27
601.762	11118.08
602.12	11114.47
602.478	11172.09
602.836	11163.51
603.194	11117.86
603.552	11166.22
603.91	11141.13
604.268	11208.93
604.625	11116.05
604.983	11180.45
605.341	11104.07
605.698	11202.37
606.056	11207.12
606.413	11210.06
606.771	11293.22
607.128	11282.82
607.485	11216.39
607.843	11291.86
608.2	11307.68
608.557	11399.66
608.914	11261.58
609.272	11348.36
609.629	11378.42
609.986	11353.56
610.343	11300.9
610.7	11415.48
611.057	11401.01
611.414	11360.56
611.771	11482.82
612.127	11483.27
612.484	11403.05
612.841	11443.72
613.198	11466.77
613.554	11466.32
613.911	11513.78
614.267	11560.11
614.624	11549.03
614.98	11539.32
615.337	11570.27
615.693	11558.07
616.05	11572.99
616.406	11565.53
616.762	11569.37
617.118	11556.72
617.475	11551.74
617.831	11631.52
618.187	11638.52
618.543	11652.08
618.899	11734.79
619.255	11704.96
619.611	11728.91
619.967	11715.36
620.323	11783.6
620.678	11657.73
621.034	11681.68
621.39	11670.16
621.746	11719.42
622.101	11800.55
622.457	11800.33
622.812	11833.09
623.168	11845.3
623.523	11803.04
623.879	11852.98
624.234	11742.7
624.589	11842.36
624.945	11899.76
625.3	11851.62
625.655	11887.33
626.01	11927.33
626.365	11906.54
626.72	11844.84
627.075	11925.97
627.43	11952.19
627.785	11966.65
628.14	11958.06
628.495	11969.59
628.85	11987.21
629.205	11965.74
629.559	12080.77
629.914	11975.69
630.269	12032.18
630.623	11946.99
630.978	11897.5
631.332	12029.02
631.687	12061.56
632.041	12054.78
632.396	12065.63
632.75	11995.8
633.104	11985.63
633.459	12033.31
633.813	12078.74
634.167	12046.42
634.521	12067.44
634.875	12045.29
635.229	12076.48
635.583	11968.68
635.937	12064.73
636.291	11966.87
636.645	12100.66
636.999	12040.77
637.352	12138.4
637.706	12079.41
638.06	12073.31
638.413	12085.06
638.767	12071.5
639.121	12156.02
639.474	12029.7
639.828	12005.97
640.181	12129.36
640.534	12080.32
640.888	12010.94
641.241	12064.05
641.594	12095.68
641.947	12149.47
642.301	12144.95
642.654	12123.03
643.007	12214.55
643.36	12133.2
643.713	12042.58
644.066	12185.63
644.419	12177.72
644.771	12212.97
645.124	12046.42
645.477	12090.94
645.83	11950.83
646.182	11953.54
646.535	11965.07
646.888	11916.03
647.24	11788.8
647.593	11843.26
647.945	11764.17
648.298	11776.37
648.65	11777.73
649.002	11768.01
649.355	11982.92
649.707	11951.51
650.059	12085.52
650.411	12204.61
650.763	12194.44
651.115	12307.88
651.467	12273.99
651.819	12281.22
652.171	12355.11
652.523	12253.19
652.875	12254.55
653.227	12298.39
653.578	12365.28
653.93	12423.36
654.282	12407.99
654.633	12289.8
654.985	12395.34
655.337	12373.19
655.688	12292.97
656.039	12461.32
656.391	12310.59
656.742	12367.32
657.094	12352.18
657.445	12485.28
657.796	12452.29
658.147	12473.98
658.498	12331.61
658.849	12462.91
659.2	12475.34
659.551	12396.47
659.902	12362.8
660.253	12466.52
660.604	12473.75
660.955	12378.16
661.306	12594.88
661.656	12472.17
662.007	12477.14
662.358	12515.79
662.708	12521.66
663.059	12494.54
663.409	12441.66
663.76	12562.34
664.11	12512.4
664.461	12523.7
664.811	12553.07
665.161	12518.72
665.511	12470.14
665.862	12489.35
666.212	12562.34
666.562	12613.64
666.912	12512.17
667.262	12450.93
667.612	12535
667.962	12541.32
668.312	12384.72
668.662	12536.13
669.011	12463.36
669.361	12443.25
669.711	12386.98
670.06	12398.28
670.41	12390.82
670.76	12346.07
671.109	12305.17
671.459	12264.04
671.808	12267.43
672.157	12235.34
672.507	12249.35
672.856	12159.64
673.205	12202.35
673.554	12261.33
673.904	12147.66
674.253	12158.96
674.602	12206.42
674.951	11951.96
675.3	11831.96
675.649	12071.28
675.998	12043.71
676.346	12062.24
676.695	12091.62
677.044	11928.01
677.393	12033.99
677.741	12035.35
678.09	11908.35
678.438	11923.49
678.787	11942.69
679.135	11961.9
679.484	11815.24
679.832	11865.18
680.181	11758.97
680.529	11776.6
680.877	11779.99
681.225	11772.08
681.573	11866.09
681.922	11699.09
682.27	11626.54
682.618	11629.48
682.966	11649.59
683.314	11639.88
683.661	11625.87
684.009	11557.39
684.357	11532.76
684.705	11469.49
685.053	11459.77
685.4	11509.03
685.748	11477.4
686.095	11391.07
686.443	11385.87
686.79	11415.02
687.138	11385.65
687.485	11375.25
687.832	11378.19
688.18	11303.84
688.527	11299.32
688.874	11278.76
689.221	11229.49
689.568	11215.48
689.915	11185.2
690.262	11282.6
690.609	11205.31
690.956	11237.85
691.303	11235.37
691.65	11126.44
691.997	11266.55
692.344	11111.98
692.69	11004.87
693.037	11099.55
693.383	10995.6
693.73	11093.9
694.077	10977.07
694.423	11005.32
694.769	10912.21
695.116	10955.38
695.462	10900.24
695.808	10948.37
696.155	10944.75
696.501	10880.58
696.847	10835.6
697.193	10806.23
697.539	10850.75
697.885	10790.41
698.231	10770.07
698.577	10698.21
698.923	10752.9
699.269	10638.1
699.614	10686.46
699.96	10629.73
700.306	10670.41
700.651	10610.53
700.997	10583.86
701.342	10606.68
701.688	10709.73
702.033	10589.28
702.379	10598.1
702.724	10569.17
703.069	10610.07
703.415	10531.21
703.76	10543.64
704.105	10466.8
704.45	10561.26
704.795	10462.73
705.14	10463.86
705.485	10542.05
705.83	10473.35
706.175	10469.96
706.52	10457.54
706.865	10415.95
707.209	10439.91
707.554	10347.93
707.899	10450.08
708.243	10401.49
708.588	10390.87
708.932	10333.25
709.277	10310.42
709.621	10319.69
709.966	10307.03
710.31	10366.69
710.654	10318.78
710.998	10327.37
711.342	10303.19
711.687	10268.16
712.031	10203.76
712.375	10175.96
712.719	10232.23
713.063	10220.03
713.407	10286.47
713.75	10257.99
714.094	10213.47
714.438	10220.71
714.782	10204.21
715.125	10082.18
715.469	10169.86
715.812	10149.3
716.156	10090.54
716.499	10091.67
716.843	10137.32
717.186	10077.66
717.53	10111.33
717.873	10111.56
718.216	10029.52
718.559	10013.71
718.902	9947.04
719.246	10004.21
719.589	9981.84
719.932	10040.6
720.275	10046.93
720.617	10009.64
720.96	10070.88
721.303	9959.02
721.646	10070.88
721.989	9974.16
722.331	10066.59
722.674	10010.32
723.016	9976.87
723.359	9972.8
723.701	9979.58
724.044	9954.5
724.386	9905.91
724.729	9955.63
725.071	9913.6
725.413	9900.26
725.755	9908.17
726.097	9912.01
726.439	9908.4
726.782	9914.73
727.124	9953.37
727.465	9875.4
727.807	9913.14
728.149	9883.77
728.491	9945.46
728.833	9923.54
729.175	9980.49
729.516	9904.78
729.858	9906.59
730.199	9944.55
730.541	9953.14
730.882	9962.86
731.224	9869.08
731.565	9892.35
731.906	9980.26
732.248	9956.31
732.589	9927.61
732.93	9842.64
733.271	9921.05
733.612	9933.03
733.953	9924.22
734.294	9933.03
734.635	9846.25
734.976	9960.83
735.317	9862.98
735.658	9931
735.999	9931.9
736.339	9906.14
736.68	10039.92
737.021	9941.39
737.361	10004.44
737.702	10007.6
738.042	9996.08
738.383	9963.76
738.723	10054.83
739.063	9968.28
739.404	10023.42
739.744	10014.61
740.084	10095.06
740.424	10021.16
740.764	10072.01
741.104	10124.89
741.444	10067.26
741.784	10101.16
742.124	10174.15
742.464	10136.64
742.804	10186.81
743.143	10228.62
743.483	10219.35
743.823	10176.64
744.162	10188.62
744.502	10312
744.841	10310.87
745.181	10258.9
745.52	10312.45
745.86	10341.83
746.199	10315.84
746.538	10362.85
746.877	10421.38
747.216	10377.99
747.556	10441.49
747.895	10498.66
748.234	10390.64
748.573	10424.09
748.911	10526.23
749.25	10508.38
749.589	10547.48
749.928	10569.85
750.267	10593.8
750.605	10690.98
750.944	10608.94
751.283	10583.86
751.621	10576.63
751.96	10683.97
752.298	10665.89
752.636	10689.62
752.975	10603.07
753.313	10631.32
753.651	10763.97
753.989	10764.19
754.327	10722.39
754.666	10754.25
755.004	10873.34
755.342	10854.36
755.679	10890.07
756.017	10878.09
756.355	10864.3
756.693	10888.48
757.031	10933
757.368	10881.71
757.706	10912.21
758.044	10882.16
758.381	10942.72
758.719	10941.59
759.056	11009.39
759.394	11034.7
