Data from blue_clamp_base_FLMS001491_00087.txt Node
Date: Wed Feb 08 15:16:38 GMT 2017
User: dcchb
Spectrometer: FLMS00149
Trigger mode: 0
Integration Time (sec): 2.000000E-2
Scans to average: 10
Electric dark correction enabled: true
Nonlinearity correction enabled: false
Boxcar width: 0
XAxis mode: Wavelengths
Number of Pixels in Spectrum: 2048
>>>>>Begin Spectral Data<<<<<
341.393	1.29
341.776	1.29
342.16	1.29
342.543	-51.82
342.927	-81.42
343.31	-69.45
343.693	-75.55
344.077	-59.73
344.46	-70.8
344.843	-46.4
345.226	-48.88
345.61	-30.8
345.993	-10.47
346.376	1.74
346.759	14.39
347.142	30.66
347.525	59.81
347.908	53.71
348.291	67.72
348.674	88.74
349.057	95.29
349.44	120.38
349.823	115.63
350.206	133.71
350.588	205.8
350.971	221.84
351.354	216.65
351.737	232.47
352.119	284.67
352.502	260.94
352.884	285.8
353.267	280.6
353.65	309.75
354.032	298.68
354.414	332.58
354.797	333.25
355.179	362.63
355.562	335.97
355.944	342.07
356.326	334.16
356.709	363.08
357.091	348.17
357.473	353.59
357.855	352.91
358.238	329.41
358.62	348.17
359.002	341.84
359.384	339.58
359.766	356.08
360.148	357.21
360.53	345.46
360.912	357.66
361.294	346.81
361.676	334.16
362.057	338.23
362.439	348.39
362.821	337.77
363.203	345.46
363.584	347.49
363.966	331.22
364.348	342.52
364.729	326.47
365.111	329.19
365.493	340.71
365.874	348.62
366.256	335.29
366.637	330.77
367.019	320.15
367.4	326.25
367.781	313.59
368.163	323.08
368.544	330.09
368.925	347.26
369.306	347.49
369.688	331.45
370.069	349.52
370.45	341.39
370.831	334.38
371.212	345.01
371.593	327.38
371.974	344.55
372.355	349.75
372.736	342.52
373.117	332.12
373.498	353.82
373.879	336.42
374.26	320.15
374.641	334.38
375.021	332.35
375.402	342.29
375.783	341.84
376.163	384.33
376.544	360.6
376.925	367.83
377.305	373.25
377.686	352.69
378.066	351.33
378.447	352.24
378.827	361.95
379.208	366.02
379.588	363.99
379.968	383.87
380.349	370.09
380.729	368.73
381.109	376.87
381.489	375.96
381.87	373.03
382.25	390.88
382.63	399.01
383.01	389.75
383.39	378.9
383.77	396.98
384.15	405.34
384.53	416.42
384.91	408.51
385.29	411.22
385.67	415.74
386.049	424.33
386.429	420.26
386.809	406.25
387.189	441.5
387.568	437.88
387.948	449.41
388.328	460.03
388.707	450.31
389.087	452.8
389.466	432.91
389.846	435.4
390.225	446.02
390.605	442.63
390.984	452.57
391.363	452.12
391.743	486.24
392.122	485.79
392.501	475.4
392.881	473.36
393.26	492.57
393.639	500.48
394.018	491.67
394.397	509.07
394.776	483.76
395.155	505.45
395.534	500.48
395.913	510.42
396.292	528.73
396.671	548.84
397.05	528.28
397.429	538.67
397.808	540.25
398.186	538.45
398.565	568.28
398.944	564.89
399.323	567.82
399.701	573.93
400.08	587.03
400.458	570.76
400.837	572.57
401.215	622.29
401.594	619.8
401.972	604.66
402.351	620.03
402.729	610.53
403.107	608.95
403.486	643.53
403.864	648.73
404.242	650.53
404.62	674.26
404.999	668.16
405.377	675.17
405.755	656.41
406.133	701.15
406.511	670.19
406.889	713.58
407.267	712.68
407.645	706.58
408.023	710.87
408.401	758.55
408.779	755.16
409.156	768.04
409.534	792.45
409.912	779.12
410.29	793.35
410.667	793.35
411.045	821.6
411.422	843.3
411.8	827.25
412.178	822.05
412.555	847.14
412.933	864.77
413.31	880.13
413.687	903.41
414.065	867.25
414.442	903.18
414.819	917.65
415.197	908.83
415.574	933.69
415.951	931.43
416.328	950.19
416.705	969.85
417.082	975.72
417.46	977.53
417.837	964.65
418.214	1018.89
418.591	1020.69
418.967	974.14
419.344	1024.76
419.721	1075.16
420.098	1054.14
420.475	1062.73
420.852	1068.83
421.228	1061.37
421.605	1090.97
421.982	1125.78
422.358	1115.38
422.735	1122.39
423.111	1128.04
423.488	1168.49
423.864	1149.73
424.241	1178.66
424.617	1192.21
424.994	1191.08
425.37	1221.37
425.746	1207.58
426.123	1261.82
426.499	1249.61
426.875	1275.83
427.251	1285.55
427.627	1298.2
428.003	1323.28
428.379	1358.76
428.756	1361.48
429.132	1369.16
429.507	1377.75
429.883	1410.51
430.259	1432.43
430.635	1420.91
431.011	1452.09
431.387	1500.23
431.763	1510.4
432.138	1523.05
432.514	1572.54
432.89	1562.83
433.265	1571.41
433.641	1605.31
434.016	1620
434.392	1677.17
434.767	1706.1
435.143	1682.82
435.518	1701.13
435.894	1732.77
436.269	1756.95
436.644	1752.88
437.02	1782.71
437.395	1801.46
437.77	1841.91
438.145	1849.82
438.52	1888.02
438.895	1861.58
439.271	1912.87
439.646	1916.94
440.021	1940.9
440.395	1962.59
440.77	1940.44
441.145	2003.72
441.52	2046.2
441.895	2021.57
442.27	2067.67
442.645	2062.93
443.019	2062.47
443.394	2115.35
443.769	2129.82
444.143	2106.77
444.518	2172.3
444.892	2199.65
445.267	2176.14
445.641	2191.51
446.016	2198.97
446.39	2219.08
446.764	2252.53
447.139	2233.99
447.513	2270.15
447.887	2282.13
448.262	2320.32
448.636	2311.96
449.01	2325.52
449.384	2355.35
449.758	2373.88
450.132	2403.93
450.506	2441
450.88	2448
451.254	2422.92
451.628	2490.71
452.002	2526.64
452.376	2518.51
452.75	2563.25
453.123	2553.08
453.497	2598.28
453.871	2629.92
454.244	2681.44
454.618	2737.71
454.992	2767.09
455.365	2733.87
455.739	2800.53
456.112	2870.81
456.486	2825.39
456.859	2883.02
457.232	2923.47
457.606	2934.99
457.979	2984.03
458.352	3050.24
458.725	3051.15
459.099	3069.45
459.472	3103.35
459.845	3149.9
460.218	3182.9
460.591	3212.95
460.964	3256.34
461.337	3322.33
461.71	3377.47
462.083	3423.57
462.456	3361.42
462.829	3427.64
463.201	3452.95
463.574	3530.91
463.947	3543.11
464.32	3589.44
464.692	3680.74
465.065	3677.12
465.438	3762.54
465.81	3757.57
466.183	3747.63
466.555	3869.66
466.928	3880.28
467.3	3913.27
467.672	3934.74
468.045	4101.52
468.417	4033.5
468.789	4114.62
469.161	4098.35
469.534	4203.21
469.906	4259.93
470.278	4282.53
470.65	4335.63
471.022	4471.9
471.394	4546.48
471.766	4531.11
472.138	4548.06
472.51	4679.35
472.882	4733.82
473.253	4771.33
473.625	4873.25
473.997	4947.82
474.369	4974.94
474.74	5016.52
475.112	5122.51
475.484	5158.66
475.855	5222.16
476.227	5235.05
476.598	5372.22
476.97	5426.91
477.341	5527.24
477.713	5613.79
478.084	5645.43
478.455	5758.42
478.827	5848.14
479.198	5977.4
479.569	5972.88
479.94	6136.27
480.311	6167.9
480.682	6324.96
481.053	6448.12
481.424	6456.48
481.795	6529.25
482.166	6630.26
482.537	6693.09
482.908	6777.83
483.279	6872.07
483.65	6955.68
484.021	7045.39
484.391	7147.09
484.762	7181.21
485.133	7242
485.503	7308.21
485.874	7453.29
486.244	7472.28
486.615	7652.61
486.985	7748.88
487.356	7863.68
487.726	7869.55
488.097	7966.27
488.467	7983
488.837	8163.1
489.207	8263.44
489.578	8336.89
489.948	8394.06
490.318	8493.94
490.688	8553.38
491.058	8600.16
491.428	8687.38
491.798	8772.35
492.168	8868.62
492.538	8890.09
492.908	9008.73
493.278	9045.79
493.648	9119.69
494.017	9224.77
494.387	9219.57
494.757	9295.73
495.126	9386.58
495.496	9380.7
495.866	9467.03
496.235	9538.44
496.605	9593.12
496.974	9698.21
497.344	9661.6
497.713	9725.1
498.082	9846.68
498.452	9879.67
498.821	9934.81
499.19	9876.96
499.559	9947.46
499.928	10034.92
500.298	10036.5
500.667	10119.44
501.036	10158.98
501.405	10229.04
501.774	10177.06
502.143	10308.13
502.512	10292.09
502.88	10389.26
503.249	10308.58
503.618	10389.71
503.987	10392.65
504.356	10504.29
504.724	10571.63
505.093	10551.52
505.462	10627.45
505.83	10653.89
506.199	10686.2
506.567	10835.35
506.936	10795.35
507.304	10858.17
507.672	10903.82
508.041	10971.84
508.409	11066.53
508.777	11116.02
509.145	11130.48
509.514	11181.33
509.882	11238.05
510.25	11263.59
510.618	11302.68
510.986	11284.6
511.354	11466.07
511.722	11464.26
512.09	11569.34
512.458	11483.7
512.826	11677.81
513.193	11686.4
513.561	11712.62
513.929	11730.92
514.297	11915.32
514.664	11914.42
515.032	11957.36
515.4	11963
515.767	12090.01
516.135	12064.7
516.502	12020.63
516.869	12198.48
517.237	12222.21
517.604	12192.38
517.972	12360.51
518.339	12381.07
518.706	12411.35
519.073	12482.09
519.44	12546.27
519.808	12641.4
520.175	12653.38
520.542	12681.4
520.909	12768.41
521.276	12801.17
521.643	12860.61
522.009	12917.56
522.376	13034.16
522.743	13113.71
523.11	13213.82
523.477	13342.86
523.843	13356.87
524.21	13539.91
524.577	13530.42
524.943	13585.79
525.31	13641.15
525.676	13729.06
526.043	13802.96
526.409	13929.05
526.776	13974.7
527.142	14059.9
527.508	14080.01
527.874	14167.92
528.241	14231.19
528.607	14259.67
528.973	14421.92
529.339	14322.04
529.705	14456.05
530.071	14560.68
530.437	14645.42
530.803	14744.17
531.169	14743.04
531.535	14733.78
531.901	14779.43
532.267	14936.03
532.632	14912.31
532.998	15035.01
533.364	15173.99
533.73	15166.99
534.095	15243.82
534.461	15190.72
534.826	15343.25
535.192	15457.15
535.557	15482.69
535.923	15452.63
536.288	15592.97
536.653	15648.78
537.019	15535.57
537.384	15711.83
537.749	15704.38
538.114	15754.77
538.479	15814.65
538.845	15958.83
539.21	15894.65
539.575	15863.02
539.94	15949.11
540.305	16078.38
540.67	16081.09
541.034	16172.61
541.399	16246.73
541.764	16221.88
542.129	16253.29
542.494	16286.73
542.858	16343.68
543.223	16362.66
543.587	16518.59
543.952	16451.25
544.316	16456.45
544.681	16453.28
545.045	16612.37
545.41	16669.55
545.774	16699.38
546.138	16658.25
546.503	16691.02
546.867	16749.09
547.231	16978.92
547.595	16925.36
547.959	16971.23
548.324	16980.27
548.688	17065.24
549.052	17001.06
549.416	17147.05
549.779	17138.46
550.143	17204.9
550.507	17311.56
550.871	17312.92
551.235	17307.72
551.599	17438.34
551.962	17494.84
552.326	17489.64
552.689	17598.11
553.053	17547.04
553.417	17641.5
553.78	17794.72
554.143	17637.43
554.507	17862.06
554.87	17811.66
555.234	17975.95
555.597	17939.8
555.96	17942.51
556.323	18097.31
556.686	18028.38
557.05	18156.51
557.413	18259.11
557.776	18266.34
558.139	18350.86
558.502	18413.23
558.865	18292.56
559.228	18460.46
559.59	18557.63
559.953	18628.59
560.316	18731.64
560.679	18709.49
561.041	18803.95
561.404	18914.46
561.767	19001.69
562.129	18880.11
562.492	19138.64
562.854	19154.68
563.217	19114.23
563.579	19252.98
563.941	19325.07
564.304	19356.26
564.666	19580.21
565.028	19510.83
565.39	19503.82
565.753	19811.39
566.115	19932.74
566.477	19851.38
566.839	19861.78
567.201	20064.49
567.563	20030.14
567.925	20197.36
568.287	20160.08
568.648	20174.99
569.01	20287.98
569.372	20472.16
569.734	20347.87
570.095	20542.67
570.457	20534.76
570.819	20504.7
571.18	20567.75
571.542	20856.56
571.903	20833.05
572.265	20782.21
572.626	20892.71
572.987	20910.79
573.349	21022.65
573.71	21165.47
574.071	21184.46
574.432	21242.53
574.794	21401.85
575.155	21283.89
575.516	21352.59
575.877	21415.86
576.238	21466.48
576.599	21487.73
576.96	21532.47
577.32	21652.69
577.681	21640.04
578.042	21692.92
578.403	21727.72
578.763	21816.08
579.124	21760.71
579.485	21893.37
579.845	21958.22
580.206	21770.2
580.566	21848.62
580.927	22009.52
581.287	22017.2
581.648	21879.58
582.008	22081.61
582.368	22031.89
582.728	22121.61
583.089	22136.97
583.449	22098.33
583.809	22211.55
584.169	22266.24
584.529	22210.19
584.889	22434.37
585.249	22184.88
585.609	22228.72
585.969	22274.82
586.329	22229.63
586.688	22274.15
587.048	22229.18
587.408	22291.77
587.768	22286.8
588.127	22197.99
588.487	22179.01
588.846	22321.15
589.206	22255.62
589.565	22281.83
589.925	22336.07
590.284	22346.46
590.643	22295.84
591.003	22356.86
591.362	22436.63
591.721	22380.58
592.08	22408.15
592.44	22524.08
592.799	22514.37
593.158	22469.62
593.517	22426.68
593.876	22467.36
594.235	22464.65
594.593	22398.89
594.952	22516.63
595.311	22457.19
595.67	22484.08
596.029	22603.85
596.387	22669.16
596.746	22619.67
597.104	22554.36
597.463	22528.6
597.822	22729.05
598.18	22625.55
598.538	22592.1
598.897	22659.45
599.255	22514.59
599.613	22878.88
599.972	22761.82
600.33	22802.49
600.688	22601.59
601.046	22851.08
601.404	22885.66
601.762	22726.79
602.12	22911.19
602.478	22827.8
602.836	22944.64
603.194	22708.03
603.552	22843.62
603.91	22860.57
604.268	22885.43
604.625	22884.98
604.983	22922.26
605.341	22819.89
605.698	22893.11
606.056	23023.05
606.413	22966.56
606.771	23082.94
607.128	23082.26
607.485	23080.9
607.843	23019.44
608.2	23110.96
608.557	23216.95
608.914	23078.19
609.272	23217.62
609.629	23221.69
609.986	23287.23
610.343	23146.67
610.7	23402.93
611.057	23410.39
611.414	23305.76
611.771	23338.3
612.127	23340.33
612.484	23438.86
612.841	23478.63
613.198	23383.04
613.554	23499.65
613.911	23479.76
614.267	23418.07
614.624	23451.74
614.98	23469.37
615.337	23642.47
615.693	23534.23
616.05	23575.35
616.406	23755.46
616.762	23537.16
617.118	23668.23
617.475	23674.34
617.831	23691.06
618.187	23737.38
618.543	23781.22
618.899	23833.88
619.255	23806.54
619.611	23801.56
619.967	23778.06
620.323	23921.11
620.678	23864.16
621.034	23784.61
621.39	23818.06
621.746	23778.74
622.101	24118.62
622.457	23835.01
622.812	23912.29
623.168	24027.32
623.523	23989.36
623.879	24109.58
624.234	23937.61
624.589	24020.09
624.945	24086.08
625.3	24083.36
625.655	23969.92
626.01	24030.71
626.365	24043.59
626.72	24022.12
627.075	24073.19
627.43	24068.68
627.785	24012.86
628.14	24022.8
628.495	24087.88
628.85	24133.53
629.205	24098.5
629.559	24117.94
629.914	24207.43
630.269	24105.96
630.623	24070.26
630.978	24115.23
631.332	24171.5
631.687	24274.09
632.041	24155.68
632.396	24193.42
632.75	24096.24
633.104	24116.81
633.459	24080.43
633.813	24051.73
634.167	24105.74
634.521	24054.89
634.875	24102.57
635.229	24064.83
635.583	23914.78
635.937	23953.65
636.291	23967.21
636.645	24036.59
636.999	23818.96
637.352	23998.39
637.706	23856.48
638.06	23960.88
638.413	23894.89
638.767	23936.7
639.121	23993.2
639.474	23909.13
639.828	23884.5
640.181	23932.41
640.534	23966.3
640.888	23886.53
641.241	23753.2
641.594	23979.41
641.947	23934.22
642.301	23909.81
642.654	23949.13
643.007	23896.7
643.36	23877.49
643.713	23852.86
644.066	23995.46
644.419	23864.61
644.771	23667.78
645.124	23543.49
645.477	23456.94
645.83	23403.38
646.182	23322.48
646.535	23185.31
646.888	23316.38
647.24	23250.39
647.593	23390.5
647.945	23323.16
648.298	23217.85
648.65	23263.5
649.002	23204.29
649.355	23265.08
649.707	23229.6
650.059	23418.52
650.411	23712.53
650.763	23735.12
651.115	23870.94
651.467	23983.25
651.819	23875.01
652.171	23987.1
652.523	23978.06
652.875	23994.55
653.227	23782.58
653.578	23924.5
653.93	24015.8
654.282	23865.74
654.633	23823.48
654.985	24017.38
655.337	23901.45
655.688	23830.49
656.039	24043.82
656.391	23792.98
656.742	23892.86
657.094	23895.8
657.445	23980.54
657.796	23953.88
658.147	23945.29
658.498	23952.29
658.849	23934.89
659.2	23988.68
659.551	23949.58
659.902	23960.2
660.253	23963.14
660.604	23990.26
660.955	23791.85
661.306	23905.29
661.656	23929.02
662.007	23907.78
662.358	24027.77
662.708	23957.72
663.059	23928.11
663.409	23739.87
663.76	23961.79
664.11	24001.78
664.461	23910.04
664.811	23913.88
665.161	23877.95
665.511	23829.13
665.862	23857.83
666.212	23841.56
666.562	23929.47
666.912	23829.59
667.262	23757.72
667.612	23838.62
667.962	23733.09
668.312	23777.16
668.662	23777.38
669.011	23723.37
669.361	23748.46
669.711	23768.8
670.06	23671.85
670.41	23648.57
670.76	23574.22
671.109	23727.89
671.459	23620.33
671.808	23540.33
672.157	23684.73
672.507	23463.95
672.856	23428.69
673.205	23420.56
673.554	23457.62
673.904	23375.59
674.253	23515.92
674.602	23268.92
674.951	22987.8
675.3	22875.03
675.649	23183.5
675.998	23154.8
676.346	23112.54
676.695	23176.27
677.044	22952.55
677.393	23121.81
677.741	22993.45
678.09	22945.54
678.438	22890.63
678.787	22964.98
679.135	22948.93
679.484	22877.75
679.832	23010.85
680.181	22847.01
680.529	22696.96
680.877	22743.29
681.225	22632.33
681.573	22849.05
681.922	22627.36
682.27	22606.79
682.618	22642.27
682.966	22456.51
683.314	22549.17
683.661	22359.12
684.009	22322.51
684.357	22324.54
684.705	22265.56
685.053	22260.14
685.4	22296.29
685.748	22121.83
686.095	22123.64
686.443	22005.9
686.79	21993.02
687.138	21989.86
687.485	22018.33
687.832	22057.65
688.18	21953.48
688.527	21827.38
688.874	21775.4
689.221	21715.06
689.568	21773.82
689.915	21646.82
690.262	21631.9
690.609	21605.01
690.956	21583.99
691.303	21522.98
691.65	21435.3
691.997	21423.32
692.344	21358.24
692.69	21319.37
693.037	21277.11
693.383	21186.94
693.73	21268.3
694.077	21122.99
694.423	21102.43
694.769	21026.04
695.116	21112.14
695.462	21188.75
695.808	21020.39
696.155	21088.19
696.501	20971.58
696.847	20968.87
697.193	20804.35
697.539	20903.79
697.885	20721.42
698.231	20648.88
698.577	20614.3
698.923	20613.4
699.269	20604.13
699.614	20435.55
699.96	20441.43
700.306	20464.02
700.651	20355.1
700.997	20249.11
701.342	20275.33
701.688	20246.85
702.033	20112.62
702.379	20192.17
702.724	20178.61
703.069	20163.24
703.415	20112.39
703.76	20127.54
704.105	20070.81
704.45	19999.18
704.795	19864.94
705.14	19897.49
705.485	19802.8
705.83	19769.58
706.175	19723.7
706.52	19733.87
706.865	19709.47
707.209	19678.96
707.554	19615.68
707.899	19675.12
708.243	19505.18
708.588	19572.3
708.932	19465.18
709.277	19409.14
709.621	19455.01
709.966	19335.24
710.31	19351.51
710.654	19267.9
710.998	19314.22
711.342	19423.37
711.687	19350.83
712.031	19286.2
712.375	19131.4
712.719	19274
713.063	19243.27
713.407	19299.08
713.75	19179.09
714.094	19193.1
714.438	19067.22
714.782	19182.93
715.125	19068.35
715.469	19105.19
715.812	18837.4
716.156	18854.35
716.499	18929.6
716.843	19003.27
717.186	18916.49
717.53	19050.28
717.873	18995.59
718.216	18889.15
718.559	18878.08
718.902	18627.46
719.246	18868.13
719.589	18652.77
719.932	18687.12
720.275	18655.94
720.617	18617.52
720.96	18690.74
721.303	18636.5
721.646	18725.54
721.989	18481.03
722.331	18698.65
722.674	18538.42
723.016	18597.63
723.359	18591.08
723.701	18651.19
724.044	18447.81
724.386	18443.06
724.729	18535.49
725.071	18412.33
725.413	18408.71
725.755	18388.6
726.097	18446.68
726.439	18223.18
726.782	18315.83
727.124	18329.84
727.465	18311.09
727.807	18370.07
728.149	18223.86
728.491	18291.2
728.833	18293.46
729.175	18218.89
729.516	18297.53
729.858	18133.24
730.199	18283.06
730.541	18267.25
730.882	18213.46
731.224	18282.84
731.565	18186.57
731.906	18237.19
732.248	18171.43
732.589	18202.84
732.93	18104.54
733.271	18114.48
733.612	18244.65
733.953	18191.99
734.294	18107.25
734.635	18149.06
734.976	18237.19
735.317	18176.4
735.658	18090.3
735.999	18138.44
736.339	18106.12
736.68	18194.48
737.021	18118.55
737.361	18109.28
737.702	18205.78
738.042	18217.53
738.383	18104.76
738.723	18230.41
739.063	18206.91
739.404	18112.9
739.744	18130.98
740.084	18127.59
740.424	18179.79
740.764	18242.84
741.104	18316.28
741.444	18137.76
741.784	18227.02
742.124	18291.43
742.464	18288.49
742.804	18276.74
743.143	18247.81
743.483	18294.14
743.823	18218.66
744.162	18294.14
744.502	18409.16
744.841	18332.33
745.181	18330.07
745.52	18415.04
745.86	18514.02
746.199	18395.83
746.538	18418.43
746.877	18591.76
747.216	18554.24
747.556	18490.74
747.895	18586.79
748.234	18499.78
748.573	18556.73
748.911	18552.44
749.25	18535.71
749.589	18514.92
749.928	18619.55
750.267	18664.98
750.605	18632.66
750.944	18688.25
751.283	18723.96
751.621	18615.49
751.96	18740.68
752.298	18634.47
752.636	18675.6
752.975	18560.57
753.313	18635.6
753.651	18801.24
753.989	18728.93
754.327	18729.61
