Data from blue_shiny_book_FLMS001491_00010.txt Node
Date: Wed Feb 08 15:26:28 GMT 2017
User: dcchb
Spectrometer: FLMS00149
Trigger mode: 0
Integration Time (sec): 2.000000E-2
Scans to average: 10
Electric dark correction enabled: true
Nonlinearity correction enabled: false
Boxcar width: 0
XAxis mode: Wavelengths
Number of Pixels in Spectrum: 2048
>>>>>Begin Spectral Data<<<<<
341.393	-22.54
341.776	-22.54
342.16	-22.54
342.543	-57.34
342.927	-67.29
343.31	-53.73
343.693	-72.71
344.077	-61.86
344.46	-58.93
344.843	-48.76
345.226	-46.5
345.61	-37.68
345.993	-15.76
346.376	-15.54
346.759	1.86
347.142	7.74
347.525	41.41
347.908	55.87
348.291	91.35
348.674	102.43
349.057	110.79
349.44	128.64
349.823	142.2
350.206	155.98
350.588	185.14
350.971	221.97
351.354	224.23
351.737	284.12
352.119	271.69
352.502	279.37
352.884	265.13
353.267	283.44
353.65	307.85
354.032	306.04
354.414	323.66
354.797	337.45
355.179	332.93
355.562	344.91
355.944	347.62
356.326	353.72
356.709	334.51
357.091	358.92
357.473	365.92
357.855	383.1
358.238	358.92
358.62	354.4
359.002	377
359.384	364.11
359.766	360.72
360.148	358.47
360.53	343.1
360.912	367.96
361.294	377
361.676	357.11
362.057	353.49
362.439	354.17
362.821	369.31
363.203	347.39
363.584	360.05
363.966	362.08
364.348	351.91
364.729	349.43
365.111	342.19
365.493	353.95
365.874	365.24
366.256	321.18
366.637	344.45
367.019	335.19
367.4	352.36
367.781	359.6
368.163	348.52
368.544	325.47
368.925	350.1
369.306	342.19
369.688	356.21
370.069	377.45
370.45	359.37
370.831	352.82
371.212	356.66
371.593	360.05
371.974	360.27
372.355	339.93
372.736	375.64
373.117	375.41
373.498	368.41
373.879	364.11
374.26	361.18
374.641	377.67
375.021	360.27
375.402	346.94
375.783	382.42
376.163	397.11
376.544	384.91
376.925	383.55
377.305	367.05
377.686	369.76
378.066	383.32
378.447	385.81
378.827	396.88
379.208	388.07
379.588	385.13
379.968	421.06
380.349	411.12
380.729	409.09
381.109	426.94
381.489	426.03
381.87	423.55
382.25	404.79
382.63	422.87
383.01	430.1
383.39	431.91
383.77	446.82
384.15	455.86
384.53	430.55
384.91	450.21
385.29	447.28
385.67	465.35
386.049	477.56
386.429	459.93
386.809	447.73
387.189	467.84
387.568	465.81
387.948	485.24
388.328	495.18
388.707	482.3
389.087	482.76
389.466	485.47
389.846	490.89
390.225	487.28
390.605	492.7
390.984	516.2
391.363	512.36
391.743	520.72
392.122	529.31
392.501	535.18
392.881	549.19
393.26	556.65
393.639	546.03
394.018	553.26
394.397	545.8
394.776	552.81
395.155	563.66
395.534	581.06
395.913	578.12
396.292	595.3
396.671	603.2
397.05	595.52
397.429	605.01
397.808	599.59
398.186	605.24
398.565	620.61
398.944	625.12
399.323	598.46
399.701	626.25
400.08	646.82
400.458	648.18
400.837	647.05
401.215	667.61
401.594	666.93
401.972	650.43
402.351	687.5
402.729	670.32
403.107	698.8
403.486	712.81
403.864	715.52
404.242	722.75
404.62	719.13
404.999	750.77
405.377	755.06
405.755	759.58
406.133	768.4
406.511	784.89
406.889	756.42
407.267	775.86
407.645	809.98
408.023	805.23
408.401	819.92
408.779	840.71
409.156	855.63
409.534	869.64
409.912	878.45
410.29	868.51
410.667	887.26
411.045	908.73
411.422	929.3
411.8	947.38
412.178	953.25
412.555	971.78
412.933	957.77
413.31	986.7
413.687	1020.82
414.065	1019.01
414.442	1042.29
414.819	1056.75
415.197	1045.9
415.574	1063.31
415.951	1057.88
416.328	1112.34
416.705	1075.51
417.082	1118.67
417.46	1101.27
417.837	1157.09
418.214	1149.63
418.591	1143.3
418.967	1184.21
419.344	1195.05
419.721	1233.24
420.098	1210.42
420.475	1236.41
420.852	1237.09
421.228	1270.08
421.605	1252
421.982	1280.7
422.358	1282.06
422.735	1326.12
423.111	1329.06
423.488	1365.22
423.864	1361.15
424.241	1399.57
424.617	1391.66
424.994	1420.13
425.37	1439.79
425.746	1475.5
426.123	1469.62
426.499	1449.74
426.875	1496.06
427.251	1488.38
427.627	1531.99
428.003	1547.59
428.379	1626.23
428.756	1590.3
429.132	1626.91
429.507	1658.77
429.883	1680.24
430.259	1720.46
430.635	1728.6
431.011	1715.27
431.387	1755.94
431.763	1767.69
432.138	1817.64
432.514	1859.89
432.89	1884.98
433.265	1942.38
433.641	1924.07
434.016	1933.34
434.392	1998.42
434.767	2038.42
435.143	2014.69
435.518	2051.75
435.894	2058.76
436.269	2090.85
436.644	2117.51
437.02	2133.33
437.395	2164.75
437.77	2178.98
438.145	2235.48
438.52	2277.51
438.895	2290.84
439.271	2284.97
439.646	2340.56
440.021	2362.25
440.395	2403.84
440.77	2378.3
441.145	2384.85
441.52	2442.48
441.895	2478.18
442.27	2484.06
442.645	2477.73
443.019	2564.51
443.394	2557.73
443.769	2598.86
444.143	2601.57
444.518	2623.49
444.892	2643.83
445.267	2663.49
445.641	2645.64
446.016	2680.21
446.39	2687.44
446.764	2741
447.139	2742.81
447.513	2771.28
447.887	2795.24
448.262	2864.16
448.636	2866.42
449.01	2908.68
449.384	2929.25
449.758	2980.09
450.132	2978.51
450.506	2957.04
450.88	2974.89
451.254	3005.18
451.628	3061.67
452.002	3068.9
452.376	3100.09
452.75	3133.76
453.123	3195.23
453.497	3238.84
453.871	3289.01
454.244	3348.44
454.618	3411.04
454.992	3442.68
455.365	3445.16
455.739	3496.24
456.112	3535.33
456.486	3564.48
456.859	3592.5
457.232	3667.3
457.606	3652.84
457.979	3755.21
458.352	3820.75
458.725	3870.92
459.099	3940.97
459.472	4013.06
459.845	4080.63
460.218	4145.03
460.591	4133.73
460.964	4138.93
461.337	4286.27
461.71	4243.56
462.083	4312.49
462.456	4361.52
462.829	4374.18
463.201	4509.77
463.574	4466.83
463.947	4587.28
464.32	4742.53
464.692	4707.28
465.065	4794.96
465.438	4899.81
465.81	4975.52
466.183	5012.81
466.555	5113.37
466.928	5124.67
467.3	5049.87
467.672	5149.07
468.045	5307.04
468.417	5335.28
468.789	5368.05
469.161	5446.24
469.534	5556.29
469.906	5733.69
470.278	5743.63
470.65	5824.31
471.022	5980.01
471.394	6057.98
471.766	6114.7
472.138	6193.57
472.51	6320.79
472.882	6408.93
473.253	6434.92
473.625	6591.97
473.997	6621.13
474.369	6713.1
474.74	6748.13
475.112	6899.76
475.484	7096.82
475.855	7235.12
476.227	7286.42
476.598	7475.79
476.97	7584.72
477.341	7785.61
477.713	7857.03
478.084	7908.1
478.455	8140.41
478.827	8228.09
479.198	8450.46
479.569	8402.77
479.94	8657.68
480.311	8717.79
480.682	8899.03
481.053	9145.13
481.424	9377.44
481.795	9423.99
482.166	9646.58
482.537	9843.19
482.908	10014.93
483.279	10153.69
483.65	10334.7
484.021	10484.07
484.391	10576.28
484.762	10647.23
485.133	10748.47
485.503	10905.76
485.874	11144.85
486.244	11210.84
486.615	11449.25
486.985	11588
487.356	11805.85
487.726	11971.04
488.097	12296.91
488.467	12373.29
488.837	12724.24
489.207	12848.76
489.578	13078.81
489.948	13060.28
490.318	13264.57
490.688	13342.76
491.058	13552.47
491.428	13692.8
491.798	13784.33
492.168	14102.28
492.538	14134.83
492.908	14337.53
493.278	14528.94
493.648	14677.18
494.017	14854.81
494.387	15083.5
494.757	15147.45
495.126	15358.07
495.496	15439.42
495.866	15619.76
496.235	15722.81
496.605	15894.1
496.974	15932.07
497.344	16240.53
497.713	16195.34
498.082	16388.1
498.452	16602.11
498.821	16563.69
499.19	16624.7
499.559	16892.95
499.928	17021.98
500.298	17139.27
500.667	17329.32
501.036	17348.3
501.405	17563.44
501.774	17641.63
502.143	17859.25
502.512	17894.73
502.88	18106.02
503.249	18128.62
503.618	18188.73
503.987	18352.12
504.356	18442.96
504.724	18599.79
505.093	18619.23
505.462	18676.85
505.83	18912.78
506.199	18980.35
506.567	19212.66
506.936	19317.97
507.304	19589.37
507.672	19705.08
508.041	19833.66
508.409	19867.78
508.777	20134.89
509.145	20249.02
509.514	20380.31
509.882	20399.07
510.25	20546.63
510.618	20678.83
510.986	20729.23
511.354	20997.02
511.722	21072.27
512.09	21319.95
512.458	21292.38
512.826	21572.14
513.193	21596.78
513.561	21787.28
513.929	22015.97
514.297	22163.99
514.664	22382.07
515.032	22527.6
515.4	22717.88
515.767	22787.03
516.135	22878.55
516.502	22872.68
516.869	23422.27
517.237	23365.77
517.604	23436.73
517.972	23624.52
518.339	23801.24
518.706	23833.78
519.073	24049.82
519.44	24129.82
519.808	24574.1
520.175	24559.86
520.542	24972.28
520.909	24977.48
521.276	24964.6
521.643	25398.26
522.009	25554.64
522.376	25676.67
522.743	25894.52
523.11	26052.25
523.477	26346.71
523.843	26572.47
524.21	26752.12
524.577	26949.18
524.943	26921.61
525.31	27215.61
525.676	27500.8
526.043	27600.46
526.409	27819.21
526.776	28175.36
527.142	28342.81
527.508	28354.57
527.874	28621.22
528.241	28921.1
528.607	29024.38
528.973	29374.88
529.339	29315.67
529.705	29514.99
530.071	29629.11
530.437	29918.59
530.803	29996.1
531.169	30247.85
531.535	30153.16
531.901	30409.2
532.267	30580.72
532.632	30737.33
532.998	30947.72
533.364	31164.21
533.73	31303.87
534.095	31470.42
534.461	31697.98
534.826	31901.82
535.192	31971.42
535.557	32131.87
535.923	32201.47
536.288	32413.89
536.653	32528.92
537.019	32630.38
537.384	32674
537.749	32800.78
538.114	32820.21
538.479	32947.44
538.845	33059.75
539.21	33008.45
539.575	33309.01
539.94	33370.48
540.305	33629.23
540.67	33723.69
541.034	33894.53
541.399	33899.73
541.764	34125.03
542.129	34262.43
542.494	34437.57
542.858	34551.46
543.223	34542.65
543.587	34837.11
543.952	34770.22
544.316	34770.67
544.681	34796.2
545.045	35052.24
545.41	35126.14
545.774	35142.41
546.138	35182.86
546.503	35307.6
546.867	35312.12
547.231	35659.91
547.595	35703.98
547.959	35844.76
548.324	35897.64
548.688	36227.58
549.052	36380.79
549.416	36482.94
549.779	36578.53
550.143	36689.71
550.507	36885.87
550.871	37028.46
551.235	37016.48
551.599	37248.34
551.962	37354.1
552.326	37233.2
552.689	37397.27
553.053	37248.79
553.417	37487.66
553.78	37789.35
554.143	37501.44
554.507	37864.6
554.87	37791.83
555.234	38372.61
555.597	38086.74
555.96	38409.22
556.323	38493.06
556.686	38688.98
557.05	38843.33
557.413	39103.21
557.776	39331.23
558.139	39482.18
558.502	39479.02
558.865	39735.73
559.228	39980.93
559.59	40118.32
559.953	40054.37
560.316	40356.74
560.679	40286.68
561.041	40376.4
561.404	40430.18
561.767	40706.1
562.129	40479.44
562.492	40832.88
562.854	40899.09
563.217	40992.65
563.579	41114.23
563.941	41459.31
564.304	41632.63
564.666	41913.76
565.028	42022.68
565.39	42309.9
565.753	42563.01
566.115	42795.54
566.477	42927.52
566.839	43144.68
567.201	43378.12
567.563	43344.68
567.925	43739.47
568.287	43607.72
568.648	43584.67
569.01	43706.25
569.372	43788.06
569.734	43677.55
570.095	43901.73
570.457	43968.17
570.819	43908.51
571.18	43937.21
571.542	44221.49
571.903	44310.53
572.265	44436.85
572.626	44534.93
572.987	44703.29
573.349	44969.95
573.71	45107.35
574.071	45245.87
574.432	45477.96
574.794	45931.05
575.155	45843.82
575.516	45832.98
575.877	46059.86
576.238	46147.54
576.599	46256.92
576.96	46258.95
577.32	46209.01
577.681	46320.42
578.042	46489
578.403	46137.37
578.763	46177.83
579.124	46161.78
579.485	46315.45
579.845	46386.86
580.206	46301.44
580.566	46190.71
580.927	46256.02
581.287	46394.99
581.648	46420.76
582.008	46770.13
582.368	46728.77
582.728	47047.63
583.089	46957.01
583.449	47117.69
583.809	47223.22
584.169	47417.57
584.529	47372.37
584.889	47731.46
585.249	47464.12
585.609	47329.21
585.969	47709.54
586.329	47509.99
586.688	47442.65
587.048	47310.9
587.408	47348.42
587.768	47164.24
588.127	46998.59
588.487	46914.08
588.846	47215.31
589.206	46861.2
589.565	46993.17
589.925	47179.15
590.284	47047.63
590.643	47028.42
591.003	47237.46
591.362	47456.21
591.721	47547.96
592.08	47495.76
592.44	47745.02
592.799	47829.08
593.158	47798.12
593.517	47946.14
593.876	47936.2
594.235	47929.87
594.593	48066.59
594.952	48178.68
595.311	48007.16
595.67	47950.43
596.029	48130.32
596.387	47977.55
596.746	47983.88
597.104	47742.98
597.463	47626.83
597.822	47750.67
598.18	47612.14
598.538	47436.1
598.897	47688.29
599.255	47375.08
599.613	47746.82
599.972	47637.9
600.33	47756.54
600.688	47712.7
601.046	47870.89
601.404	48284.44
601.762	48105.01
602.12	48328.96
602.478	48395.85
602.836	48489.4
603.194	48507.71
603.552	48688.04
603.91	48523.98
604.268	48578.44
604.625	48517.65
604.983	48565.56
605.341	48472.45
605.698	48557.88
606.056	48780.47
606.413	48617.08
606.771	48667.25
607.128	48747.02
607.485	48358.33
607.843	48276.98
608.2	48542.06
608.557	48453.25
608.914	48382.29
609.272	48558.78
609.629	48707.48
609.986	48806.68
610.343	48563.07
610.7	48994.25
611.057	48906.12
611.414	49021.37
611.771	49111.76
612.127	49348.59
612.484	49435.59
612.841	49536.38
613.198	49512.65
613.554	49585.19
613.911	49738.64
614.267	49695.92
614.624	49700.44
614.98	49831.51
615.337	49903.15
615.693	49667.68
616.05	49693.44
616.406	49907.44
616.762	49685.53
617.118	49704.51
617.475	49642.82
617.831	49643.04
618.187	49660.9
618.543	49475.14
618.899	49747.45
619.255	49568.02
619.611	49585.65
619.967	49715.81
620.323	49797.84
620.678	49733.21
621.034	49674.68
621.39	49714.91
621.746	49645.08
622.101	50139.98
622.457	49868.12
622.812	50095.69
623.168	50186.53
623.523	50202.35
623.879	50272.41
624.234	50217.72
624.589	50455
624.945	50426.53
625.3	50445.51
625.655	50448.9
626.01	50410.71
626.365	50332.29
626.72	50185.4
627.075	50163.94
627.43	50236.25
627.785	49924.17
628.14	49942.47
628.495	49944.73
628.85	49932.75
629.205	49639.2
629.559	49908.35
629.914	49653.21
630.269	49615.48
630.623	49480.79
630.978	49609.6
631.332	49653.21
631.687	49761.91
632.041	49648.47
632.396	49968.46
632.75	49708.13
633.104	49891.17
633.459	49773.44
633.813	49784.06
634.167	49788.35
634.521	49827.45
634.875	49916.03
635.229	49840.78
635.583	49720.33
635.937	49706.32
636.291	49692.31
636.645	49919.2
636.999	49720.78
637.352	49738.18
637.706	49486.44
638.06	49519.43
638.413	49331.19
638.767	49187.24
639.121	49144.75
639.474	48904.99
639.828	48862.5
640.181	48807.59
640.534	48798.77
640.888	48759
641.241	48461.38
641.594	48550.64
641.947	48550.42
642.301	48415.73
642.654	48635.16
643.007	48462.51
643.36	48441.72
643.713	48460.7
644.066	48582.06
644.419	48614.37
644.771	48533.02
645.124	48451.89
645.477	48507.48
645.83	48185.23
646.182	47906.82
646.535	47585.25
646.888	47500.28
647.24	47296.44
647.593	47688.07
647.945	47430.22
648.298	47288.3
648.65	47146.39
649.002	47065.94
649.355	47229.55
649.707	47021.87
650.059	47356.1
650.411	47728.52
650.763	47883.77
651.115	47970.55
651.467	47705.92
651.819	47647.84
652.171	47507.06
652.523	47425.7
652.875	47511.12
653.227	47456.66
653.578	47646.04
653.93	47553.61
654.282	47301.19
654.633	47199.95
654.985	47314.29
655.337	47310.68
655.688	47278.36
656.039	47525.59
656.391	47177.35
656.742	47308.64
657.094	47540.95
657.445	47668.63
657.796	47675.64
658.147	47699.59
658.498	47658.46
658.849	47945.24
659.2	47853.71
659.551	47742.53
659.902	47747.28
660.253	47687.39
660.604	47756.31
660.955	47584.57
661.306	47663.21
661.656	47434.29
662.007	47318.13
662.358	47429.77
662.708	47223.45
663.059	47361.07
663.409	47028.65
663.76	47244.69
664.11	46951.59
664.461	46807.87
664.811	46770.8
665.161	46745.04
665.511	46628.89
665.862	46746.85
666.212	46924.7
666.562	46956.79
666.912	46855.32
667.262	46813.74
667.612	46791.14
667.962	47004.47
668.312	46915.21
668.662	47224.58
669.011	47082.43
669.361	46993.85
669.711	47066.62
670.06	47209.44
670.41	47219.83
670.76	47154.97
671.109	47274.52
671.459	47327.63
671.808	47023
672.157	47323.33
672.507	47055.77
672.856	47083.11
673.205	47125.6
673.554	47227.74
673.904	46935.55
674.253	47119.04
674.602	46948.88
674.951	46236.35
675.3	45953.88
675.649	46562.9
675.998	46369.23
676.346	46215.34
676.695	46239.07
677.044	46033.2
677.393	46063.25
677.741	45968.57
678.09	45827.1
678.438	45792.52
678.787	45705.97
679.135	45911.84
679.484	45633.66
679.832	45817.61
680.181	45496.49
680.529	45654
680.877	45715.24
681.225	45810.6
681.573	45942.58
681.922	45762.7
682.27	45715.46
682.618	45939.64
682.966	45856.48
683.314	45879.08
683.661	45853.77
684.009	45586.88
684.357	45664.62
684.705	45583.26
685.053	45623.04
685.4	45567.9
685.748	45323.16
686.095	45300.56
686.443	45094.46
686.79	45006.1
687.138	44889.5
687.485	44914.13
687.832	44576.96
688.18	44552.11
688.527	44313.69
688.874	44212.68
689.221	44017.2
689.568	43829.86
689.915	43689.08
690.262	43691.34
690.609	43546.26
690.956	43223.33
691.303	43344.91
691.65	43170.22
691.997	42994.86
692.344	42752.15
692.69	42790.34
693.037	42659.27
693.383	42636.45
693.73	42688.43
694.077	42481.88
694.423	42564.59
694.769	42471.03
695.116	42350.13
695.462	42481.43
695.808	42420.41
696.155	42523.46
696.501	42237.14
696.847	42278.94
697.193	42057.48
697.539	42115.79
697.885	41749.47
698.231	41775.91
698.577	41863.59
698.923	41697.72
699.269	41584.95
699.614	41249.37
699.96	41187.45
700.306	41377.27
700.651	41083.5
700.997	40823.84
701.342	40605.77
701.688	40449.39
702.033	40277.87
702.379	40149.51
702.724	39856.41
703.069	39885.56
703.415	39488.28
703.76	39435.18
704.105	39257.1
704.45	39063.44
704.795	38845.14
705.14	38718.36
705.485	38852.14
705.83	38642.66
706.175	38704.58
706.52	38592.26
706.865	38455.77
707.209	38455.99
707.554	38406.73
707.899	38540.29
708.243	38397.24
708.588	38383.91
708.932	38209.22
709.277	38207.87
709.621	38310.46
709.966	38169.67
710.31	38418.03
710.654	38154.08
710.998	38333.51
711.342	38117.47
711.687	38262.78
712.031	38111.6
712.375	37835.67
712.719	38000.41
713.063	37865.05
713.407	37857.59
713.75	37560.88
714.094	37570.59
714.438	37285.63
714.782	37235.24
715.125	37042.02
715.469	36989.82
715.812	36637.29
716.156	36547.57
716.499	36468.02
716.843	36495.37
717.186	36134.02
717.53	36258.76
717.873	36151.42
718.216	35873.01
718.559	35745.33
718.902	35561.61
719.246	35573.58
719.589	35631.66
719.932	35600.25
720.275	35470.99
720.617	35572.68
720.96	35398.22
721.303	35548.27
721.646	35470.54
721.989	35385.11
722.331	35696.07
722.674	35513.47
723.016	35668.95
723.359	35590.53
723.701	35602.74
724.044	35479.58
724.386	35369.07
724.729	35662.4
725.071	35523.64
725.413	35483.42
725.755	35519.8
726.097	35555.73
726.439	35312.57
726.782	35195.74
727.124	35447.49
727.465	35106.7
727.807	35184.67
728.149	35174.5
728.491	35016.99
728.833	35063.99
729.175	34876.88
729.516	34686.6
729.858	34664
730.199	34647.28
730.541	34400.96
730.882	34335.2
731.224	34418.36
731.565	34047.97
731.906	34144.24
732.248	33976.11
732.589	33915.77
732.93	33857.25
733.271	33850.69
733.612	33867.19
733.953	33876.68
734.294	33761.43
734.635	33584.94
734.976	33789.68
735.317	33607.99
735.658	33743.35
735.999	33905.38
736.339	33973.85
736.68	33959.62
737.021	33939.96
737.361	33845.95
737.702	34088.65
738.042	33984.25
738.383	33979.05
738.723	34186.05
739.063	34178.59
739.404	34435.99
739.744	34345.59
740.084	34282.77
740.424	34416.33
740.764	34430.11
741.104	34536.32
741.444	34227.86
741.784	34286.84
742.124	34347.4
742.464	34205.48
742.804	34054.08
743.143	33997.58
743.483	34104.47
743.823	33922.55
744.162	33933.85
744.502	33896.34
744.841	33671.94
745.181	33799.62
745.52	33534.99
745.86	33781.54
746.199	33580.87
746.538	33451.83
746.877	33502.9
747.216	33472.17
747.556	33451.61
747.895	33379.74
748.234	33269.24
748.573	33197.83
748.911	33231.73
749.25	33315.79
749.589	33112.86
749.928	33192.63
750.267	33316.24
750.605	33163.03
750.944	33255.91
751.283	33113.31
751.621	33293.19
751.96	33248.22
752.298	33367.09
752.636	33660.64
752.975	33424.04
753.313	33551.04
