Data from blue_shiny_book_FLMS001491_00061.txt Node
Date: Wed Feb 08 15:27:21 GMT 2017
User: dcchb
Spectrometer: FLMS00149
Trigger mode: 0
Integration Time (sec): 2.000000E-2
Scans to average: 10
Electric dark correction enabled: true
Nonlinearity correction enabled: false
Boxcar width: 0
XAxis mode: Wavelengths
Number of Pixels in Spectrum: 2048
>>>>>Begin Spectral Data<<<<<
341.393	-17.06
341.776	-17.06
342.16	-17.06
342.543	-46.21
342.927	-47.8
343.31	-62.26
343.693	-68.81
344.077	-71.3
344.46	-60.9
344.843	-63.84
345.226	-40.79
345.61	-21.36
345.993	-21.13
346.376	-12.77
346.759	3.73
347.142	47.34
347.525	40.56
347.908	61.35
348.291	75.59
348.674	95.03
349.057	99.55
349.44	117.62
349.823	143.61
350.206	188.81
350.588	216.83
350.971	222.48
351.354	215.47
351.737	253.44
352.119	262.93
352.502	261.58
352.884	284.17
353.267	296.38
353.65	317.84
354.032	304.74
354.414	321.46
354.797	318.97
355.179	324.17
355.562	331.86
355.944	349.71
356.326	330.5
356.709	335.92
357.091	353.55
357.473	365.3
357.855	352.87
358.238	358.07
358.62	375.7
359.002	336.83
359.384	359.88
359.766	339.77
360.148	349.26
360.53	356.26
360.912	337.96
361.294	358.75
361.676	370.5
362.057	349.03
362.439	333.66
362.821	321.01
363.203	347.67
363.584	357.39
363.966	347
364.348	338.41
364.729	323.04
365.111	345.64
365.493	357.62
365.874	341.57
366.256	337.28
366.637	345.64
367.019	325.75
367.4	354.91
367.781	337.05
368.163	335.02
368.544	340.44
368.925	338.86
369.306	334.34
369.688	310.84
370.069	367.56
370.45	361.69
370.831	354
371.212	357.17
371.593	364.17
371.974	358.07
372.355	339.99
372.736	336.38
373.117	337.05
373.498	366.43
373.879	365.3
374.26	356.94
374.641	368.46
375.021	356.71
375.402	366.88
375.783	364.17
376.163	375.47
376.544	391.52
376.925	342.93
377.305	372.31
377.686	388.35
378.066	376.6
378.447	377.05
378.827	392.87
379.208	367.56
379.588	376.37
379.968	390.16
380.349	397.62
380.729	384.06
381.109	389.26
381.489	393.77
381.87	396.94
382.25	410.72
382.63	392.19
383.01	385.64
383.39	422.02
383.77	399.42
384.15	408.69
384.53	412.76
384.91	424.06
385.29	439.2
385.67	418.86
386.049	444.17
386.429	458.41
386.809	434
387.189	450.5
387.568	461.34
387.948	449.82
388.328	472.19
388.707	468.35
389.087	463.15
389.466	460.89
389.846	458.41
390.225	470.16
390.605	492.3
390.984	492.76
391.363	477.16
391.743	483.49
392.122	496.6
392.501	499.31
392.881	497.28
393.26	505.86
393.639	529.36
394.018	530.27
394.397	534.79
394.776	551.06
395.155	547.44
395.534	558.06
395.913	542.47
396.292	572.53
396.671	572.98
397.05	588.57
397.429	581.79
397.808	573.43
398.186	586.09
398.565	584.5
398.944	596.26
399.323	585.63
399.701	591.74
400.08	592.19
400.458	615.69
400.837	652.07
401.215	616.14
401.594	611.62
401.972	649.14
402.351	644.84
402.729	644.39
403.107	661.11
403.486	701.34
403.864	679.87
404.242	676.93
404.62	693.43
404.999	700.43
405.377	715.8
405.755	710.6
406.133	741.56
406.511	759.87
406.889	746.99
407.267	750.38
407.645	789.47
408.023	790.83
408.401	759.19
408.779	796.48
409.156	826.76
409.534	814.33
409.912	825.63
410.29	848.9
410.667	865.63
411.045	867.89
411.422	870.15
411.8	888.9
412.178	899.98
412.555	947.66
412.933	938.39
413.31	965.51
413.687	980.65
414.065	989.69
414.442	974.78
414.819	998.5
415.197	1005.74
415.574	1022.91
415.951	1064.49
416.328	1050.71
416.705	1069.46
417.082	1078.5
417.46	1092.97
417.837	1115.79
418.214	1093.42
418.591	1126.64
418.967	1134.09
419.344	1133.64
419.721	1158.73
420.098	1136.35
420.475	1175.45
420.852	1213.19
421.228	1219.06
421.605	1232.85
421.982	1266.75
422.358	1263.36
422.735	1233.53
423.111	1300.42
423.488	1313.98
423.864	1331.6
424.241	1323.69
424.617	1383.58
424.994	1390.58
425.37	1412.28
425.746	1424.26
426.123	1430.13
426.499	1440.75
426.875	1488.89
427.251	1483.01
427.627	1506.29
428.003	1532.5
428.379	1528.89
428.756	1584.25
429.132	1610.01
429.507	1595.33
429.883	1641.43
430.259	1670.58
430.635	1687.53
431.011	1709.45
431.387	1754.64
431.763	1777.92
432.138	1780.18
432.514	1782.66
432.89	1809.56
433.265	1859.95
433.641	1896.33
434.016	1907.18
434.392	1935.43
434.767	1992.15
435.143	2003.9
435.518	2036.9
435.894	2079.83
436.269	2100.85
436.644	2139.27
437.02	2157.34
437.395	2163.22
437.77	2174.75
438.145	2193.05
438.52	2240.73
438.895	2246.16
439.271	2290.22
439.646	2350.11
440.021	2386.72
440.395	2406.38
440.77	2388.98
441.145	2401.63
441.52	2466.94
441.895	2444.79
442.27	2468.07
442.645	2463.55
443.019	2502.87
443.394	2503.32
443.769	2562.76
444.143	2538.13
444.518	2634.62
444.892	2631.46
445.267	2646.37
445.641	2677.33
446.016	2688.4
446.39	2750.55
446.764	2751.23
447.139	2746.03
447.513	2831
447.887	2769.98
448.262	2798.91
448.636	2815.63
449.01	2877.1
449.384	2913.26
449.758	2964.33
450.132	2988.06
450.506	2991.9
450.88	3045.91
451.254	3010.2
451.628	3065.57
452.002	3126.36
452.376	3115.29
452.75	3165.68
453.123	3207.03
453.497	3215.85
453.871	3273.25
454.244	3343.53
454.618	3423.75
454.992	3459.46
455.365	3439.12
455.739	3567.7
456.112	3587.36
456.486	3652.22
456.859	3661.26
457.232	3709.62
457.606	3765.66
457.979	3800.92
458.352	3860.35
458.725	3938.77
459.099	3922.72
459.472	4011.98
459.845	4056.28
460.218	4136.28
460.591	4207.01
460.964	4177.63
461.337	4320.45
461.71	4416.72
462.083	4444.06
462.456	4438.64
462.829	4470.73
463.201	4549.37
463.574	4589.37
463.947	4637.28
464.32	4766.32
464.692	4788.24
465.065	4820.55
465.438	4867.33
465.81	4922.24
466.183	5035.23
466.555	5226.19
466.928	5206.53
467.3	5224.83
467.672	5345.06
468.045	5506.18
468.417	5477.94
468.789	5510.02
469.161	5548.44
469.534	5695.78
469.906	5827.98
470.278	5817.81
470.65	5896
471.022	6007.64
471.394	6083.79
471.766	6240.85
472.138	6301.87
472.51	6409.66
472.882	6527.62
473.253	6619.6
473.625	6762.42
473.997	6917.45
474.369	6905.92
474.74	7004.9
475.112	7164.9
475.484	7252.8
475.855	7341.61
476.227	7411.67
476.598	7653.02
476.97	7738.44
477.341	7935.27
477.713	8032.22
478.084	8064.08
478.455	8343.17
478.827	8424.52
479.198	8646.21
479.569	8719.88
479.94	8942.48
480.311	8974.11
480.682	9188.35
481.053	9424.5
481.424	9538.62
481.795	9590.82
482.166	9793.3
482.537	9978.61
482.908	10222.22
483.279	10302.67
483.65	10483
484.021	10725.93
484.391	10841.18
484.762	10922.76
485.133	11130.89
485.503	11283.88
485.874	11530.88
486.244	11563.2
486.615	11787.37
486.985	12006.35
487.356	12226.91
487.726	12251.99
488.097	12566.34
488.467	12617.63
488.837	12896.95
489.207	13093.1
489.578	13296.71
489.948	13350.72
490.318	13661
490.688	13764.72
491.058	13956.58
491.428	14142.34
491.798	14323.58
492.168	14587.3
492.538	14606.28
492.908	14721.76
493.278	14973.5
493.648	15022.99
494.017	15277
494.387	15487.16
494.757	15585.47
495.126	15768.06
495.496	15830.21
495.866	16037.88
496.235	16240.82
496.605	16312.45
496.974	16482.17
497.344	16603.97
497.713	16759.45
498.082	16906.11
498.452	17101.58
498.821	17175.25
499.19	17248.47
499.559	17415.47
499.928	17489.82
500.298	17615.02
500.667	17849.59
501.036	17765.75
501.405	18080.09
501.774	18245.73
502.143	18317.37
502.512	18504.03
502.88	18709.23
503.249	18622
503.618	18779.05
503.987	18797.58
504.356	19071.02
504.724	19224.69
505.093	19200.74
505.462	19415.65
505.83	19525.7
506.199	19602.99
506.567	19828.97
506.936	19861.51
507.304	20187.6
507.672	20268.05
508.041	20482.06
508.409	20689.06
508.777	20892.22
509.145	20990.3
509.514	21098.99
509.882	21182.83
510.25	21257.86
510.618	21393.22
510.986	21529.04
511.354	21678.87
511.722	21845.41
512.09	22108.01
512.458	22119.31
512.826	22245.63
513.193	22326.53
513.561	22565.4
513.929	22779.85
514.297	22814.65
514.664	23138.94
515.032	23233.17
515.4	23491.92
515.767	23562.43
516.135	23790.9
516.502	23682.65
516.869	24095.98
517.237	24095.3
517.604	24003.78
517.972	24385.69
518.339	24568.28
518.706	24476.08
519.073	24728.28
519.44	24941.38
519.808	25158.77
520.175	25251.65
520.542	25659.55
520.909	25727.35
521.276	25933.89
521.643	26195.36
522.009	26452.52
522.376	26616.14
522.743	26581.79
523.11	26954.66
523.477	27334.54
523.843	27358.72
524.21	27612.27
524.577	27880.28
524.943	27824.92
525.31	28073.5
525.676	28259.71
526.043	28392.81
526.409	28481.62
526.776	28995.73
527.142	28941.5
527.508	29216.07
527.874	29486.34
528.241	29708.94
528.607	29829.16
528.973	30114.8
529.339	30284.06
529.705	30678.63
530.071	30846.31
530.437	30897.38
530.803	31080.2
531.169	31333.3
531.535	31276.13
531.901	31432.73
532.267	31423.69
532.632	31680.18
532.998	31622.33
533.364	31947.75
533.73	32058.93
534.095	32316.55
534.461	32411.24
534.826	32698.01
535.192	32841.96
535.557	33086.02
535.923	33158.56
536.288	33325.11
536.653	33616.4
537.019	33484.43
537.384	33663.86
537.749	33903.4
538.114	33873.12
538.479	33994.02
538.845	34016.39
539.21	33980.69
539.575	34091.19
539.94	34181.59
540.305	34351.53
540.67	34165.32
541.034	34335.48
541.399	34572.31
541.764	34708.58
542.129	34846.43
542.494	35041.45
542.858	35163.71
543.223	35339.3
543.587	35516.24
543.952	35611.61
544.316	35702.9
544.681	35861.77
545.045	35951.03
545.41	36200.74
545.774	36132.27
546.138	36090.24
546.503	36135.21
546.867	36112.38
547.231	36325.26
547.595	36360.96
547.959	36436.22
548.324	36451.13
548.688	36436.9
549.052	36563.22
549.416	36565.03
549.779	36633.5
550.143	37025.58
550.507	37085.01
550.871	37229.64
551.235	37204.11
551.599	37647.03
551.962	37706.01
552.326	37968.38
552.689	38171.31
553.053	38122.27
553.417	38023.97
553.78	38487.69
554.143	38277.75
554.507	38435.03
554.87	38374.47
555.234	38613.56
555.597	38423.51
555.96	38471.87
556.323	38576.73
556.686	38512.77
557.05	38993.66
557.413	38854.46
557.776	39007.67
558.139	39420.32
558.502	39359.53
558.865	39586.19
559.228	39917.93
559.59	40021.66
559.953	40223.46
560.316	40576.45
560.679	40618.48
561.041	40913.61
561.404	40988.64
561.767	41267.05
562.129	41178.01
562.492	41556.53
562.854	41381.17
563.217	41343.88
563.579	41433.15
563.941	41570.09
564.304	41530.77
564.666	41705.23
565.028	41733.7
565.39	41849.41
565.753	42070.65
566.115	42186.8
566.477	42532.33
566.839	42636.05
567.201	42848.48
567.563	42947.01
567.925	43318.52
568.287	43411.63
568.648	43607.55
569.01	43850.03
569.372	44174.09
569.734	43996.92
570.095	44214.77
570.457	44283.69
570.819	44253.86
571.18	44238.27
571.542	44463.8
571.903	44490.47
572.265	44382.22
572.626	44406.85
572.987	44518.49
573.349	44559.62
573.71	44879.38
574.071	44729.78
574.432	44904.47
574.794	45142.65
575.155	45230.79
575.516	45136.55
575.877	45402.08
576.238	45514.17
576.599	45747.61
576.96	45812.02
577.32	46003.2
577.681	46302.62
578.042	46390.08
578.403	46383.07
578.763	46482.96
579.124	46622.84
579.485	46526.8
579.845	46641.6
580.206	46558.44
580.566	46433.92
580.927	46469.63
581.287	46590.98
581.648	46369.52
582.008	46651.99
582.368	46413.13
582.728	46496.52
583.089	46411.1
583.449	46486.57
583.809	46657.19
584.169	46666.68
584.529	46679.79
584.889	47102.83
585.249	46833.01
585.609	46814.02
585.969	47118.65
586.329	47258.53
586.688	47234.35
587.048	47352.31
587.408	47238.87
587.768	47306.21
588.127	47369.26
588.487	47348.47
588.846	47614.23
589.206	47227.12
589.565	47325.87
589.925	47243.16
590.284	47009.05
590.643	47024.19
591.003	47164.3
591.362	47064.64
591.721	46989.61
592.08	46909.61
592.44	46998.2
592.799	47096.05
593.158	46976.73
593.517	47157.97
593.876	47239.32
594.235	47245.42
594.593	47285.88
594.952	47527.68
595.311	47451.52
595.67	47460.79
596.029	47948.68
596.387	47870.04
596.746	47975.8
597.104	47914.79
597.463	47898.74
597.822	48117.49
598.18	47882.7
598.538	47909.36
598.897	48017.83
599.255	47648.35
599.613	48195.46
599.972	47777.39
600.33	47657.39
600.688	47505.76
601.046	47769.25
601.404	47812.19
601.762	47551.63
602.12	47865.52
602.478	47820.55
602.836	47877.05
603.194	47750.5
603.552	47826.43
603.91	47849.25
604.268	48025.74
604.625	48033.65
604.983	48182.12
605.341	47988.91
605.698	48264.15
606.056	48469.57
606.413	48510.93
606.771	48751.83
607.128	48759.06
607.485	48649.91
607.843	48651.26
608.2	48790.92
608.557	48832.5
608.914	48647.65
609.272	48862.56
609.629	48817.81
609.986	48921.99
610.343	48379.86
610.7	48737.14
611.057	48711.15
611.414	48615.11
611.771	48625.73
612.127	48671.15
612.484	48807.42
612.841	48849.9
613.198	48728.78
613.554	48782.79
613.911	48985.27
614.267	48951.37
614.624	49153.85
614.98	49337.12
615.337	49565.36
615.693	49535.99
616.05	49526.95
616.406	49810.1
616.762	49723.78
617.118	49787.28
617.475	49775.53
617.831	49820.5
618.187	49881.97
618.543	49817.11
618.899	50012.81
619.255	49799.93
619.611	49823.44
619.967	49957.22
620.323	49855.53
620.678	49672.71
621.034	49527.4
621.39	49524.69
621.746	49498.47
622.101	49775.98
622.457	49532.6
622.812	49611.46
623.168	49567.17
623.523	49658.02
623.879	49639.26
624.234	49576.21
624.589	49840.16
624.945	49887.39
625.3	49999.25
625.655	49952.47
626.01	49922.87
626.365	50013.49
626.72	49909.31
627.075	50145.24
627.43	50146.37
627.785	49995.41
628.14	50205.12
628.495	50252.35
628.85	50220.49
629.205	49924.45
629.559	50203.09
629.914	49931.23
630.269	49870.89
630.623	49755.87
630.978	49630.22
631.332	49872.25
631.687	49796.77
632.041	49500.05
632.396	49583.22
632.75	49283.56
633.104	49326.05
633.459	49112.49
633.813	49233.62
634.167	49323.56
634.521	49117.47
634.875	49212.6
635.229	48982.1
635.583	48977.36
635.937	48994.98
636.291	49073.62
636.645	49253.73
636.999	49192.72
637.352	49207.63
637.706	49089.22
638.06	49390
638.413	49258.03
638.767	49051.7
639.121	49092.83
639.474	48953.4
639.828	48997.92
640.181	49029.33
640.534	48924.48
640.888	48780.53
641.241	48626.18
641.594	48567.88
641.947	48683.13
642.301	48509.8
642.654	48697.14
643.007	48423.25
643.36	48309.58
643.713	48245.62
644.066	48181.44
644.419	48056.7
644.771	47930.6
645.124	47901.68
645.477	47972.86
645.83	47615.13
646.182	47152.77
646.535	46966.34
646.888	46848.6
647.24	46345.34
647.593	46669.39
647.945	46590.07
648.298	46450.19
648.65	46432.56
649.002	46384.2
649.355	46740.35
649.707	46943.51
650.059	47242.26
650.411	47845.41
650.763	47847.22
651.115	48147.32
651.467	47966.99
651.819	47985.07
652.171	47838.86
652.523	47708.92
652.875	47525.87
653.227	47413.1
653.578	47757.28
653.93	47484.29
654.282	47253.79
654.633	47245.65
654.985	47176.27
655.337	47162.49
655.688	46993.91
656.039	47037.29
656.391	46792.33
656.742	46698.09
657.094	46795.94
657.445	46957.97
657.796	46907.81
658.147	46935.6
658.498	46977.41
658.849	46977.41
659.2	46806.34
659.551	46748.49
659.902	47004.07
660.253	47084.3
660.604	47258.76
660.955	47133.11
661.306	47247.46
661.656	47161.58
662.007	47268.02
662.358	47109.61
662.708	47302.37
663.059	47213.56
663.409	46953.68
663.76	47218.76
664.11	47198.65
664.461	46962.49
664.811	46975.83
665.161	46975.6
665.511	46711.88
665.862	46859.22
666.212	46980.35
666.562	46883.17
666.912	46566.8
667.262	46703.07
667.612	46603.86
667.962	46618.32
668.312	46506.69
668.662	46485.22
669.011	46390.08
669.361	46399.57
669.711	46295.84
670.06	46277.99
670.41	46157.54
670.76	46312.12
671.109	46422.62
671.459	46329.06
671.808	46069.18
672.157	46387.14
672.507	46124.1
672.856	46184.21
673.205	46296.3
673.554	46478.66
673.904	46350.53
674.253	46571.77
674.602	46447.93
674.951	45903.54
675.3	45626.71
675.649	46292.46
675.998	46308.05
676.346	46321.15
676.695	46340.36
677.044	46060.6
677.393	46057.43
677.741	45951.67
678.09	45711.91
678.438	45482.98
678.787	45510.1
679.135	45526.15
679.484	45205.25
679.832	45325.47
680.181	45074.18
680.529	45096.33
680.877	44840.74
681.225	44838.26
681.573	45021.53
681.922	44662.89
682.27	44625.61
682.618	44694.31
682.966	44523.91
683.314	44577.7
683.661	44540.18
684.009	44409.79
684.357	44389.23
684.705	44488.89
685.053	44487.53
685.4	44382
685.748	44127.77
686.095	44516.23
686.443	44092.29
686.79	44132.96
687.138	44385.39
687.485	44242.11
687.832	44166.41
688.18	44173.64
688.527	43913.99
688.874	43900.2
689.221	43794.67
689.568	43671.73
689.915	43624.28
690.262	43352.87
690.609	43331.85
690.956	43144.97
691.303	42966.44
691.65	42679.67
691.997	42691.65
692.344	42361.94
692.69	42225.22
693.037	42172.34
693.383	41802.18
693.73	41760.37
694.077	41707.72
694.423	41637.89
694.769	41269.54
695.116	41185.47
695.462	41117.45
695.808	41053.95
696.155	41173.04
696.501	40870.68
696.847	41098.24
697.193	40754.52
697.539	41013.27
697.885	40677.01
698.231	40528.99
698.577	40619.16
698.923	40594.53
699.269	40431.37
699.614	40300.3
699.96	40293.74
700.306	40338.94
700.651	40297.13
700.997	40116.57
701.342	40009.91
701.688	39962.68
702.033	39744.6
702.379	39752.97
702.724	39558.39
703.069	39679.07
703.415	39181.23
703.76	39228.46
704.105	39146.43
704.45	38956.15
704.795	38745.99
705.14	38532.43
705.485	38370.86
705.83	38266.9
706.175	38216.28
706.52	37995.5
706.865	37786.92
707.209	37730.65
707.554	37545.79
707.899	37388.51
708.243	37175.41
708.588	37180.38
708.932	37035.3
709.277	37100.38
709.621	37098.57
709.966	36740.39
710.31	36926.15
710.654	36750.56
710.998	36857.22
711.342	36896.54
711.687	36814.06
712.031	36785.36
712.375	36790.11
712.719	36741.29
713.063	36733.84
713.407	36846.38
713.75	36499.49
714.094	36580.39
714.438	36751.01
714.782	36747.62
715.125	36523.22
715.469	36746.72
715.812	36519.83
716.156	36320.06
716.499	36245.49
716.843	36270.57
717.186	35950.13
717.53	36025.38
717.873	35761.88
718.216	35640.98
718.559	35577.48
718.902	35231.73
719.246	35313.99
719.589	35335.91
719.932	35084.39
720.275	34946.76
720.617	34977.95
720.96	34944.28
721.303	34880.33
721.646	34733.21
721.989	34551.75
722.331	34598.75
722.674	34508.13
723.016	34447.12
723.359	34252.09
723.701	34408.25
724.044	34252.55
724.386	34080.12
724.729	34340.45
725.071	34218.2
725.413	34351.3
725.755	34265.2
726.097	34264.3
726.439	34054.13
726.782	34293.9
727.124	34410.51
727.465	34173.45
727.807	34219.78
728.149	34219.55
728.491	34290.06
728.833	34360.11
729.175	34179.1
729.516	34087.35
729.858	34236.73
730.199	34404.86
730.541	34384.29
730.882	34217.74
731.224	34253.9
731.565	33979.78
731.906	34008.26
732.248	34099.33
732.589	33937.07
732.93	33738.66
733.271	33652.11
733.612	33669.06
733.953	33638.55
734.294	33568.5
734.635	33454.6
734.976	33437.65
735.317	33286.24
735.658	33247.6
735.999	33224.32
736.339	33157.66
736.68	33136.42
737.021	33093.03
737.361	32976.2
737.702	33129.64
738.042	33058
738.383	32953.14
738.723	33166.92
739.063	32958.12
739.404	33113.37
739.744	32971.22
740.084	32869.76
740.424	33227.71
740.764	33051.45
741.104	33279.92
741.444	33038.79
741.784	33124.89
742.124	33335.73
742.464	33388.16
742.804	33435.17
743.143	33370.31
743.483	33466.13
743.823	33227.71
744.162	33467.48
744.502	33488.5
744.841	33368.73
745.181	33472
745.52	33453.7
745.86	33505.45
746.199	33533.69
746.538	33378.9
746.877	33473.13
747.216	33603.98
747.556	33433.36
747.895	33247.83
748.234	33176.19
748.573	33087.6
748.911	33114.5
749.25	33075.85
749.589	33062.75
749.928	33132.58
750.267	33096.64
750.605	33058.23
750.944	32973.26
751.283	32808.52
751.621	32988.85
751.96	32735.98
752.298	32789.53
752.636	32939.13
752.975	32872.24
753.313	32724.22
753.651	32927.61
