Data from blue_shiny_book_FLMS001491_00079.txt Node
Date: Wed Feb 08 15:27:32 GMT 2017
User: dcchb
Spectrometer: FLMS00149
Trigger mode: 0
Integration Time (sec): 2.000000E-2
Scans to average: 10
Electric dark correction enabled: true
Nonlinearity correction enabled: false
Boxcar width: 0
XAxis mode: Wavelengths
Number of Pixels in Spectrum: 2048
>>>>>Begin Spectral Data<<<<<
341.393	-23.18
341.776	-23.18
342.16	-23.18
342.543	-53.46
342.927	-86.9
343.31	-75.61
343.693	-61.37
344.077	-53.46
344.46	-52.56
344.843	-47.58
345.226	-35.38
345.61	-26.34
345.993	-21.82
346.376	-18.43
346.759	26.99
347.142	12.3
347.525	27.44
347.908	56.82
348.291	84.16
348.674	89.36
349.057	95.46
349.44	147.89
349.823	146.76
350.206	160.77
350.588	195.57
350.971	224.05
351.354	229.7
351.737	248.68
352.119	250.94
352.502	284.16
352.884	273.31
353.267	304.27
353.65	296.81
354.032	294.1
354.414	306.76
354.797	326.42
355.179	338.4
355.562	334.1
355.944	327.77
356.326	337.49
356.709	335.68
357.091	346.98
357.473	358.96
357.855	348.79
358.238	365.96
358.62	353.08
359.002	348.11
359.384	365.96
359.766	357.6
360.148	336.36
360.53	335.01
360.912	337.27
361.294	369.35
361.676	356.02
362.057	339.75
362.439	327.55
362.821	340.88
363.203	326.87
363.584	330.26
363.966	349.02
364.348	343.37
364.729	336.14
365.111	332.29
365.493	335.46
365.874	317.38
366.256	321.67
366.637	325.74
367.019	332.07
367.4	325.97
367.781	305.4
368.163	346.53
368.544	327.55
368.925	330.49
369.306	353.31
369.688	326.19
370.069	335.01
370.45	337.72
370.831	317.83
371.212	319.19
371.593	342.69
371.974	334.33
372.355	352.41
372.736	326.87
373.117	344.27
373.498	338.4
373.879	344.95
374.26	340.88
374.641	331.84
375.021	331.84
375.402	340.43
375.783	339.52
376.163	361.9
376.544	368.68
376.925	359.86
377.305	358.51
377.686	369.13
378.066	340.2
378.447	373.2
378.827	364.38
379.208	362.58
379.588	356.02
379.968	352.86
380.349	354.89
380.729	352.18
381.109	361.9
381.489	361.9
381.87	381.33
382.25	382.69
382.63	415.46
383.01	363.03
383.39	396.7
383.77	410.26
384.15	387.21
384.53	390.6
384.91	392.86
385.29	412.07
385.67	409.58
386.049	395.79
386.429	410.48
386.809	405.06
387.189	422.23
387.568	421.78
387.948	435.12
388.328	413.2
388.707	403.03
389.087	414.1
389.466	421.1
389.846	460.2
390.225	426.75
390.605	437.38
390.984	442.57
391.363	447.54
391.743	446.87
392.122	455.23
392.501	447.09
392.881	472.4
393.26	476.92
393.639	471.27
394.018	460.43
394.397	489.58
394.776	466.98
395.155	475.79
395.534	496.36
395.913	475.79
396.292	490.93
396.671	499.75
397.05	509.92
397.429	495.91
397.808	495.91
398.186	523.47
398.565	516.02
398.944	512.85
399.323	525.96
399.701	533.64
400.08	552.63
400.458	550.37
400.837	544.04
401.215	571.38
401.594	545.4
401.972	555.11
402.351	558.28
402.729	574.77
403.107	574.1
403.486	572.97
403.864	576.58
404.242	587.2
404.62	604.83
404.999	607.54
405.377	629.69
405.755	606.41
406.133	626.07
406.511	618.16
406.889	626.98
407.267	640.53
407.645	667.2
408.023	680.53
408.401	662
408.779	662.45
409.156	667.43
409.534	670.36
409.912	679.63
410.29	701.55
410.667	732.06
411.045	765.95
411.422	749.23
411.8	759.4
412.178	760.08
412.555	758.27
412.933	756.24
413.31	797.37
413.687	814.31
414.065	798.27
414.442	817.03
414.819	838.95
415.197	855.67
415.574	829.23
415.951	866.52
416.328	875.1
416.705	890.47
417.082	875.1
417.46	879.85
417.837	936.12
418.214	902.45
418.591	927.08
418.967	943.35
419.344	934.99
419.721	941.54
420.098	939.28
420.475	980.64
420.852	1002.33
421.228	990.58
421.605	1025.16
421.982	1004.14
422.358	1017.7
422.735	1061.77
423.111	1031.48
423.488	1076
423.864	1071.48
424.241	1099.5
424.617	1103.12
424.994	1101.09
425.37	1097.7
425.746	1141.76
426.123	1137.02
426.499	1120.97
426.875	1192.38
427.251	1203.91
427.627	1208.88
428.003	1238.26
428.379	1218.82
428.756	1246.39
429.132	1258.82
429.507	1274.64
429.883	1331.14
430.259	1325.94
430.635	1355.77
431.011	1362.55
431.387	1400.74
431.763	1419.95
432.138	1420.63
432.514	1452.72
432.89	1484.13
433.265	1491.13
433.641	1497.23
434.016	1497.01
434.392	1551.7
434.767	1571.13
435.143	1565.48
435.518	1586.72
435.894	1614.07
436.269	1641.19
436.644	1678.92
437.02	1697.46
437.395	1672.37
437.77	1736.1
438.145	1733.84
438.52	1764.12
438.895	1775.87
439.271	1778.58
439.646	1824.23
440.021	1855.19
440.395	1841.41
440.77	1853.84
441.145	1905.81
441.52	1960.95
441.895	1926.83
442.27	1947.17
442.645	1971.8
443.019	2013.15
443.394	1974.28
443.769	2016.77
444.143	1987.62
444.518	2025.81
444.892	2042.31
445.267	2070.1
445.641	2096.09
446.016	2136.09
446.39	2156.88
446.764	2160.27
447.139	2158.91
447.513	2177.44
447.887	2187.84
448.262	2176.76
448.636	2221.28
449.01	2230.1
449.384	2229.87
449.758	2230.1
450.132	2307.38
450.506	2315.07
450.88	2359.13
451.254	2324.33
451.628	2380.38
452.002	2422.63
452.376	2444.78
452.75	2478.9
453.123	2470.54
453.497	2529.3
453.871	2565.91
454.244	2607.94
454.618	2579.69
454.992	2655.17
455.365	2640.48
455.739	2706.92
456.112	2733.81
456.486	2781.49
456.859	2830.98
457.232	2880.93
457.606	2869.18
457.979	2938.33
458.352	2979.68
458.725	3024.2
459.099	3086.57
459.472	3106.46
459.845	3128.15
460.218	3165.67
460.591	3223.97
460.964	3204.31
461.337	3276.62
461.71	3354.81
462.083	3403.4
462.456	3418.09
462.829	3444.08
463.201	3503.74
463.574	3529.27
463.947	3592.32
464.32	3637.74
464.692	3703.73
465.065	3721.58
465.438	3775.82
465.81	3793.22
466.183	3824.63
466.555	3917.28
466.928	3995.7
467.3	3985.3
467.672	4021.24
468.045	4153.44
468.417	4200.89
468.789	4204.51
469.161	4293.32
469.534	4354.33
469.906	4460.55
470.278	4486.31
470.65	4528.12
471.022	4591.16
471.394	4674.1
471.766	4736.02
472.138	4802.91
472.51	4878.61
472.882	4936.69
473.253	5061.43
473.625	5119.06
473.997	5234.09
474.369	5270.24
474.74	5312.73
475.112	5424.36
475.484	5501.88
475.855	5653.51
476.227	5618.26
476.598	5791.36
476.97	5862.54
477.341	5957.46
477.713	6049.66
478.084	6074.97
478.455	6233.38
478.827	6335.3
479.198	6498.69
479.569	6500.27
479.94	6721.96
480.311	6790.43
480.682	6938.22
481.053	7070.42
481.424	7217.31
481.795	7307.25
482.166	7416.18
482.537	7507.02
482.908	7618.88
483.279	7671.99
483.65	7849.38
484.021	8018.19
484.391	8088.7
484.762	8196.49
485.133	8318.98
485.503	8428.8
485.874	8635.8
486.244	8721
486.615	8882.13
486.985	9018.39
487.356	9156.02
487.726	9200.31
488.097	9462
488.467	9429.91
488.837	9710.35
489.207	9858.14
489.578	9977.69
489.948	10007.07
490.318	10196.21
490.688	10269.43
491.058	10455.87
491.428	10591.23
491.798	10732.02
492.168	10916.42
492.538	11087.49
492.908	11173.36
493.278	11197.09
493.648	11219.24
494.017	11388.5
494.387	11511.21
494.757	11633.47
495.126	11720.92
495.496	11883.18
495.866	11971.99
496.235	12052.66
496.605	12237.74
496.974	12329.72
497.344	12454.01
497.713	12536.94
498.082	12587.34
498.452	12821.68
498.821	12869.37
499.19	12926.09
499.559	13055.8
499.928	13096.25
500.298	13171.05
500.667	13310.26
501.036	13329.47
501.405	13526.75
501.774	13497.6
502.143	13720.19
502.512	13700.76
502.88	13810.81
503.249	13914.76
503.618	14030.69
503.987	14234.53
504.356	14332.6
504.724	14335.54
505.093	14343.68
505.462	14456.89
505.83	14610.11
506.199	14599.26
506.567	14849.43
506.936	14911.8
507.304	15055.07
507.672	15117.22
508.041	15184.11
508.409	15325.57
508.777	15491.44
509.145	15681.27
509.514	15617.09
509.882	15826.58
510.25	15928.72
510.618	15960.58
510.986	16136.4
511.354	16271.76
511.722	16356.96
512.09	16589.49
512.458	16560.12
512.826	16754.01
513.193	16647.34
513.561	16738.42
513.929	16909.03
514.297	17060.44
514.664	17183.83
515.032	17130.5
515.4	17428.79
515.767	17422.47
516.135	17648.9
516.502	17615
516.869	17989.91
517.237	18050.47
517.604	18048.66
517.972	18330.92
518.339	18356.23
518.706	18464.47
519.073	18604.81
519.44	18741.53
519.808	18815.2
520.175	18772.49
520.542	19089.09
520.909	19166.6
521.276	19233.27
521.643	19429.64
522.009	19487.72
522.376	19652.69
522.743	19724.33
523.11	20007.03
523.477	20249.28
523.843	20390.75
524.21	20630.29
524.577	20857.18
524.943	20976.27
525.31	21114.12
525.676	21266.43
526.043	21408.35
526.409	21493.77
526.776	21672.07
527.142	21799.98
527.508	21768.57
527.874	22053.98
528.241	22094.66
528.607	22115.45
528.973	22286.07
529.339	22282.45
529.705	22626.4
530.071	22785.94
530.437	23020.74
530.803	23148.64
531.169	23318.58
531.535	23398.58
531.901	23548.41
532.267	23601.51
532.632	23868.17
532.998	23927.15
533.364	24060.94
533.73	24141.84
534.095	24280.36
534.461	24307.93
534.826	24438.33
535.192	24518.32
535.557	24613.46
535.923	24463.41
536.288	24535.27
536.653	24666.57
537.019	24669.73
537.384	24836.06
537.749	25085.99
538.114	25281.02
538.479	25321.02
538.845	25509.48
539.21	25503.16
539.575	25749.25
539.94	25833.54
540.305	26001.9
540.67	26014.1
541.034	25983.37
541.399	26065.85
541.764	26116.93
542.129	26164.38
542.494	26304.49
542.858	26259.97
543.223	26294.1
543.587	26269.01
543.952	26348.78
544.316	26412.06
544.681	26458.61
545.045	26708.1
545.41	26842.78
545.774	26912.61
546.138	26834.2
546.503	27043.23
546.867	27014.3
547.231	27447.51
547.595	27400.51
547.959	27605.02
548.324	27660.84
548.688	27740.61
549.052	27793.72
549.416	27732.7
549.779	27742.65
550.143	27762.08
550.507	27857.67
550.871	27935.18
551.235	27744.68
551.599	27897.22
551.962	27984.9
552.326	27980.61
552.689	28090.21
553.053	28014.96
553.417	28153.71
553.78	28581.49
554.143	28481.38
554.507	28762.28
554.87	28896.74
555.234	29138.54
555.597	29117.07
555.96	29185.09
556.323	29370.4
556.686	29461.92
557.05	29719.09
557.413	29701.24
557.776	29527.91
558.139	29731.07
558.502	29705.53
558.865	29595.93
559.228	29741.24
559.59	29655.36
559.953	29783.04
560.316	30003.6
560.679	30073.21
561.041	30126.31
561.404	30429.81
561.767	30538.73
562.129	30564.04
562.492	30837.25
562.854	30760.87
563.217	31040.41
563.579	31303
563.941	31418.71
564.304	31638.36
564.666	31772.6
565.028	31845.14
565.39	31919.94
565.753	32091.23
566.115	32084.23
566.477	32260.95
566.839	32126.71
567.201	32265.47
567.563	32210.55
567.925	32342.53
568.287	32297.55
568.648	32312.02
569.01	32396.54
569.372	32628.17
569.734	32562.63
570.095	32678.56
570.457	32976.41
570.819	33015.28
571.18	33094.6
571.542	33450.97
571.903	33533.68
572.265	33825.42
572.626	33941.13
572.987	34019.09
573.349	34266.99
573.71	34366.43
574.071	34357.39
574.432	34355.81
574.794	34595.35
575.155	34539.08
575.516	34342.25
575.877	34486.88
576.238	34501.56
576.599	34462.92
576.96	34415.92
577.32	34395.13
577.681	34503.6
578.042	34437.39
578.403	34644.61
578.763	34504.95
579.124	34715.12
579.485	34708.11
579.845	35084.6
580.206	34988.33
580.566	35177.48
580.927	35224.26
581.287	35468.77
581.648	35314.2
582.008	35641.2
582.368	35565.72
582.728	35766.39
583.089	35753.51
583.449	35627.41
583.809	35675.77
584.169	35681.19
584.529	35636.9
584.889	35753.06
585.249	35445.04
585.609	35259.06
585.969	35389
586.329	35344.03
586.688	35312.84
587.048	35283.24
587.408	35275.1
587.768	35381.77
588.127	35326.18
588.487	35283.24
588.846	35729.55
589.206	35449.79
589.565	35537.24
589.925	35766.39
590.284	35765.03
590.643	35899.27
591.003	35882.55
591.362	36295.19
591.721	36164.57
592.08	36170.22
592.44	36215.87
592.799	36276.89
593.158	36240.5
593.517	36172.93
593.876	36107.17
594.235	36071.01
594.593	36055.87
594.952	35959.61
595.311	35896.56
595.67	35887.52
596.029	36004.8
596.387	35919.83
596.746	35931.36
597.104	35784.92
597.463	35808.2
597.822	35938.59
598.18	35952.6
598.538	36067.17
598.897	36246.6
599.255	35897.23
599.613	36424.23
599.972	36285.25
600.33	36468.74
600.688	36484.56
601.046	36485.92
601.404	36816.53
601.762	36754.84
602.12	36857.21
602.478	36763.2
602.836	36758.45
603.194	36704.9
603.552	36570.89
603.91	36446.37
604.268	36544.67
604.625	36305.81
604.983	36547.39
605.341	36408.86
605.698	36379.03
606.056	36378.13
606.413	36452.25
606.771	36509.42
607.128	36578.57
607.485	36319.82
607.843	36504.45
608.2	36674.39
608.557	36781.96
608.914	36768.62
609.272	37062.18
609.629	37100.37
609.986	37292.68
610.343	37174.49
610.7	37475.5
611.057	37410.41
611.414	37436.4
611.771	37563.4
612.127	37653.8
612.484	37699.45
612.841	37878.42
613.198	37605.44
613.554	37545.1
613.911	37725.21
614.267	37719.11
614.624	37658.32
614.98	37651.09
615.337	37787.35
615.693	37632.78
616.05	37419.91
616.406	37654.25
616.762	37550.75
617.118	37508.49
617.475	37509.62
617.831	37649.28
618.187	37684.53
618.543	37894.47
618.899	38030.29
619.255	38046.56
619.611	37922.72
619.967	38036.61
620.323	38196.83
620.678	38231.18
621.034	38190.51
621.39	38454.68
621.746	38520.44
622.101	38851.96
622.457	38530.16
622.812	38544.85
623.168	38667.78
623.523	38669.36
623.879	38733.09
624.234	38545.98
624.589	38560.89
624.945	38556.6
625.3	38548.46
625.655	38534.45
626.01	38402.25
626.365	38432.99
626.72	38194.57
627.075	38158.87
627.43	38269.83
627.785	38144.41
628.14	38200.68
628.495	38178.53
628.85	38086.33
629.205	38015.37
629.559	38107.35
629.914	37937.18
630.269	38072.54
630.623	38066.67
630.978	38070.06
631.332	38292.65
631.687	38304.18
632.041	38209.72
632.396	38306.66
632.75	38108.93
633.104	38362.03
633.459	38196.61
633.813	38137.4
634.167	38157.74
634.521	38118.64
634.875	38070.51
635.229	37940.57
635.583	37790.07
635.937	38017.63
636.291	37851.08
636.645	37625.32
636.999	37527.93
637.352	37707.58
637.706	37342.62
638.06	37540.35
638.413	37461.03
638.767	37147.82
639.121	37196.63
639.474	36865.12
639.828	36839.13
640.181	36881.16
640.534	36800.26
640.888	36756.42
641.241	36800.94
641.594	37081.38
641.947	37078.67
642.301	36953.7
642.654	37026.7
643.007	37061.72
643.36	36945.79
643.713	37102.63
644.066	37066.47
644.419	37061.72
644.771	37009.3
645.124	36971.78
645.477	37011.56
645.83	36856.53
646.182	36398.24
646.535	36056.78
646.888	35791.25
647.24	35491.6
647.593	35788.76
647.945	35471.48
648.298	35400.3
648.65	35371.15
649.002	35320.3
649.355	35324.14
649.707	35417.7
650.059	35617.02
650.411	36119.6
650.763	36075.99
651.115	36450.21
651.467	36184.23
651.819	36194.85
652.171	36141.07
652.523	36051.13
652.875	36169.09
653.227	36035.99
653.578	36226.72
653.93	36120.51
654.282	36024.91
654.633	35835.77
654.985	36176.1
655.337	36107.4
655.688	36122.99
656.039	36405.24
656.391	36150.33
656.742	36260.84
657.094	36287.96
657.445	36287.28
657.796	36245.47
658.147	36195.08
658.498	36328.18
658.849	36240.5
659.2	36253.83
659.551	36048.19
659.902	36172.48
660.253	36034.86
660.604	36071.24
660.955	35853.62
661.306	35969.77
661.656	35850.46
662.007	35895.2
662.358	35718.26
662.708	35575.43
663.059	35763.68
663.409	35348.77
663.76	35704.7
664.11	35447.08
664.461	35478.71
664.811	35530.01
665.161	35224.26
665.511	35447.98
665.862	35442.33
666.212	35598.26
666.562	35571.37
666.912	35677.58
667.262	35597.35
667.612	35929.1
667.962	35784.02
668.312	35914.86
668.662	36016.33
669.011	35880.06
669.361	35776.79
669.711	35994.86
670.06	35869.44
670.41	35806.16
670.76	35710.12
671.109	35904.24
671.459	35714.64
671.808	35431.94
672.157	35607.3
672.507	35403.46
672.856	35344.48
673.205	35324.14
673.554	35367.53
673.904	35245.27
674.253	35316.91
674.602	35086.18
674.951	34522.81
675.3	34377.05
675.649	34924.38
675.998	34752.18
676.346	34762.35
676.695	34763.93
677.044	34516.25
677.393	34669.47
677.741	34733.65
678.09	34642.58
678.438	34497.04
678.787	34727.55
679.135	34699.3
679.484	34551.51
679.832	34829.69
680.181	34601.67
680.529	34713.31
680.877	34773.42
681.225	34847.09
681.573	34959.63
681.922	34655.68
682.27	34667.21
682.618	34611.17
682.966	34599.87
683.314	34501.56
683.661	34528.46
684.009	34237.39
684.357	34307.67
684.705	34154.46
685.053	34163.72
685.4	33986.32
685.748	33823.39
686.095	33669.27
686.443	33635.37
686.79	33343.85
687.138	33430.18
687.485	33383.4
687.832	33252.33
688.18	33206.23
688.527	32895.96
688.874	32843.3
689.221	32705.91
689.568	32734.15
689.915	32608.28
690.262	32623.2
690.609	32531.22
690.956	32522.18
691.303	32412.13
691.65	32248.06
691.997	32174.39
692.344	32006.94
692.69	32015.75
693.037	31969.65
693.383	31897.11
693.73	32051.01
694.077	31940.95
694.423	31842.2
694.769	31834.52
695.116	31779.6
695.462	31673.39
695.808	31712.26
696.155	31810.34
696.501	31579.16
696.847	31495.99
697.193	31180.97
697.539	31345.04
697.885	31121.77
698.231	30786.86
698.577	30790.25
698.923	30616.47
699.269	30500.09
699.614	30263.71
699.96	30297.61
700.306	30277.04
700.651	29994.11
700.997	29896.04
701.342	29690.39
701.688	29628.7
702.033	29450.17
702.379	29341.47
702.724	29294.02
703.069	29376.05
703.415	29002.27
703.76	29061.26
704.105	29035.27
704.45	29008.6
704.795	28802.96
705.14	28780.13
705.485	28817.65
705.83	28770.19
706.175	28838.21
706.52	28623.75
706.865	28742.39
707.209	28882.73
707.554	28704.88
707.899	28712.11
708.243	28535.85
708.588	28519.12
708.932	28391.44
709.277	28453.59
709.621	28579.69
709.966	28301.05
710.31	28394.38
710.654	28202.52
710.998	27966.37
711.342	28075.97
711.687	28066.48
712.031	27931.79
712.375	27814.06
712.719	27804.11
713.063	27714.17
713.407	27621.97
713.75	27428.53
714.094	27380.4
714.438	27168.65
714.782	27136.56
715.125	26955.32
715.469	27042.78
715.812	26756.01
716.156	26673.97
716.499	26719.85
716.843	26798.72
717.186	26463.36
717.53	26520.31
717.873	26484.6
718.216	26502
718.559	26538.16
718.902	26379.52
719.246	26496.35
719.589	26418.39
719.932	26438.27
720.275	26445.51
720.617	26422
720.96	26415.45
721.303	26404.15
721.646	26544.03
721.989	26425.84
722.331	26603.02
722.674	26582.9
723.016	26547.65
723.359	26482.34
723.701	26464.49
724.044	26411.16
724.386	26292.74
724.729	26422.68
725.071	26260.2
725.413	26187.21
725.755	26186.53
726.097	26166.64
726.439	26022.47
726.782	25962.81
727.124	26014.1
727.465	25776.37
727.807	25702.47
728.149	25666.09
728.491	25634.68
728.833	25633.78
729.175	25541.8
729.516	25400.33
729.858	25444.18
730.199	25447.34
730.541	25212.54
730.882	25328.47
731.224	25261.58
731.565	25222.71
731.906	25204.41
732.248	25195.82
732.589	25122.38
732.93	25113.56
733.271	25180
733.612	25248.47
733.953	25188.59
734.294	25161.7
734.635	25217.97
734.976	25256.38
735.317	25111.08
735.658	25230.85
735.999	25243.73
736.339	25257.06
736.68	25390.84
737.021	25357.17
737.361	25311.52
737.702	25474.91
738.042	25369.83
738.383	25482.14
738.723	25428.81
739.063	25482.82
739.404	25556.94
739.744	25522.59
740.084	25441.01
740.424	25569.37
740.764	25391.3
741.104	25510.61
741.444	25314.01
741.784	25208.48
742.124	25242.82
742.464	25121.92
742.804	25125.99
743.143	25137.07
743.483	25187.01
743.823	25043.73
744.162	24975.49
744.502	25093.9
744.841	24996.96
745.181	25071.3
745.52	24918.54
745.86	24946.79
746.199	24934.36
746.538	24948.37
746.877	24918.77
747.216	25049.38
747.556	24868.6
747.895	24977.07
748.234	24959.44
748.573	24912.21
748.911	25056.84
749.25	25071.98
749.589	25020.01
749.928	25130.96
750.267	25114.92
750.605	25219.55
750.944	25269.72
751.283	25227.68
751.621	25476.94
751.96	25360.56
752.298	25392.43
752.636	25444.63
752.975	25384.97
753.313	25436.04
753.651	25610.5
753.989	25591.06
754.327	25644.85
