Data from blue_chair_FLMS001491_00011.txt Node
Date: Wed Feb 08 10:29:31 GMT 2017
User: dcchb
Spectrometer: FLMS00149
Trigger mode: 0
Integration Time (sec): 2.000000E-2
Scans to average: 10
Electric dark correction enabled: true
Nonlinearity correction enabled: false
Boxcar width: 0
XAxis mode: Wavelengths
Number of Pixels in Spectrum: 2048
>>>>>Begin Spectral Data<<<<<
341.393	-8.01
341.776	-8.01
342.16	-8.01
342.543	-69.93
342.927	-67.44
343.31	-56.59
343.693	-57.72
344.077	-63.83
344.46	-57.72
344.843	-66.31
345.226	-59.08
345.61	-46.43
345.993	-15.01
346.376	-4.84
346.759	13.01
347.142	50.75
347.525	28.6
347.908	52.56
348.291	84.64
348.674	86.68
349.057	111.31
349.44	132.55
349.823	150.18
350.206	142.04
350.588	189.05
350.971	194.47
351.354	203.29
351.737	226.11
352.119	222.95
352.502	258.2
352.884	254.36
353.267	250.52
353.65	272.44
354.032	273.11
354.414	296.84
354.797	271.76
355.179	279.67
355.562	308.14
355.944	304.3
356.326	291.42
356.709	307.01
357.091	315.83
357.473	317.41
357.855	315.6
358.238	338.42
358.62	330.06
359.002	294.36
359.384	314.7
359.766	330.29
360.148	330.51
360.53	325.54
360.912	329.38
361.294	311.31
361.676	294.81
362.057	312.66
362.439	302.27
362.821	306.79
363.203	299.1
363.584	290.06
363.966	293
364.348	302.04
364.729	308.82
365.111	276.96
365.493	304.53
365.874	292.77
366.256	301.14
366.637	283.96
367.019	288.03
367.4	314.24
367.781	287.8
368.163	284.64
368.544	287.13
368.925	290.29
369.306	295.71
369.688	275.6
370.069	261.36
370.45	276.73
370.831	267.24
371.212	270.63
371.593	284.87
371.974	271.31
372.355	269.27
372.736	265.2
373.117	304.07
373.498	287.8
373.879	298.2
374.26	289.61
374.641	281.48
375.021	278.76
375.402	291.42
375.783	306.11
376.163	304.53
376.544	281.48
376.925	293
377.305	282.83
377.686	298.65
378.066	295.03
378.447	306.11
378.827	289.84
379.208	306.79
379.588	285.09
379.968	282.15
380.349	298.42
380.729	297.07
381.109	299.55
381.489	300.01
381.87	304.75
382.25	302.04
382.63	298.88
383.01	304.3
383.39	309.27
383.77	314.24
384.15	304.53
384.53	300.23
384.91	299.78
385.29	313.79
385.67	294.36
386.049	308.37
386.429	306.33
386.809	287.35
387.189	304.98
387.568	310.63
387.948	322.15
388.328	322.83
388.707	317.63
389.087	307.24
389.466	302.27
389.846	322.6
390.225	317.41
390.605	306.79
390.984	314.92
391.363	323.28
391.743	313.34
392.122	304.75
392.501	307.24
392.881	324.19
393.26	327.8
393.639	296.84
394.018	337.75
394.397	331.87
394.776	318.99
395.155	318.54
395.534	323.96
395.913	328.03
396.292	322.83
396.671	325.77
397.05	319.44
397.429	325.99
397.808	335.71
398.186	343.62
398.565	327.58
398.944	338.65
399.323	320.57
399.701	342.72
400.08	344.3
400.458	333.9
400.837	332.55
401.215	346.78
401.594	325.09
401.972	356.73
402.351	354.47
402.729	340.46
403.107	353.56
403.486	340.23
403.864	343.39
404.242	372.09
404.62	369.61
404.999	351.3
405.377	360.34
405.755	349.5
406.133	356.73
406.511	356.5
406.889	358.76
407.267	371.42
407.645	382.04
408.023	370.06
408.401	378.65
408.779	374.13
409.156	380
409.534	366.9
409.912	370.06
410.29	380
410.667	413.68
411.045	377.52
411.422	410.06
411.8	377.29
412.178	408.48
412.555	392.43
412.933	403.73
413.31	422.04
413.687	395.6
414.065	403.51
414.442	401.47
414.819	396.27
415.197	399.44
415.574	402.6
415.951	413
416.328	401.47
416.705	405.54
417.082	423.39
417.46	411.87
417.837	430.85
418.214	444.86
418.591	422.71
418.967	425.2
419.344	431.98
419.721	434.24
420.098	426.1
420.475	413
420.852	426.78
421.228	410.74
421.605	444.41
421.982	431.75
422.358	444.18
422.735	450.96
423.111	450.06
423.488	449.38
423.864	448.7
424.241	456.61
424.617	458.65
424.994	464.97
425.37	454.35
425.746	468.82
426.123	473.79
426.499	476.72
426.875	487.8
427.251	464.97
427.627	493
428.003	487.12
428.379	485.99
428.756	507.68
429.132	493.9
429.507	482.83
429.883	502.49
430.259	507.23
430.635	504.97
431.011	517.4
431.387	533.67
431.763	530.06
432.138	509.49
432.514	553.11
432.89	519.66
433.265	538.42
433.641	541.13
434.016	549.94
434.392	534.58
434.767	575.71
435.143	567.34
435.518	574.8
435.894	607.12
436.269	584.29
436.644	593.33
437.02	598.3
437.395	614.35
437.77	614.35
438.145	617.74
438.52	624.52
438.895	623.39
439.271	637.85
439.646	640.34
440.021	648.92
440.395	668.36
440.77	641.01
441.145	677.62
441.52	667.23
441.895	678.75
442.27	679.43
442.645	671.07
443.019	693.67
443.394	680.56
443.769	698.41
444.143	686.89
444.518	710.84
444.892	715.59
445.267	728.02
445.641	714.91
446.016	707.23
446.39	719.2
446.764	713.55
447.139	717.85
447.513	735.25
447.887	736.38
448.262	747.9
448.636	763.72
449.01	748.36
449.384	754.68
449.758	751.52
450.132	765.08
450.506	774.34
450.88	771.41
451.254	796.04
451.628	780.9
452.002	801.69
452.376	787.9
452.75	766.66
453.123	781.12
453.497	798.75
453.871	814.57
454.244	830.16
454.618	808.02
454.992	858.86
455.365	855.47
455.739	850.05
456.112	833.78
456.486	877.17
456.859	888.24
457.232	867.22
457.606	880.56
457.979	879.2
458.352	897.73
458.725	918.3
459.099	923.94
459.472	931.4
459.845	905.19
460.218	908.58
460.591	951.06
460.964	950.84
461.337	953.1
461.71	952.42
462.083	968.24
462.456	980.67
462.829	986.54
463.201	999.87
463.574	973.66
463.947	1005.3
464.32	1024.96
464.692	1041.91
465.065	1013.66
465.438	1018.41
465.81	1032.19
466.183	1044.17
466.555	1062.02
466.928	1060.21
467.3	1042.81
467.672	1054.34
468.045	1097.95
468.417	1105.63
468.789	1086.43
469.161	1104.28
469.534	1105.41
469.906	1129.59
470.278	1116.26
470.65	1118.74
471.022	1171.4
471.394	1172.07
471.766	1176.82
472.138	1192.19
472.51	1203.03
472.882	1219.53
473.253	1234.67
473.625	1234.67
473.997	1247.78
474.369	1229.25
474.74	1226.54
475.112	1252.52
475.484	1283.26
475.855	1293.2
476.227	1302.92
476.598	1317.15
476.97	1340.66
477.341	1336.59
477.713	1358.51
478.084	1363.48
478.455	1393.31
478.827	1378.85
479.198	1394.21
479.569	1409.58
479.94	1419.07
480.311	1443.7
480.682	1476.92
481.053	1476.02
481.424	1464.95
481.795	1497.04
482.166	1479.18
482.537	1525.96
482.908	1582.46
483.279	1544.27
483.65	1580.88
484.021	1582.23
484.391	1594.44
484.762	1602.8
485.133	1597.37
485.503	1616.13
485.874	1636.47
486.244	1636.02
486.615	1669.91
486.985	1699.07
487.356	1674.66
487.726	1696.35
488.097	1690.93
488.467	1682.57
488.837	1727.54
489.207	1718.95
489.578	1742.91
489.948	1725.05
490.318	1760.53
490.688	1747.43
491.058	1767.31
491.428	1786.75
491.798	1777.48
492.168	1778.84
492.538	1833.75
492.908	1815.9
493.278	1823.13
493.648	1791.72
494.017	1806.41
494.387	1812.73
494.757	1842.79
495.126	1860.19
495.496	1866.07
495.866	1851.6
496.235	1876.24
496.605	1803.7
496.974	1846.41
497.344	1862.68
497.713	1854.77
498.082	1861.55
498.452	1863.58
498.821	1830.59
499.19	1813.64
499.559	1845.95
499.928	1865.16
500.298	1832.62
500.667	1831.94
501.036	1827.88
501.405	1881.66
501.774	1892.96
502.143	1866.29
502.512	1869.46
502.88	1863.13
503.249	1863.58
503.618	1829.23
503.987	1853.41
504.356	1842.56
504.724	1870.81
505.093	1835.79
505.462	1824.71
505.83	1838.72
506.199	1858.84
506.567	1849.12
506.936	1866.07
507.304	1864.03
507.672	1863.58
508.041	1846.18
508.409	1849.57
508.777	1851.83
509.145	1844.37
509.514	1839.4
509.882	1868.55
510.25	1848.67
510.618	1857.25
510.986	1829.68
511.354	1826.97
511.722	1856.8
512.09	1828.55
512.458	1847.54
512.826	1821.1
513.193	1839.17
513.561	1837.59
513.929	1825.16
514.297	1820.64
514.664	1799.4
515.032	1809.12
515.4	1842.56
515.767	1854.54
516.135	1815.22
516.502	1776.8
516.869	1844.6
517.237	1811.15
517.604	1778.39
517.972	1801.21
518.339	1819.06
518.706	1795.11
519.073	1779.97
519.44	1766.86
519.808	1798.05
520.175	1764.37
520.542	1773.87
520.909	1772.28
521.276	1787.88
521.643	1756.47
522.009	1769.57
522.376	1774.09
522.743	1765.28
523.11	1781.55
523.477	1776.58
523.843	1799.85
524.21	1772.96
524.577	1772.96
524.943	1778.16
525.31	1740.19
525.676	1772.51
526.043	1785.39
526.409	1792.85
526.776	1774.09
527.142	1777.71
527.508	1777.03
527.874	1791.94
528.241	1772.06
528.607	1761.21
528.973	1751.49
529.339	1755.11
529.705	1784.26
530.071	1765.5
530.437	1786.97
530.803	1763.92
531.169	1748.1
531.535	1710.59
531.901	1770.25
532.267	1729.35
532.632	1751.04
532.998	1742.45
533.364	1783.81
533.73	1738.39
534.095	1739.74
534.461	1735
534.826	1771.61
535.192	1739.74
535.557	1772.74
535.923	1780.65
536.288	1758.95
536.653	1738.84
537.019	1737.26
537.384	1721.89
537.749	1712.17
538.114	1726.64
538.479	1727.77
538.845	1736.58
539.21	1716.47
539.575	1720.31
539.94	1722.57
540.305	1730.93
540.67	1705.17
541.034	1693.87
541.399	1667.65
541.764	1695.9
542.129	1686.41
542.494	1673.76
542.858	1699.29
543.223	1692.29
543.587	1693.87
543.952	1688.22
544.316	1669.91
544.681	1689.57
545.045	1699.97
545.41	1686.86
545.774	1668.78
546.138	1649.58
546.503	1681.89
546.867	1679.63
547.231	1663.13
547.595	1642.34
547.959	1665.17
548.324	1685.05
548.688	1659.52
549.052	1657.26
549.416	1641.67
549.779	1619.75
550.143	1615.23
550.507	1631.5
550.871	1662.68
551.235	1640.76
551.599	1628.78
551.962	1636.02
552.326	1647.77
552.689	1633.3
553.053	1650.25
553.417	1624.72
553.78	1627.65
554.143	1603.02
554.507	1617.26
554.87	1632.17
555.234	1619.52
555.597	1605.28
555.96	1614.1
556.323	1590.82
556.686	1589.69
557.05	1599.86
557.413	1600.54
557.776	1608.67
558.139	1636.24
558.502	1613.42
558.865	1616.36
559.228	1618.84
559.59	1610.93
559.953	1624.04
560.316	1631.95
560.679	1643.47
561.041	1625.62
561.404	1603.7
561.767	1639.63
562.129	1587.66
562.492	1621.55
562.854	1620.88
563.217	1595.79
563.579	1605.73
563.941	1643.47
564.304	1625.62
564.666	1605.28
565.028	1619.75
565.39	1609.8
565.753	1658.39
566.115	1644.15
566.477	1594.89
566.839	1662.46
567.201	1662.23
567.563	1686.64
567.925	1643.02
568.287	1657.03
568.648	1650.71
569.01	1658.16
569.372	1656.35
569.734	1651.38
570.095	1674.66
570.457	1677.6
570.819	1642.8
571.18	1672.85
571.542	1673.76
571.903	1661.55
572.265	1672.4
572.626	1671.95
572.987	1705.62
573.349	1700.87
573.71	1705.62
574.071	1705.84
574.432	1716.24
574.794	1713.98
575.155	1728.9
575.516	1709.01
575.877	1714.43
576.238	1748.1
576.599	1710.14
576.96	1716.01
577.32	1724.6
577.681	1739.52
578.042	1717.37
578.403	1756.01
578.763	1763.24
579.124	1755.11
579.485	1762.57
579.845	1744.04
580.206	1760.08
580.566	1756.92
580.927	1765.73
581.287	1762.34
581.648	1775.67
582.008	1769.35
582.368	1783.58
582.728	1762.57
583.089	1760.53
583.449	1740.65
583.809	1756.92
584.169	1793.3
584.529	1741.78
584.889	1749.91
585.249	1760.98
585.609	1784.49
585.969	1775.45
586.329	1756.24
586.688	1768.44
587.048	1772.51
587.408	1777.93
587.768	1797.82
588.127	1795.33
588.487	1777.48
588.846	1783.13
589.206	1779.06
589.565	1743.13
589.925	1794.88
590.284	1798.95
590.643	1793.53
591.003	1803.7
591.362	1784.04
591.721	1788.33
592.08	1777.48
592.44	1784.26
592.799	1778.39
593.158	1773.87
593.517	1795.56
593.876	1756.69
594.235	1767.54
594.593	1826.75
594.952	1784.71
595.311	1778.16
595.67	1796.24
596.029	1788.33
596.387	1793.53
596.746	1772.51
597.104	1756.47
597.463	1796.69
597.822	1768.22
598.18	1778.61
598.538	1790.14
598.897	1776.58
599.255	1766.86
599.613	1773.87
599.972	1798.5
600.33	1795.56
600.688	1767.31
601.046	1770.02
601.404	1793.53
601.762	1784.04
602.12	1791.27
602.478	1790.36
602.836	1799.4
603.194	1773.87
603.552	1784.26
603.91	1771.38
604.268	1803.47
604.625	1770.7
604.983	1787.88
605.341	1793.53
605.698	1809.57
606.056	1799.85
606.413	1756.69
606.771	1790.59
607.128	1809.35
607.485	1796.69
607.843	1809.12
608.2	1775.22
608.557	1783.81
608.914	1794.88
609.272	1802.34
609.629	1789.01
609.986	1765.5
610.343	1783.13
610.7	1795.33
611.057	1776.13
611.414	1798.27
611.771	1789.91
612.127	1808.67
612.484	1814.32
612.841	1819.97
613.198	1791.72
613.554	1785.84
613.911	1794.66
614.267	1786.52
614.624	1788.1
614.98	1807.54
615.337	1767.09
615.693	1804.83
616.05	1791.94
616.406	1810.02
616.762	1809.57
617.118	1788.55
617.475	1825.39
617.831	1804.83
618.187	1835.33
618.543	1800.76
618.899	1797.37
619.255	1811.83
619.611	1815.67
619.967	1809.35
620.323	1813.19
620.678	1822.23
621.034	1805.5
621.39	1807.09
621.746	1827.42
622.101	1849.8
622.457	1812.96
622.812	1805.96
623.168	1807.09
623.523	1802.57
623.879	1810.93
624.234	1823.81
624.589	1822.23
624.945	1853.86
625.3	1807.99
625.655	1840.76
626.01	1857.48
626.365	1835.33
626.72	1811.83
627.075	1824.71
627.43	1840.53
627.785	1833.07
628.14	1881.66
628.495	1846.18
628.85	1840.3
629.205	1824.49
629.559	1800.53
629.914	1820.19
630.269	1828.78
630.623	1825.84
630.978	1853.41
631.332	1801.21
631.687	1812.51
632.041	1835.11
632.396	1818.61
632.75	1831.49
633.104	1847.76
633.459	1847.76
633.813	1838.27
634.167	1873.3
634.521	1830.59
634.875	1821.77
635.229	1813.64
635.583	1801.66
635.937	1873.52
636.291	1866.52
636.645	1860.42
636.999	1806.41
637.352	1812.06
637.706	1832.17
638.06	1814.99
638.413	1795.79
638.767	1797.82
639.121	1813.86
639.474	1812.73
639.828	1790.59
640.181	1824.49
640.534	1793.98
640.888	1824.26
641.241	1812.73
641.594	1850.47
641.947	1795.56
642.301	1793.53
642.654	1827.65
643.007	1802.57
643.36	1802.11
643.713	1807.76
644.066	1833.75
644.419	1824.71
644.771	1817.25
645.124	1815.9
645.477	1819.06
645.83	1796.24
646.182	1760.98
646.535	1775.45
646.888	1804.6
647.24	1772.51
647.593	1796.24
647.945	1802.34
648.298	1815.45
648.65	1798.72
649.002	1791.72
649.355	1823.36
649.707	1795.56
650.059	1797.37
650.411	1812.28
650.763	1824.49
651.115	1817.93
651.467	1861.32
651.819	1856.35
652.171	1864.94
652.523	1834.66
652.875	1820.42
653.227	1828.55
653.578	1851.15
653.93	1854.77
654.282	1849.8
654.633	1863.35
654.985	1850.25
655.337	1851.83
655.688	1875.78
656.039	1862.23
656.391	1871.94
656.742	1874.2
657.094	1865.16
657.445	1859.97
657.796	1845.73
658.147	1843.92
658.498	1855.9
658.849	1878.72
659.2	1853.86
659.551	1866.52
659.902	1866.74
660.253	1859.97
660.604	1865.16
660.955	1860.64
661.306	1858.84
661.656	1880.3
662.007	1888.89
662.358	1855.45
662.708	1856.8
663.059	1855.22
663.409	1842.56
663.76	1859.29
664.11	1888.67
664.461	1854.77
664.811	1870.13
665.161	1848.89
665.511	1858.61
665.862	1846.41
666.212	1880.3
666.562	1873.52
666.912	1848.21
667.262	1879.63
667.612	1835.79
667.962	1854.32
668.312	1883.02
668.662	1865.16
669.011	1854.77
669.361	1870.13
669.711	1837.59
670.06	1826.29
670.41	1869.46
670.76	1824.94
671.109	1862.9
671.459	1824.94
671.808	1858.16
672.157	1860.87
672.507	1860.87
672.856	1871.26
673.205	1833.53
673.554	1850.7
673.904	1819.06
674.253	1840.08
674.602	1834.66
674.951	1821.32
675.3	1790.59
675.649	1853.41
675.998	1828.1
676.346	1840.53
676.695	1805.28
677.044	1780.19
677.393	1829.68
677.741	1848.21
678.09	1800.98
678.438	1810.7
678.787	1802.11
679.135	1813.64
679.484	1803.24
679.832	1806.41
680.181	1783.36
680.529	1765.96
680.877	1790.14
681.225	1779.29
681.573	1780.65
681.922	1785.16
682.27	1791.49
682.618	1778.16
682.966	1769.35
683.314	1772.96
683.661	1775
684.009	1753.53
684.357	1785.16
684.705	1758.72
685.053	1758.27
685.4	1743.36
685.748	1751.04
686.095	1757.37
686.443	1734.77
686.79	1768.67
687.138	1737.71
687.485	1750.82
687.832	1718.95
688.18	1735
688.527	1716.24
688.874	1705.84
689.221	1736.8
689.568	1723.92
689.915	1698.16
690.262	1692.51
690.609	1705.84
690.956	1692.74
691.303	1726.18
691.65	1670.14
691.997	1672.4
692.344	1668.78
692.69	1658.16
693.037	1666.3
693.383	1671.04
693.73	1654.77
694.077	1642.57
694.423	1668.33
694.769	1651.38
695.116	1654.09
695.462	1648.45
695.808	1657.48
696.155	1632.85
696.501	1633.08
696.847	1640.31
697.193	1635.34
697.539	1616.36
697.885	1615.45
698.231	1617.26
698.577	1615
698.923	1617.49
699.269	1622.23
699.614	1596.02
699.96	1585.62
700.306	1594.44
700.651	1641.44
700.997	1556.7
701.342	1594.89
701.688	1586.75
702.033	1584.72
702.379	1579.52
702.724	1577.71
703.069	1601.89
703.415	1567.77
703.76	1549.01
704.105	1586.98
704.45	1579.75
704.795	1547.43
705.14	1557.6
705.485	1553.98
705.83	1573.42
706.175	1558.5
706.52	1564.61
706.865	1539.07
707.209	1571.16
707.554	1552.85
707.899	1583.14
708.243	1560.54
708.588	1583.81
708.932	1549.01
709.277	1534.55
709.621	1554.89
709.966	1573.42
710.31	1569.8
710.654	1557.6
710.998	1568
711.342	1540.2
711.687	1552.18
712.031	1560.54
712.375	1570.03
712.719	1564.83
713.063	1569.35
713.407	1547.88
713.75	1551.72
714.094	1560.09
714.438	1566.19
714.782	1561.22
715.125	1567.54
715.469	1569.58
715.812	1582.23
716.156	1545.17
716.499	1588.56
716.843	1560.54
717.186	1560.76
717.53	1584.27
717.873	1557.6
718.216	1578.39
718.559	1583.36
718.902	1586.75
719.246	1579.29
719.589	1558.73
719.932	1572.52
720.275	1602.8
720.617	1608.45
720.96	1593.76
721.303	1585.17
721.646	1615.23
721.989	1589.01
722.331	1599.63
722.674	1590.82
723.016	1617.49
723.359	1607.54
723.701	1632.4
724.044	1634.89
724.386	1605.96
724.729	1653.64
725.071	1629.24
725.413	1673.53
725.755	1634.43
726.097	1651.61
726.439	1646.86
726.782	1647.99
727.124	1655
727.465	1668.56
727.807	1670.59
728.149	1685.05
728.491	1669.24
728.833	1676.02
729.175	1662
729.516	1697.03
729.858	1676.47
730.199	1696.81
730.541	1704.49
730.882	1706.07
731.224	1719.86
731.565	1711.95
731.906	1730.48
732.248	1748.33
732.589	1735.9
732.93	1752.62
733.271	1771.61
733.612	1733.19
733.953	1771.38
734.294	1797.59
734.635	1766.63
734.976	1789.01
735.317	1781.78
735.658	1791.94
735.999	1820.42
736.339	1822
736.68	1855.9
737.021	1845.73
737.361	1844.6
737.702	1864.48
738.042	1884.6
738.383	1899.06
738.723	1870.81
739.063	1907.65
739.404	1938.61
739.744	1921.43
740.084	1955.78
740.424	1958.04
740.764	1954.2
741.104	1979.28
741.444	1970.92
741.784	1996.68
742.124	2011.83
742.464	2060.64
742.804	2020.86
743.143	2071.94
743.483	2108.32
743.823	2099.51
744.162	2136.34
744.502	2144.7
744.841	2185.83
745.181	2179.05
745.52	2209.33
745.86	2269.22
746.199	2269.45
746.538	2265.38
746.877	2301.76
747.216	2338.14
747.556	2349.67
747.895	2395.54
748.234	2408.43
748.573	2448.88
748.911	2467.18
749.25	2498.59
749.589	2516.67
749.928	2553.51
750.267	2623.56
750.605	2660.4
750.944	2662.43
751.283	2731.35
751.621	2730.68
751.96	2798.02
752.298	2869.2
752.636	2894.29
752.975	2916.21
753.313	2972.48
753.651	3054.51
753.989	3070.33
754.327	3113.72
754.666	3155.3
755.004	3202.53
755.342	3306.03
755.679	3328.18
756.017	3380.6
756.355	3457.89
756.693	3451.11
757.031	3549.86
757.368	3562.97
757.706	3653.14
758.044	3650.2
758.381	3799.8
758.719	3793.7
759.056	3860.59
759.394	3923.64
759.731	3986.91
760.068	4051.55
760.405	4112.79
760.743	4115.5
761.08	4258.77
761.417	4286.57
761.754	4351.88
762.091	4398.2
762.428	4458.54
762.765	4515.94
763.102	4598.65
763.438	4618.76
763.775	4691.08
764.112	4675.26
764.449	4789.38
764.785	4785.31
765.122	4836.61
765.458	4927
765.795	5006.1
766.131	5064.85
766.467	5119.77
766.804	5116.38
767.14	5150.5
767.476	5164.96
767.812	5248.12
768.148	5390.95
768.485	5349.82
768.821	5383.71
769.157	5469.36
769.492	5481.79
769.828	5594.33
770.164	5551.62
770.5	5600.66
770.836	5621.9
771.171	5707.77
771.507	5682.46
771.842	5703.71
