Data from blue_clamp_base_FLMS001491_00003.txt Node
Date: Wed Feb 08 15:15:28 GMT 2017
User: dcchb
Spectrometer: FLMS00149
Trigger mode: 0
Integration Time (sec): 2.000000E-2
Scans to average: 10
Electric dark correction enabled: true
Nonlinearity correction enabled: false
Boxcar width: 0
XAxis mode: Wavelengths
Number of Pixels in Spectrum: 2048
>>>>>Begin Spectral Data<<<<<
341.393	-43.25
341.776	-43.25
342.16	-43.25
342.543	-47.09
342.927	-66.98
343.31	-55.22
343.693	-70.82
344.077	-67.65
344.46	-71.95
344.843	-71.5
345.226	-45.51
345.61	-31.27
345.993	-40.08
346.376	11.67
346.759	10.31
347.142	17.99
347.525	53.02
347.908	63.64
348.291	105.68
348.674	102.51
349.057	89.18
349.44	112.68
349.823	127.37
350.206	128.05
350.588	186.35
350.971	194.71
351.354	212.11
351.737	217.31
352.119	215.5
352.502	253.92
352.884	253.24
353.267	242.17
353.65	272.68
354.032	276.29
354.414	313.58
354.797	314.03
355.179	317.42
355.562	299.57
355.944	289.63
356.326	331.88
356.709	315.16
357.091	307.25
357.473	315.39
357.855	328.49
358.238	322.84
358.62	337.76
359.002	327.82
359.384	315.16
359.766	328.72
360.148	328.95
360.53	314.71
360.912	331.21
361.294	335.73
361.676	296.63
362.057	328.49
362.439	316.07
362.821	310.19
363.203	316.74
363.584	311.09
363.966	326.91
364.348	321.49
364.729	326.91
365.111	314.03
365.493	317.42
365.874	298.21
366.256	279.68
366.637	295.05
367.019	282.39
367.4	317.65
367.781	302.96
368.163	303.41
368.544	297.76
368.925	319.68
369.306	299.57
369.688	297.08
370.069	310.64
370.45	306.57
370.831	323.52
371.212	316.52
371.593	274.94
371.974	281.26
372.355	291.21
372.736	306.8
373.117	294.37
373.498	332.56
373.879	307.48
374.26	321.26
374.641	291.21
375.021	305.44
375.402	317.87
375.783	309.74
376.163	313.58
376.544	309.51
376.925	306.57
377.305	307.03
377.686	318.1
378.066	301.38
378.447	327.36
378.827	328.95
379.208	323.97
379.588	307.93
379.968	330.98
380.349	335.73
380.729	335.95
381.109	312.68
381.489	319.23
381.87	332.11
382.25	327.59
382.63	327.59
383.01	343.86
383.39	323.07
383.77	333.01
384.15	324.65
384.53	336.86
384.91	338.89
385.29	340.92
385.67	338.44
386.049	353.13
386.429	339.79
386.809	365.78
387.189	357.65
387.568	351.32
387.948	354.93
388.328	342.05
388.707	349.96
389.087	345.44
389.466	361.94
389.846	366.01
390.225	380.02
390.605	373.92
390.984	368.27
391.363	387.93
391.743	377.08
392.122	387.48
392.501	375.5
392.881	376.85
393.26	378.89
393.639	387.48
394.018	386.8
394.397	397.64
394.776	408.04
395.155	384.54
395.534	405.1
395.913	398.1
396.292	408.27
396.671	416.63
397.05	410.53
397.429	443.52
397.808	409.17
398.186	438.77
398.565	425.67
398.944	418.89
399.323	448.49
399.701	449.62
400.08	455.72
400.458	455.04
400.837	464.08
401.215	459.11
401.594	469.73
401.972	466.8
402.351	455.72
402.729	474.03
403.107	488.94
403.486	478.32
403.864	484.87
404.242	504.08
404.62	480.81
404.999	505.21
405.377	504.31
405.755	503.63
406.133	519.22
406.511	546.79
406.889	530.07
407.267	552.67
407.645	553.12
408.023	543.4
408.401	526.46
408.779	550.41
409.156	577.3
409.534	557.19
409.912	556.28
410.29	595.38
410.667	591.54
411.045	592.89
411.422	624.31
411.8	612.55
412.178	607.58
412.555	653.01
412.933	631.31
413.31	622.95
413.687	632.67
414.065	653.91
414.442	646.9
414.819	650.07
415.197	650.29
415.574	676.73
415.951	671.31
416.328	688.71
416.705	685.77
417.082	693.46
417.46	691.65
417.837	712.89
418.214	726.9
418.591	736.85
418.967	732.78
419.344	757.64
419.721	741.36
420.098	755.15
420.475	742.49
420.852	783.62
421.228	738.43
421.605	770.29
421.982	796.96
422.358	790.18
422.735	803.28
423.111	801.7
423.488	801.02
423.864	817.29
424.241	832.21
424.617	801.02
424.994	860.68
425.37	848.93
425.746	862.72
426.123	856.16
426.499	867.01
426.875	885.54
427.251	917.63
427.627	917.18
428.003	908.59
428.379	925.09
428.756	937.29
429.132	953.56
429.507	987.23
429.883	963.05
430.259	976.61
430.635	1008.7
431.011	1009.83
431.387	1040.34
431.763	1049.15
432.138	1055.93
432.514	1060.68
432.89	1090.73
433.265	1070.85
433.641	1121.02
434.016	1107.23
434.392	1127.8
434.767	1152.2
435.143	1162.37
435.518	1171.18
435.894	1164.86
436.269	1199.21
436.644	1173.67
437.02	1223.84
437.395	1249.6
437.77	1257.28
438.145	1254.8
438.52	1283.72
438.895	1291.18
439.271	1324.17
439.646	1304.06
440.021	1354
440.395	1365.08
440.77	1342.48
441.145	1356.94
441.52	1414.79
441.895	1370.73
442.27	1391.52
442.645	1413.89
443.019	1455.02
443.394	1416.15
443.769	1478.07
444.143	1454.11
444.518	1499.08
444.892	1472.42
445.267	1461.57
445.641	1481.91
446.016	1516.03
446.39	1523.94
446.764	1539.76
447.139	1569.82
447.513	1525.75
447.887	1572.08
448.262	1565.75
448.636	1574.56
449.01	1595.58
449.384	1624.73
449.758	1618.18
450.132	1639.65
450.506	1668.57
450.88	1660.66
451.254	1706.99
451.628	1692.53
452.002	1725.29
452.376	1707.67
452.75	1739.53
453.123	1757.16
453.497	1785.63
453.871	1786.76
454.244	1814.1
454.618	1833.77
454.992	1880.32
455.365	1873.54
455.739	1890.71
456.112	1928.9
456.486	1937.72
456.859	1963.03
457.232	1987.89
457.606	1988.11
457.979	2015.68
458.352	2052.29
458.725	2083.25
459.099	2079.63
459.472	2114.89
459.845	2123.93
460.218	2136.58
460.591	2180.65
460.964	2192.17
461.337	2227.65
461.71	2257.48
462.083	2253.87
462.456	2279.4
462.829	2302.68
463.201	2338.16
463.574	2329.35
463.947	2380.64
464.32	2412.51
464.692	2417.25
465.065	2444.82
465.438	2469
465.81	2533.18
466.183	2544.93
466.555	2583.35
466.928	2577.02
467.3	2606.4
467.672	2633.52
468.045	2628.77
468.417	2714.19
468.789	2702.22
469.161	2704.7
469.534	2749.22
469.906	2801.42
470.278	2822.89
470.65	2864.92
471.022	2941.53
471.394	2942.21
471.766	2983.79
472.138	2993.73
472.51	3017.69
472.882	3061.53
473.253	3092.04
473.625	3154.86
473.997	3199.38
474.369	3240.51
474.74	3238.93
475.112	3298.59
475.484	3347.85
475.855	3396.21
476.227	3416.77
476.598	3503.55
476.97	3563.89
477.341	3599.59
477.713	3643.21
478.084	3659.03
478.455	3725.92
478.827	3741.06
479.198	3845.01
479.569	3823.77
479.94	3921.85
480.311	3934.73
480.682	4002.3
481.053	4081.39
481.424	4122.74
481.795	4138.56
482.166	4183.99
482.537	4235.28
482.908	4343.08
483.279	4342.4
483.65	4389.86
484.021	4496.75
484.391	4542.17
484.762	4539
485.133	4519.8
485.503	4581.49
485.874	4641.83
486.244	4699.9
486.615	4747.81
486.985	4815.61
487.356	4849.96
487.726	4918.66
488.097	4927.02
488.467	4972.89
488.837	5047.24
489.207	5073.91
489.578	5147.58
489.948	5158.65
490.318	5198.65
490.688	5192.32
491.058	5291.98
491.428	5344.41
491.798	5362.26
492.168	5419.66
492.538	5410.17
492.908	5468.02
493.278	5505.99
493.648	5479.32
494.017	5566.77
494.387	5598.86
494.757	5606.77
495.126	5631.86
495.496	5618.52
495.866	5657.39
496.235	5697.84
496.605	5766.32
496.974	5769.71
497.344	5792.08
497.713	5787.79
498.082	5792.76
498.452	5905.97
498.821	5830.5
499.19	5856.26
499.559	5911.62
499.928	5914.11
500.298	5917.05
500.667	5919.76
501.036	5955.24
501.405	5975.13
501.774	5983.26
502.143	6025.52
502.512	6044.95
502.88	6033.88
503.249	6104.84
503.618	6016.03
503.987	6099.42
504.356	6156.36
504.724	6155.91
505.093	6115.46
505.462	6151.62
505.83	6176.48
506.199	6150.94
506.567	6267.55
506.936	6248.79
507.304	6295.34
507.672	6296.7
508.041	6303.7
508.409	6334.66
508.777	6324.04
509.145	6381.44
509.514	6393.42
509.882	6425.51
510.25	6376.7
510.618	6442.68
510.986	6451.5
511.354	6461.21
511.722	6517.48
512.09	6517.03
512.458	6559.52
512.826	6554.77
513.193	6600.42
513.561	6589.57
513.929	6579.18
514.297	6651.49
514.664	6646.97
515.032	6661.21
515.4	6711.6
515.767	6670.02
516.135	6734.2
516.502	6667.99
516.869	6727.42
517.237	6733.98
517.604	6734.88
517.972	6797.02
518.339	6820.98
518.706	6829.79
519.073	6863.92
519.44	6863.69
519.808	6922.67
520.175	6867.76
520.542	6965.61
520.909	6916.8
521.276	6924.03
521.643	6999.05
522.009	7053.97
522.376	7079.28
522.743	7083.8
523.11	7131.48
523.477	7165.15
523.843	7171.93
524.21	7239.95
524.577	7248.99
524.943	7227.52
525.31	7291.93
525.676	7323.79
526.043	7336.9
526.409	7330.8
526.776	7401.98
527.142	7460.74
527.508	7513.39
527.874	7485.37
528.241	7573.5
528.607	7540.51
528.973	7543.9
529.339	7574.41
529.705	7627.51
530.071	7681.07
530.437	7660.28
530.803	7727.17
531.169	7750.67
531.535	7667.28
531.901	7780.73
532.267	7747.28
532.632	7800.39
532.998	7866.15
533.364	7884.68
533.73	7888.07
534.095	7924.45
534.461	7913.15
534.826	7918.13
535.192	7990.44
535.557	7997.67
535.923	7995.64
536.288	8014.17
536.653	8053.26
537.019	8036.77
537.384	8061.4
537.749	8147.5
538.114	8176.42
538.479	8139.59
538.845	8163.32
539.21	8122.41
539.575	8159.7
539.94	8236.53
540.305	8208.06
540.67	8187.27
541.034	8276.53
541.399	8293.26
541.764	8239.92
542.129	8336.19
542.494	8289.64
542.858	8367.15
543.223	8317.66
543.587	8408.51
543.952	8378.45
544.316	8412.35
544.681	8428.85
545.045	8399.92
545.41	8498.22
545.774	8526.7
546.138	8458.22
546.503	8477.66
546.867	8560.82
547.231	8540.26
547.595	8617.99
547.959	8602.4
548.324	8584.1
548.688	8653.92
549.052	8640.59
549.416	8630.65
549.779	8613.02
550.143	8620.48
550.507	8768.72
550.871	8679.01
551.235	8691.89
551.599	8776.86
551.962	8772.79
552.326	8797.42
552.689	8796.29
553.053	8727.82
553.417	8767.82
553.78	8873.81
554.143	8814.37
554.507	8850.76
554.87	8818.67
555.234	8877.87
555.597	8852.56
555.96	8893.47
556.323	8926.01
556.686	8890.08
557.05	9031.99
557.413	8991.09
557.776	8941.6
558.139	9066.34
558.502	9003.07
558.865	9083.74
559.228	9090.52
559.59	9100.01
559.953	9132.78
560.316	9159
560.679	9241.03
561.041	9187.02
561.404	9250.29
561.767	9281.93
562.129	9285.55
562.492	9327.58
562.854	9291.65
563.217	9264.76
563.579	9322.83
563.941	9357.86
564.304	9366
564.666	9423.17
565.028	9463.62
565.39	9471.98
565.753	9518.54
566.115	9581.36
566.477	9564.86
566.839	9540
567.201	9629.94
567.563	9616.84
567.925	9719.43
568.287	9747.46
568.648	9711.98
569.01	9809.6
569.372	9780.68
569.734	9817.06
570.095	9849.37
570.457	9877.85
570.819	9938.19
571.18	9896.38
571.542	9988.35
571.903	10009.6
572.265	9980.9
572.626	10040.1
572.987	10034.68
573.349	10158.29
573.71	10146.32
574.071	10040.33
574.432	10135.24
574.794	10175.92
575.155	10238.29
575.516	10097.95
575.877	10286.88
576.238	10259.31
576.599	10284.39
576.96	10270.38
577.32	10306.54
577.681	10335.46
578.042	10328.91
578.403	10377.72
578.763	10380.89
579.124	10464.05
579.485	10434.9
579.845	10530.03
580.206	10453.2
580.566	10437.15
580.927	10493.65
581.287	10547.89
581.648	10474.44
582.008	10632.86
582.368	10608.68
582.728	10663.59
583.089	10577.94
583.449	10582.24
583.809	10631.95
584.169	10570.03
584.529	10543.37
584.889	10716.02
585.249	10593.54
585.609	10610.94
585.969	10679.41
586.329	10616.13
586.688	10636.47
587.048	10625.4
587.408	10730.48
587.768	10624.04
588.127	10711.72
588.487	10656.58
588.846	10730.93
589.206	10664.04
589.565	10683.02
589.925	10709.01
590.284	10686.19
590.643	10766.19
591.003	10720.09
591.362	10766.19
591.721	10786.75
592.08	10768.45
592.44	10800.76
592.799	10796.69
593.158	10807.54
593.517	10847.54
593.876	10874.88
594.235	10748.79
594.593	10757.6
594.952	10861.1
595.311	10765.96
595.67	10795.56
596.029	10896.58
596.387	10845.28
596.746	10914.43
597.104	10848.9
597.463	10833.08
597.822	10885.05
598.18	10752.4
598.538	10857.71
598.897	10978.16
599.255	10879.86
599.613	10899.06
599.972	10840.99
600.33	10885.5
600.688	10890.25
601.046	10942.45
601.404	10997.14
601.762	10949.46
602.12	11035.78
602.478	10989.68
602.836	11039.62
603.194	10949.01
603.552	10961.21
603.91	10924.83
604.268	10984.49
604.625	10896.13
604.983	11018.38
605.341	11000.98
605.698	11027.2
606.056	10984.49
606.413	10998.95
606.771	11025.84
607.128	11042.56
607.485	11066.74
607.843	11048.66
608.2	11091.15
608.557	11107.42
608.914	11055.44
609.272	11125.72
609.629	11163.69
609.986	11171.15
610.343	11122.79
610.7	11159.4
611.057	11156.91
611.414	11188.55
611.771	11167.31
612.127	11247.98
612.484	11229.22
612.841	11283.01
613.198	11226.74
613.554	11220.64
613.911	11327.75
614.267	11298.15
614.624	11280.75
614.98	11323.91
615.337	11429.45
615.693	11404.81
616.05	11290.01
616.406	11361.2
616.762	11404.14
617.118	11398.03
617.475	11420.18
617.831	11414.08
618.187	11466.73
618.543	11443.68
618.899	11486.62
619.255	11466.73
619.611	11444.59
619.967	11468.09
620.323	11512.15
620.678	11438.48
621.034	11471.93
621.39	11452.5
621.746	11466.96
622.101	11604.81
622.457	11480.52
622.812	11554.87
623.168	11609.55
623.523	11542.66
623.879	11654.07
624.234	11563.23
624.589	11600.51
624.945	11674.86
625.3	11622.21
625.655	11547.41
626.01	11624.69
626.365	11654.52
626.72	11658.82
627.075	11670.34
627.43	11710.57
627.785	11594.86
628.14	11715.77
628.495	11654.75
628.85	11756.89
629.205	11702.88
629.559	11763.45
629.914	11708.76
630.269	11815.88
630.623	11763.67
630.978	11817.91
631.332	11830.56
631.687	11878.47
632.041	11772.71
632.396	11853.84
632.75	11842.09
633.104	11872.15
633.459	11761.87
633.813	11830.79
634.167	11778.14
634.521	11812.94
634.875	11948.75
635.229	11915.31
635.583	11760.51
635.937	11892.48
636.291	11843.22
636.645	11885.7
636.999	11885.25
637.352	11886.16
637.706	11905.59
638.06	11937.45
638.413	11907.4
638.767	11895.2
639.121	11870.34
639.474	11825.37
639.828	11908.98
640.181	11928.19
640.534	11939.49
640.888	11927.51
641.241	11942.2
641.594	11919.38
641.947	11957.34
642.301	11921.64
642.654	11911.24
643.007	12008.19
643.36	12034.63
643.713	11972.48
644.066	12063.33
644.419	11973.61
644.771	11933.84
645.124	11953.27
645.477	11898.59
645.83	11838.7
646.182	11813.62
646.535	11753.05
646.888	11798.48
647.24	11771.81
647.593	11844.58
647.945	11812.26
648.298	11785.37
648.65	11748.08
649.002	11657.69
649.355	11911.92
649.707	11862.43
650.059	11925.03
650.411	12128.18
650.763	12232.81
651.115	12295.41
651.467	12247.28
651.819	12356.88
652.171	12346.03
652.523	12276.2
652.875	12305.58
653.227	12202.31
653.578	12263.1
653.93	12324.79
654.282	12298.57
654.633	12310.33
654.985	12359.36
655.337	12296.54
655.688	12367.5
656.039	12409.76
656.391	12369.76
656.742	12379.48
657.094	12445.01
657.445	12490.66
657.796	12428.52
658.147	12413.15
658.498	12457.44
658.849	12464.67
659.2	12489.98
659.551	12395.07
659.902	12492.47
660.253	12473.03
660.604	12569.08
660.955	12461.28
661.306	12549.87
661.656	12460.6
662.007	12496.99
662.358	12531.56
662.708	12550.09
663.059	12522.52
663.409	12469.64
663.76	12562.75
664.11	12538.12
664.461	12541.96
664.811	12533.6
665.161	12557.33
665.511	12527.04
665.862	12512.13
666.212	12559.13
666.562	12544.44
666.912	12534.5
667.262	12535.4
667.612	12485.46
667.962	12542.86
668.312	12491.56
668.662	12551.22
669.011	12523.2
669.361	12334.28
669.711	12456.31
670.06	12394.17
670.41	12398.46
670.76	12297.9
671.109	12392.58
671.459	12439.14
671.808	12285.24
672.157	12403.88
672.507	12210.22
672.856	12369.76
673.205	12205.47
673.554	12259.48
673.904	12211.35
674.253	12270.78
674.602	12140.16
674.951	12028.98
675.3	12027.17
675.649	12193.94
675.998	12101.52
676.346	12064.23
676.695	12183.1
677.044	11988.98
677.393	12114.17
677.741	12033.5
678.09	12029.66
678.438	11983.78
678.787	12028.98
679.135	11943.33
679.484	11853.84
679.832	11932.93
680.181	11812.03
680.529	11835.31
680.877	11845.25
681.225	11874.18
681.573	11845.03
681.922	11755.09
682.27	11753.05
682.618	11719.83
682.966	11687.97
683.314	11708.76
683.661	11646.16
684.009	11640.97
684.357	11584.02
684.705	11565.94
685.053	11547.63
685.4	11566.84
685.748	11504.92
686.095	11512.38
686.443	11502.21
686.79	11467.41
687.138	11497.92
687.485	11476.68
687.832	11404.81
688.18	11402.33
688.527	11364.81
688.874	11278.26
689.221	11318.04
689.568	11257.47
689.915	11312.84
690.262	11391.48
690.609	11243.46
690.956	11213.86
691.303	11266.29
691.65	11134.31
691.997	11139.74
692.344	11138.15
692.69	11135.89
693.037	11174.99
693.383	11036.69
693.73	11069.68
694.077	11034.88
694.423	11039.4
694.769	11022.22
695.116	10998.5
695.462	10989
695.808	10951.04
696.155	10974.09
696.501	10879.4
696.847	10878.27
697.193	10801.44
697.539	10923.47
697.885	10859.74
698.231	10824.72
698.577	10840.53
698.923	10842.34
699.269	10730.48
699.614	10794.43
699.96	10687.54
700.306	10689.8
700.651	10755.11
700.997	10677.6
701.342	10704.72
701.688	10769.58
702.033	10634.44
702.379	10664.72
702.724	10574.55
703.069	10612.52
703.415	10520.32
703.76	10660.2
704.105	10640.54
704.45	10598.28
704.795	10581.56
705.14	10484.16
705.485	10513.76
705.83	10504.05
706.175	10532.07
706.52	10442.58
706.865	10507.66
707.209	10465.4
707.554	10420.88
707.899	10459.08
708.243	10444.61
708.588	10438.28
708.932	10412.97
709.277	10393.54
709.621	10414.56
709.966	10368.91
710.31	10350.83
710.654	10267.22
710.998	10276.26
711.342	10321.9
711.687	10339.3
712.031	10344.05
712.375	10295.01
712.719	10258.4
713.063	10299.53
713.407	10311.06
713.75	10247.56
714.094	10243.71
714.438	10257.95
714.782	10248.69
715.125	10219.08
715.469	10338.63
715.812	10258.4
716.156	10262.24
716.499	10212.3
716.843	10296.37
717.186	10245.07
717.53	10290.27
717.873	10222.02
718.216	10282.36
718.559	10185.18
718.902	10174.79
719.246	10226.09
719.589	10199.2
719.932	10096.37
720.275	10210.95
720.617	10110.84
720.96	10168.24
721.303	10217.73
721.646	10150.61
721.989	10119.88
722.331	10189.48
722.674	10123.04
723.016	10112.19
723.359	10129.37
723.701	10158.74
724.044	10139.31
724.386	10070.84
724.729	10139.54
725.071	10074.23
725.413	10109.48
725.755	10114.9
726.097	10027.22
726.439	10061.57
726.782	10137.95
727.124	10241.23
727.465	10104.51
727.807	10156.48
728.149	10114
728.491	10035.13
728.833	10162.59
729.175	10095.24
729.516	10164.85
729.858	10099.99
730.199	10150.38
730.541	10140.89
730.882	10118.29
731.224	10173.43
731.565	10111.06
731.906	10143.38
732.248	10128.46
732.589	10196.94
732.93	10144.73
733.271	10157.39
733.612	10197.84
733.953	10180.66
734.294	10176.6
734.635	10137.05
734.976	10241.68
735.317	10215.47
735.658	10225.18
735.999	10220.21
736.339	10208.01
736.68	10229.7
737.021	10247.1
737.361	10196.26
737.702	10313.54
738.042	10383.15
738.383	10267.67
738.723	10361.45
739.063	10356.03
739.404	10309.7
739.744	10424.05
740.084	10446.42
740.424	10343.37
740.764	10379.53
741.104	10459.53
741.444	10502.69
741.784	10495.46
742.124	10556.47
742.464	10551.73
742.804	10499.3
743.143	10533.2
743.483	10538.85
743.823	10565.06
744.162	10570.71
744.502	10654.1
744.841	10626.3
745.181	10655
745.52	10642.57
745.86	10680.54
746.199	10731.61
746.538	10784.49
746.877	10818.39
747.216	10898.16
747.556	10835.11
747.895	10835.34
748.234	10829.01
748.573	10923.7
748.911	10927.99
749.25	11005.28
749.589	10914.88
749.928	11034.2
750.267	11053.18
750.605	11071.26
750.944	11135.44
751.283	11165.72
751.621	11137.93
751.96	11066.52
752.298	11111.94
752.636	11213.18
752.975	11189.68
753.313	11215.21
753.651	11404.81
753.989	11313.29
754.327	11350.8
754.666	11326.17
755.004	11394.19
755.342	11492.49
755.679	11377.92
756.017	11414.98
756.355	11507.18
756.693	11531.59
757.031	11589.22
757.368	11490.46
757.706	11509.44
758.044	11552.38
758.381	11528.88
758.719	11569.1
