Data from blue_surface_keyboard_FLMS001491_077.txt Node
Date: Tue Feb 07 11:13:38 GMT 2017
User: dcchb
Spectrometer: FLMS00149
Trigger mode: 0
Integration Time (sec): 2.000000E-2
Scans to average: 10
Electric dark correction enabled: true
Nonlinearity correction enabled: false
Boxcar width: 0
XAxis mode: Wavelengths
Number of Pixels in Spectrum: 2048
>>>>>Begin Spectral Data<<<<<
341.393	-9.76
341.776	-9.76
342.16	-9.76
342.543	-51.34
342.927	-77.1
343.31	-50.21
343.693	-65.13
344.077	-73.03
344.46	-64.22
344.843	-59.25
345.226	-51.57
345.61	-32.13
345.993	-27.39
346.376	13.29
346.759	21.43
347.142	27.08
347.525	35.44
347.908	54.19
348.291	78.15
348.674	86.28
349.057	107.07
349.44	126.28
349.823	134.64
350.206	151.14
350.588	166.28
350.971	187.75
351.354	227.75
351.737	208.77
352.119	225.04
352.502	210.35
352.884	248.76
353.267	257.8
353.65	299.16
354.032	269.56
354.414	282.44
354.797	295.54
355.179	313.17
355.562	297.8
355.944	312.49
356.326	318.59
356.709	302.1
357.091	300.06
357.473	315.66
357.855	307.29
358.238	321.98
358.62	310.46
359.002	327.18
359.384	315.43
359.766	318.59
360.148	312.04
360.53	310.91
360.912	292.83
361.294	322.66
361.676	307.29
362.057	289.67
362.439	307.52
362.821	317.69
363.203	319.72
363.584	308.65
363.966	288.54
364.348	302.77
364.729	296.22
365.111	283.34
365.493	298.25
365.874	275.66
366.256	310.91
366.637	292.83
367.019	280.18
367.4	275.88
367.781	281.53
368.163	290.35
368.544	295.09
368.925	292.15
369.306	314.3
369.688	281.53
370.069	267.3
370.45	290.35
370.831	288.31
371.212	286.28
371.593	291.93
371.974	277.46
372.355	265.71
372.736	295.54
373.117	289.67
373.498	282.89
373.879	301.19
374.26	286.96
374.641	275.88
375.021	270.01
375.402	287.63
375.783	282.44
376.163	263.23
376.544	285.15
376.925	286.05
377.305	286.05
377.686	311.14
378.066	296.67
378.447	289.44
378.827	296.22
379.208	296.67
379.588	294.87
379.968	278.37
380.349	308.42
380.729	306.84
381.109	290.35
381.489	303.45
381.87	302.55
382.25	282.89
382.63	288.99
383.01	297.35
383.39	298.93
383.77	301.87
384.15	304.58
384.53	298.93
384.91	294.64
385.29	309.33
385.67	297.8
386.049	295.09
386.429	307.29
386.809	335.32
387.189	318.37
387.568	318.37
387.948	315.2
388.328	310.46
388.707	313.4
389.087	324.92
389.466	312.72
389.846	295.32
390.225	312.72
390.605	322.66
390.984	331.93
391.363	344.36
391.743	327.18
392.122	313.17
392.501	311.59
392.881	323.79
393.26	311.59
393.639	328.54
394.018	318.59
394.397	312.49
394.776	309.55
395.155	349.1
395.534	308.2
395.913	336.22
396.292	343.9
396.671	330.8
397.05	317.92
397.429	331.7
397.808	327.41
398.186	326.5
398.565	329.21
398.944	312.04
399.323	331.47
399.701	340.97
400.08	330.12
400.458	343.45
400.837	324.92
401.215	339.38
401.594	332.15
401.972	328.54
402.351	333.96
402.729	344.13
403.107	359.95
403.486	326.28
403.864	328.54
404.242	344.58
404.62	348.42
404.999	339.61
405.377	352.04
405.755	353.17
406.133	345.26
406.511	338.25
406.889	355.65
407.267	331.47
407.645	367.18
408.023	367.63
408.401	353.17
408.779	345.26
409.156	355.2
409.534	361.53
409.912	350.91
410.29	366.28
410.667	362.21
411.045	381.42
411.422	371.02
411.8	376.22
412.178	364.24
412.555	366.28
412.933	374.86
413.31	388.65
413.687	372.38
414.065	354.3
414.442	380.51
414.819	386.84
415.197	390.91
415.574	377.8
415.951	399.27
416.328	367.86
416.705	388.42
417.082	377.8
417.46	384.58
417.837	367.86
418.214	375.54
418.591	373.73
418.967	379.61
419.344	369.67
419.721	384.13
420.098	411.92
420.475	394.3
420.852	392.26
421.228	407.86
421.605	386.16
421.982	388.65
422.358	404.47
422.735	396.11
423.111	392.94
423.488	416.44
423.864	413.73
424.241	403.11
424.617	415.54
424.994	416.22
425.37	414.41
425.746	414.18
426.123	406.27
426.499	432.26
426.875	430.45
427.251	423.68
427.627	396.56
428.003	434.07
428.379	407.63
428.756	448.76
429.132	425.94
429.507	430
429.883	435.88
430.259	417.8
430.635	459.61
431.011	443.56
431.387	433.84
431.763	433.39
432.138	448.53
432.514	438.82
432.89	432.26
433.265	455.54
433.641	463.9
434.016	456.67
434.392	472.94
434.767	452.38
435.143	477.01
435.518	460.06
435.894	453.05
436.269	464.35
436.644	490.34
437.02	471.81
437.395	463.9
437.77	465.03
438.145	484.46
438.52	482.43
438.895	481.3
439.271	486.5
439.646	495.76
440.021	505.03
440.395	500.06
440.77	510.45
441.145	492.6
441.52	506.61
441.895	486.27
442.27	510
442.645	511.13
443.019	487.63
443.394	498.25
443.769	480.4
444.143	497.57
444.518	512.26
444.892	506.84
445.267	528.31
445.641	520.4
446.016	527.18
446.39	525.82
446.764	519.94
447.139	525.82
447.513	517.46
447.887	531.47
448.262	533.73
448.636	531.24
449.01	527.4
449.384	535.08
449.758	531.92
450.132	544.58
450.506	529.66
450.88	549.77
451.254	563.33
451.628	546.16
452.002	522.2
452.376	551.13
452.75	557.91
453.123	535.99
453.497	561.07
453.871	574.18
454.244	567.85
454.618	597.46
454.992	565.14
455.365	574.18
455.739	596.55
456.112	598.36
456.486	584.8
456.859	592.03
457.232	587.74
457.606	605.37
457.979	597.91
458.352	603.56
458.725	609.89
459.099	616.44
459.472	619.6
459.845	593.39
460.218	624.35
460.591	639.26
460.964	625.25
461.337	635.87
461.71	643.78
462.083	624.35
462.456	638.58
462.829	646.72
463.201	660.96
463.574	648.3
463.947	650.56
464.32	670.67
464.692	665.25
465.065	665.48
465.438	673.84
465.81	673.84
466.183	673.16
466.555	676.32
466.928	711.13
467.3	704.8
467.672	690.11
468.045	691.92
468.417	722.2
468.789	718.58
469.161	724.46
469.534	729.43
469.906	728.75
470.278	738.7
470.65	729.2
471.022	733.95
471.394	757.23
471.766	760.62
472.138	751.12
472.51	757.9
472.882	753.84
473.253	770.33
473.625	800.16
473.997	811.01
474.369	810.11
474.74	793.61
475.112	818.92
475.484	831.8
475.855	827.96
476.227	822.99
476.598	834.74
476.97	839.94
477.341	865.7
477.713	871.57
478.084	853.72
478.455	871.8
478.827	880.84
479.198	908.86
479.569	881.97
479.94	924.68
480.311	907.28
480.682	901.63
481.053	933.04
481.424	930.1
481.795	957.67
482.166	952.25
482.537	963.77
482.908	968.97
483.279	971.68
483.65	1005.35
484.021	1003.55
484.391	982.3
484.762	1034.05
485.133	1031.34
485.503	1016.88
485.874	1032.25
486.244	1015.52
486.615	1029.99
486.985	1088.29
487.356	1059.59
487.726	1076.54
488.097	1107.95
488.467	1072.47
488.837	1105.47
489.207	1116.76
489.578	1122.64
489.948	1129.65
490.318	1133.49
490.688	1129.87
491.058	1134.17
491.428	1121.06
491.798	1161.28
492.168	1173.26
492.538	1167.84
492.908	1188.63
493.278	1185.01
493.648	1190.43
494.017	1216.87
494.387	1196.08
494.757	1198.8
495.126	1165.8
495.496	1222.52
495.866	1217.33
496.235	1206.25
496.605	1205.8
496.974	1252.13
497.344	1234.28
497.713	1243.09
498.082	1241.51
498.452	1232.69
498.821	1232.24
499.19	1279.25
499.559	1281.73
499.928	1258.23
500.298	1227.04
500.667	1266.82
501.036	1244.67
501.405	1260.72
501.774	1253.03
502.143	1247.83
502.512	1267.27
502.88	1297.55
503.249	1299.58
503.618	1289.42
503.987	1292.35
504.356	1290.32
504.724	1298.23
505.093	1306.82
505.462	1310.43
505.83	1309.3
506.199	1297.1
506.567	1299.36
506.936	1299.58
507.304	1330.54
507.672	1334.16
508.041	1342.3
508.409	1299.36
508.777	1303.2
509.145	1341.62
509.514	1355.85
509.882	1344.56
510.25	1361.05
510.618	1360.83
510.986	1355.4
511.354	1349.53
511.722	1342.52
512.09	1365.35
512.458	1339.58
512.826	1344.1
513.193	1365.57
513.561	1347.72
513.929	1339.58
514.297	1369.87
514.664	1364.89
515.032	1374.84
515.4	1344.78
515.767	1367.38
516.135	1373.93
516.502	1382.75
516.869	1382.07
517.237	1395.63
517.604	1372.8
517.972	1382.07
518.339	1408.06
518.706	1427.94
519.073	1404.44
519.44	1397.89
519.808	1376.19
520.175	1402.63
520.542	1400.37
520.909	1410.99
521.276	1399.69
521.643	1402.63
522.009	1428.85
522.376	1425.91
522.743	1424.33
523.11	1439.24
523.477	1455.74
523.843	1470.65
524.21	1452.8
524.577	1457.77
524.943	1460.71
525.31	1473.59
525.676	1465
526.043	1456.42
526.409	1445.8
526.776	1479.47
527.142	1464.33
527.508	1456.19
527.874	1492.8
528.241	1502.07
528.607	1483.76
528.973	1484.44
529.339	1475.17
529.705	1500.71
530.071	1514.04
530.437	1533.7
530.803	1537.77
531.169	1495.74
531.535	1494.83
531.901	1520.37
532.267	1533.25
532.632	1510.88
532.998	1525.12
533.364	1505.23
533.73	1505.23
534.095	1516.3
534.461	1553.36
534.826	1547.71
535.192	1542.97
535.557	1542.29
535.923	1552.46
536.288	1517.66
536.653	1543.19
537.019	1547.94
537.384	1510.88
537.749	1529.41
538.114	1561.05
538.479	1558.33
538.845	1552.69
539.21	1537.09
539.575	1556.3
539.94	1527.15
540.305	1563.53
540.67	1514.95
541.034	1561.5
541.399	1570.31
541.764	1548.84
542.129	1536.19
542.494	1583.64
542.858	1543.65
543.223	1551.33
543.587	1554.27
543.952	1597.2
544.316	1593.81
544.681	1569.86
545.045	1581.61
545.41	1587.94
545.774	1556.98
546.138	1563.08
546.503	1599.24
546.867	1588.62
547.231	1560.82
547.595	1547.49
547.959	1595.4
548.324	1583.64
548.688	1570.54
549.052	1577.54
549.416	1597.88
549.779	1577.09
550.143	1602.4
550.507	1613.47
550.871	1570.54
551.235	1592.23
551.599	1577.54
551.962	1591.33
552.326	1625.45
552.689	1609.86
553.053	1591.78
553.417	1598.33
553.78	1599.01
554.143	1610.99
554.507	1607.37
554.87	1606.92
555.234	1615.06
555.597	1608.95
555.96	1610.99
556.323	1608.95
556.686	1626.36
557.05	1609.41
557.413	1622.51
557.776	1596.3
558.139	1639.01
558.502	1596.75
558.865	1602.18
559.228	1639.69
559.59	1604.44
559.953	1653.47
560.316	1637.88
560.679	1625.23
561.041	1609.18
561.404	1630.88
561.767	1647.6
562.129	1684.89
562.492	1645.79
562.854	1629.75
563.217	1633.59
563.579	1657.77
563.941	1625.9
564.304	1670.87
564.666	1676.3
565.028	1665.9
565.39	1678.33
565.753	1665
566.115	1675.39
566.477	1674.26
566.839	1694.6
567.201	1702.51
567.563	1665.22
567.925	1704.32
568.287	1669.29
568.648	1706.81
569.01	1692.79
569.372	1720.59
569.734	1726.01
570.095	1721.49
570.457	1733.47
570.819	1712.45
571.18	1719.23
571.542	1710.2
571.903	1732.34
572.265	1726.01
572.626	1729.4
572.987	1722.85
573.349	1728.73
573.71	1718.56
574.071	1747.03
574.432	1728.05
574.794	1743.64
575.155	1758.33
575.516	1744.77
575.877	1740.93
576.238	1752.68
576.599	1759.69
576.96	1731.44
577.32	1743.19
577.681	1754.04
578.042	1752.23
578.403	1776.63
578.763	1754.71
579.124	1770.08
579.485	1770.31
579.845	1776.41
580.206	1754.26
580.566	1789.74
580.927	1790.42
581.287	1757.88
581.648	1789.97
582.008	1816.86
582.368	1763.08
582.728	1788.39
583.089	1780.93
583.449	1755.62
583.809	1789.06
584.169	1774.83
584.529	1747.93
584.889	1793.58
585.249	1786.8
585.609	1767.59
585.969	1779.57
586.329	1777.31
586.688	1786.58
587.048	1804.66
587.408	1793.13
587.768	1762.4
588.127	1801.72
588.487	1805.33
588.846	1804.43
589.206	1801.27
589.565	1781.15
589.925	1746.8
590.284	1779.35
590.643	1792.9
591.003	1789.74
591.362	1792
591.721	1795.62
592.08	1798.33
592.44	1825.22
592.799	1787.71
593.158	1798.33
593.517	1785.67
593.876	1842.85
594.235	1805.79
594.593	1818.89
594.952	1833.13
595.311	1800.36
595.67	1840.36
596.029	1788.39
596.387	1853.24
596.746	1811.21
597.104	1810.76
597.463	1826.8
597.822	1815.05
598.18	1821.83
598.538	1828.84
598.897	1826.58
599.255	1819.8
599.613	1828.38
599.972	1815.73
600.33	1821.38
600.688	1813.24
601.046	1827.03
601.404	1829.06
601.762	1813.47
602.12	1845.78
602.478	1856.18
602.836	1818.67
603.194	1794.94
603.552	1835.84
603.91	1791.32
604.268	1855.95
604.625	1848.5
604.983	1850.76
605.341	1834.03
605.698	1818.21
606.056	1864.32
606.413	1844.88
606.771	1849.85
607.128	1854.37
607.485	1821.6
607.843	1861.38
608.2	1859.8
608.557	1873.35
608.914	1883.07
609.272	1885.33
609.629	1889.17
609.986	1876.52
610.343	1901.6
610.7	1914.03
611.057	1878.78
611.414	1903.86
611.771	1905.9
612.127	1899.79
612.484	1868.16
612.841	1883.75
613.198	1868.38
613.554	1902.51
613.911	1903.41
614.267	1910.64
614.624	1902.96
614.98	1929.62
615.337	1933.47
615.693	1895.95
616.05	1902.51
616.406	1946.57
616.762	1921.94
617.118	1952
617.475	1951.77
617.831	1959.68
618.187	1960.36
618.543	1924.65
618.899	1950.41
619.255	1949.06
619.611	1954.48
619.967	1967.36
620.323	1969.85
620.678	1955.39
621.034	1937.99
621.39	1981.15
621.746	1948.38
622.101	1965.56
622.457	1963.97
622.812	1977.53
623.168	1958.32
623.523	1943.41
623.879	1958.1
624.234	1959.45
624.589	1982.73
624.945	1983.18
625.3	1963.3
625.655	1997.65
626.01	1978.66
626.365	1999.68
626.72	1975.5
627.075	1982.05
627.43	1981.15
627.785	1987.25
628.14	1984.31
628.495	2011.43
628.85	2010.07
629.205	1985.67
629.559	2036.51
629.914	1982.5
630.269	1976.18
630.623	2017.98
630.978	2002.84
631.332	2008.49
631.687	2018.21
632.041	2037.42
632.396	2036.74
632.75	2008.04
633.104	2055.5
633.459	2037.19
633.813	2037.19
634.167	2037.42
634.521	2041.26
634.875	2024.76
635.229	2049.4
635.583	2029.06
635.937	2047.14
636.291	2044.42
636.645	2054.14
636.999	2078.77
637.352	2085.33
637.706	2048.04
638.06	2058.89
638.413	2053.46
638.767	2076.97
639.121	2091.2
639.474	2066.34
639.828	2076.74
640.181	2122.84
640.534	2107.47
640.888	2075.61
641.241	2081.03
641.594	2122.84
641.947	2117.19
642.301	2138.88
642.654	2121.94
643.007	2117.87
643.36	2102.28
643.713	2101.6
644.066	2161.48
644.419	2126.46
644.771	2138.88
645.124	2124.65
645.477	2121.03
645.83	2138.88
646.182	2135.95
646.535	2119
646.888	2128.72
647.24	2142.73
647.593	2145.89
647.945	2130.75
648.298	2156.06
648.65	2178.88
649.002	2159
649.355	2168.71
649.707	2144.76
650.059	2186.34
650.411	2207.13
650.763	2234.48
651.115	2282.16
651.467	2258.66
651.819	2253.91
652.171	2290.52
652.523	2298.2
652.875	2297.3
653.227	2297.07
653.578	2302.5
653.93	2310.63
654.282	2310.86
654.633	2321.7
654.985	2327.35
655.337	2356.05
655.688	2302.72
656.039	2385.88
656.391	2371.19
656.742	2381.82
657.094	2362.16
657.445	2386.34
657.796	2396.73
658.147	2418.65
658.498	2400.35
658.849	2419.56
659.2	2439.89
659.551	2427.69
659.902	2452.77
660.253	2494.36
660.604	2467.92
660.955	2477.18
661.306	2487.58
661.656	2507.46
662.007	2541.81
662.358	2525.54
662.708	2546.11
663.059	2541.13
663.409	2577.29
663.76	2566.67
664.11	2597.4
664.461	2593.11
664.811	2588.36
665.161	2620.91
665.511	2610.74
665.862	2593.11
666.212	2619.78
666.562	2672.88
666.912	2650.96
667.262	2654.35
667.612	2681.47
667.962	2701.81
668.312	2661.81
668.662	2722.82
669.011	2729.15
669.361	2734.8
669.711	2735.03
670.06	2740.9
670.41	2752.88
670.76	2769.15
671.109	2782.26
671.459	2764.18
671.808	2784.97
672.157	2829.94
672.507	2794.69
672.856	2797.4
673.205	2789.71
673.554	2822.03
673.904	2840.11
674.253	2880.79
674.602	2850.73
674.951	2828.36
675.3	2828.13
675.649	2905.64
675.998	2870.39
676.346	2921.01
676.695	2916.04
677.044	2946.32
677.393	2930.28
677.741	2911.75
678.09	2952.42
678.438	2962.14
678.787	2968.02
679.135	2941.58
679.484	2999.88
679.832	2977.51
680.181	2976.6
680.529	3016.38
680.877	3022.48
681.225	2999.65
681.573	3024.96
681.922	3016.38
682.27	3044.85
682.618	3034.23
682.966	3061.12
683.314	3036.71
683.661	3082.14
684.009	3055.24
684.357	3071.29
684.705	3088.46
685.053	3051.63
685.4	3085.98
685.748	3086.43
686.095	3079.2
686.443	3085.98
686.79	3083.04
687.138	3117.62
687.485	3121.91
687.832	3076.03
688.18	3112.64
688.527	3110.38
688.874	3128.69
689.221	3129.59
689.568	3146.99
689.915	3127.78
690.262	3128.46
690.609	3122.36
690.956	3129.14
691.303	3105.64
691.65	3139.08
691.997	3137.95
692.344	3124.17
692.69	3121.91
693.037	3114.9
693.383	3129.37
693.73	3163.49
694.077	3124.17
694.423	3158.74
694.769	3130.04
695.116	3141.12
695.462	3099.99
695.808	3113.77
696.155	3091.4
696.501	3142.02
696.847	3101.8
697.193	3093.44
697.539	3097.5
697.885	3105.86
698.231	3141.57
698.577	3098.41
698.923	3083.72
699.269	3106.99
699.614	3099.09
699.96	3065.41
700.306	3091.63
700.651	3138.63
700.997	3107.22
701.342	3086.2
701.688	3067.45
702.033	3075.81
702.379	3053.21
702.724	3085.07
703.069	3069.48
703.415	3027.9
703.76	3041.91
704.105	3032.42
704.45	3048.92
704.795	3034.91
705.14	3034.45
705.485	3043.27
705.83	3049.37
706.175	3064.51
706.52	2973.21
706.865	3016.83
707.209	3016.83
707.554	3000.56
707.899	3023.38
708.243	2991.07
708.588	3018.64
708.932	3009.37
709.277	2992.42
709.621	3006.43
709.966	2971.86
710.31	2973.21
710.654	2950.61
710.998	2981.8
711.342	2977.51
711.687	2958.3
712.031	2957.17
712.375	2954.91
712.719	2969.37
713.063	3003.72
713.407	2948.81
713.75	2981.57
714.094	2979.09
714.438	2975.47
714.782	2968.02
715.125	2956.26
715.469	2971.63
715.812	2947.9
716.156	2909.94
716.499	2938.41
716.843	2955.13
717.186	2934.8
717.53	2988.58
717.873	2940.45
718.216	2937.73
718.559	2926.66
718.902	2948.58
719.246	2989.03
719.589	2924.17
719.932	2921.69
720.275	2920.56
720.617	2919.88
720.96	2948.58
721.303	2964.63
721.646	2935.02
721.989	2923.04
722.331	2940.67
722.674	2940.45
723.016	2925.53
723.359	2935.47
723.701	2958.98
724.044	2960.33
724.386	2943.38
724.729	2934.34
725.071	2984.51
725.413	2946.77
725.755	2941.8
726.097	2934.8
726.439	2955.13
726.782	2906.1
727.124	2979.77
727.465	2965.3
727.807	2930.5
728.149	2939.99
728.491	2936.38
728.833	2945.42
729.175	2955.81
729.516	2964.4
729.858	2936.15
730.199	2930.28
730.541	3010.05
730.882	2963.95
731.224	2980.9
731.565	2969.15
731.906	2977.51
732.248	2958.07
732.589	2949.48
732.93	2968.92
733.271	2957.17
733.612	2957.39
733.953	2956.72
734.294	2978.18
734.635	2965.3
734.976	2965.3
735.317	2990.84
735.658	2954.23
735.999	3008.01
736.339	2979.54
736.68	3042.82
737.021	3039.2
737.361	3007.79
737.702	3048.92
738.042	3011.18
738.383	2972.99
738.723	3055.02
739.063	3010.05
739.404	3067.67
739.744	3061.57
740.084	3047.56
740.424	3054.57
740.764	3082.59
741.104	3094.11
741.444	3065.87
741.784	3084.17
742.124	3105.86
742.464	3108.8
742.804	3079.42
743.143	3098.63
743.483	3154.22
743.823	3105.64
744.162	3147.67
744.502	3167.11
744.841	3165.98
745.181	3166.88
745.52	3200.1
745.86	3175.69
746.199	3199.42
746.538	3231.51
746.877	3231.96
747.216	3258.18
747.556	3311.73
747.895	3298.18
748.234	3275.8
748.573	3282.81
748.911	3321.68
749.25	3338.63
749.589	3342.92
749.928	3347.44
750.267	3367.55
750.605	3435.57
750.944	3426.76
751.283	3429.25
751.621	3448
751.96	3471.5
752.298	3477.38
752.636	3523.03
752.975	3525.51
753.313	3509.92
753.651	3535.01
753.989	3565.97
754.327	3602.12
754.666	3569.81
755.004	3640.09
755.342	3677.6
755.679	3639.86
756.017	3633.53
756.355	3635.34
756.693	3732.97
757.031	3751.95
757.368	3761.44
757.706	3730.26
758.044	3796.69
758.381	3774.32
758.719	3817.71
759.056	3845.28
759.394	3842.34
759.731	3872.4
760.068	3816.13
760.405	3866.52
760.743	3893.41
761.08	3943.81
761.417	3868.78
761.754	3915.11
762.091	4014.54
762.428	3967.08
762.765	3946.29
763.102	3960.31
763.438	3984.03
763.775	3989.46
764.112	3979.74
764.449	3979.29
764.785	4003.69
765.122	3983.81
765.458	4039.4
765.795	4011.15
766.131	4019.29
766.467	4022.45
766.804	4025.16
767.14	3996.01
767.476	4046.86
767.812	4056.8
768.148	4086.63
768.485	4015.22
768.821	3995.56
769.157	4028.1
769.492	4054.99
769.828	4026.52
770.164	4044.37
770.5	4025.84
770.836	4025.61
771.171	4027.42
771.507	4034.88
771.842	3970.02
772.178	4019.74
772.513	3984.26
