Data from blue_clamp_base_FLMS001491_00024.txt Node
Date: Wed Feb 08 15:15:46 GMT 2017
User: dcchb
Spectrometer: FLMS00149
Trigger mode: 0
Integration Time (sec): 2.000000E-2
Scans to average: 10
Electric dark correction enabled: true
Nonlinearity correction enabled: false
Boxcar width: 0
XAxis mode: Wavelengths
Number of Pixels in Spectrum: 2048
>>>>>Begin Spectral Data<<<<<
341.393	-29.19
341.776	-29.19
342.16	-29.19
342.543	-57.67
342.927	-68.97
343.31	-59.48
343.693	-75.97
344.077	-51.11
344.46	-64.67
344.843	-51.79
345.226	-49.31
345.61	-52.24
345.993	-20.38
346.376	22.1
346.759	18.94
347.142	30.24
347.525	23.69
347.908	70.92
348.291	69.56
348.674	93.97
349.057	95.55
349.44	99.84
349.823	152.04
350.206	159.05
350.588	178.03
350.971	195.43
351.354	225.26
351.737	221.42
352.119	239.05
352.502	260.74
352.884	275.2
353.267	263.45
353.65	279.95
354.032	283.34
354.414	304.13
354.797	303.9
355.179	299.61
355.562	299.84
355.944	305.94
356.326	321.08
356.709	334.19
357.091	336.67
357.473	337.58
357.855	327.86
358.238	343.45
358.62	350.23
359.002	326.5
359.384	326.5
359.766	327.63
360.148	312.04
360.53	331.25
360.912	327.63
361.294	331.02
361.676	318.37
362.057	304.58
362.439	316.11
362.821	295.77
363.203	304.81
363.584	317.46
363.966	294.19
364.348	304.58
364.729	294.64
365.111	303.45
365.493	287.18
365.874	298.71
366.256	280.85
366.637	294.87
367.019	291.25
367.4	304.36
367.781	310.01
368.163	296.67
368.544	289.44
368.925	296
369.306	294.41
369.688	285.37
370.069	305.49
370.45	308.42
370.831	298.48
371.212	298.03
371.593	310.91
371.974	323.79
372.355	305.03
372.736	321.76
373.117	305.03
373.498	313.17
373.879	290.57
374.26	310.23
374.641	307.97
375.021	285.37
375.402	309.1
375.783	321.08
376.163	312.27
376.544	301.64
376.925	301.19
377.305	325.6
377.686	312.49
378.066	313.4
378.447	303
378.827	315.66
379.208	308.42
379.588	303.68
379.968	328.54
380.349	309.78
380.729	345.71
381.109	322.44
381.489	318.14
381.87	323.79
382.25	333.28
382.63	333.51
383.01	321.76
383.39	343.9
383.77	331.25
384.15	332.38
384.53	332.6
384.91	340.74
385.29	323.34
385.67	319.95
386.049	344.13
386.429	341.87
386.809	340.51
387.189	328.76
387.568	360.4
387.948	351.59
388.328	344.36
388.707	368.99
389.087	336.9
389.466	354.75
389.846	361.08
390.225	355.65
390.605	358.14
390.984	349.1
391.363	366.5
391.743	371.02
392.122	376.22
392.501	372.38
392.881	370.8
393.26	378.48
393.639	369.89
394.018	383
394.397	385.94
394.776	401.98
395.155	385.94
395.534	378.93
395.913	407.4
396.292	403.11
396.671	403.56
397.05	400.63
397.429	404.01
397.808	415.09
398.186	418.03
398.565	434.3
398.944	399.5
399.323	427.52
399.701	434.97
400.08	422.09
400.458	439.95
400.837	448.08
401.215	436.1
401.594	420.51
401.972	441.08
402.351	465.26
402.729	470.45
403.107	472.49
403.486	463.22
403.864	482.2
404.242	481.98
404.62	491.47
404.999	475.43
405.377	478.82
405.755	483.33
406.133	509.32
406.511	501.64
406.889	491.47
407.267	507.97
407.645	500.96
408.023	521.53
408.401	518.59
408.779	523.79
409.156	536.67
409.534	535.31
409.912	541.19
410.29	540.96
410.667	550.45
411.045	573.95
411.422	587.06
411.8	547.74
412.178	608.98
412.555	566.95
412.933	616.44
413.31	600.39
413.687	622.54
414.065	621.18
414.442	616.66
414.819	632.71
415.197	632.48
415.574	657.79
415.951	657.57
416.328	651.24
416.705	649.43
417.082	653.5
417.46	645.36
417.837	660.96
418.214	673.84
418.591	680.17
418.967	703.67
419.344	723.1
419.721	702.54
420.098	681.75
420.475	701.86
420.852	719.94
421.228	727.4
421.605	735.53
421.982	745.02
422.358	742.99
422.735	740.5
423.111	769.2
423.488	773.95
423.864	784.8
424.241	769.43
424.617	796.77
424.994	796.32
425.37	789.32
425.746	827.73
426.123	831.57
426.499	834.06
426.875	844.46
427.251	814.4
427.627	877.9
428.003	848.3
428.379	878.13
428.756	876.54
429.132	913.38
429.507	899.59
429.883	921.52
430.259	952.7
430.635	921.06
431.011	961.06
431.387	966.71
431.763	988.41
432.138	966.03
432.514	999.71
432.89	993.83
433.265	1049.87
433.641	1030.21
434.016	1056.2
434.392	1087.16
434.767	1074.51
435.143	1081.29
435.518	1113.83
435.894	1124.67
436.269	1138.91
436.644	1158.12
437.02	1178.91
437.395	1164.45
437.77	1164.67
438.145	1191.34
438.52	1203.32
438.895	1218
439.271	1225.69
439.646	1280.15
440.021	1268.4
440.395	1258
440.77	1261.17
441.145	1302.75
441.52	1299.81
441.895	1313.37
442.27	1324.89
442.645	1321.05
443.019	1346.59
443.394	1379.36
443.769	1358.34
444.143	1348.4
444.518	1388.85
444.892	1372.35
445.267	1398.11
445.641	1400.15
446.016	1425.91
446.39	1432.69
446.764	1428.39
447.139	1453.7
447.513	1459.58
447.887	1481.27
448.262	1479.24
448.636	1489.18
449.01	1520.6
449.384	1502.07
449.758	1533.48
450.132	1522.18
450.506	1556.75
450.88	1591.55
451.254	1542.52
451.628	1609.41
452.002	1643.76
452.376	1644.43
452.75	1655.73
453.123	1657.09
453.497	1690.99
453.871	1690.99
454.244	1699.35
454.618	1751.32
454.992	1707.94
455.365	1766.24
455.739	1778.44
456.112	1812.11
456.486	1810.53
456.859	1848.95
457.232	1888.95
457.606	1875.16
457.979	1908.38
458.352	1914.03
458.725	1935.05
459.099	1954.71
459.472	2000.13
459.845	2044.2
460.218	2027.02
460.591	2070.86
460.964	2053.24
461.337	2110.18
461.71	2121.26
462.083	2156.06
462.456	2166.23
462.829	2140.47
463.201	2196.06
463.574	2230.63
463.947	2274.93
464.32	2255.27
464.692	2296.62
465.065	2321.03
465.438	2311.08
465.81	2362.16
466.183	2377.3
466.555	2446
466.928	2442.83
467.3	2428.37
467.672	2493.9
468.045	2510.63
468.417	2568.25
468.789	2540.91
469.161	2576.39
469.534	2648.25
469.906	2677.4
470.278	2683.73
470.65	2705.65
471.022	2761.92
471.394	2798.53
471.766	2803.5
472.138	2850.5
472.51	2889.15
472.882	2968.69
473.253	2957.39
473.625	3023.61
473.997	3024.74
474.369	3056.6
474.74	3109.03
475.112	3128.91
475.484	3193.77
475.855	3224.05
476.227	3275.13
476.598	3324.16
476.97	3321.68
477.341	3412.75
477.713	3453.65
478.084	3473.54
478.455	3548.79
478.827	3582.91
479.198	3649.81
479.569	3661.1
479.94	3776.58
480.311	3731.61
480.682	3822.23
481.053	3890.93
481.424	3965.96
481.795	3956.92
482.166	4051.15
482.537	4057.25
482.908	4170.02
483.279	4189.23
483.65	4276.46
484.021	4292.73
484.391	4344.25
484.762	4352.39
485.133	4358.04
485.503	4431.93
485.874	4452.27
486.244	4518.48
486.615	4587.18
486.985	4603.45
487.356	4654.98
487.726	4738.36
488.097	4772.26
488.467	4782.43
488.837	4890.68
489.207	4954.18
489.578	4962.99
489.948	4961.41
490.318	5046.15
490.688	5054.97
491.058	5080.5
491.428	5165.47
491.798	5188.75
492.168	5285.69
492.538	5292.7
492.908	5356.88
493.278	5367.05
493.648	5343.77
494.017	5361.85
494.387	5444.56
494.757	5479.59
495.126	5521.17
495.496	5532.24
495.866	5543.31
496.235	5586.25
496.605	5567.49
496.974	5628.06
497.344	5661.28
497.713	5670.77
498.082	5732.24
498.452	5755.74
498.821	5782.4
499.19	5739.02
499.559	5794.38
499.928	5835.96
500.298	5875.74
500.667	5934.72
501.036	5871.67
501.405	5910.54
501.774	5902.4
502.143	5954.83
502.512	5961.83
502.88	5994.83
503.249	6001.61
503.618	6037.09
503.987	6038.89
504.356	6070.53
504.724	6083.19
505.093	6060.82
505.462	6096.75
505.83	6103.3
506.199	6179.68
506.567	6238.66
506.936	6255.39
507.304	6245.44
507.672	6237.53
508.041	6224.88
508.409	6337.42
508.777	6366.8
509.145	6345.78
509.514	6357.53
509.882	6379.9
510.25	6399.56
510.618	6464.42
510.986	6430.52
511.354	6465.32
511.722	6526.34
512.09	6592.78
512.458	6543.06
512.826	6595.72
513.193	6640.24
513.561	6581.25
513.929	6642.04
514.297	6695.15
514.664	6658.54
515.032	6710.74
515.4	6763.17
515.767	6734.7
516.135	6768.14
516.502	6682.72
516.869	6868.7
517.237	6868.93
517.604	6757.75
517.972	6853.34
518.339	6887.23
518.706	6861.25
519.073	6944.18
519.44	6883.39
519.808	6989.83
520.175	6957.74
520.542	7071.64
520.909	7071.41
521.276	6992.99
521.643	7099.88
522.009	7160.9
522.376	7128.81
522.743	7153.44
523.11	7194.12
523.477	7270.27
523.843	7279.31
524.21	7350.5
524.577	7353.21
524.943	7368.8
525.31	7346.43
525.676	7462.59
526.043	7517.27
526.409	7525.18
526.776	7581.91
527.142	7550.72
527.508	7600.21
527.874	7672.07
528.241	7675.46
528.607	7660.32
528.973	7701.9
529.339	7698.96
529.705	7740.32
530.071	7827.77
530.437	7844.27
530.803	7846.98
531.169	7909.81
531.535	7868
531.901	7878.17
532.267	7984.15
532.632	8026.87
532.998	8025.74
533.364	8022.57
533.73	8024.83
534.095	8147.54
534.461	8064.83
534.826	8134.21
535.192	8162.23
535.557	8145.96
535.923	8188.22
536.288	8204.26
536.653	8296.91
537.019	8209.23
537.384	8305.95
537.749	8286.07
538.114	8303.02
538.479	8338.72
538.845	8377.82
539.21	8327.87
539.575	8330.59
539.94	8390.92
540.305	8427.31
540.67	8395.67
541.034	8393.86
541.399	8472.73
541.764	8459.4
542.129	8481.54
542.494	8536.68
542.858	8542.78
543.223	8552.95
543.587	8516.8
543.952	8572.84
544.316	8543.69
544.681	8638.6
545.045	8584.59
545.41	8617.36
545.774	8674.31
546.138	8683.57
546.503	8710.24
546.867	8703.68
547.231	8710.46
547.595	8677.02
547.959	8747.52
548.324	8734.87
548.688	8790.01
549.052	8813.74
549.416	8762.21
549.779	8771.03
550.143	8772.38
550.507	8823.23
550.871	8854.41
551.235	8838.37
551.599	8853.74
551.962	8924.92
552.326	8974.64
552.689	8981.42
553.053	8850.57
553.417	8927.41
553.78	8991.59
554.143	8973.51
554.507	9010.34
554.87	9009.21
555.234	9084.01
555.597	9006.73
555.96	9048.53
556.323	9102.77
556.686	9107.29
557.05	9237.68
557.413	9154.52
557.776	9157.46
558.139	9211.01
558.502	9216.21
558.865	9244.46
559.228	9204.01
559.59	9267.51
559.953	9243.33
560.316	9313.16
560.679	9326.27
561.041	9369.65
561.404	9370.11
561.767	9458.69
562.129	9424.57
562.492	9500.27
562.854	9430.9
563.217	9507.05
563.579	9571.01
563.941	9534.85
564.304	9600.16
564.666	9633.15
565.028	9636.31
565.39	9608.29
565.753	9654.62
566.115	9716.99
566.477	9758.35
566.839	9824.78
567.201	9848.29
567.563	9924.67
567.925	9860.04
568.287	9910.21
568.648	9865.23
569.01	9951.79
569.372	9983.65
569.734	9955.18
570.095	9999.69
570.457	10077.66
570.819	10114.95
571.18	10094.16
571.542	10157.88
571.903	10138.22
572.265	10168.05
572.626	10277.2
572.987	10236.98
573.349	10252.57
573.71	10239.24
574.071	10307.48
574.432	10317.65
574.794	10409.63
575.155	10382.51
575.516	10358.78
575.877	10414.83
576.238	10467.25
576.599	10495.05
576.96	10446.46
577.32	10493.24
577.681	10439.23
578.042	10560.36
578.403	10563.97
578.763	10551.54
579.124	10511.09
579.485	10608.49
579.845	10649.62
580.206	10589.96
580.566	10637.19
580.927	10735.04
581.287	10725.33
581.648	10714.48
582.008	10791.31
582.368	10733.91
582.728	10775.95
583.089	10743.4
583.449	10703.63
583.809	10810.97
584.169	10776.17
584.529	10759.45
584.889	10846.9
585.249	10871.54
585.609	10773.46
585.969	10852.78
586.329	10768.49
586.688	10820.46
587.048	10787.24
587.408	10830.41
587.768	10878.54
588.127	10841.25
588.487	10770.75
588.846	10895.26
589.206	10853.91
589.565	10817.07
589.925	10873.8
590.284	10837.86
590.643	10914.25
591.003	10917.41
591.362	10922.38
591.721	10927.13
592.08	10914.92
592.44	10942.49
592.799	10952.89
593.158	10953.12
593.517	10997.41
593.876	10975.26
594.235	10983.85
594.593	10947.69
594.952	11056.16
595.311	10906.56
595.67	10980.46
596.029	11095.71
596.387	11015.04
596.746	11061.14
597.104	10991.98
597.463	11060.46
597.822	10988.14
598.18	10961.93
598.538	11057.52
598.897	11113.79
599.255	11029.05
599.613	11100.23
599.972	11057.75
600.33	11134.58
600.688	11041.25
601.046	11139.55
601.404	11127.8
601.762	11093.9
602.12	11122.15
602.478	11151.98
602.836	11124.86
603.194	11131.19
603.552	11083.51
603.91	11078.54
604.268	11205.31
604.625	11200.57
604.983	11227.69
605.341	11174.81
605.698	11201.47
606.056	11191.53
606.413	11118.76
606.771	11213.9
607.128	11239.89
607.485	11198.31
607.843	11264.07
608.2	11275.59
608.557	11280.11
608.914	11317.4
609.272	11367.12
609.629	11402.6
609.986	11317.17
610.343	11294.12
610.7	11403.95
611.057	11368.92
611.414	11363.27
611.771	11402.14
612.127	11464.74
612.484	11387.91
612.841	11440.79
613.198	11380.45
613.554	11428.13
613.911	11546.55
614.267	11400.11
614.624	11390.39
614.98	11542.48
615.337	11530.28
615.693	11457.51
616.05	11607.56
616.406	11556.49
616.762	11551.97
617.118	11575.7
617.475	11565.08
617.831	11625.41
618.187	11583.83
618.543	11631.06
618.899	11697.73
619.255	11640.1
619.611	11658.63
619.967	11729.14
620.323	11690.95
620.678	11758.74
621.034	11665.64
621.39	11678.07
621.746	11779.31
622.101	11796.71
622.457	11717.16
622.812	11799.65
623.168	11814.11
623.523	11756.94
623.879	11868.35
624.234	11766.2
624.589	11827.67
624.945	11822.47
625.3	11840.78
625.655	11882.13
626.01	11964.16
626.365	11884.62
626.72	11951.06
627.075	11865.41
627.43	11934.33
627.785	11894.79
628.14	11928.68
628.495	12011.39
628.85	11913.77
629.205	11899.31
629.559	11953.54
629.914	11961.45
630.269	11923.26
630.623	11951.51
630.978	11932.3
631.332	12033.31
631.687	12005.74
632.041	12027.44
632.396	12018.62
632.75	11951.73
633.104	11979.98
633.459	11955.8
633.813	12005.52
634.167	12083.03
634.521	12037.16
634.875	11990.15
635.229	11930.72
635.583	12039.87
635.937	11965.52
636.291	12035.35
636.645	11999.87
636.999	12045.06
637.352	12064.95
637.706	12007.33
638.06	12047.78
638.413	12081.45
638.767	12106.76
639.121	12072.41
639.474	12040.54
639.828	11972.07
640.181	12044.84
640.534	12062.47
640.888	12043.71
641.241	12040.54
641.594	12066.76
641.947	12149.02
642.301	12122.8
642.654	12151.28
643.007	12117.83
643.36	12113.76
643.713	12162.35
644.066	12159.64
644.419	12090.04
644.771	12068.11
645.124	11998.74
645.477	12131.16
645.83	12074.44
646.182	11924.16
646.535	11904.5
646.888	11872.64
647.24	11745.19
647.593	11760.33
647.945	11774.79
648.298	11728.01
648.65	11755.13
649.002	11752.87
649.355	11897.05
649.707	11852.08
650.059	12089.36
650.411	12190.6
650.763	12141.33
651.115	12313.53
651.467	12286.19
651.819	12282.12
652.171	12283.93
652.523	12211.16
652.875	12287.77
653.227	12216.81
653.578	12273.76
653.93	12318.05
654.282	12375.68
654.633	12210.71
654.985	12326.19
655.337	12364.6
655.688	12300.65
656.039	12435.56
656.391	12400.08
656.742	12367.99
657.094	12406.64
657.445	12370.71
657.796	12440.76
658.147	12452.51
658.498	12368.67
658.849	12454.09
659.2	12405.06
659.551	12429.91
659.902	12449.8
660.253	12461.78
660.604	12498.16
660.955	12421.78
661.306	12459.29
661.656	12420.2
662.007	12448.44
662.358	12471.04
662.708	12452.74
663.059	12453.87
663.409	12397.6
663.76	12425.62
664.11	12463.81
664.461	12511.95
664.811	12452.74
665.161	12440.53
665.511	12457.26
665.862	12506.3
666.212	12542.9
666.562	12502.68
666.912	12385.39
667.262	12471.04
667.612	12494.09
667.962	12518.5
668.312	12339.75
668.662	12522.79
669.011	12385.17
669.361	12377.49
669.711	12320.31
670.06	12351.5
670.41	12295
670.76	12318.5
671.109	12384.72
671.459	12285.51
671.808	12248.45
672.157	12214.55
672.507	12156.25
672.856	12161.9
673.205	12068.11
673.554	12128.9
673.904	12086.42
674.253	12113.99
674.602	12126.64
674.951	11936.14
675.3	11823.15
675.649	12108.57
675.998	11995.12
676.346	11984.73
676.695	12085.29
677.044	11933.2
677.393	12009.81
677.741	12059.3
678.09	11953.54
678.438	11911.73
678.787	11986.08
679.135	11834.9
679.484	11770.72
679.832	11841.91
680.181	11763.04
680.529	11822.02
680.877	11705.64
681.225	11728.91
681.573	11794.68
681.922	11657.05
682.27	11724.62
682.618	11638.52
682.966	11633.55
683.314	11612.99
683.661	11600.1
684.009	11610.5
684.357	11483.05
684.705	11441.24
685.053	11460
685.4	11431.52
685.748	11383.84
686.095	11385.65
686.443	11341.35
686.79	11306.78
687.138	11387
687.485	11314.69
687.832	11291.64
688.18	11358.3
688.527	11232.66
688.874	11300
689.221	11247.57
689.568	11233.56
689.915	11234.01
690.262	11210.06
690.609	11231.53
690.956	11212.54
691.303	11167.35
691.65	11146.11
691.997	11176.61
692.344	11100.68
692.69	11089.61
693.037	11118.54
693.383	11053
693.73	11093
694.077	10948.37
694.423	10997.63
694.769	10935.94
695.116	10917.86
695.462	10873.8
695.808	10862.5
696.155	10924.42
696.501	10815.49
696.847	10817.98
697.193	10752.44
697.539	10814.36
697.885	10690.98
698.231	10804.65
698.577	10703.86
698.923	10687.59
699.269	10695.04
699.614	10578.66
699.96	10655.95
700.306	10669.73
700.651	10626.12
700.997	10566.01
701.342	10524.88
701.688	10641.49
702.033	10625.67
702.379	10578.66
702.724	10561.94
703.069	10641.26
703.415	10470.19
703.76	10436.29
704.105	10512.45
704.45	10544.77
704.795	10460.7
705.14	10493.69
705.485	10518.33
705.83	10484.2
706.175	10513.13
706.52	10438.1
706.865	10421.38
707.209	10449.17
707.554	10364.66
707.899	10406.69
708.243	10412.57
708.588	10354.26
708.932	10364.88
709.277	10363.3
709.621	10374.15
709.966	10234.04
710.31	10258.9
710.654	10274.94
710.998	10248.5
711.342	10225.45
711.687	10290.08
712.031	10214.15
712.375	10178.45
712.719	10204.44
713.063	10157.43
713.407	10264.77
713.75	10192.46
714.094	10163.76
714.438	10156.75
714.782	10234.26
715.125	10128.96
715.469	10175.51
715.812	10102.06
716.156	10112.91
716.499	10058
716.843	10094.38
717.186	10074.95
717.53	10158.79
717.873	10106.13
718.216	10093.7
718.559	10052.35
718.902	10050.09
719.246	10039.02
719.589	9993.14
719.932	9970.54
720.275	10065.23
720.617	10004.21
720.96	10034.27
721.303	9995.18
721.646	10082.63
721.989	10013.03
722.331	10044.44
722.674	9957.44
723.016	9999.24
723.359	9914.73
723.701	9880.83
724.044	9919.47
724.386	9843.54
724.729	9936.19
725.071	9972.8
725.413	9952.46
725.755	9928.28
726.097	9899.36
726.439	9843.99
726.782	9868.4
727.124	9931.22
727.465	9896.87
727.807	9834.95
728.149	9839.25
728.491	9880.6
728.833	9879.7
729.175	9908.85
729.516	9899.58
729.858	9904.56
730.199	9915.4
730.541	9871.79
730.882	9933.03
731.224	9954.05
731.565	9857.78
731.906	9945.01
732.248	9928.74
732.589	9763.99
732.93	9875.63
733.271	9855.07
733.612	9930.09
733.953	9966.93
734.294	9953.14
734.635	9864.11
734.976	9930.32
735.317	9914.5
735.658	9846.03
735.999	9833.6
736.339	9938.45
736.68	10014.84
737.021	9950.66
737.361	9983.65
737.702	9963.09
738.042	9997.43
738.383	10027.94
738.723	10056.19
739.063	10012.12
739.404	10052.57
739.744	10024.78
740.084	10005.57
740.424	10116.75
740.764	10083.99
741.104	10091.44
741.444	10087.15
741.784	10088.96
742.124	10108.39
742.464	10170.31
742.804	10121.27
743.143	10128.28
743.483	10156.3
743.823	10187.03
744.162	10293.02
744.502	10219.58
744.841	10242.17
745.181	10333.7
745.52	10323.3
745.86	10395.39
746.199	10298.67
746.538	10334.15
746.877	10374.83
747.216	10441.72
747.556	10389.29
747.895	10483.52
748.234	10373.7
748.573	10451.89
748.911	10446.24
749.25	10396.29
749.589	10445.33
749.928	10601.49
750.267	10530.75
750.605	10520.13
750.944	10536.4
751.283	10553.8
751.621	10634.25
751.96	10645.78
752.298	10700.92
752.636	10718.55
752.975	10684.42
753.313	10632.67
753.651	10781.14
753.989	10704.99
754.327	10772.1
754.666	10752.22
755.004	10806.23
755.342	10764.87
755.679	10818.66
756.017	10745.44
756.355	10881.03
756.693	10958.54
757.031	10926.22
757.368	10893.23
757.706	10891.42
758.044	10915.38
758.381	10931.87
758.719	10939.11
759.056	11009.84
759.394	11048.03
759.731	10928.03
760.068	11017.07
