Data from blue_chair_FLMS001491_00021.txt Node
Date: Wed Feb 08 10:30:03 GMT 2017
User: dcchb
Spectrometer: FLMS00149
Trigger mode: 0
Integration Time (sec): 2.000000E-2
Scans to average: 10
Electric dark correction enabled: true
Nonlinearity correction enabled: false
Boxcar width: 0
XAxis mode: Wavelengths
Number of Pixels in Spectrum: 2048
>>>>>Begin Spectral Data<<<<<
341.393	-32.24
341.776	-32.24
342.16	-32.24
342.543	-58.23
342.927	-81.96
343.31	-70.21
343.693	-68.63
344.077	-66.82
344.46	-76.76
344.843	-56.65
345.226	-23.21
345.61	-30.21
345.993	3.01
346.376	0.97
346.759	23.8
347.142	21.99
347.525	34.65
347.908	49.56
348.291	84.14
348.674	87.75
349.057	86.62
349.44	136.34
349.823	125.94
350.206	148.32
350.588	188.99
350.971	191.7
351.354	200.52
351.737	234.41
352.119	210.46
352.502	242.32
352.884	251.82
353.267	264.47
353.65	279.84
354.032	271.93
354.414	290.01
354.797	302.89
355.179	297.46
355.562	316.22
355.944	293.4
356.326	296.33
356.709	312.38
357.091	328.2
357.473	319.38
357.855	320.51
358.238	301.98
358.62	313.73
359.002	313.73
359.384	318.25
359.766	320.51
360.148	323.23
360.53	311.93
360.912	306.05
361.294	317.8
361.676	315.99
362.057	313.51
362.439	321.87
362.821	300.63
363.203	304.92
363.584	319.16
363.966	298.59
364.348	318.03
364.729	315.09
365.111	320.51
365.493	302.21
365.874	296.79
366.256	303.11
366.637	296.33
367.019	290.68
367.4	297.69
367.781	296.79
368.163	297.69
368.544	282.32
368.925	290.01
369.306	285.94
369.688	266.05
370.069	294.53
370.45	265.37
370.831	294.98
371.212	291.36
371.593	286.39
371.974	296.79
372.355	287.97
372.736	287.75
373.117	293.17
373.498	288.42
373.879	272.38
374.26	284.36
374.641	308.31
375.021	276.45
375.402	295.66
375.783	285.49
376.163	283.68
376.544	278.93
376.925	303.11
377.305	290.46
377.686	305.83
378.066	310.8
378.447	297.69
378.827	304.7
379.208	310.34
379.588	302.21
379.968	313.28
380.349	312.6
380.729	299.27
381.109	302.21
381.489	308.99
381.87	315.32
382.25	297.69
382.63	310.12
383.01	293.17
383.39	320.74
383.77	309.89
384.15	301.08
384.53	327.97
384.91	301.31
385.29	309.44
385.67	312.6
386.049	306.5
386.429	312.6
386.809	318.48
387.189	307.86
387.568	334.3
387.948	327.97
388.328	325.26
388.707	317.58
389.087	317.8
389.466	329.55
389.846	323.9
390.225	338.59
390.605	321.64
390.984	327.75
391.363	353.28
391.743	337.01
392.122	334.98
392.501	333.17
392.881	325.71
393.26	354.64
393.639	337.69
394.018	346.5
394.397	339.5
394.776	362.77
395.155	329.33
395.534	354.64
395.913	343.79
396.292	352.38
396.671	362.09
397.05	356.45
397.429	376.11
397.808	348.08
398.186	339.72
398.565	357.8
398.944	351.7
399.323	349.89
399.701	357.12
400.08	365.03
400.458	368.65
400.837	385.6
401.215	376.33
401.594	388.31
401.972	384.47
402.351	374.07
402.729	375.2
403.107	375.65
403.486	384.47
403.864	395.54
404.242	410.23
404.62	409.78
404.999	410
405.377	414.75
405.755	414.07
406.133	406.16
406.511	399.38
406.889	407.74
407.267	411.13
407.645	412.72
408.023	429.89
408.401	421.3
408.779	431.7
409.156	409.33
409.534	434.64
409.912	441.19
410.29	435.77
410.667	460.85
411.045	441.87
411.422	437.12
411.8	435.99
412.178	475.31
412.555	447.52
412.933	454.07
413.31	476.67
413.687	460.4
414.065	485.48
414.442	462.43
414.819	503.33
415.197	498.81
415.574	487.52
415.951	493.62
416.328	475.76
416.705	485.48
417.082	483.45
417.46	496.78
417.837	502.66
418.214	493.84
418.591	507.63
418.967	496.55
419.344	510.34
419.721	522.32
420.098	536.78
420.475	534.97
420.852	534.52
421.228	521.41
421.605	543.56
421.982	540.17
422.358	545.14
422.735	528.87
423.111	548.98
423.488	558.7
423.864	563.22
424.241	574.07
424.617	562.09
424.994	577.68
425.37	570.45
425.746	592.15
426.123	597.8
426.499	583.33
426.875	606.38
427.251	621.52
427.627	618.81
428.003	636.44
428.379	632.14
428.756	644.57
429.132	652.03
429.507	637.57
429.883	655.65
430.259	660.39
430.635	662.2
431.011	671.24
431.387	707.4
431.763	710.79
432.138	674.63
432.514	697
432.89	699.26
433.265	711.69
433.641	745.14
434.016	715.53
434.392	721.86
434.767	756.66
435.143	748.98
435.518	764.8
435.894	778.81
436.269	775.64
436.644	791.91
437.02	783.55
437.395	804.12
437.77	806.15
438.145	837.11
438.52	837.11
438.895	871.01
439.271	823.55
439.646	852.25
440.021	880.05
440.395	863.78
440.77	875.75
441.145	880.95
441.52	903.32
441.895	900.84
442.27	944
442.645	924.79
443.019	936.09
443.394	947.16
443.769	927.73
444.143	946.71
444.518	986.03
444.892	965.24
445.267	975.86
445.641	987.39
446.016	944.68
446.39	1006.6
446.764	975.19
447.139	1007.95
447.513	1003.21
447.887	992.13
448.262	1013.6
448.636	1028.97
449.01	1035.75
449.384	1062.87
449.758	1050.89
450.132	1051.79
450.506	1069.42
450.88	1076.65
451.254	1073.26
451.628	1081.85
452.002	1079.82
452.376	1137.22
452.75	1125.24
453.123	1153.71
453.497	1141.74
453.871	1175.41
454.244	1142.64
454.618	1168.18
454.992	1178.57
455.365	1161.4
455.739	1194.62
456.112	1225.35
456.486	1206.37
456.859	1243.2
457.232	1233.48
457.606	1273.03
457.979	1284.1
458.352	1293.6
458.725	1286.82
459.099	1321.39
459.472	1303.99
459.845	1339.7
460.218	1346.25
460.591	1338.79
460.964	1370.2
461.337	1352.8
461.71	1370.66
462.083	1411.33
462.456	1431.9
462.829	1412.46
463.201	1433.48
463.574	1439.13
463.947	1460.82
464.32	1472.57
464.692	1472.12
465.065	1496.08
465.438	1498.56
465.81	1525.91
466.183	1541.27
466.555	1560.03
466.928	1561.16
467.3	1570.2
467.672	1574.04
468.045	1612.01
468.417	1596.64
468.789	1631.44
469.161	1660.14
469.534	1687.71
469.906	1706.24
470.278	1682.51
470.65	1706.47
471.022	1714.38
471.394	1739.91
471.766	1758.89
472.138	1793.7
472.51	1809.29
472.882	1811.32
473.253	1825.33
473.625	1818.78
473.997	1840.25
474.369	1916.63
474.74	1913.92
475.112	1889.96
475.484	1980.36
475.855	1955.05
476.227	1962.96
476.598	2023.97
476.97	2030.07
477.341	2058.77
477.713	2056.51
478.084	2105.78
478.455	2091.32
478.827	2128.83
479.198	2185.1
479.569	2187.81
479.94	2225.32
480.311	2216.96
480.682	2280.24
481.053	2277.75
481.424	2330.63
481.795	2313.91
482.166	2339.67
482.537	2380.8
482.908	2380.12
483.279	2437.29
483.65	2419.22
484.021	2470.29
484.391	2478.2
484.762	2477.29
485.133	2495.6
485.503	2520.46
485.874	2546.67
486.244	2564.07
486.615	2610.4
486.985	2609.95
487.356	2640
487.726	2628.7
488.097	2663.96
488.467	2651.3
488.837	2720.9
489.207	2737.85
489.578	2729.49
489.948	2734.46
490.318	2765.42
490.688	2742.37
491.058	2790.96
491.428	2815.59
491.798	2843.61
492.168	2846.55
492.538	2823.5
492.908	2879.99
493.278	2841.8
493.648	2881.8
494.017	2826.66
494.387	2838.41
494.757	2878.41
495.126	2877.51
495.496	2898.3
495.866	2867.34
496.235	2904.4
496.605	2898.75
496.974	2882.93
497.344	2921.58
497.713	2873.89
498.082	2917.73
498.452	2932.65
498.821	2946.43
499.19	2909.15
499.559	2923.16
499.928	2913.21
500.298	2925.87
500.667	2897.17
501.036	2938.75
501.405	2941.46
501.774	2922.71
502.143	2918.64
502.512	2921.12
502.88	2915.25
503.249	2946.43
503.618	2914.8
503.987	2939.65
504.356	2930.62
504.724	2900.56
505.093	2838.41
505.462	2867.11
505.83	2914.57
506.199	2875.25
506.567	2942.82
506.936	2893.55
507.304	2953.89
507.672	2935.81
508.041	2948.69
508.409	2941.69
508.777	2908.92
509.145	2941.01
509.514	2903.95
509.882	2897.17
510.25	2886.32
510.618	2888.81
510.986	2892.2
511.354	2914.8
511.722	2892.42
512.09	2900.56
512.458	2847.68
512.826	2889.03
513.193	2895.59
513.561	2885.87
513.929	2909.15
514.297	2878.19
514.664	2914.8
515.032	2865.08
515.4	2882.93
515.767	2903.95
516.135	2863.5
516.502	2872.09
516.869	2877.28
517.237	2834.12
517.604	2826.66
517.972	2845.87
518.339	2835.93
518.706	2801.8
519.073	2816.95
519.44	2827.34
519.808	2807
520.175	2788.7
520.542	2844.29
520.909	2842.48
521.276	2787.12
521.643	2807.68
522.009	2818.08
522.376	2829.83
522.743	2782.6
523.11	2809.94
523.477	2836.15
523.843	2816.95
524.21	2818.08
524.577	2825.08
524.943	2799.77
525.31	2835.02
525.676	2809.94
526.043	2795.93
526.409	2830.05
526.776	2813.78
527.142	2796.61
527.508	2825.08
527.874	2853.78
528.241	2820.79
528.607	2816.27
528.973	2826.66
529.339	2812.65
529.705	2833.67
530.071	2870.73
530.437	2849.71
530.803	2838.87
531.169	2866.66
531.535	2852.65
531.901	2851.3
532.267	2854.01
532.632	2831.63
532.998	2857.62
533.364	2835.7
533.73	2845.65
534.095	2842.48
534.461	2830.05
534.826	2847
535.192	2873.67
535.557	2885.19
535.923	2870.96
536.288	2873.67
536.653	2859.66
537.019	2882.03
537.384	2838.64
537.749	2879.99
538.114	2901.24
538.479	2861.24
538.845	2869.6
539.21	2873.44
539.575	2894.46
539.94	2823.5
540.305	2824.63
540.67	2842.48
541.034	2855.81
541.399	2853.33
541.764	2869.37
542.129	2878.64
542.494	2866.44
542.858	2864.4
543.223	2851.3
543.587	2843.61
543.952	2826.44
544.316	2830.05
544.681	2832.99
545.045	2841.13
545.41	2830.28
545.774	2805.65
546.138	2831.63
546.503	2861.69
546.867	2851.3
547.231	2845.65
547.595	2843.39
547.959	2796.61
548.324	2856.72
548.688	2814.23
549.052	2847
549.416	2839.32
549.779	2821.69
550.143	2827.11
550.507	2850.39
550.871	2809.26
551.235	2810.84
551.599	2795.48
551.962	2814.23
552.326	2809.71
552.689	2818.08
553.053	2781.92
553.417	2796.83
553.78	2799.55
554.143	2783.5
554.507	2796.38
554.87	2793.9
555.234	2816.04
555.597	2793.22
555.96	2779.43
556.323	2773.78
556.686	2785.53
557.05	2814.91
557.413	2782.37
557.776	2800.45
558.139	2807.45
558.502	2794.57
558.865	2786.89
559.228	2827.34
559.59	2822.6
559.953	2837.74
560.316	2802.26
560.679	2818.3
561.041	2806.78
561.404	2830.28
561.767	2814.69
562.129	2817.62
562.492	2857.62
562.854	2833.89
563.217	2861.24
563.579	2816.95
563.941	2848.13
564.304	2856.49
564.666	2856.27
565.028	2892.65
565.39	2848.13
565.753	2846.78
566.115	2862.37
566.477	2907.34
566.839	2886.1
567.201	2899.2
567.563	2910.05
567.925	2902.14
568.287	2951.86
568.648	2918.41
569.01	2938.75
569.372	2953.44
569.734	2924.97
570.095	2966.09
570.457	2945.98
570.819	2952.31
571.18	2945.53
571.542	2960.22
571.903	2953.67
572.265	2973.55
572.626	2990.05
572.987	2971.74
573.349	3031.4
573.71	2981.46
574.071	3054.68
574.432	3059.65
574.794	3081.8
575.155	3052.65
575.516	3095.81
575.877	3104.17
576.238	3081.57
576.599	3078.86
576.96	3067.33
577.32	3120.44
577.681	3109.14
578.042	3100.55
578.403	3085.64
578.763	3087.45
579.124	3136.71
579.485	3168.35
579.845	3117.95
580.206	3138.29
580.566	3157.73
580.927	3154.11
581.287	3179.42
581.648	3167.67
582.008	3209.03
582.368	3138.07
582.728	3185.75
583.089	3153.43
583.449	3195.24
583.809	3195.01
584.169	3193.88
584.529	3204.05
584.889	3223.04
585.249	3185.3
585.609	3182.13
585.969	3194.56
586.329	3197.5
586.688	3199.31
587.048	3243.6
587.408	3209.7
587.768	3239.76
588.127	3219.42
588.487	3217.16
588.846	3254.45
589.206	3230.49
589.565	3227.78
589.925	3234.34
590.284	3245.18
590.643	3244.05
591.003	3238.18
591.362	3254.22
591.721	3223.04
592.08	3241.57
592.44	3241.12
592.799	3234.11
593.158	3244.96
593.517	3275.01
593.876	3237.27
594.235	3233.21
594.593	3242.7
594.952	3245.63
595.311	3220.55
595.67	3223.04
596.029	3241.57
596.387	3249.25
596.746	3256.03
597.104	3243.38
597.463	3241.57
597.822	3265.52
598.18	3213.09
598.538	3204.73
598.897	3248.35
599.255	3260.78
599.613	3293.09
599.972	3205.41
600.33	3228.69
600.688	3230.72
601.046	3234.79
601.404	3253.09
601.762	3257.61
602.12	3203.83
602.478	3262.81
602.836	3285.86
603.194	3188.91
603.552	3237.95
603.91	3238.18
604.268	3214
604.625	3236.82
604.983	3251.28
605.341	3282.02
605.698	3233.21
606.056	3278.85
606.413	3285.86
606.771	3261.23
607.128	3254.67
607.485	3281.79
607.843	3264.39
608.2	3269.36
608.557	3281.11
608.914	3246.31
609.272	3251.74
609.629	3322.92
609.986	3279.53
610.343	3284.5
610.7	3271.4
611.057	3301.9
611.414	3303.26
611.771	3314.33
612.127	3246.99
612.484	3299.87
612.841	3282.02
613.198	3336.48
613.554	3316.82
613.911	3315.46
614.267	3330.15
614.624	3289.7
614.98	3358.17
615.337	3310.94
615.693	3361.56
616.05	3331.06
616.406	3308.01
616.762	3319.08
617.118	3328.57
617.475	3334.22
617.831	3347.78
618.187	3333.32
618.543	3364.73
618.899	3333.77
619.255	3314.33
619.611	3327.21
619.967	3327.44
620.323	3359.98
620.678	3304.84
621.034	3340.77
621.39	3308.91
621.746	3358.4
622.101	3342.13
622.457	3298.29
622.812	3327.89
623.168	3309.36
623.523	3328.57
623.879	3343.94
624.234	3331.51
624.589	3394.56
624.945	3341.45
625.3	3365.18
625.655	3347.33
626.01	3368.57
626.365	3384.84
626.72	3337.61
627.075	3366.08
627.43	3372.41
627.785	3347.1
628.14	3397.72
628.495	3375.8
628.85	3364.05
629.205	3367.89
629.559	3382.13
629.914	3363.82
630.269	3341.9
630.623	3364.95
630.978	3405.63
631.332	3382.81
631.687	3385.29
632.041	3325.86
632.396	3409.92
632.75	3368.57
633.104	3359.08
633.459	3397.04
633.813	3310.04
634.167	3374.45
634.521	3348.23
634.875	3383.03
635.229	3403.37
635.583	3383.71
635.937	3350.27
636.291	3345.52
636.645	3361.34
636.999	3346.65
637.352	3385.52
637.706	3359.53
638.06	3378.96
638.413	3348.01
638.767	3318.85
639.121	3385.29
639.474	3341.68
639.828	3377.16
640.181	3347.1
640.534	3379.64
640.888	3378.96
641.241	3383.03
641.594	3364.5
641.947	3365.18
642.301	3362.02
642.654	3309.36
643.007	3363.37
643.36	3364.95
643.713	3337.84
644.066	3362.02
644.419	3348.23
644.771	3337.61
645.124	3334.67
645.477	3310.94
645.83	3331.06
646.182	3298.74
646.535	3301.9
646.888	3302.81
647.24	3286.09
647.593	3286.09
647.945	3300.32
648.298	3295.58
648.65	3311.85
649.002	3323.37
649.355	3330.6
649.707	3292.64
650.059	3345.97
650.411	3357.04
650.763	3383.71
651.115	3441.34
651.467	3418.96
651.819	3440.21
652.171	3442.47
652.523	3407.89
652.875	3438.17
653.227	3427.33
653.578	3402.47
653.93	3448.12
654.282	3390.04
654.633	3458.51
654.985	3446.53
655.337	3436.59
655.688	3449.02
656.039	3470.94
656.391	3440.21
656.742	3480.43
657.094	3470.26
657.445	3476.14
657.796	3463.26
658.147	3486.08
658.498	3508.23
658.849	3471.39
659.2	3514.78
659.551	3517.49
659.902	3534.44
660.253	3494.67
660.604	3515.46
660.955	3456.25
661.306	3479.53
661.656	3496.25
662.007	3544.84
662.358	3494.44
662.708	3511.39
663.059	3527.89
663.409	3516.14
663.76	3525.18
664.11	3543.25
664.461	3522.69
664.811	3525.4
665.161	3497.83
665.511	3475.91
665.862	3518.85
666.212	3497.61
666.562	3536.02
666.912	3526.31
667.262	3526.31
667.612	3518.62
667.962	3510.49
668.312	3529.02
668.662	3562.69
669.011	3554.33
669.361	3537.15
669.711	3523.82
670.06	3535.57
670.41	3518.17
670.76	3515.91
671.109	3491.73
671.459	3491.5
671.808	3500.32
672.157	3501.45
672.507	3447.66
672.856	3504.61
673.205	3435.46
673.554	3482.92
673.904	3480.21
674.253	3494.89
674.602	3467.1
674.951	3407.89
675.3	3408.79
675.649	3421.22
675.998	3479.08
676.346	3429.13
676.695	3458.28
677.044	3396.37
677.393	3407.66
677.741	3418.29
678.09	3450.6
678.438	3401.11
678.787	3415.8
679.135	3411.73
679.484	3365.86
679.832	3367.21
680.181	3366.08
680.529	3364.95
680.877	3346.65
681.225	3345.75
681.573	3366.08
681.922	3375.35
682.27	3325.41
682.618	3320.44
682.966	3341.9
683.314	3329.25
683.661	3282.24
684.009	3350.72
684.357	3324.95
684.705	3294.22
685.053	3298.97
685.4	3282.24
685.748	3257.61
686.095	3238.86
686.443	3242.02
686.79	3225.52
687.138	3202.02
687.485	3213.55
687.832	3209.25
688.18	3197.95
688.527	3171.06
688.874	3192.08
689.221	3191.85
689.568	3191.4
689.915	3142.81
690.262	3145.52
690.609	3109.82
690.956	3120.89
691.303	3113.21
691.65	3119.08
691.997	3072.08
692.344	3096.03
692.69	3077.05
693.037	3065.3
693.383	3073.66
693.73	3017.62
694.077	3061.46
694.423	3004.51
694.769	2990.73
695.116	3016.26
695.462	3010.39
695.808	2996.38
696.155	3010.84
696.501	2970.16
696.847	2983.04
697.193	2972.42
697.539	2948.02
697.885	2926.55
698.231	2941.01
698.577	2937.39
698.923	2942.82
699.269	2912.08
699.614	2911.41
699.96	2862.59
700.306	2883.38
700.651	2893.33
700.997	2874.57
701.342	2855.59
701.688	2912.99
702.033	2875.7
702.379	2899.43
702.724	2852.65
703.069	2830.96
703.415	2818.53
703.76	2830.05
704.105	2811.07
704.45	2810.39
704.795	2810.62
705.14	2788.47
705.485	2815.14
705.83	2779.21
706.175	2821.69
706.52	2803.84
706.865	2807.91
707.209	2786.44
707.554	2813.1
707.899	2771.98
708.243	2782.14
708.588	2780.56
708.932	2761.13
709.277	2800.45
709.621	2801.8
709.966	2816.04
710.31	2796.83
710.654	2749.15
710.998	2784.86
711.342	2764.97
711.687	2753.22
712.031	2735.14
712.375	2746.89
712.719	2775.82
713.063	2748.92
713.407	2807.68
713.75	2787.34
714.094	2755.03
714.438	2766.1
714.782	2765.42
715.125	2776.04
715.469	2808.13
715.812	2803.16
716.156	2804.74
716.499	2759.09
716.843	2777.4
717.186	2794.8
717.53	2819.43
717.873	2790.28
718.216	2824.4
718.559	2763.16
718.902	2785.53
719.246	2840.9
719.589	2802.93
719.932	2791.18
720.275	2849.49
720.617	2875.48
720.96	2820.79
721.303	2828.92
721.646	2833.44
721.989	2845.42
722.331	2883.61
722.674	2836.61
723.016	2854.01
723.359	2873.67
723.701	2889.94
724.044	2900.79
724.386	2857.62
724.729	2939.43
725.071	2902.59
725.413	2920.22
725.755	2894.46
726.097	2939.65
726.439	2905.76
726.782	2927.45
727.124	3002.7
727.465	2973.55
727.807	2978.3
728.149	2975.36
728.491	2941.91
728.833	2985.75
729.175	2989.6
729.516	3020.56
729.858	3028.01
730.199	3037.5
730.541	3044.28
730.882	3077.73
731.224	3100.33
731.565	3084.28
731.906	3109.14
732.248	3112.31
732.589	3120.21
732.93	3148.01
733.271	3140.78
733.612	3115.69
733.953	3147.33
734.294	3214.68
734.635	3187.33
734.976	3229.59
735.317	3228.91
735.658	3214.45
735.999	3254
736.339	3265.97
736.68	3311.62
737.021	3291.51
737.361	3345.97
737.702	3383.26
738.042	3365.41
738.383	3377.38
738.723	3428.46
739.063	3430.49
739.404	3465.74
739.744	3449.92
740.084	3473.88
740.424	3530.15
740.764	3545.51
741.104	3573.54
741.444	3591.84
741.784	3615.34
742.124	3658.73
742.464	3664.38
742.804	3723.36
743.143	3781.44
743.483	3800.42
743.823	3842.46
744.162	3859.18
744.502	3879.97
744.841	3912.96
745.181	3988.67
745.52	3971.04
745.86	4060.53
746.199	4115.89
746.538	4143.92
746.877	4176.68
747.216	4238.6
747.556	4234.31
747.895	4278.38
748.234	4348.88
748.573	4392.72
748.911	4460.07
749.25	4514.75
749.589	4542.78
749.928	4640.4
750.267	4698.93
750.605	4770.57
750.944	4773.05
751.283	4881.75
751.621	4956.1
751.96	4966.95
752.298	5078.13
752.636	5117.22
752.975	5164.23
753.313	5293.49
753.651	5347.27
753.989	5418.69
754.327	5452.36
754.666	5582.75
755.004	5604.67
755.342	5654.84
755.679	5740.71
756.017	5824.1
756.355	5881.72
756.693	6033.13
757.031	6104.99
757.368	6099.12
757.706	6152.23
758.044	6257.76
758.381	6366
758.719	6401.71
759.056	6474.48
759.394	6521.26
759.731	6569.84
760.068	6709.05
760.405	6784.07
760.743	6884.41
761.08	6881.47
761.417	6953.33
761.754	7051.18
762.091	7111.07
762.428	7184.06
762.765	7217.73
763.102	7333.66
763.438	7382.93
763.775	7320.33
764.112	7492.08
764.449	7501.79
764.785	7590.15
765.122	7645.52
765.458	7633.99
765.795	7716.03
766.131	7815.23
766.467	7881.9
766.804	7902.69
767.14	7910.15
767.476	7997.37
767.812	8064.04
768.148	8123.47
768.485	8100.2
768.821	8192.85
769.157	8184.49
769.492	8180.87
769.828	8259.74
770.164	8274.66
770.5	8325.28
