Data from blue_shiny_book_FLMS001491_00057.txt Node
Date: Wed Feb 08 15:27:13 GMT 2017
User: dcchb
Spectrometer: FLMS00149
Trigger mode: 0
Integration Time (sec): 2.000000E-2
Scans to average: 10
Electric dark correction enabled: true
Nonlinearity correction enabled: false
Boxcar width: 0
XAxis mode: Wavelengths
Number of Pixels in Spectrum: 2048
>>>>>Begin Spectral Data<<<<<
341.393	11.65
341.776	11.65
342.16	11.65
342.543	-59.53
342.927	-55.24
343.31	-77.84
343.693	-86.42
344.077	-64.5
344.46	-70.15
344.843	-39.19
345.226	-38.97
345.61	-33.54
345.993	-3.04
346.376	11.43
346.759	9.17
347.142	53.69
347.525	30.41
347.908	43.97
348.291	72.67
348.674	88.49
349.057	103.85
349.44	145.89
349.823	129.84
350.206	180.24
350.588	208.94
350.971	224.98
351.354	253.45
351.737	262.49
352.119	268.82
352.502	285.09
352.884	305.66
353.267	296.39
353.65	294.13
354.032	313.34
354.414	325.09
354.797	333.9
355.179	336.62
355.562	342.04
355.944	340.46
356.326	368.48
356.709	357.63
357.091	359.67
357.473	360.12
357.855	366.22
358.238	362.83
358.62	347.69
359.002	374.58
359.384	372.77
359.766	358.08
360.148	365.54
360.53	367.58
360.912	357.63
361.294	343.85
361.676	377.97
362.057	369.38
362.439	364.86
362.821	356.5
363.203	361.25
363.584	366.9
363.966	365.09
364.348	351.98
364.729	353.79
365.111	361.93
365.493	365.54
365.874	344.75
366.256	355.82
366.637	352.21
367.019	353.79
367.4	358.31
367.781	342.27
368.163	363.06
368.544	379.78
368.925	362.38
369.306	373
369.688	349.04
370.069	353.11
370.45	375.26
370.831	351.98
371.212	350.17
371.593	363.51
371.974	363.28
372.355	378.42
372.736	346.11
373.117	391.53
373.498	370.29
373.879	387.01
374.26	372.09
374.641	376.39
375.021	369.61
375.402	372.09
375.783	378.2
376.163	398.76
376.544	428.36
376.925	411.64
377.305	376.84
377.686	390.63
378.066	413.22
378.447	398.99
378.827	404.18
379.208	415.71
379.588	412.09
379.968	408.7
380.349	428.14
380.729	417.97
381.109	443.28
381.489	451.41
381.87	425.43
382.25	451.41
382.63	444.86
383.01	452.32
383.39	440.57
383.77	453.45
384.15	479.21
384.53	470.85
384.91	466.33
385.29	470.62
385.67	461.81
386.049	485.76
386.429	485.76
386.809	495.03
387.189	496.84
387.568	512.43
387.948	513.11
388.328	515.82
388.707	525.09
389.087	488.7
389.466	508.36
389.846	529.15
390.225	540.45
390.605	536.16
390.984	547.68
391.363	561.24
391.743	548.81
392.122	575.48
392.501	580.22
392.881	578.64
393.26	556.72
393.639	589.94
394.018	584.07
394.397	606.66
394.776	596.95
395.155	609.15
395.534	622.26
395.913	622.94
396.292	622.48
396.671	630.62
397.05	644.18
397.429	629.72
397.808	636.27
398.186	633.33
398.565	667.91
398.944	662.03
399.323	692.54
399.701	694.8
400.08	680.79
400.458	682.37
400.837	711.97
401.215	708.81
401.594	740.67
401.972	716.27
402.351	736.83
402.729	736.6
403.107	765.08
403.486	775.47
403.864	749.26
404.242	789.94
404.62	773.67
404.999	791.74
405.377	769.82
405.755	816.83
406.133	841.01
406.511	852.99
406.889	860.44
407.267	857.05
407.645	885.98
408.023	885.75
408.401	891.18
408.779	910.16
409.156	934.79
409.534	938.86
409.912	967.79
410.29	963.49
410.667	978.63
411.045	1001.23
411.422	995.36
411.8	1029.48
412.178	1041.46
412.555	1046.43
412.933	1045.98
413.31	1104.73
413.687	1114.45
414.065	1099.53
414.442	1111.06
414.819	1139.08
415.197	1146.09
415.574	1161.9
415.951	1201.45
416.328	1190.6
416.705	1201.23
417.082	1216.14
417.46	1260.43
417.837	1241
418.214	1259.08
418.591	1258.17
418.967	1312.63
419.344	1276.03
419.721	1317.83
420.098	1312.41
420.475	1358.28
420.852	1363.26
421.228	1391.95
421.605	1410.26
421.982	1426.76
422.358	1424.04
422.735	1435.57
423.111	1442.12
423.488	1442.35
423.864	1499.07
424.241	1482.12
424.617	1552.85
424.994	1535.45
425.37	1541.1
425.746	1609.35
426.123	1631.72
426.499	1625.4
426.875	1655.22
427.251	1677.15
427.627	1694.32
428.003	1715.79
428.379	1741.78
428.756	1753.75
429.132	1780.19
429.507	1821.55
429.883	1829.23
430.259	1879.17
430.635	1874.43
431.011	1944.93
431.387	1979.74
431.763	1990.36
432.138	2036.46
432.514	2050.47
432.89	2066.29
433.265	2092.5
433.641	2134.08
434.016	2141.54
434.392	2174.08
434.767	2233.06
435.143	2242.1
435.518	2291.37
435.894	2299.95
436.269	2416.79
436.644	2381.99
437.02	2396.22
437.395	2371.36
437.77	2487.07
438.145	2456.11
438.52	2492.72
438.895	2551.92
439.271	2549.21
439.646	2612.26
440.021	2654.29
440.395	2669.66
440.77	2651.13
441.145	2726.38
441.52	2782.88
441.895	2784.69
442.27	2784.91
442.645	2790.34
443.019	2818.58
443.394	2788.08
443.769	2847.74
444.143	2853.84
444.518	2931.35
444.892	2902.42
445.267	2953.72
445.641	2986.04
446.016	3035.3
446.39	3050.67
446.764	3058.35
447.139	3055.64
447.513	3084.79
447.887	3119.37
448.262	3132.93
448.636	3133.83
449.01	3207.27
449.384	3206.6
449.758	3216.54
450.132	3328.18
450.506	3333.6
450.88	3390.09
451.254	3366.37
451.628	3414.73
452.002	3506.93
452.376	3541.73
452.75	3543.54
453.123	3564.33
453.497	3623.53
453.871	3688.62
454.244	3697.21
454.618	3740.37
454.992	3816.98
455.365	3845.45
455.739	3948.27
456.112	3952.11
456.486	4015.39
456.859	4051.77
457.232	4131.32
457.606	4143.75
457.979	4235.95
458.352	4307.58
458.725	4346.68
459.099	4411.76
459.472	4465.77
459.845	4570.63
460.218	4562.94
460.591	4625.54
460.964	4602.94
461.337	4743.51
461.71	4822.6
462.083	4911.64
462.456	4899.43
462.829	4904.63
463.201	5078.86
463.574	5038.64
463.947	5146.66
464.32	5299.42
464.692	5312.53
465.065	5342.36
465.438	5400.89
465.81	5524.95
466.183	5594.33
466.555	5717.94
466.928	5772.18
467.3	5776.7
467.672	5878.84
468.045	6058.95
468.417	6065.73
468.789	6110.02
469.161	6157.48
469.534	6308.89
469.906	6449.68
470.278	6432.95
470.65	6546.85
471.022	6703.45
471.394	6812.15
471.766	6846.5
472.138	6913.62
472.51	7053.05
472.882	7229.77
473.253	7264.12
473.625	7441.97
473.997	7544.34
474.369	7615.52
474.74	7709.53
475.112	7928.96
475.484	7971.22
475.855	8151.33
476.227	8170.99
476.598	8375.73
476.97	8497.76
477.341	8626.34
477.713	8854.13
478.084	8942.94
478.455	9217.74
478.827	9331.18
479.198	9535.92
479.569	9576.82
479.94	9862.92
480.311	9881
480.682	10123.7
481.053	10388.55
481.424	10511.72
481.795	10574.99
482.166	10826.96
482.537	10962.32
482.908	11208.87
483.279	11316.44
483.65	11527.51
484.021	11826.03
484.391	11959.36
484.762	12043.2
485.133	12137.89
485.503	12361.61
485.874	12625.56
486.244	12701.71
486.615	12932.44
486.985	13077.07
487.356	13342.6
487.726	13464.41
488.097	13788.92
488.467	13832.76
488.837	14182.81
489.207	14377.15
489.578	14607.43
489.948	14775.11
490.318	14927.64
490.688	14912.73
491.058	15302.55
491.428	15481.75
491.798	15705.25
492.168	16046.03
492.538	16068.63
492.908	16095.98
493.278	16321.05
493.648	16439.47
494.017	16667.49
494.387	16907.03
494.757	17053.24
495.126	17270.63
495.496	17383.62
495.866	17655.26
496.235	17785.42
496.605	17983.61
496.974	18145.41
497.344	18342.47
497.713	18410.94
498.082	18546.76
498.452	18652.29
498.821	18765.51
499.19	18857.48
499.559	18990.81
499.928	19090.47
500.298	19251.15
500.667	19429.45
501.036	19460.18
501.405	19707.41
501.774	19911.69
502.143	20134.96
502.512	20275.53
502.88	20405.92
503.249	20441.85
503.618	20601.39
503.987	20692.92
504.356	20803.2
504.724	20981.04
505.093	20982.4
505.462	21180.36
505.83	21295.16
506.199	21476.17
506.567	21603.4
506.936	21700.57
507.304	21972.66
507.672	22005.88
508.041	22276.15
508.409	22475.92
508.777	22697.16
509.145	23048.11
509.514	22989.13
509.882	23266.86
510.25	23336.46
510.618	23398.38
510.986	23625.04
511.354	23811.48
511.722	23984.13
512.09	24154.97
512.458	24087.4
512.826	24314.52
513.193	24481.52
513.561	24542.08
513.929	24871.34
514.297	25080.82
514.664	25294.83
515.032	25442.62
515.4	25700.02
515.767	25928.26
516.135	26009.61
516.502	26053.45
516.869	26500.9
517.237	26694.11
517.604	26596.26
517.972	26903.6
518.339	27091.39
518.706	27069.47
519.073	27051.39
519.44	27256.36
519.808	27536.58
520.175	27509.23
520.542	27810.7
520.909	28144.02
521.276	28122.1
521.643	28500.62
522.009	28688.19
522.376	28938.58
522.743	29205.01
523.11	29625.56
523.477	29929.74
523.843	30182.16
524.21	30458.31
524.577	30829.6
524.943	30902.37
525.31	30924.29
525.676	31197.95
526.043	31290.6
526.409	31511.61
526.776	31824.83
527.142	31823.02
527.508	31996.57
527.874	32216.91
528.241	32391.59
528.607	32562.66
528.973	32989.09
529.339	33173.94
529.705	33474.28
530.071	33847.37
530.437	34006.24
530.803	34452.33
531.169	34612.55
531.535	34671.76
531.901	34843.05
532.267	34871.3
532.632	35130.95
532.998	35293.89
533.364	35476.26
533.73	35425.64
534.095	35620.43
534.461	35730.94
534.826	35900.65
535.192	35868.56
535.557	36090.93
535.923	36137.26
536.288	36504.93
536.653	36638.94
537.019	36602.78
537.384	36970.45
537.749	37249.77
538.114	37487.05
538.479	37381.97
538.845	37690.44
539.21	37720.72
539.575	37844.33
539.94	38021.95
540.305	38152.57
540.67	37929.53
541.034	38093.81
541.399	38364.09
541.764	38307.82
542.129	38441.38
542.494	38498.32
542.858	38496.29
543.223	38483.18
543.587	38858.09
543.952	38958.88
544.316	39101.02
544.681	39282.94
545.045	39619.42
545.41	39848.57
545.774	39969.02
546.138	40154.78
546.503	40246.53
546.867	40364.26
547.231	40717.25
547.595	40846.96
547.959	40788.43
548.324	40894.19
548.688	40867.08
549.052	40969.45
549.416	40905.27
549.779	40964.02
550.143	40957.24
550.507	41227.52
550.871	41107.29
551.235	41151.81
551.599	41500.96
551.962	41487.17
552.326	41782.53
552.689	41942.08
553.053	41821.17
553.417	42146.36
553.78	42675.16
554.143	42607.59
554.507	42866.12
554.87	43016.62
555.234	43465.88
555.597	43172.1
555.96	43374.13
556.323	43433.34
556.686	43469.49
557.05	43723.95
557.413	43668.81
557.776	43623.61
558.139	43809.6
558.502	43871.52
558.865	43806.43
559.228	44046.2
559.59	44041.91
559.953	44291.17
560.316	44543.36
560.679	44816.58
561.041	45085.04
561.404	45349.9
561.767	45730.45
562.129	45734.52
562.492	46146.03
562.854	46165.92
563.217	46337.89
563.579	46562.52
563.941	46775.39
564.304	46960.7
564.666	47167.25
565.028	47121.15
565.39	47306
565.753	47444.3
566.115	47448.15
566.477	47667.35
566.839	47520.46
567.201	47715.71
567.563	47629.16
567.925	47951.18
568.287	48032.31
568.648	48049.94
569.01	48334
569.372	48554.1
569.734	48573.77
570.095	48758.17
570.457	49042.23
570.819	49143.47
571.18	49277.93
571.542	49562.89
571.903	49775.77
572.265	49763.79
572.626	49896.67
572.987	49898.02
573.349	50132.14
573.71	50195.42
574.071	50286.04
574.432	50169.43
574.794	50323.55
575.155	50221.18
575.516	50060.96
575.877	50177.34
576.238	50107.51
576.599	50145.7
576.96	50191.8
577.32	50175.76
577.681	50328.75
578.042	50558.12
578.403	50593.15
578.763	50646.71
579.124	50767.15
579.485	50905
579.845	51159.01
580.206	51069.52
580.566	51295.73
580.927	51420.47
581.287	51573.46
581.648	51310.87
582.008	51665.89
582.368	51541.6
582.728	51624.31
583.089	51643.29
583.449	51543.63
583.809	51479.68
584.169	51531.2
584.529	51396.97
584.889	51690.52
585.249	51402.17
585.609	51333.92
585.969	51449.4
586.329	51407.36
586.688	51452.56
587.048	51437.64
587.408	51435.61
587.768	51606.23
588.127	51507.47
588.487	51641.48
588.846	51979.1
589.206	51793.57
589.565	51858.88
589.925	51943.17
590.284	51936.61
590.643	52007.57
591.003	52143.39
591.362	52193.33
591.721	52098.19
592.08	52192.65
592.44	52175.7
592.799	52248.47
593.158	52036.95
593.517	51973.22
593.876	51978.2
594.235	51921.7
594.593	52012.09
594.952	52019.55
595.311	51810.97
595.67	51770.07
596.029	51970.51
596.387	51964.18
596.746	52003.73
597.104	51850.97
597.463	52021.36
597.822	52145.87
598.18	52052.77
598.538	52084.18
598.897	52312.42
599.255	51959.89
599.613	52502.48
599.972	52236.49
600.33	52387.9
600.688	52387.68
601.046	52548.12
601.404	52681.68
601.762	52570.95
602.12	52703.37
602.478	52671.28
602.836	52693.66
603.194	52556.49
603.552	52584.28
603.91	52380.9
604.268	52364.4
604.625	52288.47
604.983	52525.98
605.341	52235.82
605.698	52301.8
606.056	52422.48
606.413	52476.04
606.771	52616.82
607.128	52718.51
607.485	52487.11
607.843	52674.9
608.2	52844.39
608.557	52976.81
608.914	52924.61
609.272	53118.73
609.629	53210.71
609.986	53459.29
610.343	53275.56
610.7	53547.42
611.057	53516.46
611.414	53498.16
611.771	53487.99
612.127	53624.03
612.484	53592.62
612.841	53752.39
613.198	53507.19
613.554	53548.78
613.911	53577.02
614.267	53532.05
614.624	53390.36
614.98	53489.79
615.337	53640.52
615.693	53586.74
616.05	53467.42
616.406	53701.09
616.762	53478.72
617.118	53509.68
617.475	53534.31
617.831	53569.79
618.187	53558.49
618.543	53687.76
618.899	53818.15
619.255	53774.76
619.611	53783.35
619.967	53859.05
620.323	53968.43
620.678	53931.82
621.034	54012.04
621.39	53994.64
621.746	53978.82
622.101	54339.49
622.457	54002.1
622.812	54060.63
623.168	54042.55
623.523	54138.59
623.879	54193.73
624.234	53859.5
624.589	53996.45
624.945	54004.36
625.3	53854.08
625.655	53891.37
626.01	53832.38
626.365	53831.71
626.72	53720.52
627.075	53690.69
627.43	53725.95
627.785	53686.17
628.14	53661.77
628.495	53706.06
628.85	53734.53
629.205	53605.05
629.559	53798.94
629.914	53643.69
630.269	53762.56
630.623	53879.39
630.978	53798.94
631.332	54015.88
631.687	54162.54
632.041	53962.1
632.396	53993.96
632.75	53872.16
633.104	54030.8
633.459	53892.27
633.813	53998.93
634.167	53893.63
634.521	53834.64
634.875	53754.42
635.229	53655.67
635.583	53611.37
635.937	53626.74
636.291	53597.36
636.645	53522.79
636.999	53341.78
637.352	53359.85
637.706	53057.72
638.06	53249.12
638.413	53077.15
638.767	53029.92
639.121	53010.94
639.474	52819.3
639.828	52773.88
640.181	52916.48
640.534	52882.58
640.888	52897.72
641.241	52809.13
641.594	52861.79
641.947	52940.43
642.301	52771.85
642.654	52900.43
643.007	52972.52
643.36	52977.72
643.713	52895.23
644.066	53046.42
644.419	52945.18
644.771	52814.33
645.124	52828.79
645.477	52717.39
645.83	52354.91
646.182	51990.4
646.535	51715.6
646.888	51647.13
647.24	51337.76
647.593	51523.07
647.945	51328.04
648.298	51186.13
648.65	51082.17
649.002	50886.25
649.355	51008.05
649.707	51076.07
650.059	51189.52
650.411	51567.81
650.763	51750.18
651.115	51922.6
651.467	51757.18
651.819	51665.89
652.171	51708.6
652.523	51670.18
652.875	51768.03
653.227	51637.19
653.578	51951.98
653.93	51960.79
654.282	51940.23
654.633	51883.51
654.985	51909.72
655.337	51973.9
655.688	51964.41
656.039	52168.92
656.391	51936.61
656.742	51976.84
657.094	52068.36
657.445	52103.84
657.796	52066.55
658.147	51933.45
658.498	51928.48
658.849	51921.02
659.2	51949.5
659.551	51761.7
659.902	51829.95
660.253	51766.22
660.604	51775.04
660.955	51497.53
661.306	51520.35
661.656	51428.15
662.007	51377.99
662.358	51384.31
662.708	51311.32
663.059	51370.75
663.409	51066.81
663.76	51286.69
664.11	51200.36
664.461	51297.99
664.811	51314.26
665.161	51298.21
665.511	51329.17
665.862	51331.88
666.212	51554.03
666.562	51600.58
666.912	51639.67
667.262	51551.31
667.612	51661.82
667.962	51776.17
668.312	51612.1
668.662	51799.22
669.011	51671.08
669.361	51787.92
669.711	51684.42
670.06	51508.83
670.41	51358.1
670.76	51348.38
671.109	51355.39
671.459	51225.22
671.808	51139.57
672.157	51161.04
672.507	50923.99
672.856	51019.12
673.205	50811.9
673.554	50866.13
673.904	50677.66
674.253	50736.65
674.602	50739.58
674.951	50101.86
675.3	49826.84
675.649	50448.97
675.998	50290.1
676.346	50235.64
676.695	50429.76
677.044	50177.34
677.393	50357.22
677.741	50465.69
678.09	50435.86
678.438	50416.2
678.787	50390.44
679.135	50518.57
679.484	50184.12
679.832	50577.33
680.181	50493.49
680.529	50564.45
680.877	50469.08
681.225	50455.75
681.573	50672.02
681.922	50374.17
682.27	50360.84
682.618	50348.63
682.966	50303.44
683.314	50282.19
683.661	50227.73
684.009	49940.73
684.357	49951.58
684.705	49799.27
685.053	49817.12
685.4	49604.92
685.748	49476.34
686.095	49259.17
686.443	49085.62
686.79	48996.35
687.138	49081.1
687.485	49063.02
687.832	48767.43
688.18	48783.7
688.527	48523.82
688.874	48536.03
689.221	48439.08
689.568	48307.56
689.915	48342.36
690.262	48418.52
690.609	48343.94
690.956	48223.04
691.303	48246.32
691.65	48131.97
691.997	48164.06
692.344	47859.66
692.69	47924.97
693.037	47856.95
693.383	47699.44
693.73	47904.18
694.077	47776.5
694.423	47794.12
694.769	47513
695.116	47496.73
695.462	47331.09
695.808	47230.52
696.155	47299.67
696.501	47048.38
696.847	47003.41
697.193	46646.81
697.539	46818.56
697.885	46489.53
698.231	46169.99
698.577	46101.97
698.923	45945.59
699.269	45732.71
699.614	45508.76
699.96	45337.01
700.306	45155.55
700.651	45051.82
700.997	44750.81
701.342	44684.15
701.688	44624.94
702.033	44426.3
702.379	44431.28
702.724	44359.64
703.069	44499.07
703.415	43958.29
703.76	43966.43
704.105	43940.44
704.45	43966.2
704.795	43847.79
705.14	43813.89
705.485	43627.45
705.83	43490.51
706.175	43728.92
706.52	43611.41
706.865	43582.48
707.209	43633.1
707.554	43463.17
707.899	43460.23
708.243	43283.06
708.588	43233.79
708.932	43131.2
709.277	43199.67
709.621	43124.42
709.966	42893.69
710.31	42993.8
710.654	42446.92
710.998	42551.1
711.342	42472.23
711.687	42388.17
712.031	42153.37
712.375	41887.61
712.719	42098.46
713.063	41738.92
713.407	41829.31
713.75	41607.62
714.094	41425.7
714.438	41209.67
714.782	41377.57
715.125	41031.82
715.469	40924.93
715.812	40742.33
716.156	40578.27
716.499	40664.37
716.843	40742.33
717.186	40271.61
717.53	40593.18
717.873	40402.45
718.216	40529.68
718.559	40432.51
718.902	40171.73
719.246	40554.09
719.589	40450.14
719.932	40450.81
720.275	40405.84
720.617	40522.9
720.96	40485.39
721.303	40527.88
721.646	40468.22
721.989	40400.42
722.331	40544.15
722.674	40435
723.016	40599.74
723.359	40399.29
723.701	40359.52
724.044	40068
724.386	39934.44
724.729	40108.23
725.071	39969.02
725.413	40075.91
725.755	39866.2
726.097	39636.83
726.439	39558.18
726.782	39534
727.124	39470.28
727.465	39068.7
727.807	39122.26
728.149	38935.15
728.491	38863.51
728.833	38877.75
729.175	38590.75
729.516	38653.12
729.858	38591.2
730.199	38553.46
730.541	38463.3
730.882	38494.26
731.224	38661.71
731.565	38362.73
731.906	38230.31
732.248	38283.41
732.589	38149.63
732.93	38214.26
733.271	38204.09
733.612	38288.39
733.953	38296.75
734.294	38243.19
734.635	38258.78
734.976	38188.05
735.317	38349.85
735.658	38231.89
735.999	38277.54
736.339	38296.07
736.68	38481.83
737.021	38313.02
737.361	38172.68
737.702	38311.21
738.042	38249.97
738.383	38208.16
738.723	38330.64
739.063	38103.31
739.404	38258.1
739.744	38017.66
740.084	37956.42
740.424	38084.32
740.764	37828.96
741.104	38111.67
741.444	37776.08
741.784	37599.36
742.124	37723.2
742.464	37534.28
742.804	37522.3
743.143	37508.97
743.483	37550.33
743.823	37306.72
744.162	37249.32
744.502	37419.93
744.841	37236.66
745.181	37280.73
745.52	37150.56
745.86	37294.29
746.199	37082.99
746.538	37012.26
746.877	37268.98
747.216	37235.53
747.556	37342.42
747.895	37075.99
748.234	37074.18
748.573	37195.31
748.911	37282.76
749.25	37276.89
749.589	37250
749.928	37525.47
750.267	37424.45
750.605	37466.71
750.944	37598.91
751.283	37413.38
751.621	37667.61
751.96	37408.18
752.298	37610.44
752.636	37698.8
752.975	37546.26
