Data from blue_clamp_base_FLMS001491_00075.txt Node
Date: Wed Feb 08 15:16:29 GMT 2017
User: dcchb
Spectrometer: FLMS00149
Trigger mode: 0
Integration Time (sec): 2.000000E-2
Scans to average: 10
Electric dark correction enabled: true
Nonlinearity correction enabled: false
Boxcar width: 0
XAxis mode: Wavelengths
Number of Pixels in Spectrum: 2048
>>>>>Begin Spectral Data<<<<<
341.393	11.34
341.776	11.34
342.16	11.34
342.543	-57.81
342.927	-56.68
343.31	-59.84
343.693	-68.88
344.077	-57.13
344.46	-49.45
344.843	-47.41
345.226	-50.58
345.61	-33.86
345.993	-29.79
346.376	-8.32
346.759	16.31
347.142	6.6
347.525	39.59
347.908	65.58
348.291	76.88
348.674	94.28
349.057	106.03
349.44	116.2
349.823	140.38
350.206	176.08
350.588	199.13
350.971	225.12
351.354	235.74
351.737	251.56
352.119	254.72
352.502	270.32
352.884	277.55
353.267	291.33
353.65	280.04
354.032	315.74
354.414	334.5
354.797	313.03
355.179	324.1
355.562	327.94
355.944	348.06
356.326	348.96
356.709	359.13
357.091	341.73
357.473	365.91
357.855	342.18
358.238	334.95
358.62	343.08
359.002	341.5
359.384	332.91
359.766	362.07
360.148	335.4
360.53	353.71
360.912	335.17
361.294	331.11
361.676	348.51
362.057	350.54
362.439	342.86
362.821	355.51
363.203	333.59
363.584	341.95
363.966	350.99
364.348	337.89
364.729	339.47
365.111	323.65
365.493	339.92
365.874	346.02
366.256	340.6
366.637	350.77
367.019	355.97
367.4	320.71
367.781	313.03
368.163	350.32
368.544	332.91
368.925	311.45
369.306	332.46
369.688	348.28
370.069	346.47
370.45	344.89
370.831	349.41
371.212	334.27
371.593	327.04
371.974	324.1
372.355	326.36
372.736	337.89
373.117	325.23
373.498	342.86
373.879	338.34
374.26	335.17
374.641	336.98
375.021	320.94
375.402	352.58
375.783	354.38
376.163	364.55
376.544	328.85
376.925	352.12
377.305	362.29
377.686	340.6
378.066	357.55
378.447	362.29
378.827	371.78
379.208	364.55
379.588	336.76
379.968	355.06
380.349	346.25
380.729	376.76
381.109	339.92
381.489	370.88
381.87	370.43
382.25	369.75
382.63	364.78
383.01	354.38
383.39	377.21
383.77	374.5
384.15	390.31
384.53	388.96
384.91	373.14
385.29	372.46
385.67	400.48
386.049	406.36
386.429	393.7
386.809	384.21
387.189	399.58
387.568	380.37
387.948	399.35
388.328	399.58
388.707	422.4
389.087	417.43
389.466	401.61
389.846	420.6
390.225	402.29
390.605	426.25
390.984	422.86
391.363	423.31
391.743	445
392.122	435.51
392.501	455.85
392.881	438.9
393.26	456.08
393.639	446.36
394.018	461.27
394.397	456.3
394.776	474.15
395.155	451.56
395.534	466.92
395.913	472.12
396.292	481.16
396.671	499.92
397.05	461.95
397.429	472.8
397.808	482.06
398.186	477.77
398.565	514.61
398.944	534.04
399.323	493.14
399.701	494.72
400.08	485.68
400.458	515.74
400.837	521.16
401.215	518.22
401.594	531.33
401.972	554.15
402.351	533.14
402.729	521.84
403.107	557.09
403.486	581.5
403.864	567.03
404.242	572
404.62	593.25
404.999	582.63
405.377	596.41
405.755	619.01
406.133	601.83
406.511	590.76
406.889	624.43
407.267	623.75
407.645	616.52
408.023	640.93
408.401	642.29
408.779	641.38
409.156	662.85
409.534	636.41
409.912	665.56
410.29	679.35
410.667	702.4
411.045	713.24
411.422	713.02
411.8	711.89
412.178	719.12
412.555	720.93
412.933	734.03
413.31	750.08
413.687	776.07
414.065	772.45
414.442	776.75
414.819	772.68
415.197	794.15
415.574	824.65
415.951	803.64
416.328	799.34
416.705	813.13
417.082	823.52
417.46	811.55
417.837	863.75
418.214	843.64
418.591	869.85
418.967	862.84
419.344	886.57
419.721	914.14
420.098	887.7
420.475	897.19
420.852	918.66
421.228	915.27
421.605	914.59
421.982	927.93
422.358	927.93
422.735	938.77
423.111	950.3
423.488	981.71
423.864	968.15
424.241	980.58
424.617	1017.64
424.994	1017.64
425.37	1019.22
425.746	1019.68
426.123	1014.7
426.499	1047.02
426.875	1038.66
427.251	1068.49
427.627	1089.73
428.003	1106.45
428.379	1126.34
428.756	1145.55
429.132	1143.06
429.507	1134.93
429.883	1188.03
430.259	1191.65
430.635	1213.57
431.011	1195.27
431.387	1215.6
431.763	1264.19
432.138	1271.87
432.514	1278.2
432.89	1271.65
433.265	1325.88
433.641	1284.3
434.016	1343.51
434.392	1360.68
434.767	1395.49
435.143	1383.51
435.518	1424.19
435.894	1422.15
436.269	1435.03
436.644	1434.58
437.02	1475.03
437.395	1476.16
437.77	1482.94
438.145	1503.28
438.52	1522.94
438.895	1533.56
439.271	1541.24
439.646	1598.64
440.021	1591.86
440.395	1604.29
440.77	1583.05
441.145	1624.63
441.52	1691.07
441.895	1630.96
442.27	1679.09
442.645	1654.24
443.019	1717.51
443.394	1703.73
443.769	1728.13
444.143	1697.17
444.518	1758.64
444.892	1753.22
445.267	1769.49
445.641	1778.07
446.016	1799.77
446.39	1805.42
446.764	1785.98
447.139	1819.2
447.513	1858.52
447.887	1854.68
448.262	1839.54
448.636	1881.35
449.01	1903.5
449.384	1914.79
449.758	1938.97
450.132	1978.3
450.506	1959.54
450.88	1961.8
451.254	1970.84
451.628	2021.46
452.002	2029.59
452.376	2035.24
452.75	2068.91
453.123	2059.88
453.497	2108.46
453.871	2120.21
454.244	2158.18
454.618	2180.1
454.992	2216.26
455.365	2190.27
455.739	2250.15
456.112	2293.32
456.486	2287.89
456.859	2310.26
457.232	2385.52
457.606	2345.52
457.979	2402.92
458.352	2456.25
458.725	2443.82
459.099	2503.25
459.472	2501.9
459.845	2519.75
460.218	2534.66
460.591	2553.42
460.964	2591.16
461.337	2630.93
461.71	2654.89
462.083	2674.1
462.456	2755.45
462.829	2750.03
463.201	2750.03
463.574	2769.69
463.947	2799.52
464.32	2856.69
464.692	2875.9
465.065	2910.25
465.438	2961.32
465.81	2993.18
466.183	2999.29
466.555	3087.64
466.928	3090.81
467.3	3080.19
467.672	3112.73
468.045	3156.12
468.417	3200.64
468.789	3204.93
469.161	3241.54
469.534	3307.07
469.906	3357.02
470.278	3385.04
470.65	3379.16
471.022	3445.15
471.394	3502.32
471.766	3530.12
472.138	3574.41
472.51	3617.12
472.882	3666.39
473.253	3717.91
473.625	3738.93
473.997	3847.4
474.369	3825.03
474.74	3867.29
475.112	3931.24
475.484	3995.87
475.855	4062.53
476.227	4088.75
476.598	4181.85
476.97	4213.72
477.341	4292.36
477.713	4348.18
478.084	4343.66
478.455	4434.5
478.827	4489.19
479.198	4608.28
479.569	4594.5
479.94	4721.73
480.311	4705.46
480.682	4825.68
481.053	4845.79
481.424	4919.46
481.795	5020.7
482.166	5036.07
482.537	5125.33
482.908	5170.08
483.279	5212.79
483.65	5260.47
484.021	5347.7
484.391	5478.99
484.762	5462.27
485.133	5478.09
485.503	5539.56
485.874	5643.74
486.244	5635.83
486.615	5722.6
486.985	5779.33
487.356	5837.85
487.726	5856.16
488.097	5915.14
488.467	5990.85
488.837	6052.99
489.207	6150.16
489.578	6219.31
489.948	6263.15
490.318	6263.83
490.688	6354.9
491.058	6358.97
491.428	6413.43
491.798	6460.44
492.168	6543.6
492.538	6589.7
492.908	6608.91
493.278	6659.53
493.648	6672.86
494.017	6719.64
494.387	6739.75
494.757	6800.32
495.126	6805.74
495.496	6905.17
495.866	6875.12
496.235	6971.38
496.605	6978.16
496.974	7023.36
497.344	7010.03
497.713	7014.77
498.082	7038.5
498.452	7133.64
498.821	7113.53
499.19	7126.18
499.559	7192.17
499.928	7144.49
500.298	7265.61
500.667	7272.17
501.036	7292.73
501.405	7337.48
501.774	7348.1
502.143	7385.16
502.512	7374.09
502.88	7402.79
503.249	7428.32
503.618	7414.54
503.987	7458.6
504.356	7530.92
504.724	7469.9
505.093	7493.63
505.462	7541.31
505.83	7570.46
506.199	7628.99
506.567	7673.29
506.936	7689.56
507.304	7743.12
507.672	7697.69
508.041	7791.25
508.409	7792.15
508.777	7859.72
509.145	7905.37
509.514	7890.46
509.882	7908.53
510.25	7867.63
510.618	7940.62
510.986	8004.8
511.354	8025.37
511.722	8005.03
512.09	8099.04
512.458	8077.12
512.826	8115.31
513.193	8198.92
513.561	8139.94
513.929	8209.77
514.297	8235.53
514.664	8277.34
515.032	8287.51
515.4	8370.67
515.767	8339.26
516.135	8348.3
516.502	8327.28
516.869	8401.4
517.237	8471.91
517.604	8410.89
517.972	8459.93
518.339	8536.09
518.706	8460.38
519.073	8570.66
519.44	8628.52
519.808	8726.82
520.175	8669.42
520.542	8760.72
520.909	8713.03
521.276	8737.89
521.643	8816.53
522.009	8851.79
522.376	8878.9
522.743	8927.27
523.11	8986.92
523.477	9018.56
523.843	9057.43
524.21	9062.18
524.577	9219.23
524.943	9180.59
525.31	9232.12
525.676	9349.85
526.043	9352.34
526.409	9339.46
526.776	9388.95
527.142	9419.46
527.508	9506.46
527.874	9567.93
528.241	9593.24
528.607	9582.39
528.973	9707.13
529.339	9594.59
529.705	9644.76
530.071	9759.79
530.437	9853.34
530.803	9845.66
531.169	9918.88
531.535	9906.22
531.901	9933.79
532.267	9990.51
532.632	10028.25
532.998	10040.23
533.364	10052.66
533.73	10099.21
534.095	10115.93
534.461	10151.41
534.826	10206.55
535.192	10252.65
535.557	10318.19
535.923	10321.58
536.288	10308.7
536.653	10346.44
537.019	10320.67
537.384	10425.08
537.749	10460.33
538.114	10527.45
538.479	10509.82
538.845	10570.39
539.21	10496.04
539.575	10606.32
539.94	10545.3
540.305	10654.45
540.67	10626.2
541.034	10660.33
541.399	10714.11
541.764	10727.9
542.129	10768.35
542.494	10790.04
542.858	10823.49
543.223	10796.37
543.587	10926.76
543.952	10836.59
544.316	10896.48
544.681	10883.15
545.045	10986.87
545.41	10988
545.774	11054.21
546.138	11097.83
546.503	11092.86
546.867	11148
547.231	11144.83
547.595	11134.44
547.959	11268.67
548.324	11252.4
548.688	11263.48
549.052	11278.16
549.416	11374.66
549.779	11332.63
550.143	11289.24
550.507	11425.28
550.871	11479.29
551.235	11380.99
551.599	11451.72
551.962	11503.02
552.326	11538.5
552.689	11613.52
553.053	11601.77
553.417	11658.27
553.78	11712.5
554.143	11679.06
554.507	11708.21
554.87	11762.22
555.234	11837.92
555.597	11799.51
555.96	11774.2
556.323	11874.98
556.686	11846.28
557.05	11945.04
557.413	11950.24
557.776	11976.22
558.139	12079.05
558.502	12039.5
558.865	12087.18
559.228	12100.52
559.59	12159.5
559.953	12247.63
560.316	12355.65
560.679	12257.8
561.041	12382.32
561.404	12394.29
561.767	12536.21
562.129	12485.14
562.492	12687.39
562.854	12591.8
563.217	12587.96
563.579	12567.4
563.941	12692.36
564.304	12807.84
564.666	12740.72
565.028	12809.2
565.39	12879.03
565.753	12905.24
566.115	12931.91
566.477	13007.38
566.839	13048.51
567.201	13199.92
567.563	13110.88
567.925	13139.58
568.287	13242.41
568.648	13302.07
569.01	13408.96
569.372	13392.91
569.734	13418.9
570.095	13408.28
570.457	13463.87
570.819	13568.95
571.18	13555.17
571.542	13650.53
571.903	13678.1
572.265	13740.02
572.626	13759
572.987	13817.31
573.349	13810.07
573.71	13931.88
574.071	13967.36
574.432	13974.36
574.794	14136.17
575.155	14087.81
575.516	14040.8
575.877	14099.33
576.238	14237.41
576.599	14222.04
576.96	14227.01
577.32	14269.05
577.681	14338.42
578.042	14300.01
578.403	14394.24
578.763	14377.52
579.124	14401.92
579.485	14482.83
579.845	14532.77
580.206	14444.86
580.566	14485.54
580.927	14556.95
581.287	14601.24
581.648	14496.16
582.008	14578.19
582.368	14607.79
582.728	14652.76
583.089	14561.24
583.449	14623.84
583.809	14684.63
584.169	14708.36
584.529	14690.73
584.889	14715.36
585.249	14636.04
585.609	14576.61
585.969	14826.55
586.329	14769.37
586.688	14760.56
587.048	14808.47
587.408	14720.11
587.768	14767.79
588.127	14821.8
588.487	14820.44
588.846	15000.1
589.206	14799.65
589.565	14776.38
589.925	14953.77
590.284	14834.68
590.643	14906.09
591.003	14988.8
591.362	14874
591.721	14888.46
592.08	14954.9
592.44	14949.25
592.799	14894.11
593.158	14971.4
593.517	15007.33
593.876	15044.62
594.235	15000.78
594.593	14956.49
594.952	14973.21
595.311	14910.38
595.67	14979.99
596.029	15099.53
596.387	15097.5
596.746	15067.67
597.104	15127.33
597.463	15075.58
597.822	15223.37
598.18	15060.21
598.538	15197.38
598.897	15201.22
599.255	15015.24
599.613	15260.21
599.972	15206.87
600.33	15235.12
600.688	15229.25
601.046	15236.93
601.404	15298.85
601.762	15242.13
602.12	15322.58
602.478	15295.69
602.836	15404.38
603.194	15318.51
603.552	15325.29
603.91	15224.27
604.268	15392.63
604.625	15243.48
604.983	15391.5
605.341	15264.05
605.698	15350.83
606.056	15447.09
606.413	15396.93
606.771	15461.78
607.128	15411.84
607.485	15442.8
607.843	15411.39
608.2	15425.4
608.557	15506.75
608.914	15460.2
609.272	15628.11
609.629	15629.69
609.986	15553.76
610.343	15483.03
610.7	15593.3
611.057	15669.69
611.414	15593.98
611.771	15673.53
612.127	15683.25
612.484	15787.2
612.841	15839.17
613.198	15612.06
613.554	15755.33
613.911	15813.41
614.267	15753.3
614.624	15828.55
614.98	15803.47
615.337	15904.48
615.693	15850.7
616.05	15775.45
616.406	15908.55
616.762	15920.98
617.118	15943.8
617.475	15978.38
617.831	16030.81
618.187	16036.68
618.543	16047.76
618.899	16092.05
619.255	16091.6
619.611	16069.45
619.967	16123.01
620.323	16244.81
620.678	16092.05
621.034	16034.2
621.39	16143.12
621.746	16190.8
622.101	16249.33
622.457	16170.46
622.812	16241.42
623.168	16254.3
623.523	16218.37
623.879	16380.63
624.234	16190.8
624.589	16215.89
624.945	16268.77
625.3	16322.55
625.655	16326.84
626.01	16346.96
626.365	16318.03
626.72	16292.72
627.075	16314.42
627.43	16397.35
627.785	16259.73
628.14	16473.73
628.495	16430.34
628.85	16457.69
629.205	16375.21
629.559	16457.24
629.914	16396.45
630.269	16490.23
630.623	16438.48
630.978	16350.35
631.332	16419.95
631.687	16537.01
632.041	16515.09
632.396	16451.81
632.75	16561.19
633.104	16497.01
633.459	16441.87
633.813	16481.87
634.167	16476.45
634.521	16523.68
634.875	16554.64
635.229	16476.22
635.583	16428.08
635.937	16530
636.291	16499.95
636.645	16496.78
636.999	16523.9
637.352	16616.33
637.706	16514.18
638.06	16560.28
638.413	16556.22
638.767	16543.34
639.121	16638.93
639.474	16587.18
639.828	16576.56
640.181	16546.27
640.534	16645.25
640.888	16553.28
641.241	16510.79
641.594	16556.22
641.947	16620.4
642.301	16639.15
642.654	16689.77
643.007	16679.15
643.36	16725.7
643.713	16622.66
644.066	16773.16
644.419	16641.86
644.771	16508.31
645.124	16391.25
645.477	16402.55
645.83	16248.88
646.182	16281.65
646.535	16204.14
646.888	16483.22
647.24	16372.72
647.593	16450.91
647.945	16533.39
648.298	16352.38
648.65	16356
649.002	16288.2
649.355	16437.58
649.707	16310.35
650.059	16441.64
650.411	16629.44
650.763	16609.32
651.115	16882.99
651.467	16973.38
651.819	16857.9
652.171	16938.13
652.523	16791.47
652.875	16890.9
653.227	16871.24
653.578	16941.97
653.93	17024
654.282	16874.17
654.633	16887.51
654.985	16942.2
655.337	16939.26
655.688	16953.27
656.039	17074.4
656.391	16916.66
656.742	17000.5
657.094	17014.51
657.445	17021.52
657.796	17088.63
658.147	16987.84
658.498	17097.22
658.849	17182.19
659.2	17036.43
659.551	17076.2
659.902	17093.38
660.253	17125.24
660.604	17209.53
660.955	17093.38
661.306	17182.42
661.656	17113.04
662.007	17126.6
662.358	17136.54
662.708	17145.81
663.059	17155.75
663.409	17062.87
663.76	17180.38
664.11	17062.64
664.461	17194.84
664.811	17156.88
665.161	17115.52
665.511	17072.59
665.862	17101.51
666.212	17092.25
666.562	17194.17
666.912	17146.03
667.262	17063.32
667.612	17145.13
667.962	17167.73
668.312	16999.82
668.662	17145.81
669.011	16982.87
669.361	16939.94
669.711	17113.04
670.06	16956.66
670.41	16947.17
670.76	16952.14
671.109	16957.34
671.459	16928.18
671.808	16948.3
672.157	16912.59
672.507	16768.87
672.856	16834.85
673.205	16836.44
673.554	16839.6
673.904	16780.84
674.253	16828.53
674.602	16689.1
674.951	16478.25
675.3	16407.97
675.649	16601.64
675.998	16511.47
676.346	16586.05
676.695	16707.85
677.044	16443.23
677.393	16464.02
677.741	16556.9
678.09	16453.85
678.438	16550.12
678.787	16486.16
679.135	16443
679.484	16304.47
679.832	16416.79
680.181	16440.97
680.529	16326.84
680.877	16290.91
681.225	16239.39
681.573	16328.88
681.922	16178.37
682.27	16132.05
682.618	16204.14
682.966	16112.39
683.314	16080.75
683.661	15931.6
684.009	15951.26
684.357	15983.35
684.705	15901.09
685.053	15931.83
685.4	15928.66
685.748	15894.99
686.095	15887.76
686.443	15685.28
686.79	15750.14
687.138	15780.19
687.485	15796.92
687.832	15720.08
688.18	15777.93
688.527	15655.9
688.874	15642.57
689.221	15615.68
689.568	15534.1
689.915	15570.93
690.262	15602.34
690.609	15571.16
690.956	15458.84
691.303	15426.98
691.65	15499.07
691.997	15410.03
692.344	15285.29
692.69	15321.22
693.037	15274.67
693.383	15210.72
693.73	15286.65
694.077	15169.14
694.423	15144.73
694.769	15124.16
695.116	15127.33
695.462	15154.22
695.808	15109.7
696.155	15066.76
696.501	14963.04
696.847	15025.18
697.193	14984.73
697.539	14982.47
697.885	14942.25
698.231	14863.83
698.577	14834.45
698.923	14915.81
699.269	14855.92
699.614	14767.56
699.96	14701.8
700.306	14747.9
700.651	14750.16
700.997	14634.69
701.342	14716.27
701.688	14682.37
702.033	14565.08
702.379	14591.07
702.724	14640.34
703.069	14712.42
703.415	14459.78
703.76	14474.69
704.105	14531.64
704.45	14623.84
704.795	14417.97
705.14	14381.59
705.485	14440.11
705.83	14335.26
706.175	14448.7
706.52	14330.74
706.865	14385.43
707.209	14390.17
707.554	14309.95
707.899	14325.54
708.243	14279.21
708.588	14291.42
708.932	14248.71
709.277	14255.94
709.621	14261.36
709.966	14198.99
710.31	14175.94
710.654	14117.64
710.998	14100.24
711.342	14173.91
711.687	14136.62
712.031	14074.25
712.375	14102.5
712.719	14117.19
713.063	14027.02
713.407	14067.02
713.75	14091.65
714.094	14055.72
714.438	14091.42
714.782	13992.22
715.125	13971.2
715.469	14050.52
715.812	13999.45
716.156	13883.07
716.499	13969.39
716.843	13892.33
717.186	13842.16
717.53	13949.05
717.873	13946.34
718.216	14000.58
718.559	13949.73
718.902	13832.22
719.246	13907.47
719.589	13865.21
719.932	13834.71
720.275	13839.68
720.617	13824.09
720.96	13851.66
721.303	13783.86
721.646	13764.43
721.989	13695.05
722.331	13774.6
722.674	13848.27
723.016	13769.85
723.359	13657.99
723.701	13775.05
724.044	13655.5
724.386	13704.09
724.729	13704.31
725.071	13709.06
725.413	13726.01
725.755	13680.81
726.097	13643.75
726.439	13580.93
726.782	13691.43
727.124	13733.92
727.465	13692.56
727.807	13699.12
728.149	13643.07
728.491	13678.55
728.833	13633.81
729.175	13641.72
729.516	13574.6
729.858	13615.28
730.199	13564.66
730.541	13641.49
730.882	13592.91
731.224	13655.73
731.565	13640.36
731.906	13625.9
732.248	13684.88
732.589	13608.5
732.93	13585
733.271	13577.54
733.612	13631.1
733.953	13584.32
734.294	13617.54
734.635	13572.34
734.976	13714.48
735.317	13679.23
735.658	13628.61
735.999	13633.58
736.339	13674.49
736.68	13733.92
737.021	13714.03
737.361	13647.14
737.702	13707.48
738.042	13718.55
738.383	13728.27
738.723	13792.9
739.063	13739.12
739.404	13752.45
739.744	13775.73
740.084	13740.47
740.424	13784.31
740.764	13820.47
741.104	13920.13
741.444	13885.1
741.784	13809.17
742.124	13958.55
742.464	13874.93
742.804	13944.31
743.143	13970.52
743.483	14010.52
743.823	13857.98
744.162	13992.89
744.502	14049.84
744.841	14016.17
745.181	14030.63
745.52	14061.59
745.86	14077.64
746.199	14061.59
746.538	14169.84
746.877	14221.36
747.216	14257.75
747.556	14202.61
747.895	14248.48
748.234	14318.31
748.573	14230.85
748.911	14376.16
749.25	14405.54
749.589	14217.52
749.928	14351.53
750.267	14374.35
750.605	14430.62
750.944	14388.82
751.283	14455.26
751.621	14556.27
751.96	14466.55
752.298	14464.75
752.636	14534.58
752.975	14528.93
753.313	14455.71
753.651	14601.47
753.989	14520.11
754.327	14628.81
754.666	14580
755.004	14613.22
755.342	14687.11
755.679	14671.3
756.017	14658.87
756.355	14796.72
756.693	14694.35
