Data from blue_surface_keyboard_FLMS001491_015.txt Node
Date: Tue Feb 07 11:12:42 GMT 2017
User: dcchb
Spectrometer: FLMS00149
Trigger mode: 0
Integration Time (sec): 2.000000E-2
Scans to average: 10
Electric dark correction enabled: true
Nonlinearity correction enabled: false
Boxcar width: 0
XAxis mode: Wavelengths
Number of Pixels in Spectrum: 2048
>>>>>Begin Spectral Data<<<<<
341.393	-16.95
341.776	-16.95
342.16	-16.95
342.543	-47.46
342.927	-50.62
343.31	-37.51
343.693	-68.92
344.077	-62.6
344.46	-75.48
344.843	-53.78
345.226	-40.68
345.61	-32.77
345.993	-24.18
346.376	-14.91
346.759	8.14
347.142	13.11
347.525	50.62
347.908	74.35
348.291	66.21
348.674	87.68
349.057	110.73
349.44	113.67
349.823	153.22
350.206	157.28
350.588	185.76
350.971	204.06
351.354	207.45
351.737	218.3
352.119	247.9
352.502	256.94
352.884	236.83
353.267	261.46
353.65	290.39
354.032	283.61
354.414	282.7
354.797	313.21
355.179	289.48
355.562	297.62
355.944	316.83
356.326	307.56
356.709	296.72
357.091	326.77
357.473	326.55
357.855	309.6
358.238	310.05
358.62	324.06
359.002	333.78
359.384	316.6
359.766	314.57
360.148	297.85
360.53	316.38
360.912	316.6
361.294	337.17
361.676	307.79
362.057	302.82
362.439	309.37
362.821	313.66
363.203	295.36
363.584	312.31
363.966	315.02
364.348	316.83
364.729	310.95
365.111	296.49
365.493	298.3
365.874	313.66
366.256	278.18
366.637	293.78
367.019	316.15
367.4	303.04
367.781	299.88
368.163	303.72
368.544	275.92
368.925	291.29
369.306	295.36
369.688	282.48
370.069	278.41
370.45	302.59
370.831	282.7
371.212	286.55
371.593	284.51
371.974	314.34
372.355	291.52
372.736	300.78
373.117	289.71
373.498	299.65
373.879	283.83
374.26	275.25
374.641	284.96
375.021	273.44
375.402	307.11
375.783	301.01
376.163	301.69
376.544	307.11
376.925	301.91
377.305	278.41
377.686	277.73
378.066	290.39
378.447	285.42
378.827	293.78
379.208	297.17
379.588	311.4
379.968	304.62
380.349	324.96
380.729	323.61
381.109	305.98
381.489	305.3
381.87	273.89
382.25	306.66
382.63	298.75
383.01	312.99
383.39	301.91
383.77	308.47
384.15	304.85
384.53	318.86
384.91	311.86
385.29	325.87
385.67	313.89
386.049	307.34
386.429	306.66
386.809	312.99
387.189	316.15
387.568	309.14
387.948	317.96
388.328	325.87
388.707	310.73
389.087	322.25
389.466	328.13
389.846	322.48
390.225	338.52
390.605	319.31
390.984	334.68
391.363	331.52
391.743	341.01
392.122	320.67
392.501	313.66
392.881	331.06
393.26	325.19
393.639	318.41
394.018	308.24
394.397	341.23
394.776	321.12
395.155	342.14
395.534	334.68
395.913	331.97
396.292	342.59
396.671	334.68
397.05	338.3
397.429	356.37
397.808	338.52
398.186	332.19
398.565	338.07
398.944	336.94
399.323	344.4
399.701	350.05
400.08	332.65
400.458	335.81
400.837	336.94
401.215	334
401.594	348.47
401.972	348.24
402.351	342.82
402.729	351.4
403.107	341.69
403.486	348.47
403.864	362.7
404.242	366.09
404.62	351.18
404.999	337.62
405.377	367
405.755	339.65
406.133	350.05
406.511	358.18
406.889	352.76
407.267	358.63
407.645	362.93
408.023	370.39
408.401	358.18
408.779	364.28
409.156	357.05
409.534	352.99
409.912	372.87
410.29	362.93
410.667	384.4
411.045	385.3
411.422	365.41
411.8	353.66
412.178	371.52
412.555	369.71
412.933	367.9
413.31	393.89
413.687	376.49
414.065	386.2
414.442	378.52
414.819	374.45
415.197	392.31
415.574	382.81
415.951	367.22
416.328	400.44
416.705	389.59
417.082	387.79
417.46	389.82
417.837	409.71
418.214	391.4
418.591	376.94
418.967	391.63
419.344	389.82
419.721	397.05
420.098	399.99
420.475	406.09
420.852	404.74
421.228	399.76
421.605	406.54
421.982	393.21
422.358	405.19
422.735	414.45
423.111	416.03
423.488	406.99
423.864	401.57
424.241	422.14
424.617	420.33
424.994	425.3
425.37	417.39
425.746	413.77
426.123	416.94
426.499	412.64
426.875	416.49
427.251	420.78
427.627	425.07
428.003	415.58
428.379	430.05
428.756	441.12
429.132	456.49
429.507	437.28
429.883	427.56
430.259	425.98
430.635	440.67
431.011	459.42
431.387	447.67
431.763	454.23
432.138	458.52
432.514	462.59
432.89	481.57
433.265	455.81
433.641	447.67
434.016	440.89
434.392	478.86
434.767	485.18
435.143	489.48
435.518	465.75
435.894	460.78
436.269	487.67
436.644	498.29
437.02	460.78
437.395	477.05
437.77	488.57
438.145	484.96
438.52	494.22
438.895	496.94
439.271	496.48
439.646	501.68
440.021	527.9
440.395	494.45
440.77	490.38
441.145	505.98
441.52	517.5
441.895	492.19
442.27	501.68
442.645	516.14
443.019	519.31
443.394	505.52
443.769	513.88
444.143	506.65
444.518	531.96
444.892	509.37
445.267	513.88
445.641	534.45
446.016	510.04
446.39	533.55
446.764	571.28
447.139	532.64
447.513	533.09
447.887	534
448.262	562.02
448.636	542.13
449.01	539.19
449.384	562.02
449.758	547.33
450.132	574.45
450.506	535.81
450.88	559.99
451.254	566.31
451.628	570.15
452.002	563.15
452.376	544.17
452.75	552.98
453.123	555.47
453.497	570.38
453.871	562.02
454.244	572.41
454.618	573.32
454.992	583.26
455.365	593.88
455.739	592.07
456.112	589.59
456.486	603.83
456.859	592.98
457.232	603.6
457.606	608.8
457.979	618.97
458.352	618.29
458.725	636.82
459.099	606.54
459.472	616.48
459.845	644.5
460.218	628.23
460.591	640.44
460.964	633.2
461.337	645.41
461.71	639.98
462.083	649.02
462.456	661.45
462.829	647.89
463.201	676.59
463.574	667.33
463.947	691.28
464.32	692.41
464.692	650.38
465.065	684.73
465.438	679.76
465.81	699.19
466.183	700.77
466.555	720.66
466.928	734.9
467.3	694.9
467.672	714.11
468.045	724.95
468.417	723.14
468.789	740.77
469.161	696.48
469.534	754.33
469.906	734.9
470.278	743.03
470.65	755.46
471.022	759.53
471.394	796.36
471.766	779.19
472.138	765.18
472.51	795.46
472.882	794.33
473.253	778.51
473.625	819.41
473.997	800.88
474.369	810.15
474.74	813.31
475.112	822.58
475.484	814.89
475.855	825.52
476.227	845.18
476.598	866.64
476.97	892.18
477.341	881.33
477.713	907.09
478.084	882.69
478.455	906.19
478.827	906.42
479.198	916.81
479.569	890.82
479.94	900.99
480.311	950.26
480.682	967.21
481.053	974.66
481.424	949.81
481.795	964.49
482.166	970.14
482.537	997.49
482.908	981.44
483.279	1011.5
483.65	1014.44
484.021	1014.21
484.391	1047.2
484.762	1033.42
485.133	1061.44
485.503	1041.33
485.874	1071.38
486.244	1069.35
486.615	1066.64
486.985	1124.26
487.356	1125.62
487.726	1112.29
488.097	1150.25
488.467	1121.33
488.837	1162.46
489.207	1119.97
489.578	1138.95
489.948	1155.68
490.318	1181.89
490.688	1162.23
491.058	1161.33
491.428	1179.86
491.798	1205.62
492.168	1210.14
492.538	1188.22
492.908	1213.08
493.278	1232.74
493.648	1222.57
494.017	1241.55
494.387	1246.29
494.757	1230.7
495.126	1242.91
495.496	1221.44
495.866	1244.71
496.235	1249.01
496.605	1248.1
496.974	1274.99
497.344	1284.94
497.713	1268.22
498.082	1299.4
498.452	1265.96
498.821	1272.96
499.19	1277.93
499.559	1297.82
499.928	1271.38
500.298	1281.32
500.667	1294.66
501.036	1287.88
501.405	1328.33
501.774	1306.63
502.143	1318.84
502.512	1321.55
502.88	1342.79
503.249	1326.07
503.618	1282.68
503.987	1331.04
504.356	1348.89
504.724	1319.74
505.093	1322
505.462	1339.4
505.83	1331.72
506.199	1343.24
506.567	1369
506.936	1345.73
507.304	1379.17
507.672	1383.69
508.041	1371.49
508.409	1362.9
508.777	1354.09
509.145	1383.24
509.514	1370.81
509.882	1368.33
510.25	1359.74
510.618	1388.89
510.986	1364.94
511.354	1378.95
511.722	1384.37
512.09	1404.26
512.458	1409.91
512.826	1376.69
513.193	1386.18
513.561	1423.24
513.929	1385.5
514.297	1397.03
514.664	1437.48
515.032	1408.78
515.4	1428.89
515.767	1428.44
516.135	1428.21
516.502	1420.98
516.869	1426.63
517.237	1418.72
517.604	1395.9
517.972	1424.37
518.339	1437.25
518.706	1434.99
519.073	1448.78
519.44	1430.24
519.808	1451.71
520.175	1457.14
520.542	1439.74
520.909	1442.22
521.276	1447.65
521.643	1460.98
522.009	1486.29
522.376	1467.98
522.743	1461.88
523.11	1468.66
523.477	1483.58
523.843	1468.44
524.21	1492.84
524.577	1508.89
524.943	1478.38
525.31	1492.39
525.676	1492.16
526.043	1487.42
526.409	1490.13
526.776	1493.52
527.142	1522.67
527.508	1520.19
527.874	1519.06
528.241	1504.82
528.607	1527.19
528.973	1506.4
529.339	1510.02
529.705	1535.78
530.071	1560.41
530.437	1543.91
530.803	1534.87
531.169	1540.75
531.535	1540.52
531.901	1568.55
532.267	1552.28
532.632	1550.69
532.998	1525.38
533.364	1566.06
533.73	1562.9
534.095	1550.24
534.461	1563.35
534.826	1562.44
535.192	1532.62
535.557	1550.92
535.923	1573.07
536.288	1566.74
536.653	1571.71
537.019	1587.75
537.384	1580.3
537.749	1552.05
538.114	1554.54
538.479	1561.99
538.845	1574.2
539.21	1589.79
539.575	1566.74
539.94	1578.04
540.305	1573.07
540.67	1577.59
541.034	1567.64
541.399	1586.62
541.764	1585.04
542.129	1579.17
542.494	1589.56
542.858	1570.58
543.223	1583.69
543.587	1560.86
543.952	1589.79
544.316	1588.43
544.681	1576.91
545.045	1562.67
545.41	1617.13
545.774	1594.31
546.138	1600.64
546.503	1578.49
546.867	1583.69
547.231	1580.98
547.595	1560.41
547.959	1603.8
548.324	1603.12
548.688	1589.56
549.052	1602.22
549.416	1607.64
549.779	1596.12
550.143	1603.35
550.507	1593.4
550.871	1590.47
551.235	1595.89
551.599	1592.05
551.962	1583.01
552.326	1610.13
552.689	1632.73
553.053	1616.68
553.417	1588.43
553.78	1607.87
554.143	1590.47
554.507	1625.04
554.87	1614.19
555.234	1603.8
555.597	1613.06
555.96	1626.85
556.323	1602.22
556.686	1611.94
557.05	1607.87
557.413	1613.06
557.776	1601.54
558.139	1605.61
558.502	1597.47
558.865	1614.65
559.228	1622.78
559.59	1621.2
559.953	1623.69
560.316	1658.49
560.679	1640.18
561.041	1633.18
561.404	1608.09
561.767	1638.83
562.129	1637.92
562.492	1645.61
562.854	1646.96
563.217	1669.33
563.579	1643.57
563.941	1655.1
564.304	1671.59
564.666	1647.19
565.028	1682.67
565.39	1697.13
565.753	1659.17
566.115	1651.48
566.477	1671.14
566.839	1681.31
567.201	1649.67
567.563	1680.63
567.925	1719.28
568.287	1682.22
568.648	1699.84
569.01	1713.4
569.372	1684.7
569.734	1674.98
570.095	1701.88
570.457	1720.63
570.819	1736.45
571.18	1699.16
571.542	1688.32
571.903	1719.73
572.265	1713.85
572.626	1710.24
572.987	1713.85
573.349	1751.59
573.71	1736.23
574.071	1715.66
574.432	1726.73
574.794	1741.88
575.155	1737.81
575.516	1675.44
575.877	1709.79
576.238	1742.78
576.599	1735.32
576.96	1741.42
577.32	1727.64
577.681	1750.01
578.042	1767.41
578.403	1756.11
578.763	1749.11
579.124	1740.97
579.485	1754.76
579.845	1732.84
580.206	1757.02
580.566	1783.23
580.927	1724.7
581.287	1769.22
581.648	1745.72
582.008	1745.49
582.368	1736
582.728	1771.03
583.089	1743.68
583.449	1790.91
583.809	1745.49
584.169	1740.07
584.529	1763.34
584.889	1760.86
585.249	1759.28
585.609	1772.83
585.969	1783.68
586.329	1768.09
586.688	1776.68
587.048	1775.55
587.408	1779.84
587.768	1767.19
588.127	1790.01
588.487	1784.36
588.846	1793.4
589.206	1790.69
589.565	1758.6
589.925	1785.26
590.284	1782.33
590.643	1793.4
591.003	1799.27
591.362	1792.27
591.721	1756.56
592.08	1773.06
592.44	1766.73
592.799	1799.73
593.158	1789.56
593.517	1776.22
593.876	1793.63
594.235	1808.99
594.593	1815.32
594.952	1814.19
595.311	1773.06
595.67	1788.43
596.029	1814.19
596.387	1815.09
596.746	1786.17
597.104	1825.26
597.463	1795.66
597.822	1793.85
598.18	1807.18
598.538	1808.77
598.897	1825.94
599.255	1826.39
599.613	1827.52
599.972	1813.29
600.33	1817.58
600.688	1831.59
601.046	1790.46
601.404	1830.46
601.762	1817.13
602.12	1830.46
602.478	1839.73
602.836	1859.16
603.194	1829.78
603.552	1823.45
603.91	1787.07
604.268	1840.86
604.625	1834.98
604.983	1853.28
605.341	1840.4
605.698	1830.46
606.056	1881.98
606.413	1856.67
606.771	1858.48
607.128	1860.52
607.485	1884.47
607.843	1866.62
608.2	1856.9
608.557	1858.48
608.914	1827.97
609.272	1866.84
609.629	1907.29
609.986	1893.51
610.343	1887.18
610.7	1889.22
611.057	1897.58
611.414	1884.24
611.771	1886.28
612.127	1880.85
612.484	1869.56
612.841	1882.21
613.198	1889.22
613.554	1872.95
613.911	1906.16
614.267	1914.07
614.624	1921.31
614.98	1910.23
615.337	1895.77
615.693	1891.93
616.05	1896.45
616.406	1923.34
616.762	1919.72
617.118	1913.17
617.475	1929.44
617.831	1916.79
618.187	1911.36
618.543	1934.86
618.899	1943.9
619.255	1931.02
619.611	1943.68
619.967	1966.95
620.323	1968.54
620.678	1937.12
621.034	1926.5
621.39	1965.37
621.746	1923.57
622.101	1980.51
622.457	1971.02
622.812	1947.07
623.168	1966.73
623.523	1969.21
623.879	1999.72
624.234	2003.11
624.589	1973.06
624.945	1955.65
625.3	2015.09
625.655	1958.14
626.01	1968.31
626.365	1985.94
626.72	2004.92
627.075	2009.66
627.43	2000.63
627.785	1968.76
628.14	2013.51
628.495	2014.18
628.85	2040.85
629.205	2004.02
629.559	2027.97
629.914	1969.89
630.269	1959.5
630.623	2035.2
630.978	2008.76
631.332	2014.86
631.687	2045.82
632.041	2050.34
632.396	2053.05
632.75	2074.3
633.104	2071.58
633.459	2074.97
633.813	2040.62
634.167	2043.11
634.521	2048.99
634.875	2054.41
635.229	2068.87
635.583	2064.58
635.937	2050.34
636.291	2074.97
636.645	2071.13
636.999	2091.7
637.352	2084.69
637.706	2066.84
638.06	2109.55
638.413	2101.19
638.767	2117.91
639.121	2114.97
639.474	2098.25
639.828	2113.84
640.181	2097.8
640.534	2134.18
640.888	2121.53
641.241	2138.47
641.594	2148.87
641.947	2143.67
642.301	2119.04
642.654	2175.54
643.007	2150
643.36	2179.6
643.713	2159.49
644.066	2186.84
644.419	2139.83
644.771	2173.73
645.124	2170.11
645.477	2165.59
645.83	2145.71
646.182	2137.12
646.535	2183.9
646.888	2166.27
647.24	2180.06
647.593	2204.24
647.945	2186.16
648.298	2186.84
648.65	2172.6
649.002	2211.47
649.355	2221.64
649.707	2207.4
650.059	2246.72
650.411	2294.18
650.763	2298.7
651.115	2305.48
651.467	2288.08
651.819	2311.58
652.171	2325.81
652.523	2328.75
652.875	2317.68
653.227	2322.65
653.578	2364.23
653.93	2398.58
654.282	2356.77
654.633	2382.99
654.985	2401.29
655.337	2429.77
655.688	2435.64
656.039	2485.81
656.391	2408.52
656.742	2455.98
657.094	2445.13
657.445	2471.8
657.796	2493.04
658.147	2493.27
658.498	2496.66
658.849	2510.67
659.2	2509.09
659.551	2512.25
659.902	2563.1
660.253	2548.63
660.604	2555.64
660.955	2577.56
661.306	2612.59
661.656	2628.18
662.007	2643.32
662.358	2625.24
662.708	2666.6
663.059	2669.08
663.409	2647.84
663.76	2685.13
664.11	2694.62
664.461	2681.96
664.811	2705.01
665.161	2722.64
665.511	2746.14
665.862	2764
666.212	2797.21
666.562	2767.38
666.912	2797.21
667.262	2820.49
667.612	2789.53
667.962	2813.26
668.312	2790.89
668.662	2876.76
669.011	2862.52
669.361	2890.55
669.711	2875.63
670.06	2895.29
670.41	2888.51
670.76	2934.16
671.109	2933.71
671.459	2907.04
671.808	2951.56
672.157	2971.45
672.507	2957.21
672.856	2962.18
673.205	2995.63
673.554	2989.98
673.904	3009.64
674.253	3064.33
674.602	3041.05
674.951	3031.11
675.3	3039.47
675.649	3079.92
675.998	3105.68
676.346	3122.18
676.695	3122.63
677.044	3106.58
677.393	3110.2
677.741	3175.74
678.09	3165.79
678.438	3184.32
678.787	3185.45
679.135	3214.83
679.484	3180.71
679.832	3210.54
680.181	3247.82
680.529	3199.69
680.877	3220.03
681.225	3249.41
681.573	3261.84
681.922	3268.16
682.27	3266.35
682.618	3275.62
682.966	3277.2
683.314	3314.72
683.661	3300.7
684.009	3315.17
684.357	3309.52
684.705	3334.15
685.053	3345.22
685.4	3337.99
685.748	3357.2
686.095	3345.9
686.443	3361.04
686.79	3387.26
687.138	3411.89
687.485	3401.72
687.832	3399.68
688.18	3442.17
688.527	3400.14
688.874	3413.47
689.221	3364.66
689.568	3397.65
689.915	3413.02
690.262	3424.77
690.609	3441.72
690.956	3432.68
691.303	3452.79
691.65	3424.99
691.997	3436.97
692.344	3410.98
692.69	3483.52
693.037	3451.66
693.383	3436.75
693.73	3435.16
694.077	3486.46
694.423	3453.24
694.769	3481.94
695.116	3451.66
695.462	3454.6
695.808	3470.64
696.155	3450.98
696.501	3451.43
696.847	3473.58
697.193	3453.69
697.539	3456.18
697.885	3439.01
698.231	3442.4
698.577	3461.83
698.923	3452.56
699.269	3425.9
699.614	3446.92
699.96	3422.96
700.306	3464.54
700.651	3422.51
700.997	3437.2
701.342	3442.62
701.688	3462.96
702.033	3439.68
702.379	3435.62
702.724	3423.64
703.069	3445.33
703.415	3425.45
703.76	3399.91
704.105	3423.19
704.45	3441.94
704.795	3400.14
705.14	3428.84
705.485	3416.63
705.83	3395.16
706.175	3374.15
706.52	3373.47
706.865	3394.94
707.209	3373.47
707.554	3360.59
707.899	3390.42
708.243	3402.4
708.588	3374.6
708.932	3354.26
709.277	3349.29
709.621	3362.85
709.966	3349.29
710.31	3334.6
710.654	3369.18
710.998	3354.71
711.342	3374.6
711.687	3343.64
712.031	3335.73
712.375	3367.82
712.719	3328.5
713.063	3368.95
713.407	3393.81
713.75	3338.67
714.094	3304.55
714.438	3319.46
714.782	3333.47
715.125	3315.39
715.469	3370.31
715.812	3324.21
716.156	3286.24
716.499	3312.46
716.843	3346.13
717.186	3321.04
717.53	3322.85
717.873	3328.05
718.216	3345
718.559	3335.51
718.902	3317.2
719.246	3336.64
719.589	3308.84
719.932	3303.42
720.275	3318.1
720.617	3311.78
720.96	3295.51
721.303	3326.69
721.646	3346.13
721.989	3321.72
722.331	3382.74
722.674	3366.69
723.016	3324.43
723.359	3332.12
723.701	3330.76
724.044	3291.66
724.386	3279.69
724.729	3316.52
725.071	3334.15
725.413	3328.73
725.755	3349.97
726.097	3324.21
726.439	3307.48
726.782	3340.25
727.124	3348.61
727.465	3341.16
727.807	3359.91
728.149	3342.06
728.491	3341.61
728.833	3293.47
729.175	3314.72
729.516	3329.18
729.858	3354.04
730.199	3343.41
730.541	3302.51
730.882	3316.97
731.224	3338.9
731.565	3371.44
731.906	3360.82
732.248	3362.85
732.589	3352.68
732.93	3365.56
733.271	3373.92
733.612	3349.52
733.953	3365.34
734.294	3372.79
734.635	3382.96
734.976	3428.84
735.317	3354.26
735.658	3414.37
735.999	3396.97
736.339	3387.03
736.68	3384.09
737.021	3402.17
737.361	3430.87
737.702	3424.77
738.042	3432.68
738.383	3439.01
738.723	3420.48
739.063	3422.06
739.404	3479.68
739.744	3470.19
740.084	3446.01
740.424	3450.08
740.764	3464.54
741.104	3479.68
741.444	3474.48
741.784	3494.82
742.124	3480.59
742.464	3488.95
742.804	3532.11
743.143	3498.44
743.483	3542.73
743.823	3541.83
744.162	3566.01
744.502	3571.66
744.841	3546.57
745.181	3614.82
745.52	3599.68
745.86	3670.86
746.199	3631.77
746.538	3629.51
746.877	3626.57
747.216	3642.84
747.556	3669.06
747.895	3662.5
748.234	3699.11
748.573	3690.52
748.911	3702.05
749.25	3750.41
749.589	3742.27
749.928	3755.83
750.267	3789.5
750.605	3793.57
750.944	3806.91
751.283	3827.02
751.621	3850.07
751.96	3839
752.298	3859.56
752.636	3895.94
752.975	3900.91
753.313	3924.87
753.651	3947.69
753.989	3905.89
754.327	3975.49
754.666	4001.48
755.004	4034.92
755.342	3995.6
755.679	4034.02
756.017	4044.41
756.355	4068.82
756.693	4078.76
757.031	4104.52
757.368	4107.91
757.706	4153.34
758.044	4123.51
758.381	4134.13
758.719	4234.01
759.056	4232.66
759.394	4197.4
759.731	4258.87
760.068	4218.87
760.405	4238.53
760.743	4269.94
761.08	4237.4
761.417	4313.11
761.754	4322.15
762.091	4281.47
762.428	4324.63
762.765	4303.84
763.102	4335.25
763.438	4334.35
763.775	4353.33
764.112	4347.46
764.449	4370.96
764.785	4359.43
765.122	4333.9
765.458	4313.11
765.795	4371.41
766.131	4374.8
766.467	4363.05
766.804	4376.83
767.14	4367.79
767.476	4377.51
767.812	4362.82
768.148	4374.8
768.485	4401.69
768.821	4359.21
769.157	4382.03
769.492	4382.48
769.828	4345.42
770.164	4354.46
770.5	4359.21
770.836	4345.42
771.171	4324.18
771.507	4354.24
771.842	4347
