Data from blue_surface_keyboard_FLMS001491_099.txt Node
Date: Tue Feb 07 11:13:55 GMT 2017
User: dcchb
Spectrometer: FLMS00149
Trigger mode: 0
Integration Time (sec): 2.000000E-2
Scans to average: 10
Electric dark correction enabled: true
Nonlinearity correction enabled: false
Boxcar width: 0
XAxis mode: Wavelengths
Number of Pixels in Spectrum: 2048
>>>>>Begin Spectral Data<<<<<
341.393	-27.82
341.776	-27.82
342.16	-27.82
342.543	-58.56
342.927	-78.22
343.31	-63.53
343.693	-80.03
344.077	-54.26
344.46	-54.26
344.843	-60.37
345.226	-51.55
345.61	-12.46
345.993	-20.37
346.376	2.01
346.759	7.2
347.142	17.6
347.525	42.46
347.908	48.33
348.291	93.3
348.674	76.58
349.057	109.35
349.44	125.39
349.823	140.08
350.206	153.19
350.588	180.08
350.971	184.83
351.354	202.45
351.737	230.02
352.119	231.15
352.502	233.64
352.884	253.75
353.267	254.2
353.65	270.25
354.032	293.98
354.414	289.46
354.797	301.66
355.179	301.66
355.562	296.46
355.944	304.82
356.326	309.12
356.709	307.08
357.091	328.78
357.473	317.7
357.855	311.38
358.238	305.27
358.62	335.78
359.002	329
359.384	314.09
359.766	319.96
360.148	319.74
360.53	306.63
360.912	322.22
361.294	303.92
361.676	310.92
362.057	329.91
362.439	301.43
362.821	310.47
363.203	301.66
363.584	292.39
363.966	311.15
364.348	295.11
364.729	303.92
365.111	312.05
365.493	314.54
365.874	302.34
366.256	303.47
366.637	292.85
367.019	300.53
367.4	271.15
367.781	284.94
368.163	303.69
368.544	278.16
368.925	282.22
369.306	299.62
369.688	278.38
370.069	289
370.45	282
370.831	277.25
371.212	303.69
371.593	286.29
371.974	287.87
372.355	291.26
372.736	298.04
373.117	289.46
373.498	292.39
373.879	296.46
374.26	285.84
374.641	272.05
375.021	292.85
375.402	281.55
375.783	308.89
376.163	303.47
376.544	295.56
376.925	298.49
377.305	306.4
377.686	297.37
378.066	307.99
378.447	300.08
378.827	304.14
379.208	304.82
379.588	275.9
379.968	287.2
380.349	302.11
380.729	293.98
381.109	294.2
381.489	283.13
381.87	296.24
382.25	305.27
382.63	304.6
383.01	313.18
383.39	308.21
383.77	300.3
384.15	312.96
384.53	313.41
384.91	328.55
385.29	314.09
385.67	318.83
386.049	312.73
386.429	329.45
386.809	306.86
387.189	303.69
387.568	317.25
387.948	310.25
388.328	318.38
388.707	308.21
389.087	321.77
389.466	320.64
389.846	301.88
390.225	327.65
390.605	317.93
390.984	311.15
391.363	340.53
391.743	330.13
392.122	334.65
392.501	342.34
392.881	328.32
393.26	322.9
393.639	344.14
394.018	323.13
394.397	321.77
394.776	333.07
395.155	338.72
395.534	325.84
395.913	314.09
396.292	322.9
396.671	319.74
397.05	334.88
397.429	350.92
397.808	321.77
398.186	337.14
398.565	326.74
398.944	336.23
399.323	327.87
399.701	339.62
400.08	342.11
400.458	338.49
400.837	338.04
401.215	341.21
401.594	329
401.972	346.63
402.351	336.91
402.729	340.98
403.107	330.13
403.486	315.22
403.864	342.56
404.242	352.05
404.62	355.22
404.999	333.75
405.377	347.08
405.755	349.79
406.133	353.63
406.511	376.91
406.889	367.65
407.267	371.04
407.645	382.56
408.023	372.17
408.401	359.28
408.779	370.81
409.156	352.73
409.534	341.21
409.912	393.63
410.29	380.07
410.667	366.74
411.045	381.66
411.422	377.14
411.8	379.62
412.178	370.36
412.555	376.23
412.933	387.53
413.31	377.14
413.687	374.2
414.065	383.24
414.442	372.39
414.819	372.39
415.197	382.11
415.574	374.88
415.951	381.66
416.328	389.57
416.705	378.72
417.082	390.47
417.46	390.02
417.837	399.51
418.214	400.19
418.591	395.22
418.967	396.57
419.344	402.45
419.721	388.89
420.098	392.96
420.475	404.03
420.852	405.38
421.228	406.06
421.605	410.81
421.982	410.13
422.358	405.61
422.735	390.7
423.111	410.36
423.488	397.93
423.864	412.84
424.241	434.54
424.617	407.87
424.994	417.36
425.37	394.76
425.746	423.46
426.123	423.01
426.499	424.14
426.875	424.59
427.251	416.01
427.627	455.1
428.003	434.76
428.379	419.85
428.756	450.36
429.132	455.33
429.507	432.5
429.883	457.36
430.259	449
430.635	460.07
431.011	435.44
431.387	457.13
431.763	412.62
432.138	474.99
432.514	473.41
432.89	452.84
433.265	454.65
433.641	474.08
434.016	457.59
434.392	470.69
434.767	460.07
435.143	449.45
435.518	474.31
435.894	476.12
436.269	485.61
436.644	485.61
437.02	492.39
437.395	506.85
437.77	484.03
438.145	485.61
438.52	499.85
438.895	511.6
439.271	500.98
439.646	509.34
440.021	523.8
440.395	510.01
440.77	515.21
441.145	529.22
441.52	504.37
441.895	526.29
442.27	511.82
442.645	519.96
443.019	512.5
443.394	527.42
443.769	517.47
444.143	523.12
444.518	530.58
444.892	522.9
445.267	532.84
445.641	537.81
446.016	519.05
446.39	547.3
446.764	547.53
447.139	550.01
447.513	545.95
447.887	533.74
448.262	556.34
448.636	560.41
449.01	565.83
449.384	552.73
449.758	553.86
450.132	550.69
450.506	560.18
450.88	582.33
451.254	558.83
451.628	556.12
452.002	567.87
452.376	551.6
452.75	567.19
453.123	574.42
453.497	571.93
453.871	601.99
454.244	581.88
454.618	579.84
454.992	591.82
455.365	591.82
455.739	620.07
456.112	611.71
456.486	583.46
456.859	603.8
457.232	611.03
457.606	617.36
457.979	612.16
458.352	615.77
458.725	631.14
459.099	646.73
459.472	626.4
459.845	623.68
460.218	633.63
460.591	648.99
460.964	645.6
461.337	652.38
461.71	636.79
462.083	655.77
462.456	672.27
462.829	664.14
463.201	662.33
463.574	671.14
463.947	682.44
464.32	692.38
464.692	698.94
465.065	698.26
465.438	691.25
465.81	719.95
466.183	713.85
466.555	726.05
466.928	733.74
467.3	715.21
467.672	719.27
468.045	742.78
468.417	757.01
468.789	750.69
469.161	742.78
469.534	766.28
469.906	754.3
470.278	754.98
470.65	744.36
471.022	779.39
471.394	776.22
471.766	789.78
472.138	793.4
472.51	798.37
472.882	810.12
473.253	806.73
473.625	816
473.997	819.16
474.369	808.31
474.74	842.44
475.112	867.52
475.484	872.27
475.855	872.72
476.227	867.29
476.598	906.39
476.97	877.01
477.341	900.74
477.713	902.32
478.084	904.35
478.455	907.97
478.827	925.37
479.198	921.3
479.569	950
479.94	959.27
480.311	954.97
480.682	979.38
481.053	1013.73
481.424	1023.9
481.795	1014.63
482.166	1003.79
482.537	1009.44
482.908	1030.68
483.279	1030
483.65	1060.96
484.021	1052.15
484.391	1039.72
484.762	1087.17
485.133	1062.32
485.503	1071.13
485.874	1129.89
486.244	1098.93
486.615	1113.61
486.985	1111.81
487.356	1182.54
487.726	1134.86
488.097	1159.26
488.467	1162.2
488.837	1152.03
489.207	1157.68
489.578	1157.23
489.948	1193.61
490.318	1171.47
490.688	1211.69
491.058	1188.87
491.428	1215.76
491.798	1207.62
492.168	1216.44
492.538	1237.68
492.908	1265.48
493.278	1263.89
493.648	1240.39
494.017	1243.1
494.387	1266.83
494.757	1273.16
495.126	1282.65
495.496	1295.76
495.866	1263.22
496.235	1261.41
496.605	1276.77
496.974	1303.44
497.344	1320.84
497.713	1308.86
498.082	1281.75
498.452	1307.73
498.821	1310.9
499.19	1305.93
499.559	1315.64
499.928	1295.3
500.298	1329.2
500.667	1356.55
501.036	1322.42
501.405	1349.54
501.774	1340.5
502.143	1354.74
502.512	1337.56
502.88	1351.12
503.249	1361.52
503.618	1358.58
503.987	1350.9
504.356	1366.26
504.724	1374.4
505.093	1361.29
505.462	1364.23
505.83	1391.12
506.199	1376.66
506.567	1393.38
506.936	1386.38
507.304	1403.55
507.672	1395.87
508.041	1377.34
508.409	1425.7
508.777	1389.09
509.145	1429.54
509.514	1378.01
509.882	1402.65
510.25	1404.45
510.618	1394.51
510.986	1400.39
511.354	1434.51
511.722	1431.57
512.09	1445.58
512.458	1424.34
512.826	1413.72
513.193	1440.84
513.561	1420.73
513.929	1459.82
514.297	1453.94
514.664	1452.81
515.032	1416.21
515.4	1422.99
515.767	1447.39
516.135	1423.66
516.502	1500.95
516.869	1452.59
517.237	1458.24
517.604	1457.33
517.972	1471.57
518.339	1458.24
518.706	1458.69
519.073	1449.43
519.44	1478.58
519.808	1504.56
520.175	1485.58
520.542	1493.94
520.909	1470.89
521.276	1487.16
521.643	1477
522.009	1462.08
522.376	1502.31
522.743	1500.05
523.11	1498.92
523.477	1486.71
523.843	1524
524.21	1500.72
524.577	1523.32
524.943	1545.92
525.31	1524.23
525.676	1530.55
526.043	1544.79
526.409	1529.88
526.776	1544.34
527.142	1566.03
527.508	1556.09
527.874	1571.68
528.241	1544.34
528.607	1575.98
528.973	1557.22
529.339	1571.23
529.705	1572.59
530.071	1591.12
530.437	1579.82
530.803	1613.94
531.169	1580.72
531.535	1590.21
531.901	1587.27
532.267	1597.67
532.632	1600.38
532.998	1587.5
533.364	1599.03
533.73	1593.6
534.095	1613.26
534.461	1600.61
534.826	1603.32
535.192	1593.15
535.557	1604.45
535.923	1569.87
536.288	1596.31
536.653	1625.69
537.019	1598.12
537.384	1602.42
537.749	1615.07
538.114	1596.77
538.479	1617.56
538.845	1626.37
539.21	1602.19
539.575	1601.74
539.94	1617.56
540.305	1634.96
540.67	1603.32
541.034	1625.47
541.399	1628.86
541.764	1628.4
542.129	1606.26
542.494	1632.25
542.858	1642.19
543.223	1597.44
543.587	1629.53
543.952	1645.58
544.316	1611.23
544.681	1623.43
545.045	1626.82
545.41	1590.21
545.774	1634.05
546.138	1617.56
546.503	1626.37
546.867	1647.84
547.231	1628.4
547.595	1629.31
547.959	1643.54
548.324	1621.4
548.688	1615.07
549.052	1607.84
549.416	1666.14
549.779	1667.5
550.143	1611.45
550.507	1640.83
550.871	1631.79
551.235	1629.99
551.599	1628.4
551.962	1665.69
552.326	1635.41
552.689	1638.12
553.053	1625.01
553.417	1673.37
553.78	1656.65
554.143	1667.05
554.507	1652.81
554.87	1662.98
555.234	1665.46
555.597	1658.01
555.96	1651.23
556.323	1642.64
556.686	1624.56
557.05	1668.18
557.413	1653.26
557.776	1657.33
558.139	1667.27
558.502	1641.06
558.865	1661.85
559.228	1665.46
559.59	1680.15
559.953	1673.6
560.316	1707.05
560.679	1692.36
561.041	1691.68
561.404	1680.83
561.767	1682.64
562.129	1694.84
562.492	1691
562.854	1729.19
563.217	1706.37
563.579	1691.9
563.941	1684
564.304	1703.66
564.666	1703.88
565.028	1720.38
565.39	1703.66
565.753	1720.83
566.115	1714.73
566.477	1749.53
566.839	1715.18
567.201	1719.25
567.563	1727.61
567.925	1742.75
568.287	1707.95
568.648	1733.26
569.01	1711.57
569.372	1743.65
569.734	1737.1
570.095	1766.7
570.457	1765.12
570.819	1733.71
571.18	1725.35
571.542	1752.69
571.903	1753.15
572.265	1748.17
572.626	1748.85
572.987	1744.78
573.349	1761.73
573.71	1749.76
574.071	1764.67
574.432	1802.64
574.794	1766.03
575.155	1766.25
575.516	1752.02
575.877	1757.21
576.238	1780.26
576.599	1786.37
576.96	1772.58
577.32	1785.69
577.681	1792.24
578.042	1808.74
578.403	1799.92
578.763	1802.64
579.124	1791.79
579.485	1818.46
579.845	1832.69
580.206	1806.25
580.566	1840.6
580.927	1785.01
581.287	1815.07
581.648	1826.36
582.008	1837.21
582.368	1822.52
582.728	1785.69
583.089	1831.11
583.449	1825.91
583.809	1806.25
584.169	1799.7
584.529	1834.95
584.889	1843.54
585.249	1825.46
585.609	1840.38
585.969	1820.49
586.329	1836.99
586.688	1825.91
587.048	1824.78
587.408	1810.55
587.768	1818
588.127	1814.61
588.487	1845.35
588.846	1864.56
589.206	1828.4
589.565	1823.43
589.925	1866.82
590.284	1838.79
590.643	1806.03
591.003	1829.75
591.362	1842.41
591.721	1854.16
592.08	1843.77
592.44	1835.4
592.799	1836.08
593.158	1867.95
593.517	1849.87
593.876	1839.47
594.235	1823.43
594.593	1843.54
594.952	1851.45
595.311	1869.98
595.67	1861.39
596.029	1883.99
596.387	1836.31
596.746	1863.88
597.104	1886.25
597.463	1877.21
597.822	1860.26
598.18	1847.15
598.538	1857.32
598.897	1889.19
599.255	1860.26
599.613	1881.28
599.972	1861.62
600.33	1891.22
600.688	1881.5
601.046	1910.2
601.404	1875.18
601.762	1875.4
602.12	1898.9
602.478	1897.32
602.836	1923.31
603.194	1911.79
603.552	1899.36
603.91	1877.89
604.268	1893.93
604.625	1869.98
604.983	1912.24
605.341	1907.94
605.698	1870.21
606.056	1907.94
606.413	1892.8
606.771	1925.34
607.128	1910.88
607.485	1903.65
607.843	1910.43
608.2	1932.35
608.557	1928.28
608.914	1907.49
609.272	1945.91
609.629	1933.71
609.986	1965.12
610.343	1932.58
610.7	1937.55
611.057	1952.69
611.414	1945.91
611.771	1939.58
612.127	1953.14
612.484	1971.45
612.841	1981.84
613.198	1973.25
613.554	1949.98
613.911	1990.65
614.267	1986.13
614.624	1950.65
614.98	1978.45
615.337	1962.86
615.693	1976.87
616.05	1978.9
616.406	1979.81
616.762	1981.16
617.118	1992.69
617.475	1983.2
617.831	1990.2
618.187	1989.3
618.543	2020.48
618.899	2010.99
619.255	1987.94
619.611	2010.54
619.967	2019.81
620.323	2002.4
620.678	2018.68
621.034	1998.79
621.39	2032.69
621.746	1995.63
622.101	2015.51
622.457	2007.38
622.812	2023.87
623.168	2023.65
623.523	2030.65
623.879	2042.4
624.234	2033.59
624.589	2033.14
624.945	2021.39
625.3	2026.36
625.655	2056.41
626.01	2061.16
626.365	2058
626.72	2055.06
627.075	2057.32
627.43	2051.44
627.785	2051.67
628.14	2043.76
628.495	2060.93
628.85	2056.64
629.205	2065.45
629.559	2116.07
629.914	2081.72
630.269	2089.41
630.623	2048.05
630.978	2107.49
631.332	2122.63
631.687	2123.31
632.041	2089.41
632.396	2110.88
632.75	2088.73
633.104	2123.31
633.459	2126.24
633.813	2124.66
634.167	2142.74
634.521	2129.18
634.875	2143.87
635.229	2138.45
635.583	2145.68
635.937	2151.78
636.291	2095.28
636.645	2164.89
636.999	2153.14
637.352	2137.77
637.706	2156.07
638.06	2163.53
638.413	2148.84
638.767	2157.2
639.121	2174.6
639.474	2138.9
639.828	2182.06
640.181	2177.54
640.534	2195.39
640.888	2192.91
641.241	2212.79
641.594	2187.26
641.947	2206.92
642.301	2212.12
642.654	2191.33
643.007	2227.03
643.36	2254.6
643.713	2205.34
644.066	2248.27
644.419	2255.96
644.771	2272.45
645.124	2232.68
645.477	2231.55
645.83	2251.66
646.182	2191.33
646.535	2253.25
646.888	2219.8
647.24	2262.51
647.593	2281.49
647.945	2258.22
648.298	2270.19
648.65	2247.14
649.002	2262.51
649.355	2329.4
649.707	2326.24
650.059	2320.59
650.411	2357.88
650.763	2356.29
651.115	2359.23
651.467	2395.84
651.819	2382.73
652.171	2390.42
652.523	2396.07
652.875	2430.87
653.227	2428.83
653.578	2469.51
653.93	2417.76
654.282	2474.03
654.633	2431.77
654.985	2479.23
655.337	2460.7
655.688	2497.99
656.039	2487.14
656.391	2490.3
656.742	2511.77
657.094	2533.69
657.445	2558.1
657.796	2536.63
658.147	2552.22
658.498	2590.41
658.849	2561.94
659.2	2584.76
659.551	2588.15
659.902	2648.04
660.253	2647.81
660.604	2669.05
660.955	2674.25
661.306	2667.25
661.656	2657.53
662.007	2704.99
662.358	2670.86
662.708	2700.01
663.059	2753.57
663.409	2713.8
663.76	2766.23
664.11	2746.79
664.461	2787.92
664.811	2784.08
665.161	2817.07
665.511	2810.29
665.862	2817.07
666.212	2864.76
666.562	2885.77
666.912	2868.14
667.262	2856.85
667.612	2875.6
667.962	2886.45
668.312	2916.05
668.662	2923.28
669.011	2970.29
669.361	2943.85
669.711	2971.65
670.06	2993.34
670.41	3008.71
670.76	2986.33
671.109	3002.38
671.459	3050.51
671.808	3040.8
672.157	3074.24
672.507	3055.94
672.856	3105.65
673.205	3068.14
673.554	3077.4
673.904	3122.38
674.253	3135.71
674.602	3134.8
674.951	3141.81
675.3	3072.21
675.649	3171.64
675.998	3186.78
676.346	3191.98
676.695	3195.14
677.044	3207.8
677.393	3195.37
677.741	3222.94
678.09	3266.1
678.438	3266.1
678.787	3263.16
679.135	3292.31
679.484	3289.6
679.832	3283.95
680.181	3286.21
680.529	3347.45
680.877	3338.42
681.225	3300
681.573	3331.41
681.922	3328.02
682.27	3345.87
682.618	3372.99
682.966	3360.11
683.314	3393.55
683.661	3426.1
684.009	3379.32
684.357	3403.72
684.705	3422.03
685.053	3415.25
685.4	3392.65
685.748	3450.28
686.095	3465.42
686.443	3447.11
686.79	3460.22
687.138	3420.9
687.485	3487.34
687.832	3444.17
688.18	3492.76
688.527	3474.46
688.874	3515.13
689.221	3471.74
689.568	3485.53
689.915	3490.73
690.262	3501.35
690.609	3520.78
690.956	3528.69
691.303	3528.24
691.65	3491.63
691.997	3486.66
692.344	3505.87
692.69	3507.45
693.037	3544.06
693.383	3535.47
693.73	3537.05
694.077	3548.13
694.423	3559.2
694.769	3557.62
695.116	3510.39
695.462	3530.05
695.808	3525.75
696.155	3519.65
696.501	3503.61
696.847	3548.13
697.193	3498.86
697.539	3481.01
697.885	3519.2
698.231	3480.56
698.577	3528.01
698.923	3519.65
699.269	3493.89
699.614	3490.05
699.96	3489.37
700.306	3517.62
700.651	3502.7
700.997	3480.78
701.342	3484.4
701.688	3513.55
702.033	3482.14
702.379	3500.67
702.724	3481.24
703.069	3502.48
703.415	3449.6
703.76	3507.45
704.105	3455.47
704.45	3512.87
704.795	3445.76
705.14	3444.4
705.485	3462.03
705.83	3454.12
706.175	3476.04
706.52	3470.16
706.865	3457.73
707.209	3479.2
707.554	3436.72
707.899	3456.83
708.243	3414.57
708.588	3423.16
708.932	3420.22
709.277	3437.17
709.621	3408.7
709.966	3426.32
710.31	3422.93
710.654	3395.14
710.998	3411.86
711.342	3459.32
711.687	3389.71
712.031	3380.67
712.375	3340.22
712.719	3398.53
713.063	3394.91
713.407	3418.86
713.75	3422.25
714.094	3371.18
714.438	3383.84
714.782	3362.6
715.125	3385.65
715.469	3403.27
715.812	3392.88
716.156	3345.42
716.499	3375.25
716.843	3405.08
717.186	3354.91
717.53	3375.48
717.873	3400.33
718.216	3405.98
718.559	3405.08
718.902	3398.98
719.246	3381.13
719.589	3399.2
719.932	3404.4
720.275	3387.23
720.617	3363.27
720.96	3353.1
721.303	3355.59
721.646	3384.52
721.989	3388.13
722.331	3406.89
722.674	3334.12
723.016	3419.09
723.359	3410.5
723.701	3391.07
724.044	3345.42
724.386	3380.22
724.729	3399.2
725.071	3342.03
725.413	3384.97
725.755	3413.67
726.097	3375.93
726.439	3382.93
726.782	3369.37
727.124	3396.49
727.465	3366.21
727.807	3394.91
728.149	3380
728.491	3375.48
728.833	3415.02
729.175	3400.56
729.516	3347
729.858	3367.79
730.199	3424.74
730.541	3382.26
730.882	3396.49
731.224	3386.55
731.565	3371.63
731.906	3400.56
732.248	3413.22
732.589	3407.11
732.93	3375.02
733.271	3407.34
733.612	3406.89
733.953	3424.74
734.294	3415.93
734.635	3398.07
734.976	3467
735.317	3431.07
735.658	3444.63
735.999	3454.12
736.339	3456.38
736.68	3466.77
737.021	3442.14
737.361	3467.68
737.702	3512.87
738.042	3471.07
738.383	3482.59
738.723	3519.65
739.063	3499.77
739.404	3454.8
739.744	3528.01
740.084	3491.18
740.424	3488.92
740.764	3518.52
741.104	3535.02
741.444	3515.81
741.784	3560.1
742.124	3557.17
742.464	3554.91
742.804	3541.35
743.143	3569.6
743.483	3589.26
743.823	3590.84
744.162	3603.94
744.502	3590.16
744.841	3625.64
745.181	3663.15
745.52	3574.57
745.86	3670.84
746.199	3668.12
746.538	3662.47
746.877	3713.55
747.216	3694.56
747.556	3739.08
747.895	3718.07
748.234	3739.53
748.573	3762.58
748.911	3775.47
749.25	3797.39
749.589	3796.03
749.928	3838.74
750.267	3819.31
750.605	3838.29
750.944	3874.22
751.283	3879.87
751.621	3926.65
751.96	3941.11
752.298	3975.91
752.636	3955.12
752.975	3946.31
753.313	3993.09
753.651	4020.21
753.989	4058.85
754.327	4039.41
754.666	4078.73
755.004	4057.49
755.342	4104.72
755.679	4139.3
756.017	4200.54
756.355	4138.62
756.693	4181.1
757.031	4179.75
757.368	4179.75
757.706	4218.39
758.044	4232.4
758.381	4267.2
758.719	4274.21
759.056	4311.04
759.394	4257.94
759.731	4296.13
760.068	4317.15
760.405	4340.42
760.743	4330.71
761.08	4384.94
761.417	4379.97
761.754	4345.39
762.091	4407.77
762.428	4364.6
762.765	4423.13
763.102	4431.04
763.438	4424.49
763.775	4426.97
764.112	4389.23
764.449	4500.19
764.785	4458.16
765.122	4429.91
765.458	4417.26
765.795	4455.22
766.131	4494.09
766.467	4440.08
766.804	4485.05
767.14	4446.63
767.476	4456.13
767.812	4497.71
768.148	4499.51
768.485	4462.68
768.821	4485.96
769.157	4511.72
769.492	4440.76
769.828	4489.35
770.164	4466.29
770.5	4477.37
770.836	4492.28
771.171	4471.94
771.507	4419.97
771.842	4428.1
772.178	4454.09
772.513	4417.93
