Data from blue_shiny_book_FLMS001491_00050.txt Node
Date: Wed Feb 08 15:27:02 GMT 2017
User: dcchb
Spectrometer: FLMS00149
Trigger mode: 0
Integration Time (sec): 2.000000E-2
Scans to average: 10
Electric dark correction enabled: true
Nonlinearity correction enabled: false
Boxcar width: 0
XAxis mode: Wavelengths
Number of Pixels in Spectrum: 2048
>>>>>Begin Spectral Data<<<<<
341.393	-38.91
341.776	-38.91
342.16	-38.91
342.543	-64.9
342.927	-66.03
343.31	-68.52
343.693	-83.66
344.077	-52.02
344.46	-50.89
344.843	-44.11
345.226	-42.98
345.61	-35.75
345.993	-27.16
346.376	-4.11
346.759	15.1
347.142	29.79
347.525	46.96
347.908	52.39
348.291	79.73
348.674	82.22
349.057	103.01
349.44	146.39
349.823	149.78
350.206	181.87
350.588	214.42
350.971	228.65
351.354	229.33
351.737	233.17
352.119	267.52
352.502	278.59
352.884	292.61
353.267	270.23
353.65	298.48
354.032	312.27
354.414	324.92
354.797	317.46
355.179	337.58
355.562	330.57
355.944	332.83
356.326	361.08
356.709	337.12
357.091	343.23
357.473	358.59
357.855	323.56
358.238	363.34
358.62	350.23
359.002	363.34
359.384	364.69
359.766	347.29
360.148	343
360.53	362.21
360.912	347.29
361.294	348.88
361.676	356.78
362.057	333.73
362.439	333.96
362.821	350.91
363.203	346.84
363.584	333.28
363.966	330.34
364.348	331.47
364.729	352.72
365.111	322.66
365.493	338.71
365.874	328.54
366.256	325.6
366.637	337.12
367.019	346.16
367.4	336.9
367.781	340.51
368.163	327.18
368.544	340.51
368.925	314.07
369.306	334.64
369.688	338.25
370.069	334.19
370.45	348.65
370.831	331.02
371.212	337.8
371.593	334.64
371.974	354.3
372.355	372.38
372.736	340.06
373.117	347.29
373.498	337.35
373.879	355.43
374.26	362.43
374.641	338.03
375.021	338.93
375.402	358.59
375.783	354.07
376.163	383.68
376.544	372.6
376.925	367.63
377.305	357.46
377.686	365.15
378.066	377.57
378.447	367.41
378.827	401.98
379.208	364.47
379.588	401.53
379.968	381.64
380.349	409.89
380.729	395.43
381.109	390.68
381.489	413.96
381.87	394.07
382.25	405.14
382.63	395.88
383.01	434.3
383.39	431.58
383.77	419.38
384.15	418.48
384.53	418.25
384.91	418.7
385.29	413.73
385.67	420.51
386.049	442.88
386.429	434.97
386.809	423.68
387.189	451.47
387.568	444.01
387.948	464.58
388.328	465.71
388.707	454.63
389.087	478.14
389.466	490.57
389.846	472.49
390.225	470.23
390.605	494.63
390.984	498.25
391.363	500.06
391.743	502.09
392.122	488.31
392.501	497.35
392.881	498.48
393.26	510.23
393.639	490.34
394.018	535.76
394.397	535.54
394.776	545.25
395.155	531.24
395.534	520.85
395.913	540.28
396.292	560.39
396.671	562.65
397.05	556.78
397.429	569.66
397.808	558.81
398.186	569.43
398.565	570.79
398.944	598.13
399.323	598.13
399.701	595.42
400.08	600.17
400.458	626.61
400.837	617.57
401.215	641.07
401.594	644.46
401.972	642.2
402.351	628.19
402.729	643.78
403.107	660.73
403.486	651.47
403.864	656.21
404.242	677.23
404.62	704.12
404.999	701.86
405.377	687.4
405.755	721.75
406.133	736.21
406.511	713.84
406.889	730.79
407.267	748.64
407.645	746.6
408.023	755.64
408.401	770.56
408.779	772.59
409.156	801.97
409.534	786.38
409.912	812.14
410.29	807.62
410.667	847.39
411.045	843.78
411.422	851.69
411.8	874.06
412.178	879.48
412.555	873.16
412.933	886.26
413.31	895.08
413.687	915.19
414.065	949.76
414.442	944.79
414.819	989.31
415.197	959.25
415.574	982.98
415.951	991.57
416.328	1002.64
416.705	1011.91
417.082	1012.36
417.46	1041.74
417.837	1060.04
418.214	1057.1
418.591	1078.8
418.967	1068.63
419.344	1106.6
419.721	1105.92
420.098	1133.71
420.475	1149.98
420.852	1139.81
421.228	1144.56
421.605	1163.32
421.982	1160.38
422.358	1179.14
422.735	1230.43
423.111	1195.18
423.488	1225.01
423.864	1259.13
424.241	1274.73
424.617	1262.07
424.994	1293.26
425.37	1300.49
425.746	1322.86
426.123	1343.2
426.499	1340.71
426.875	1368.74
427.251	1355.63
427.627	1401.5
428.003	1455.51
428.379	1438.34
428.756	1460.48
429.132	1506.58
429.507	1493.03
429.883	1489.18
430.259	1533.93
430.635	1559.69
431.011	1563.31
431.387	1613.25
431.763	1635.17
432.138	1642.4
432.514	1690.08
432.89	1691.89
433.265	1730.99
433.641	1754.26
434.016	1771.66
434.392	1779.35
434.767	1830.64
435.143	1832.23
435.518	1860.25
435.894	1881.49
436.269	1908.38
436.644	1956.74
437.02	1961.49
437.395	1981.6
437.77	2008.72
438.145	2048.72
438.52	2077.64
438.895	2079.45
439.271	2073.35
439.646	2127.81
440.021	2145.66
440.395	2169.17
440.77	2119
441.145	2189.73
441.52	2192.22
441.895	2208.49
442.27	2250.75
442.645	2270.86
443.019	2325.09
443.394	2301.59
443.769	2336.39
444.143	2338.43
444.518	2373.23
444.892	2347.01
445.267	2405.09
445.641	2377.07
446.016	2423.62
446.39	2453
446.764	2456.39
447.139	2492.1
447.513	2529.16
447.887	2517.18
448.262	2564.41
448.636	2586.78
449.01	2595.6
449.384	2598.31
449.758	2615.26
450.132	2669.04
450.506	2692.54
450.88	2724.63
451.254	2696.16
451.628	2744.29
452.002	2807.79
452.376	2827.91
452.75	2837.4
453.123	2916.04
453.497	2956.72
453.871	2949.48
454.244	3021.35
454.618	3050.05
454.992	3053.44
455.365	3074.68
455.739	3146.99
456.112	3151.97
456.486	3161.68
456.859	3286.2
457.232	3317.84
457.606	3336.59
457.979	3381.79
458.352	3475.57
458.725	3501.33
459.099	3490.26
459.472	3596.93
459.845	3622.46
460.218	3633.53
460.591	3651.39
460.964	3704.04
461.337	3782.91
461.71	3827.43
462.083	3879.4
462.456	3943.13
462.829	3960.08
463.201	4045.27
463.574	4076.91
463.947	4135.89
464.32	4276.68
464.692	4259.73
465.065	4297.02
465.438	4348.09
465.81	4394.64
466.183	4385.83
466.555	4510.8
466.928	4530.01
467.3	4615.2
467.672	4646.16
468.045	4811.36
468.417	4761.19
468.789	4870.34
469.161	4921.86
469.534	5014.06
469.906	5141.97
470.278	5149.88
470.65	5230.55
471.022	5289.76
471.394	5318.46
471.766	5405.24
472.138	5461.28
472.51	5598.23
472.882	5652.24
473.253	5730.43
473.625	5823.76
473.997	5982.63
474.369	6030.53
474.74	6093.13
475.112	6209.51
475.484	6313.92
475.855	6448.6
476.227	6509.17
476.598	6673
476.97	6719.1
477.341	6896.05
477.713	6981.92
478.084	7026.89
478.455	7252.2
478.827	7285.42
479.198	7501
479.569	7469.82
479.94	7765.18
480.311	7749.81
480.682	8012.63
481.053	8183.25
481.424	8281.32
481.795	8381.88
482.166	8489
482.537	8685.6
482.908	8886.73
483.279	8926.5
483.65	9039.95
484.021	9209.66
484.391	9321.07
484.762	9386.38
485.133	9444.23
485.503	9642.42
485.874	9923.76
486.244	9914.95
486.615	10140.93
486.985	10388.39
487.356	10568.49
487.726	10683.97
488.097	10932.1
488.467	10907.24
488.837	11193.11
489.207	11218.42
489.578	11426.78
489.948	11565.08
490.318	11758.29
490.688	11742.93
491.058	11891.4
491.428	12111.5
491.798	12255.23
492.168	12562.34
492.538	12551.72
492.908	12739.06
493.278	12870.81
493.648	12964.36
494.017	13161.42
494.387	13332.94
494.757	13417.23
495.126	13572.71
495.496	13655.87
495.866	13801.63
496.235	13909.42
496.605	14004.56
496.974	14137.89
497.344	14261.73
497.713	14308.73
498.082	14491.1
498.452	14664.43
498.821	14641.83
499.19	14721.6
499.559	14847.93
499.928	15123.18
500.298	15153.46
500.667	15303.28
501.036	15296.73
501.405	15496.5
501.774	15589.83
502.143	15675.93
502.512	15802.48
502.88	15818.07
503.249	15849.26
503.618	16132.87
503.987	16092.19
504.356	16273.2
504.724	16364.73
505.093	16522.69
505.462	16645.85
505.83	16707.09
506.199	16857.82
506.567	17096.23
506.936	17027.98
507.304	17247.19
507.672	17492.61
508.041	17517.92
508.409	17572.83
508.777	17716.55
509.145	17961.29
509.514	17964.91
509.882	18151.57
510.25	18210.33
510.618	18372.13
510.986	18545.23
511.354	18618.23
511.722	18751.78
512.09	18839.69
512.458	18870.2
512.826	19089.4
513.193	19182.28
513.561	19229.28
513.929	19392.44
514.297	19621.14
514.664	19740.91
515.032	19794.01
515.4	20041.92
515.767	20109.03
516.135	20308.8
516.502	20192.42
516.869	20639.87
517.237	20729.13
517.604	20638.96
517.972	20945.85
518.339	21103.36
518.706	21184.26
519.073	21250.25
519.44	21341.32
519.808	21550.35
520.175	21586.73
520.542	21931.13
520.909	22048.42
521.276	22091.35
521.643	22242.99
522.009	22489.76
522.376	22521.63
522.743	22654.05
523.11	22961.61
523.477	23266.01
523.843	23422.62
524.21	23740.58
524.577	23994.58
524.943	24021.02
525.31	23990.97
525.676	24413.55
526.043	24562.7
526.409	24510.27
526.776	24874.78
527.142	24839.53
527.508	25189.35
527.874	25325.17
528.241	25334.43
528.607	25442.68
528.973	25746.85
529.339	25702.78
529.705	25989.1
530.071	26292.15
530.437	26401.75
530.803	26659.6
531.169	26835.18
531.535	26935.97
531.901	26998.57
532.267	27139.13
532.632	27274.04
532.998	27518.56
533.364	27716.07
533.73	27765.78
534.095	27901.14
534.461	27962.39
534.826	28125.32
535.192	28261.81
535.557	28420.91
535.923	28364.41
536.288	28502.94
536.653	28679.88
537.019	28617.28
537.384	28828.8
537.749	28995.58
538.114	29042.81
538.479	29199.19
538.845	29426.98
539.21	29354.21
539.575	29578.16
539.94	29777.03
540.305	29928.66
540.67	29921.66
541.034	30095.89
541.399	30170.01
541.764	30227.64
542.129	30256.79
542.494	30410.68
542.858	30500.4
543.223	30464.92
543.587	30664.46
543.952	30593.28
544.316	30685.25
544.681	30664.24
545.045	30836.66
545.41	31097.67
545.774	31151.23
546.138	31160.27
546.503	31385.35
546.867	31376.31
547.231	31688.84
547.595	31665.11
547.959	31715.73
548.324	31985.78
548.688	32068.49
549.052	32206.57
549.416	32288.6
549.779	32256.06
550.143	32337.86
550.507	32495.37
550.871	32545.54
551.235	32406.79
551.599	32657.63
551.962	32723.17
552.326	32693.79
552.689	32912.09
553.053	32824.41
553.417	32950.96
553.78	33337.39
554.143	33167.22
554.507	33504.16
554.87	33519.3
555.234	33977.82
555.597	33840.65
555.96	33962.23
556.323	34140.75
556.686	34353.86
557.05	34540.29
557.413	34509.11
557.776	34561.08
558.139	34888.53
558.502	34825.71
558.865	34834.3
559.228	34893.5
559.59	34933.05
559.953	35105.25
560.316	35478.12
560.679	35225.92
561.041	35571.23
561.404	35705.91
561.767	35765.57
562.129	35865.68
562.492	36100.48
562.854	36220.02
563.217	36302.73
563.579	36732.1
563.941	36889.16
564.304	36945.88
564.666	37251.41
565.028	37238.53
565.39	37454.11
565.753	37590.38
566.115	37919.41
566.477	37885.97
566.839	38059.07
567.201	38042.57
567.563	38133.19
567.925	38319.4
568.287	38267.88
568.648	38236.47
569.01	38361.66
569.372	38520.75
569.734	38318.27
570.095	38550.36
570.457	38810.46
570.819	38954.41
571.18	39150.79
571.542	39129.78
571.903	39457
572.265	39614.96
572.626	39764.56
572.987	39717.11
573.349	40083.42
573.71	40290.65
574.071	40309.86
574.432	40480.25
574.794	40696.06
575.155	40709.4
575.516	40435.73
575.877	40648.61
576.238	40720.69
576.599	40683.18
576.96	40622.62
577.32	40740.58
577.681	40834.82
578.042	40981.03
578.403	40901.26
578.763	40906.9
579.124	40929.95
579.485	40986.45
579.845	41218.08
580.206	41194.58
580.566	41395.48
580.927	41454.69
581.287	41662.14
581.648	41523.61
582.008	42001.57
582.368	41856.71
582.728	42083.6
583.089	41951.62
583.449	42015.58
583.809	42094.9
584.169	42249.92
584.529	42096.93
584.889	42391.16
585.249	42132.41
585.609	42043.15
585.969	42115.69
586.329	41991.17
586.688	41963.15
587.048	41804.73
587.408	41758.41
587.768	41771.51
588.127	41644.51
588.487	41526.78
588.846	42198.17
589.206	41829.82
589.565	41896.71
589.925	42058.29
590.284	41832.08
590.643	42039.3
591.003	42294.89
591.362	42506.41
591.721	42388.22
592.08	42590.25
592.44	42638.61
592.799	42665.05
593.158	42787.31
593.517	42728.55
593.876	42707.99
594.235	42724.26
594.593	42679.29
594.952	42733.52
595.311	42541.89
595.67	42511.16
596.029	42501.44
596.387	42665.5
596.746	42518.39
597.104	42329.47
597.463	42327.88
597.822	42439.97
598.18	42285.17
598.538	42451.72
598.897	42634.77
599.255	42286.98
599.613	42917.02
599.972	42760.87
600.33	42841.77
600.688	42910.92
601.046	43106.39
601.404	43319.72
601.762	43317.01
602.12	43573.05
602.478	43567.85
602.836	43611.01
603.194	43360.17
603.552	43580.05
603.91	43528.3
604.268	43502.09
604.625	43325.6
604.983	43483.11
605.341	43053.06
605.698	43194.75
606.056	43353.62
606.413	43293.96
606.771	43390.23
607.128	43263.23
607.485	43018.49
607.843	43142.1
608.2	43375.54
608.557	43500.28
608.914	43492.6
609.272	43662.54
609.629	43697.79
609.986	43978.46
610.343	43803.33
610.7	44152.92
611.057	44093.94
611.414	44241.73
611.771	44510.2
612.127	44553.59
612.484	44616.86
612.841	44699.12
613.198	44527.15
613.554	44582.29
613.911	44746.8
614.267	44668.84
614.624	44740.02
614.98	44885.33
615.337	44959.68
615.693	44765.11
616.05	44763.98
616.406	44865.44
616.762	44639.69
617.118	44599.69
617.475	44414.83
617.831	44401.73
618.187	44399.24
618.543	44536.87
618.899	44823.19
619.255	44767.82
619.611	44740.48
619.967	44960.36
620.323	44963.52
620.678	44928.72
621.034	45090.3
621.39	45180.69
621.746	45197.41
622.101	45540.46
622.457	45302.04
622.812	45402.61
623.168	45525.54
623.523	45555.37
623.879	45586.56
624.234	45410.29
624.589	45581.58
624.945	45544.97
625.3	45524.41
625.655	45482.6
626.01	45496.61
626.365	45250.07
626.72	45167.13
627.075	45017.53
627.43	45186.11
627.785	45038.77
628.14	44905.22
628.495	45035.16
628.85	44743.19
629.205	44847.14
629.559	44882.39
629.914	44775.05
630.269	45044.65
630.623	44906.57
630.978	44703.64
631.332	45100.24
631.687	45163.74
632.041	44949.51
632.396	45135.72
632.75	45102.73
633.104	45146.79
633.459	44960.36
633.813	45115.38
634.167	45155.61
634.521	45081.03
634.875	45067.47
635.229	45027.93
635.583	44959
635.937	44805.11
636.291	44947.7
636.645	44829.74
636.999	44670.42
637.352	44560.82
637.706	44312.92
638.06	44427.94
638.413	44274.5
638.767	44035.18
639.121	43955.19
639.474	43701.18
639.828	43828.18
640.181	43847.84
640.534	43770.78
640.888	43647.62
641.241	43519.04
641.594	43550.22
641.947	43631.35
642.301	43721.52
642.654	43753.61
643.007	43673.84
643.36	43845.81
643.713	43726.27
644.066	43834.74
644.419	43877.45
644.771	43797
645.124	43809.2
645.477	43719.49
645.83	43322.21
646.182	42975.55
646.535	42699.85
646.888	42594.32
647.24	42182.35
647.593	42499.86
647.945	42254.67
648.298	42109.36
648.65	42052.19
649.002	41775.58
649.355	42030.72
649.707	42042.47
650.059	42169.92
650.411	42663.02
650.763	42738.95
651.115	43026.4
651.467	42807.87
651.819	42686.52
652.171	42647.65
652.523	42419.18
652.875	42510.48
653.227	42326.53
653.578	42894.65
653.93	42677.25
654.282	42695.11
654.633	42519.97
654.985	42470.48
655.337	42468.45
655.688	42683.58
656.039	42857.14
656.391	42646.07
656.742	42705.95
657.094	42742.56
657.445	43021.2
657.796	42877.02
658.147	42828.89
658.498	42921.99
658.849	42951.37
659.2	42720.19
659.551	42666.18
659.902	42717.7
660.253	42693.3
660.604	42831.83
660.955	42327.43
661.306	42508.9
661.656	42380.09
662.007	42388.9
662.358	42270.71
662.708	42147.1
663.059	41970.83
663.409	41909.59
663.76	42100.55
664.11	41960.21
664.461	41954.56
664.811	41875.92
665.161	41820.55
665.511	41799.99
665.862	41823.72
666.212	42159.3
666.562	42113.2
666.912	42096.48
667.262	42221.9
667.612	42172.63
667.962	42355.91
668.312	42337.38
668.662	42502.79
669.011	42555
669.361	42430.03
669.711	42456.47
670.06	42288.34
670.41	42353.65
670.76	42282.91
671.109	42396.81
671.459	42352.97
671.808	42149.36
672.157	42303.48
672.507	42055.57
672.856	42046.54
673.205	42095.8
673.554	41854.68
673.904	41866.43
674.253	42020.77
674.602	41545.08
674.951	40978.77
675.3	40725.21
675.649	41265.99
675.998	41153.68
676.346	41068.71
676.695	41240.46
677.044	40882.72
677.393	41023.06
677.741	41108.26
678.09	40903.51
678.438	40868.71
678.787	40885.89
679.135	41045.21
679.484	40719.79
679.832	41055.15
680.181	40875.49
680.529	40985.55
680.877	40959.33
681.225	40877.98
681.573	41236.84
681.922	40996.62
682.27	41049.95
682.618	41058.54
682.966	40990.52
683.314	41031.65
683.661	40870.97
684.009	40799.56
684.357	40636.18
684.705	40600.92
685.053	40650.87
685.4	40507.37
685.748	40304.21
686.095	40110.99
686.443	39917.33
686.79	39803.2
687.138	39719.14
687.485	39651.34
687.832	39325.03
688.18	39474.4
688.527	39106.05
688.874	38892.95
689.221	38887.3
689.568	38788.54
689.915	38719.84
690.262	38631.26
690.609	38465.84
690.956	38328.44
691.303	38456.12
691.65	38271.49
691.997	38343.58
692.344	38113.31
692.69	37986.53
693.037	38066.98
693.383	37747.67
693.73	38181.55
694.077	37779.3
694.423	38064.04
694.769	38025.4
695.116	37784.73
695.462	37798.51
695.808	37745.41
696.155	37798.29
696.501	37558.52
696.847	37531.4
697.193	37347.68
697.539	37426.54
697.885	37170.96
698.231	36911.3
698.577	36984.97
698.923	36968.03
699.269	36613.01
699.614	36474.93
699.96	36128.27
700.306	36262.06
700.651	35987.94
700.997	35705.01
701.342	35551.57
701.688	35527.16
702.033	35333.94
702.379	35344.11
702.724	35089.88
703.069	35276.77
703.415	34811.7
703.76	34820.06
704.105	34667.29
704.45	34771.47
704.795	34543.91
705.14	34377.58
705.485	34338.94
705.83	34296.01
706.175	34413.74
706.52	34167.87
706.865	34228.89
707.209	34277.02
707.554	34174.65
707.899	34346.17
708.243	34112.96
708.588	34145.95
708.932	34143.92
709.277	33943.02
709.621	33985.28
709.966	33875
710.31	34182.11
710.654	33678.17
710.998	33717.72
711.342	33639.53
711.687	33629.81
712.031	33537.38
712.375	33465.97
712.719	33356.14
713.063	33257.16
713.407	33311.62
713.75	33166.77
714.094	32956.83
714.438	32760.68
714.782	32818.53
715.125	32545.77
715.469	32526.56
715.812	32318.43
716.156	31991.88
716.499	32205.21
716.843	32063.97
717.186	31796.64
717.53	31894.94
717.873	31812.23
718.216	31816.52
718.559	31702.4
718.902	31532.24
719.246	31634.61
719.589	31558.68
719.932	31432.13
720.275	31540.37
720.617	31659.01
720.96	31631.22
721.303	31657.2
721.646	31796.64
721.989	31754.83
722.331	31829.18
722.674	31838.67
723.016	31664.44
723.359	31747.37
723.701	31725.68
724.044	31481.84
724.386	31432.13
724.729	31639.13
725.071	31541.28
725.413	31536.53
725.755	31550.54
726.097	31522.97
726.439	31246.14
726.782	31285.01
727.124	31392.8
727.465	31115.52
727.807	30960.95
728.149	30974.74
728.491	30819.49
728.833	30808.64
729.175	30815.87
729.516	30707.85
729.858	30638.7
730.199	30711.24
730.541	30519.61
730.882	30410.68
731.224	30675.54
731.565	30267.86
731.906	30338.14
732.248	30444.81
732.589	30227.41
732.93	30294.98
733.271	30173.4
733.612	30432.6
733.953	30391.47
734.294	30228.32
734.635	30245.26
734.976	30297.24
735.317	30103.35
735.658	30245.72
735.999	30323
736.339	30308.09
736.68	30541.98
737.021	30366.84
737.361	30433.28
737.702	30483.22
738.042	30467.86
738.383	30529.32
738.723	30499.72
739.063	30509.66
739.404	30581.75
739.744	30545.6
740.084	30493.62
740.424	30636.44
740.764	30505.82
741.104	30719.83
741.444	30419.95
741.784	30352.61
742.124	30565.93
742.464	30423.11
742.804	30381.98
743.143	30377.24
743.483	30320.29
743.823	30258.82
744.162	30136.11
744.502	30099.73
744.841	29985.38
745.181	30072.16
745.52	29908.78
745.86	29994.2
746.199	29903.8
746.538	29949
746.877	29980.41
747.216	30036.68
747.556	30028.55
747.895	29949.23
748.234	29923.01
748.573	29954.42
748.911	29931.6
749.25	30060.86
749.589	29908.78
749.928	30078.04
750.267	30181.54
750.605	30123.46
750.944	30084.59
751.283	29997.81
751.621	30339.5
751.96	30104.25
752.298	30236.22
752.636	30312.83
752.975	30331.82
753.313	30386.05
753.651	30500.4
