Data from blue_surface_keyboard_FLMS001491_075.txt Node
Date: Tue Feb 07 11:13:38 GMT 2017
User: dcchb
Spectrometer: FLMS00149
Trigger mode: 0
Integration Time (sec): 2.000000E-2
Scans to average: 10
Electric dark correction enabled: true
Nonlinearity correction enabled: false
Boxcar width: 0
XAxis mode: Wavelengths
Number of Pixels in Spectrum: 2048
>>>>>Begin Spectral Data<<<<<
341.393	-6.6
341.776	-6.6
342.16	-6.6
342.543	-65.8
342.927	-46.82
343.31	-55.86
343.693	-82.75
344.077	-52.7
344.46	-59.7
344.843	-63.32
345.226	-35.52
345.61	-33.94
345.993	-17.67
346.376	4.03
346.759	4.25
347.142	30.92
347.525	48.32
347.908	55.78
348.291	62.33
348.674	86.74
349.057	109.11
349.44	116.34
349.823	154.98
350.206	166.05
350.588	169.22
350.971	190.24
351.354	193.17
351.737	211.7
352.119	223.45
352.502	246.73
352.884	233.85
353.267	251.7
353.65	252.61
354.032	288.76
354.414	276.56
354.797	301.19
355.179	307.07
355.562	288.99
355.944	291.48
356.326	305.03
356.709	334.19
357.091	316.33
357.473	303.23
357.855	312.04
358.238	320.4
358.62	326.73
359.002	307.29
359.384	332.6
359.766	325.37
360.148	319.05
360.53	296.22
360.912	318.37
361.294	310.01
361.676	297.12
362.057	306.84
362.439	290.35
362.821	291.48
363.203	298.93
363.584	315.2
363.966	281.31
364.348	271.81
364.729	303
365.111	300.51
365.493	295.54
365.874	286.5
366.256	297.35
366.637	286.96
367.019	300.97
367.4	303
367.781	276.11
368.163	298.25
368.544	281.98
368.925	265.04
369.306	275.88
369.688	285.6
370.069	301.87
370.45	275.88
370.831	279.95
371.212	312.94
371.593	274.07
371.974	280.18
372.355	270.01
372.736	286.05
373.117	268.43
373.498	307.07
373.879	287.18
374.26	299.38
374.641	277.92
375.021	294.64
375.402	301.42
375.783	276.33
376.163	283.79
376.544	289.22
376.925	282.21
377.305	287.63
377.686	287.63
378.066	283.79
378.447	289.44
378.827	291.93
379.208	296.22
379.588	297.58
379.968	287.41
380.349	303.9
380.729	279.27
381.109	292.15
381.489	291.48
381.87	305.03
382.25	297.12
382.63	300.29
383.01	321.08
383.39	303.9
383.77	293.06
384.15	322.44
384.53	318.14
384.91	297.8
385.29	331.7
385.67	318.82
386.049	321.53
386.429	311.59
386.809	291.02
387.189	307.52
387.568	306.62
387.948	275.66
388.328	305.94
388.707	312.72
389.087	307.52
389.466	307.52
389.846	320.63
390.225	328.08
390.605	317.24
390.984	310.68
391.363	310.23
391.743	307.29
392.122	309.55
392.501	332.15
392.881	323.79
393.26	317.46
393.639	293.96
394.018	306.16
394.397	309.33
394.776	322.89
395.155	334.64
395.534	330.34
395.913	330.34
396.292	318.14
396.671	322.89
397.05	316.56
397.429	324.69
397.808	329.67
398.186	321.98
398.565	331.47
398.944	335.54
399.323	334.86
399.701	332.83
400.08	324.92
400.458	340.97
400.837	340.97
401.215	344.58
401.594	342.77
401.972	346.84
402.351	331.25
402.729	333.06
403.107	346.16
403.486	328.54
403.864	326.05
404.242	345.94
404.62	328.31
404.999	359.95
405.377	347.75
405.755	337.8
406.133	338.03
406.511	338.48
406.889	351.59
407.267	347.97
407.645	354.52
408.023	336.67
408.401	347.75
408.779	363.56
409.156	337.12
409.534	357.69
409.912	367.41
410.29	354.3
410.667	365.82
411.045	364.47
411.422	362.66
411.8	375.99
412.178	363.11
412.555	362.66
412.933	369.44
413.31	357.91
413.687	387.29
414.065	374.19
414.442	370.34
414.819	374.86
415.197	385.71
415.574	380.96
415.951	353.17
416.328	392.72
416.705	388.42
417.082	364.69
417.46	369.67
417.837	402.66
418.214	383.45
418.591	383.22
418.967	384.13
419.344	404.24
419.721	393.39
420.098	386.61
420.475	389.1
420.852	407.63
421.228	394.3
421.605	392.04
421.982	375.31
422.358	383.9
422.735	397.01
423.111	398.37
423.488	405.14
423.864	402.43
424.241	418.03
424.617	398.82
424.994	401.98
425.37	427.29
425.746	429.78
426.123	406.05
426.499	416.9
426.875	393.62
427.251	409.44
427.627	425.26
428.003	423.22
428.379	423.68
428.756	429.55
429.132	448.99
429.507	412.6
429.883	430.91
430.259	429.1
430.635	410.79
431.011	428.87
431.387	424.81
431.763	420.29
432.138	429.78
432.514	449.89
432.89	442.43
433.265	459.61
433.641	450.34
434.016	453.51
434.392	462.77
434.767	457.8
435.143	464.58
435.518	470.68
435.894	460.28
436.269	477.46
436.644	463.9
437.02	467.06
437.395	472.26
437.77	505.03
438.145	460.96
438.52	479.04
438.895	497.12
439.271	505.03
439.646	464.8
440.021	476.33
440.395	506.16
440.77	491.02
441.145	511.58
441.52	498.93
441.895	471.81
442.27	483.79
442.645	500.74
443.019	526.27
443.394	519.94
443.769	518.14
444.143	498.7
444.518	519.94
444.892	498.48
445.267	514.29
445.641	500.96
446.016	538.25
446.39	523.56
446.764	542.32
447.139	520.85
447.513	528.08
447.887	520.85
448.262	532.82
448.636	538.47
449.01	525.59
449.384	524.69
449.758	532.37
450.132	538.47
450.506	544.8
450.88	551.36
451.254	519.49
451.628	553.16
452.002	539.38
452.376	557.23
452.75	548.64
453.123	552.49
453.497	572.82
453.871	541.86
454.244	564.91
454.618	552.03
454.992	542.54
455.365	588.64
455.739	604.69
456.112	571.02
456.486	604.01
456.859	611.92
457.232	594.97
457.606	607.85
457.979	592.26
458.352	610.79
458.725	614.86
459.099	614.63
459.472	617.34
459.845	602.65
460.218	639.26
460.591	615.76
460.964	628.19
461.337	650.79
461.71	624.8
462.083	643.56
462.456	668.64
462.829	654.86
463.201	659.6
463.574	655.08
463.947	645.14
464.32	664.8
464.692	658.92
465.065	656.21
465.438	679.26
465.81	656.44
466.183	696.21
466.555	662.54
466.928	688.98
467.3	674.06
467.672	676.78
468.045	710.45
468.417	693.95
468.789	711.13
469.161	715.65
469.534	729.2
469.906	700.05
470.278	718.58
470.65	737.34
471.022	756.77
471.394	760.39
471.766	743.89
472.138	759.03
472.51	744.12
472.882	781.18
473.253	786.6
473.625	798.13
473.997	813.72
474.369	804.68
474.74	793.61
475.112	835.64
475.484	840.61
475.855	807.85
476.227	839.03
476.598	841.97
476.97	852.82
477.341	858.01
477.713	848.3
478.084	841.74
478.455	877.9
478.827	893.04
479.198	895.53
479.569	881.06
479.94	905.47
480.311	918.8
480.682	928.29
481.053	949.76
481.424	950.89
481.795	946.6
482.166	966.26
482.537	962.19
482.908	977.56
483.279	986.37
483.65	998.58
484.021	991.34
484.391	1009.87
484.762	1005.58
485.133	1014.39
485.503	1015.98
485.874	1045.81
486.244	1032.02
486.615	1051.68
486.985	1048.97
487.356	1055.75
487.726	1072.47
488.097	1110.21
488.467	1086.26
488.837	1114.73
489.207	1100.04
489.578	1131.23
489.948	1137.78
490.318	1125.58
490.688	1114.05
491.058	1161.28
491.428	1152.7
491.798	1171.23
492.168	1167.61
492.538	1184.11
492.908	1181.62
493.278	1199.02
493.648	1186.59
494.017	1180.94
494.387	1185.92
494.757	1210.32
495.126	1217.1
495.496	1210.1
495.866	1221.17
496.235	1210.55
496.605	1262.98
496.974	1237.67
497.344	1231.34
497.713	1255.29
498.082	1256.87
498.452	1257.1
498.821	1275.4
499.19	1240.15
499.559	1255.97
499.928	1224.56
500.298	1251.45
500.667	1252.13
501.036	1252.81
501.405	1253.48
501.774	1259.36
502.143	1277.89
502.512	1278.12
502.88	1290.55
503.249	1290.32
503.618	1293.71
503.987	1310.21
504.356	1293.71
504.724	1271.34
505.093	1291
505.462	1297.1
505.83	1289.42
506.199	1296.42
506.567	1331.45
506.936	1312.24
507.304	1313.37
507.672	1311.79
508.041	1330.77
508.409	1344.56
508.777	1356.53
509.145	1349.75
509.514	1329.41
509.882	1345.91
510.25	1345.23
510.618	1343.88
510.986	1336.87
511.354	1343.43
511.722	1355.63
512.09	1362.86
512.458	1366.93
512.826	1344.33
513.193	1385.01
513.561	1371
513.929	1353.59
514.297	1373.93
514.664	1383.88
515.032	1386.81
515.4	1368.28
515.767	1394.5
516.135	1380.26
516.502	1391.11
516.869	1411.45
517.237	1414.16
517.604	1388.17
517.972	1379.13
518.339	1394.72
518.706	1414.61
519.073	1387.04
519.44	1390.66
519.808	1420.49
520.175	1403.54
520.542	1406.93
520.909	1399.69
521.276	1398.34
521.643	1397.89
522.009	1422.52
522.376	1405.34
522.743	1411.22
523.11	1436.53
523.477	1446.02
523.843	1439.24
524.21	1451.9
524.577	1455.51
524.943	1464.55
525.31	1477.88
525.676	1433.82
526.043	1468.62
526.409	1471.11
526.776	1483.08
527.142	1459.58
527.508	1477.88
527.874	1507.71
528.241	1493.93
528.607	1483.31
528.973	1478.79
529.339	1507.49
529.705	1514.95
530.071	1536.41
530.437	1501.16
530.803	1497.09
531.169	1510.88
531.535	1501.39
531.901	1519.47
532.267	1528.96
532.632	1518.11
532.998	1519.47
533.364	1529.63
533.73	1495.06
534.095	1541.16
534.461	1528.05
534.826	1528.05
535.192	1561.95
535.557	1554.72
535.923	1515.62
536.288	1566.02
536.653	1525.34
537.019	1581.84
537.384	1523.99
537.749	1520.37
538.114	1554.94
538.479	1540.71
538.845	1553.59
539.21	1560.82
539.575	1556.75
539.94	1549.07
540.305	1548.84
540.67	1595.4
541.034	1550.2
541.399	1558.11
541.764	1544.32
542.129	1548.84
542.494	1580.71
542.858	1560.14
543.223	1542.06
543.587	1583.19
543.952	1565.34
544.316	1561.5
544.681	1571.89
545.045	1578.9
545.41	1594.04
545.774	1593.59
546.138	1578.9
546.503	1571.89
546.867	1572.57
547.231	1586.36
547.595	1583.87
547.959	1627.03
548.324	1560.82
548.688	1576.19
549.052	1561.27
549.416	1579.8
549.779	1554.27
550.143	1546.58
550.507	1604.44
550.871	1566.47
551.235	1579.13
551.599	1594.72
551.962	1589.29
552.326	1584.1
552.689	1566.47
553.053	1604.89
553.417	1574.61
553.78	1597.66
554.143	1617.54
554.507	1590.88
554.87	1595.17
555.234	1597.88
555.597	1593.36
555.96	1585.23
556.323	1639.91
556.686	1590.88
557.05	1623.19
557.413	1616.19
557.776	1604.66
558.139	1633.59
558.502	1634.04
558.865	1651.44
559.228	1626.58
559.59	1628.62
559.953	1639.46
560.316	1642.4
560.679	1630.42
561.041	1639.46
561.404	1647.37
561.767	1638.78
562.129	1636.52
562.492	1632.91
562.854	1649.86
563.217	1657.54
563.579	1640.82
563.941	1669.52
564.304	1643.3
564.666	1668.39
565.028	1666.35
565.39	1672.91
565.753	1671.55
566.115	1653.7
566.477	1679.24
566.839	1693.7
567.201	1672.46
567.563	1680.82
567.925	1708.61
568.287	1666.35
568.648	1696.64
569.01	1681.72
569.372	1723.75
569.734	1718.56
570.095	1693.25
570.457	1687.14
570.819	1706.81
571.18	1728.05
571.542	1710.42
571.903	1728.05
572.265	1724.43
572.626	1756.75
572.987	1738.67
573.349	1742.51
573.71	1711.55
574.071	1770.31
574.432	1739.12
574.794	1749.52
575.155	1741.15
575.516	1771.89
575.877	1716.07
576.238	1698.22
576.599	1790.19
576.96	1771.89
577.32	1729.18
577.681	1755.17
578.042	1747.03
578.403	1757.2
578.763	1773.02
579.124	1759.91
579.485	1771.44
579.845	1773.47
580.206	1805.11
580.566	1756.97
580.927	1779.12
581.287	1751.78
581.648	1760.36
582.008	1796.52
582.368	1773.7
582.728	1784.32
583.089	1759.23
583.449	1783.64
583.809	1774.83
584.169	1780.25
584.529	1766.01
584.889	1804.88
585.249	1777.76
585.609	1770.53
585.969	1796.52
586.329	1791.1
586.688	1811.21
587.048	1774.15
587.408	1819.34
587.768	1792.45
588.127	1810.53
588.487	1778.89
588.846	1778.22
589.206	1806.01
589.565	1796.75
589.925	1787.71
590.284	1813.47
590.643	1776.63
591.003	1795.39
591.362	1804.66
591.721	1787.48
592.08	1794.94
592.44	1781.61
592.799	1801.27
593.158	1849.17
593.517	1817.76
593.876	1795.39
594.235	1799.46
594.593	1797.88
594.952	1813.47
595.311	1792.23
595.67	1796.29
596.029	1830.19
596.387	1847.37
596.746	1837.42
597.104	1828.16
597.463	1816.18
597.822	1823.19
598.18	1795.39
598.538	1822.06
598.897	1845.33
599.255	1815.73
599.613	1805.56
599.972	1847.59
600.33	1834.03
600.688	1809.4
601.046	1834.03
601.404	1812.79
601.762	1810.53
602.12	1848.04
602.478	1858.89
602.836	1839.46
603.194	1851.21
603.552	1844.2
603.91	1839.91
604.268	1830.42
604.625	1857.08
604.983	1830.64
605.341	1836.75
605.698	1875.84
606.056	1845.56
606.413	1849.4
606.771	1852.56
607.128	1848.04
607.485	1842.85
607.843	1860.25
608.2	1848.72
608.557	1859.57
608.914	1878.33
609.272	1869.29
609.629	1884.88
609.986	1871.09
610.343	1906.8
610.7	1883.75
611.057	1878.33
611.414	1882.17
611.771	1900.47
612.127	1892.79
612.484	1871.32
612.841	1901.15
613.198	1905.9
613.554	1870.42
613.911	1906.8
614.267	1932.56
614.624	1925.1
614.98	1931.43
615.337	1917.87
615.693	1888.72
616.05	1948.61
616.406	1900.02
616.762	1917.65
617.118	1922.84
617.475	1922.62
617.831	1933.92
618.187	1916.74
618.543	1930.53
618.899	1933.01
619.255	1935.5
619.611	1941.6
619.967	1932.11
620.323	1964.65
620.678	1946.35
621.034	1969.17
621.39	1969.17
621.746	1944.54
622.101	1952.9
622.457	1966.91
622.812	1965.33
623.168	1985.22
623.523	1977.53
623.879	2011.2
624.234	1955.39
624.589	1970.53
624.945	1977.76
625.3	1990.41
625.655	1993.13
626.01	1969.85
626.365	2022.28
626.72	2003.52
627.075	2010.98
627.43	2024.54
627.785	2005.33
628.14	1993.8
628.495	1975.72
628.85	1985.89
629.205	2001.71
629.559	2024.31
629.914	2002.62
630.269	2014.37
630.623	2023.41
630.978	1988.38
631.332	2020.02
631.687	2018.21
632.041	2022.05
632.396	2041.71
632.75	2019.34
633.104	2027.25
633.459	2031.09
633.813	2027.25
634.167	2039.9
634.521	2044.2
634.875	2027.02
635.229	2037.87
635.583	2061.37
635.937	2051.88
636.291	2052.33
636.645	2015.27
636.999	2053.01
637.352	2056.63
637.706	2046.01
638.06	2062.28
638.413	2099.34
638.767	2051.66
639.121	2088.72
639.474	2077.42
639.828	2080.13
640.181	2101.6
640.534	2103.18
640.888	2072.9
641.241	2095.5
641.594	2107.25
641.947	2123.74
642.301	2107.47
642.654	2131.65
643.007	2128.94
643.36	2081.71
643.713	2130.52
644.066	2169.39
644.419	2144.99
644.771	2150.64
645.124	2119
645.477	2123.74
645.83	2124.87
646.182	2147.47
646.535	2122.61
646.888	2125.33
647.24	2106.34
647.593	2156.29
647.945	2163.74
648.298	2119.22
648.65	2177.53
649.002	2179.56
649.355	2166.23
649.707	2146.57
650.059	2181.37
650.411	2248.94
650.763	2207.58
651.115	2262.5
651.467	2260.92
651.819	2281.71
652.171	2296.39
652.523	2281.25
652.875	2265.43
653.227	2293.68
653.578	2292.78
653.93	2327.58
654.282	2324.64
654.633	2342.95
654.985	2315.38
655.337	2336.39
655.688	2323.51
656.039	2365.77
656.391	2362.83
656.742	2353.79
657.094	2401.25
657.445	2424.07
657.796	2404.87
658.147	2396.73
658.498	2394.92
658.849	2435.83
659.2	2459.33
659.551	2441.93
659.902	2445.09
660.253	2485.77
660.604	2475.82
660.955	2487.12
661.306	2490.06
661.656	2519.89
662.007	2560.12
662.358	2501.13
662.708	2526.9
663.059	2513.34
663.409	2543.17
663.76	2545.2
664.11	2548.82
664.461	2596.95
664.811	2629.72
665.161	2611.19
665.511	2578.87
665.862	2626.33
666.212	2607.12
666.562	2657.29
666.912	2680.79
667.262	2658.87
667.612	2674.92
667.962	2681.7
668.312	2686.89
668.662	2699.1
669.011	2697.97
669.361	2732.77
669.711	2740.9
670.06	2746.78
670.41	2753.56
670.76	2750.39
671.109	2795.82
671.459	2780.22
671.808	2793.33
672.157	2771.86
672.507	2772.77
672.856	2809.83
673.205	2821.58
673.554	2859.32
673.904	2828.81
674.253	2857.51
674.602	2842.59
674.951	2847.57
675.3	2808.47
675.649	2882.59
675.998	2916.49
676.346	2903.16
676.695	2894.8
677.044	2945.64
677.393	2939.32
677.741	2929.6
678.09	2917.85
678.438	2954.46
678.787	2965.98
679.135	2954
679.484	2979.31
679.832	3009.14
680.181	2972.31
680.529	2985.87
680.877	3001.91
681.225	2969.15
681.573	3046.66
681.922	3040.1
682.27	3052.08
682.618	3087.56
682.966	3043.27
683.314	3065.87
683.661	3064.06
684.009	3039.65
684.357	3068.35
684.705	3094.79
685.053	3101.8
685.4	3120.78
685.748	3042.36
686.095	3094.34
686.443	3098.41
686.79	3119.42
687.138	3056.15
687.485	3111.51
687.832	3078.97
688.18	3143.15
688.527	3075.58
688.874	3156.48
689.221	3109.71
689.568	3124.62
689.915	3155.35
690.262	3157.61
690.609	3156.94
690.956	3166.65
691.303	3159.65
691.65	3145.64
691.997	3117.39
692.344	3136.15
692.69	3130.5
693.037	3123.94
693.383	3099.99
693.73	3134.56
694.077	3151.74
694.423	3100.67
694.769	3114.23
695.116	3151.06
695.462	3130.5
695.808	3079.42
696.155	3146.32
696.501	3096.6
696.847	3131.17
697.193	3056.37
697.539	3156.26
697.885	3118.97
698.231	3082.14
698.577	3060.22
698.923	3055.02
699.269	3072.87
699.614	3103.15
699.96	3099.99
700.306	3097.05
700.651	3102.93
700.997	3057.5
701.342	3079.65
701.688	3052.31
702.033	3064.06
702.379	3063.83
702.724	3073.1
703.069	3085.98
703.415	3070.61
703.76	3038.75
704.105	3052.98
704.45	3061.35
704.795	3034.45
705.14	3017.28
705.485	3019.09
705.83	3024.51
706.175	3027.9
706.52	3031.97
706.865	3012.99
707.209	3062.02
707.554	2963.72
707.899	3018.41
708.243	2998.52
708.588	2986.09
708.932	2973.21
709.277	3008.24
709.621	2966.43
709.966	3001.46
710.31	3005.08
710.654	2966.43
710.998	2975.7
711.342	2993.33
711.687	2956.26
712.031	2966.43
712.375	2958.75
712.719	2977.51
713.063	2985.87
713.407	2967.56
713.75	2972.76
714.094	2940.67
714.438	2951.52
714.782	2981.8
715.125	2954.46
715.469	2974.34
715.812	2980.9
716.156	2970.5
716.499	2933.21
716.843	2991.74
717.186	2944.74
717.53	2980.44
717.873	2939.09
718.216	2963.04
718.559	2925.53
718.902	2929.15
719.246	2940.67
719.589	2975.92
719.932	2913.1
720.275	2943.61
720.617	2943.61
720.96	2914.91
721.303	2920.33
721.646	2936.83
721.989	2941.12
722.331	2935.02
722.674	2965.98
723.016	2947.45
723.359	2947.22
723.701	2972.76
724.044	2948.58
724.386	2926.43
724.729	2965.76
725.071	2949.26
725.413	2952.87
725.755	2960.56
726.097	3001.69
726.439	2912.88
726.782	2953.33
727.124	2933.89
727.465	2952.87
727.807	2921.69
728.149	2954.23
728.491	2969.82
728.833	2998.52
729.175	2956.26
729.516	2914.68
729.858	2943.84
730.199	2971.86
730.541	2958.98
730.882	2917.4
731.224	2946.77
731.565	2981.8
731.906	2983.38
732.248	2995.81
732.589	2984.06
732.93	2970.05
733.271	2994
733.612	2966.66
733.953	2959.2
734.294	2987.45
734.635	2958.98
734.976	2992.2
735.317	2984.74
735.658	2979.31
735.999	2979.54
736.339	3008.24
736.68	3056.37
737.021	3018.18
737.361	3030.84
737.702	3006.21
738.042	3010.5
738.383	3030.61
738.723	3052.76
739.063	3020.67
739.404	3039.43
739.744	3039.2
740.084	3067.45
740.424	3080.33
740.764	3067.9
741.104	3114.23
741.444	3089.14
741.784	3102.02
742.124	3141.57
742.464	3100.89
742.804	3143.38
743.143	3106.77
743.483	3160.55
743.823	3181.34
744.162	3172.08
744.502	3172.98
744.841	3103.6
745.181	3204.85
745.52	3198.52
745.86	3195.13
746.199	3226.09
746.538	3246.2
746.877	3255.24
747.216	3274.45
747.556	3269.7
747.895	3281.45
748.234	3285.97
748.573	3348.8
748.911	3336.14
749.25	3308.12
749.589	3333.88
749.928	3370.72
750.267	3384.05
750.605	3396.93
750.944	3440.77
751.283	3430.83
751.621	3472.63
751.96	3463.6
752.298	3456.14
752.636	3516.48
752.975	3516.48
753.313	3538.17
753.651	3575.46
753.989	3563.93
754.327	3574.55
754.666	3548.79
755.004	3619.75
755.342	3710.59
755.679	3675.12
756.017	3695.23
756.355	3692.97
756.693	3691.16
757.031	3718.28
757.368	3744.27
757.706	3746.3
758.044	3810.25
758.381	3792.85
758.719	3779.52
759.056	3850.48
759.394	3821.1
759.731	3843.92
760.068	3889.12
760.405	3883.7
760.743	3842.34
761.08	3897.93
761.417	3934.32
761.754	3914.66
762.091	3933.87
762.428	3943.13
762.765	3939.74
763.102	3941.77
763.438	3961.89
763.775	3960.08
764.112	3959.4
764.449	3989.91
764.785	4026.29
765.122	4020.64
765.458	4018.61
765.795	3981.55
766.131	4013.19
766.467	4025.16
766.804	4029
767.14	3996.01
767.476	4034.88
767.812	4021.77
768.148	4053.41
768.485	4065.61
768.821	4024.26
769.157	4097.48
769.492	4054.31
769.828	4045.27
770.164	3992.85
770.5	4031.26
770.836	4059.29
771.171	4030.59
771.507	4022.9
771.842	3974.09
772.178	3983.81
