Data from blue_chair_FLMS001491_00022.txt Node
Date: Wed Feb 08 10:30:03 GMT 2017
User: dcchb
Spectrometer: FLMS00149
Trigger mode: 0
Integration Time (sec): 2.000000E-2
Scans to average: 10
Electric dark correction enabled: true
Nonlinearity correction enabled: false
Boxcar width: 0
XAxis mode: Wavelengths
Number of Pixels in Spectrum: 2048
>>>>>Begin Spectral Data<<<<<
341.393	-13.28
341.776	-13.28
342.16	-13.28
342.543	-48.3
342.927	-82.2
343.31	-67.29
343.693	-70
344.077	-41.98
344.46	-68.64
344.843	-46.72
345.226	-54.41
345.61	-34.97
345.993	-12.37
346.376	-2.66
346.759	13.84
347.142	17.91
347.525	37.8
347.908	61.98
348.291	84.35
348.674	79.6
349.057	103.56
349.44	120.51
349.823	156.21
350.206	164.12
350.588	192.37
350.971	190.56
351.354	224.68
351.737	218.81
352.119	233.27
352.502	234.17
352.884	258.58
353.267	275.08
353.65	271.01
354.032	277.34
354.414	292.03
354.797	282.76
355.179	284.34
355.562	313.27
355.944	298.58
356.326	315.3
356.709	310.1
357.091	314.85
357.473	306.49
357.855	309.2
358.238	331.12
358.62	325.02
359.002	321.4
359.384	326.83
359.766	322.76
360.148	320.73
360.53	320.27
360.912	322.76
361.294	310.56
361.676	308.97
362.057	336.09
362.439	303.1
362.821	311.69
363.203	324.57
363.584	285.92
363.966	315.53
364.348	290.22
364.729	296.77
365.111	308.3
365.493	307.85
365.874	281.86
366.256	291.12
366.637	293.83
367.019	282.08
367.4	283.89
367.781	291.8
368.163	305.13
368.544	283.21
368.925	273.27
369.306	284.79
369.688	285.92
370.069	277.56
370.45	313.04
370.831	314.85
371.212	286.6
371.593	291.8
371.974	291.57
372.355	274.63
372.736	316.43
373.117	298.35
373.498	272.14
373.879	279.82
374.26	294.29
374.641	273.5
375.021	275.3
375.402	286.38
375.783	276.66
376.163	293.16
376.544	300.16
376.925	298.13
377.305	296.09
377.686	302.87
378.066	304.23
378.447	299.48
378.827	300.84
379.208	289.31
379.588	304.23
379.968	303.33
380.349	296.77
380.729	305.81
381.109	302.65
381.489	306.94
381.87	286.38
382.25	311.46
382.63	304.68
383.01	319.14
383.39	303.78
383.77	301.74
384.15	313.72
384.53	308.07
384.91	313.49
385.29	305.81
385.67	307.62
386.049	308.75
386.429	294.06
386.809	322.08
387.189	306.72
387.568	308.3
387.948	313.04
388.328	326.6
388.707	314.4
389.087	329.31
389.466	322.53
389.846	325.7
390.225	311.91
390.605	336.09
390.984	311.46
391.363	344.68
391.743	350.78
392.122	350.1
392.501	353.95
392.881	350.56
393.26	333.16
393.639	333.83
394.018	347.17
394.397	342.42
394.776	362.53
395.155	371.12
395.534	346.94
395.913	365.92
396.292	344.45
396.671	347.17
397.05	366.83
397.429	358.01
397.808	362.53
398.186	361.63
398.565	363.66
398.944	378.8
399.323	370.89
399.701	380.84
400.08	374.06
400.458	373.15
400.837	377.22
401.215	377.22
401.594	370.44
401.972	390.78
402.351	397.11
402.729	398.46
403.107	389.42
403.486	391.46
403.864	403.66
404.242	392.59
404.62	402.76
404.999	389.42
405.377	389.65
405.755	376.09
406.133	396.43
406.511	419.25
406.889	410.22
407.267	421.74
407.645	420.16
408.023	412.25
408.401	416.09
408.779	425.36
409.156	442.53
409.534	439.82
409.912	430.78
410.29	468.29
410.667	443.89
411.045	452.02
411.422	446.15
411.8	435.98
412.178	478.46
412.555	461.97
412.933	465.58
413.31	467.16
413.687	471.23
414.065	483.21
414.442	470.33
414.819	490.21
415.197	483.43
415.574	473.26
415.951	502.64
416.328	491.57
416.705	493.38
417.082	522.75
417.46	498.57
417.837	493.83
418.214	518.46
418.591	511.68
418.967	502.64
419.344	517.56
419.721	511.23
420.098	511
420.475	542.19
420.852	521.62
421.228	515.07
421.605	526.14
421.982	535.41
422.358	535.18
422.735	514.85
423.111	532.47
423.488	567.05
423.864	546.71
424.241	569.76
424.617	585.8
424.994	573.37
425.37	584.67
425.746	579.25
426.123	595.3
426.499	586.03
426.875	597.55
427.251	604.56
427.627	593.04
428.003	624.22
428.379	633.03
428.756	635.75
429.132	625.12
429.507	633.71
429.883	647.95
430.259	665.58
430.635	648.85
431.011	650.89
431.387	680.94
431.763	692.24
432.138	680.04
432.514	689.53
432.89	727.04
433.265	704.22
433.641	720.04
434.016	720.26
434.392	732.01
434.767	764.33
435.143	745.57
435.518	764.1
435.894	791.67
436.269	783.31
436.644	787.38
437.02	805.23
437.395	824.44
437.77	802.97
438.145	831.22
438.52	831.45
438.895	845.01
439.271	834.61
439.646	856.98
440.021	888.62
440.395	880.71
440.77	870.54
441.145	894.5
441.52	914.61
441.895	925.91
442.27	935.63
442.645	904.67
443.019	915.74
443.394	948.28
443.769	939.69
444.143	940.37
444.518	970.65
444.892	983.31
445.267	992.57
445.641	967.26
446.016	986.02
446.39	987.83
446.764	1009.52
447.139	1009.3
447.513	989.18
447.887	1020.82
448.262	1023.08
448.636	1010.65
449.01	1059.92
449.384	1066.7
449.758	1041.84
450.132	1061.05
450.506	1057.66
450.88	1095.62
451.254	1083.64
451.628	1101.5
452.002	1126.13
452.376	1126.13
452.75	1112.12
453.123	1101.27
453.497	1139.69
453.871	1150.53
454.244	1166.58
454.618	1180.36
454.992	1207.48
455.365	1175.84
455.739	1222.17
456.112	1193.7
456.486	1207.48
456.859	1222.85
457.232	1221.49
457.606	1234.15
457.979	1253.81
458.352	1311.89
458.725	1280.93
459.099	1308.5
459.472	1302.17
459.845	1322.96
460.218	1346.24
460.591	1350.08
460.964	1338.1
461.337	1404.77
461.71	1366.8
462.083	1369.96
462.456	1403.18
462.829	1403.41
463.201	1452.67
463.574	1455.16
463.947	1441.6
464.32	1469.17
464.692	1466.68
465.065	1461.04
465.438	1516.17
465.81	1506.46
466.183	1550.52
466.555	1559.79
466.928	1596.62
467.3	1576.06
467.672	1579.9
468.045	1609.96
468.417	1589.85
468.789	1634.82
469.161	1616.51
469.534	1645.89
469.906	1687.24
470.278	1695.61
470.65	1691.99
471.022	1719.33
471.394	1766.79
471.766	1736.96
472.138	1759.33
472.51	1815.83
472.882	1810.4
473.253	1811.99
473.625	1854.47
473.997	1884.3
474.369	1894.7
474.74	1890.4
475.112	1935.6
475.484	1960.91
475.855	1941.02
476.227	1951.87
476.598	2010.63
476.97	2002.49
477.341	2089.27
477.713	2103.05
478.084	2100.34
478.455	2117.51
478.827	2158.19
479.198	2169.49
479.569	2182.82
479.94	2223.95
480.311	2235.25
480.682	2265.99
481.053	2332.88
481.424	2337.4
481.795	2304.85
482.166	2303.95
482.537	2331.29
482.908	2384.85
483.279	2415.13
483.65	2454
484.021	2503.04
484.391	2458.3
484.762	2484.06
485.133	2495.36
485.503	2496.71
485.874	2541.23
486.244	2524.51
486.615	2626.2
486.985	2591.63
487.356	2646.31
487.726	2630.72
488.097	2653.32
488.467	2636.6
488.837	2693.32
489.207	2690.61
489.578	2731.74
489.948	2757.05
490.318	2766.54
490.688	2731.96
491.058	2729.93
491.428	2785.52
491.798	2807.89
492.168	2808.8
492.538	2846.31
492.908	2839.98
493.278	2852.86
493.648	2847.44
494.017	2839.98
494.387	2852.18
494.757	2881.11
495.126	2880.66
495.496	2918.17
495.866	2901.22
496.235	2949.81
496.605	2938.51
496.974	2891.05
497.344	2938.96
497.713	2929.92
498.082	2908.45
498.452	2926.53
498.821	2904.16
499.19	2900.77
499.559	2897.16
499.928	2946.42
500.298	2947.1
500.667	2916.82
501.036	2884.05
501.405	2931.28
501.774	2907.78
502.143	2946.87
502.512	2926.31
502.88	2921.79
503.249	2912.52
503.618	2903.48
503.987	2923.14
504.356	2926.99
504.724	2945.52
505.093	2930.37
505.462	2899.42
505.83	2911.17
506.199	2911.39
506.567	2928.12
506.936	2945.52
507.304	2934.22
507.672	2949.13
508.041	2912.3
508.409	2933.54
508.777	2937.61
509.145	2911.17
509.514	2917.95
509.882	2899.87
510.25	2912.52
510.618	2917.95
510.986	2887.66
511.354	2930.15
511.722	2900.55
512.09	2952.75
512.458	2869.59
512.826	2901.22
513.193	2900.32
513.561	2893.54
513.929	2878.17
514.297	2896.7
514.664	2910.04
515.032	2912.52
515.4	2885.18
515.767	2897.38
516.135	2886.08
516.502	2847.21
516.869	2865.74
517.237	2891.96
517.604	2824.16
517.972	2879.3
518.339	2818.97
518.706	2804.05
519.073	2788.23
519.44	2801.34
519.808	2809.25
520.175	2821.68
520.542	2831.62
520.909	2839.53
521.276	2833.43
521.643	2795.46
522.009	2811.28
522.376	2820.32
522.743	2806.08
523.11	2812.64
523.477	2781.68
523.843	2814.9
524.21	2840.89
524.577	2823.49
524.943	2843.82
525.31	2790.04
525.676	2804.95
526.043	2800.89
526.409	2802.02
526.776	2839.98
527.142	2807.89
527.508	2849.25
527.874	2855.35
528.241	2830.72
528.607	2842.92
528.973	2828.91
529.339	2828.46
529.705	2859.19
530.071	2864.84
530.437	2833.88
530.803	2864.84
531.169	2844.28
531.535	2797.05
531.901	2845.41
532.267	2881.11
532.632	2876.59
532.998	2868.68
533.364	2879.75
533.73	2822.13
534.095	2849.7
534.461	2877.49
534.826	2882.01
535.192	2866.2
535.557	2887.89
535.923	2864.16
536.288	2878.85
536.653	2873.2
537.019	2888.34
537.384	2902.58
537.749	2861.45
538.114	2883.82
538.479	2867.78
538.845	2831.39
539.21	2884.73
539.575	2808.34
539.94	2890.38
540.305	2862.58
540.67	2848.8
541.034	2828.68
541.399	2853.77
541.764	2863.94
542.129	2863.26
542.494	2890.83
542.858	2839.08
543.223	2866.2
543.587	2869.59
543.952	2825.52
544.316	2823.49
544.681	2844.05
545.045	2854.9
545.41	2841.79
545.774	2811.28
546.138	2848.34
546.503	2862.35
546.867	2829.13
547.231	2846.08
547.595	2835.01
547.959	2834.11
548.324	2783.71
548.688	2824.16
549.052	2823.26
549.416	2841.79
549.779	2833.2
550.143	2830.94
550.507	2801.79
550.871	2829.81
551.235	2846.76
551.599	2817.61
551.962	2789.14
552.326	2790.27
552.689	2803.37
553.053	2799.53
553.417	2790.72
553.78	2796.59
554.143	2787.55
554.507	2763.15
554.87	2764.5
555.234	2832.98
555.597	2768.57
555.96	2816.25
556.323	2799.98
556.686	2781
557.05	2808.12
557.413	2760.44
557.776	2783.71
558.139	2786.42
558.502	2780.32
558.865	2798.85
559.228	2811.73
559.59	2839.76
559.953	2816.25
560.316	2819.42
560.679	2823.26
561.041	2853.31
561.404	2794.11
561.767	2839.76
562.129	2831.85
562.492	2858.29
562.854	2836.59
563.217	2870.26
563.579	2854.22
563.941	2878.85
564.304	2815.8
564.666	2858.06
565.028	2908
565.39	2848.12
565.753	2865.97
566.115	2825.29
566.477	2876.37
566.839	2913.2
567.201	2917.04
567.563	2904.61
567.925	2910.94
568.287	2914.33
568.648	2956.14
569.01	2928.79
569.372	2933.31
569.734	2937.61
570.095	2923.14
570.457	2947.78
570.819	2955.91
571.18	2917.49
571.542	2955.46
571.903	2983.71
572.265	2990.49
572.626	3005.4
572.987	3018.51
573.349	3006.76
573.71	3028
574.071	3036.36
574.432	3044.72
574.794	3075.91
575.155	3085.17
575.516	3074.55
575.877	3122.69
576.238	3070.26
576.599	3075.68
576.96	3040.65
577.32	3092.86
577.681	3066.19
578.042	3083.59
578.403	3123.59
578.763	3102.12
579.124	3099.41
579.485	3132.63
579.845	3176.7
580.206	3139.18
580.566	3150.48
580.927	3153.87
581.287	3167.43
581.648	3140.31
582.008	3185.28
582.368	3172.4
582.728	3185.96
583.089	3180.54
583.449	3202.23
583.809	3190.26
584.169	3179.18
584.529	3243.59
584.889	3236.36
585.249	3221.21
585.609	3177.37
585.969	3195
586.329	3234.77
586.688	3224.15
587.048	3193.64
587.408	3202.68
587.768	3215.34
588.127	3213.98
588.487	3197.03
588.846	3267.99
589.206	3195.23
589.565	3270.25
589.925	3243.59
590.284	3223.02
590.643	3216.24
591.003	3211.05
591.362	3228.45
591.721	3264.83
592.08	3209.46
592.44	3269.8
592.799	3223.47
593.158	3227.54
593.517	3217.82
593.876	3217.37
594.235	3227.09
594.593	3249.46
594.952	3254.66
595.311	3221.21
595.67	3217.37
596.029	3242.01
596.387	3246.75
596.746	3256.24
597.104	3220.99
597.463	3227.09
597.822	3256.02
598.18	3241.78
598.538	3244.49
598.897	3232.06
599.255	3240.65
599.613	3285.62
599.972	3269.8
600.33	3199.29
600.688	3271.61
601.046	3266.86
601.404	3251.5
601.762	3230.93
602.12	3290.82
602.478	3229.35
602.836	3276.58
603.194	3244.26
603.552	3233.42
603.91	3254.66
604.268	3255.79
604.625	3234.32
604.983	3252.17
605.341	3248.56
605.698	3249.01
606.056	3245.62
606.413	3264.83
606.771	3269.12
607.128	3298.27
607.485	3256.47
607.843	3244.94
608.2	3250.37
608.557	3277.71
608.914	3260.76
609.272	3290.59
609.629	3268.67
609.986	3257.37
610.343	3263.7
610.7	3305.28
611.057	3301.66
611.414	3270.93
611.771	3282.91
612.127	3298.73
612.484	3304.38
612.841	3300.53
613.198	3327.88
613.554	3299.18
613.911	3343.47
614.267	3308.44
614.624	3302.34
614.98	3342.12
615.337	3320.87
615.693	3336.69
616.05	3265.51
616.406	3361.32
616.762	3320.65
617.118	3318.39
617.475	3315.68
617.831	3317.26
618.187	3352.06
618.543	3314.77
618.899	3375.33
619.255	3322.91
619.611	3323.13
619.967	3335.79
620.323	3347.31
620.678	3341.44
621.034	3320.42
621.39	3334.43
621.746	3308.44
622.101	3329.69
622.457	3338.27
622.812	3355
623.168	3352.51
623.523	3371.72
623.879	3343.92
624.234	3322.23
624.589	3381.44
624.945	3354.09
625.3	3383.47
625.655	3351.15
626.01	3352.96
626.365	3363.13
626.72	3380.98
627.075	3384.6
627.43	3360.19
627.785	3374.66
628.14	3412.4
628.495	3307.31
628.85	3387.99
629.205	3370.59
629.559	3340.53
629.914	3372.4
630.269	3390.93
630.623	3353.64
630.978	3357.48
631.332	3372.17
631.687	3362.91
632.041	3376.69
632.396	3379.18
632.75	3338.05
633.104	3338.05
633.459	3349.57
633.813	3358.39
634.167	3359.52
634.521	3373.53
634.875	3418.72
635.229	3407.2
635.583	3374.43
635.937	3367.88
636.291	3414.66
636.645	3384.15
636.999	3332.17
637.352	3363.81
637.706	3352.06
638.06	3352.28
638.413	3367.2
638.767	3339.18
639.121	3376.92
639.474	3329.46
639.828	3371.04
640.181	3378.72
640.534	3358.61
640.888	3381.89
641.241	3336.24
641.594	3345.51
641.947	3377.37
642.301	3330.14
642.654	3351.15
643.007	3344.83
643.36	3347.77
643.713	3340.76
644.066	3371.04
644.419	3347.54
644.771	3371.27
645.124	3340.31
645.477	3342.34
645.83	3336.69
646.182	3316.35
646.535	3318.61
646.888	3296.47
647.24	3295.11
647.593	3309.57
647.945	3294.89
648.298	3292.4
648.65	3318.39
649.002	3278.16
649.355	3325.17
649.707	3292.63
650.059	3323.13
650.411	3355.67
650.763	3391.61
651.115	3371.72
651.467	3415.56
651.819	3422.79
652.171	3472.28
652.523	3408.1
652.875	3415.11
653.227	3432.51
653.578	3437.03
653.93	3446.29
654.282	3437.03
654.633	3402.45
654.985	3457.59
655.337	3438.61
655.688	3420.76
656.039	3426.86
656.391	3418.5
656.742	3442.23
657.094	3465.05
657.445	3511.83
657.796	3468.67
658.147	3497.14
658.498	3529.46
658.849	3512.05
659.2	3465.05
659.551	3511.83
659.902	3478.61
660.253	3521.09
660.604	3503.24
660.955	3493.3
661.306	3506.86
661.656	3510.92
662.007	3516.35
662.358	3518.38
662.708	3531.26
663.059	3544.14
663.409	3515.22
663.76	3561.09
664.11	3530.59
664.461	3545.5
664.811	3528.78
665.161	3493.07
665.511	3507.53
665.862	3510.92
666.212	3508.66
666.562	3543.47
666.912	3557.03
667.262	3511.83
667.612	3517.7
667.962	3532.62
668.312	3514.99
668.662	3554.54
669.011	3541.43
669.361	3491.49
669.711	3522.68
670.06	3481.77
670.41	3508.21
670.76	3506.63
671.109	3507.76
671.459	3484.26
671.808	3465.28
672.157	3511.38
672.507	3512.51
672.856	3449.46
673.205	3387.99
673.554	3498.04
673.904	3510.25
674.253	3500.3
674.602	3459.4
674.951	3472.06
675.3	3415.56
675.649	3477.03
675.998	3446.75
676.346	3470.02
676.695	3485.84
677.044	3402.45
677.393	3446.97
677.741	3434.99
678.09	3406.97
678.438	3398.61
678.787	3411.72
679.135	3408.33
679.484	3349.35
679.832	3347.77
680.181	3347.99
680.529	3364.49
680.877	3355
681.225	3318.84
681.573	3351.61
681.922	3338.5
682.27	3328.1
682.618	3360.65
682.966	3327.2
683.314	3301.21
683.661	3314.77
684.009	3343.02
684.357	3245.85
684.705	3279.52
685.053	3295.34
685.4	3220.99
685.748	3251.04
686.095	3256.02
686.443	3257.6
686.79	3244.26
687.138	3217.15
687.485	3246.3
687.832	3236.81
688.18	3192.97
688.527	3215.34
688.874	3209.24
689.221	3226.86
689.568	3176.7
689.915	3159.97
690.262	3153.87
690.609	3120.43
690.956	3099.41
691.303	3089.92
691.65	3102.35
691.997	3111.61
692.344	3060.77
692.69	3050.15
693.037	3070.26
693.383	3049.92
693.73	3032.29
694.077	3033.2
694.423	3029.13
694.769	3011.95
695.116	3028.23
695.462	2996.36
695.808	3022.12
696.155	2989.58
696.501	2959.07
696.847	2940.54
697.193	2973.31
697.539	2953.2
697.885	2930.83
698.231	2915.91
698.577	2933.76
698.923	2916.36
699.269	2868.68
699.614	2943.71
699.96	2875.69
700.306	2886.53
700.651	2855.8
700.997	2854.67
701.342	2858.96
701.688	2849.25
702.033	2856.48
702.379	2888.57
702.724	2860.09
703.069	2863.03
703.415	2815.58
703.76	2853.54
704.105	2847.21
704.45	2852.64
704.795	2788.68
705.14	2833.88
705.485	2774.9
705.83	2788.68
706.175	2776.03
706.52	2785.52
706.865	2779.42
707.209	2791.4
707.554	2784.62
707.899	2782.13
708.243	2793.43
708.588	2783.49
708.932	2791.85
709.277	2783.03
709.621	2795.01
709.966	2772.64
710.31	2813.09
710.654	2769.02
710.998	2809.25
711.342	2750.04
711.687	2764.28
712.031	2783.26
712.375	2759.98
712.719	2765.41
713.063	2755.24
713.407	2795.46
713.75	2801.34
714.094	2756.37
714.438	2774.9
714.782	2762.47
715.125	2764.73
715.469	2768.35
715.812	2795.24
716.156	2782.58
716.499	2804.28
716.843	2790.94
717.186	2807.44
717.53	2812.41
717.873	2790.72
718.216	2790.72
718.559	2802.69
718.902	2825.07
719.246	2825.07
719.589	2806.99
719.932	2817.16
720.275	2806.54
720.617	2802.24
720.96	2823.26
721.303	2843.15
721.646	2840.89
721.989	2853.09
722.331	2870.49
722.674	2870.26
723.016	2914.56
723.359	2872.07
723.701	2873.43
724.044	2897.38
724.386	2899.19
724.729	2918.4
725.071	2903.93
725.413	2900.55
725.755	2924.27
726.097	2952.52
726.439	2964.95
726.782	2911.17
727.124	2931.28
727.465	2952.07
727.807	2976.7
728.149	2983.71
728.491	2973.76
728.833	3007.44
729.175	3029.36
729.516	3015.57
729.858	3052.41
730.199	3035.46
730.541	3038.17
730.882	3075.46
731.224	3096.92
731.565	3111.84
731.906	3096.92
732.248	3088.11
732.589	3134.66
732.93	3140.76
733.271	3149.8
733.612	3117.04
733.953	3135.12
734.294	3181.89
734.635	3225.28
734.976	3205.17
735.317	3211.27
735.658	3217.15
735.999	3253.76
736.339	3251.5
736.68	3311.61
737.021	3316.35
737.361	3344.38
737.702	3307.77
738.042	3381.21
738.383	3398.84
738.723	3416.01
739.063	3447.65
739.404	3458.27
739.744	3469.57
740.084	3489.46
740.424	3485.16
740.764	3541.88
741.104	3590.47
741.444	3583.01
741.784	3587.31
742.124	3676.57
742.464	3693.07
742.804	3719.28
743.143	3731.03
743.483	3764.7
743.823	3805.61
744.162	3856.23
744.502	3874.08
744.841	3887.64
745.181	3978.03
745.52	4027.3
745.86	4035.43
746.199	4098.71
746.538	4144.58
746.877	4206.73
747.216	4285.82
747.556	4282.2
747.895	4322.43
748.234	4380.51
748.573	4405.59
748.911	4420.05
749.25	4498.7
749.589	4527.62
749.928	4651.01
750.267	4724
750.605	4701.63
750.944	4813.26
751.283	4873.15
751.621	4932.36
751.96	4985.24
752.298	5086.25
752.636	5126.48
752.975	5212.12
753.313	5256.87
753.651	5355.4
753.989	5320.37
754.327	5434.49
754.666	5549.29
755.004	5606.91
755.342	5688.49
755.679	5714.03
756.017	5836.74
756.355	5939.34
756.693	5967.13
757.031	6069.95
757.368	6088.94
757.706	6188.59
758.044	6229.05
758.381	6366.89
758.719	6418.87
759.056	6474.24
759.394	6564.63
759.731	6609.37
760.068	6719.65
760.405	6755.59
760.743	6846.2
761.08	6922.13
761.417	6968.69
761.754	7047.55
762.091	7083.26
762.428	7221.56
762.765	7224.73
763.102	7308.56
763.438	7332.07
763.775	7382.46
764.112	7473.76
764.449	7557.37
764.785	7577.71
765.122	7631.04
765.458	7698.39
765.795	7758.5
766.131	7768.21
766.467	7850.02
766.804	7913.75
767.14	7893.41
767.476	7971.82
767.812	8065.16
768.148	8048.21
768.485	8140.86
768.821	8186.28
769.157	8203.91
769.492	8229.22
769.828	8300.63
770.164	8290.46
