Data from blue_clamp_base_FLMS001491_00009.txt Node
Date: Wed Feb 08 15:15:29 GMT 2017
User: dcchb
Spectrometer: FLMS00149
Trigger mode: 0
Integration Time (sec): 2.000000E-2
Scans to average: 10
Electric dark correction enabled: true
Nonlinearity correction enabled: false
Boxcar width: 0
XAxis mode: Wavelengths
Number of Pixels in Spectrum: 2048
>>>>>Begin Spectral Data<<<<<
341.393	-23.87
341.776	-23.87
342.16	-23.87
342.543	-50.31
342.927	-66.13
343.31	-65.9
343.693	-83.98
344.077	-66.58
344.46	-46.69
344.843	-49.86
345.226	-39.24
345.61	-19.58
345.993	-27.49
346.376	-13.7
346.759	2.57
347.142	23.13
347.525	55.68
347.908	62
348.291	70.14
348.674	100.65
349.057	98.84
349.44	118.73
349.823	134.32
350.206	153.98
350.588	207.54
350.971	206.41
351.354	213.41
351.737	228.33
352.119	253.41
352.502	257.25
352.884	270.13
353.267	282.34
353.65	291.83
354.032	306.97
354.414	306.29
354.797	327.08
355.179	313.3
355.562	313.75
355.944	304.48
356.326	327.08
356.709	339.06
357.091	337.48
357.473	332.96
357.855	340.19
358.238	335.22
358.62	339.96
359.002	327.08
359.384	344.26
359.766	353.3
360.148	336.35
360.53	336.35
360.912	309.23
361.294	313.07
361.676	303.81
362.057	321.66
362.439	327.08
362.821	328.21
363.203	306.52
363.584	312.84
363.966	319.4
364.348	299.74
364.729	309
365.111	313.75
365.493	315.56
365.874	306.07
366.256	322.11
366.637	297.03
367.019	330.25
367.4	330.47
367.781	302.9
368.163	336.57
368.544	304.48
368.925	315.33
369.306	317.59
369.688	309.91
370.069	305.61
370.45	319.4
370.831	320.08
371.212	319.62
371.593	299.06
371.974	305.84
372.355	319.4
372.736	321.88
373.117	309.91
373.498	310.81
373.879	309.68
374.26	327.08
374.641	310.81
375.021	323.24
375.402	308.1
375.783	329.79
376.163	325.5
376.544	322.79
376.925	341.09
377.305	352.39
377.686	319.17
378.066	326.86
378.447	338.38
378.827	331.83
379.208	335.67
379.588	325.05
379.968	332.28
380.349	326.63
380.729	327.99
381.109	314.88
381.489	319.62
381.87	340.41
382.25	354.43
382.63	360.75
383.01	351.26
383.39	345.39
383.77	355.33
384.15	351.26
384.53	351.26
384.91	344.71
385.29	359.85
385.67	347.87
386.049	358.04
386.429	373.18
386.809	378.38
387.189	359.4
387.568	364.59
387.948	345.61
388.328	354.88
388.707	386.06
389.087	374.09
389.466	368.66
389.846	378.15
390.225	374.54
390.605	379.96
390.984	374.31
391.363	367.98
391.743	388.32
392.122	364.82
392.501	381.09
392.881	415.89
393.26	405.72
393.639	397.36
394.018	401.2
394.397	409.34
394.776	415.67
395.155	395.78
395.534	421.77
395.913	414.54
396.292	421.09
396.671	419.06
397.05	431.49
397.429	418.6
397.808	430.58
398.186	413.41
398.565	452.05
398.944	419.96
399.323	459.96
399.701	453.63
400.08	471.26
400.458	467.87
400.837	469.22
401.215	484.59
401.594	476.68
401.972	471.94
402.351	480.3
402.729	492.73
403.107	484.82
403.486	509.45
403.864	494.31
404.242	505.16
404.62	498.15
404.999	503.57
405.377	508.77
405.755	525.04
406.133	527.3
406.511	542.44
406.889	529.34
407.267	571.14
407.645	552.84
408.023	554.87
408.401	560.3
408.779	567.98
409.156	585.61
409.534	581.99
409.912	557.13
410.29	591.71
410.667	600.07
411.045	616.34
411.422	584.7
411.8	620.86
412.178	637.58
412.555	619.73
412.933	649.56
413.31	628.54
413.687	658.6
414.065	648.43
414.442	662.89
414.819	678.26
415.197	674.64
415.574	676.23
415.951	690.69
416.328	702.21
416.705	695.66
417.082	711.25
417.46	716
417.837	720.07
418.214	732.72
418.591	736.11
418.967	723.23
419.344	738.6
419.721	747.86
420.098	756.68
420.475	756.22
420.852	735.66
421.228	761.87
421.605	765.26
421.982	755.77
422.358	808.88
422.735	797.8
423.111	820.63
423.488	815.88
423.864	817.46
424.241	830.57
424.617	846.62
424.994	848.88
425.37	852.72
425.746	857.24
426.123	868.31
426.499	886.62
426.875	892.94
427.251	893.17
427.627	921.19
428.003	902.66
428.379	910.8
428.756	954.64
429.132	995.31
429.507	967.97
429.883	981.75
430.259	1010.45
430.635	1000.74
431.011	1034.18
431.387	1022.2
431.763	1094.97
432.138	1060.17
432.514	1062.2
432.89	1096.55
433.265	1101.3
433.641	1098.36
434.016	1133.84
434.392	1145.37
434.767	1158.02
435.143	1162.99
435.518	1189.66
435.894	1165.48
436.269	1204.8
436.644	1227.17
437.02	1227.17
437.395	1242.99
437.77	1245.48
438.145	1304.91
438.52	1292.03
438.895	1304.68
439.271	1306.27
439.646	1327.96
440.021	1334.51
440.395	1348.07
440.77	1344
441.145	1352.14
441.52	1408.86
441.895	1383.55
442.27	1425.81
442.645	1402.31
443.019	1457.22
443.394	1442.98
443.769	1468.07
444.143	1438.47
444.518	1480.95
444.892	1460.39
445.267	1514.85
445.641	1543.32
446.016	1521.63
446.39	1529.08
446.764	1528.86
447.139	1545.81
447.513	1575.18
447.887	1598.46
448.262	1574.73
448.636	1607.5
449.01	1614.73
449.384	1618.12
449.758	1637.78
450.132	1653.6
450.506	1643.88
450.88	1666.71
451.254	1668.74
451.628	1702.64
452.002	1736.76
452.376	1738.12
452.75	1764.56
453.123	1753.71
453.497	1780.83
453.871	1776.76
454.244	1856.99
454.618	1838
454.992	1865.8
455.365	1864.67
455.739	1923.65
456.112	1904.22
456.486	1936.31
456.859	1961.39
457.232	2022.18
457.606	2006.36
457.979	2026.25
458.352	2059.24
458.725	2075.06
459.099	2102.63
459.472	2139.01
459.845	2162.74
460.218	2188.95
460.591	2181.5
460.964	2160.48
461.337	2219.01
461.71	2255.17
462.083	2277.09
462.456	2306.69
462.829	2311.66
463.201	2339.91
463.574	2348.95
463.947	2363.64
464.32	2420.81
464.692	2408.83
465.065	2436.86
465.438	2483.18
465.81	2504.88
466.183	2541.71
466.555	2603.41
466.928	2602.95
467.3	2588.94
467.672	2630.3
468.045	2683.86
468.417	2673.91
468.789	2705.55
469.161	2724.53
469.534	2741.48
469.906	2815.38
470.278	2833.46
470.65	2837.52
471.022	2928.82
471.394	2918.43
471.766	2987.8
472.138	2978.54
472.51	3050.4
472.882	3092.21
473.253	3125.88
473.625	3149.83
473.997	3221.47
474.369	3231.64
474.74	3275.48
475.112	3324.74
475.484	3369.71
475.855	3414.46
476.227	3454.91
476.598	3530.39
476.97	3529.26
477.341	3633.44
477.713	3665.75
478.084	3592.31
478.455	3745.07
478.827	3740.33
479.198	3865.75
479.569	3816.48
479.94	3931.05
480.311	3936.25
480.682	3983.26
481.053	4092.18
481.424	4154.55
481.795	4170.82
482.166	4206.98
482.537	4247.66
482.908	4356.58
483.279	4329.69
483.65	4435.9
484.021	4494.66
484.391	4503.47
484.762	4497.82
485.133	4600.19
485.503	4586.18
485.874	4680.41
486.244	4724.71
486.615	4764.25
486.985	4803.57
487.356	4882.67
487.726	4890.8
488.097	4969.45
488.467	4982.1
488.837	5074.3
489.207	5070.91
489.578	5153.85
489.948	5199.95
490.318	5221.64
490.688	5206.28
491.058	5285.37
491.428	5300.06
491.798	5383.67
492.168	5401.3
492.538	5375.99
492.908	5467.96
493.278	5534.18
493.648	5504.12
494.017	5556.55
494.387	5553.16
494.757	5624.34
495.126	5662.53
495.496	5681.52
495.866	5660.05
496.235	5720.16
496.605	5766.71
496.974	5730.1
497.344	5765.58
497.713	5811.01
498.082	5798.8
498.452	5817.56
498.821	5881.96
499.19	5879.7
499.559	5868.63
499.928	5971.68
500.298	5945.01
500.667	6005.35
501.036	5919.25
501.405	5987.72
501.774	5964.9
502.143	6048.29
502.512	6045.58
502.88	6087.61
503.249	6066.14
503.618	6057.78
503.987	6091.22
504.356	6138.45
504.724	6127.61
505.093	6131.45
505.462	6176.87
505.83	6214.61
506.199	6193.82
506.567	6263.42
506.936	6212.8
507.304	6309.98
507.672	6308.62
508.041	6290.31
508.409	6321.05
508.777	6368.05
509.145	6388.62
509.514	6389.75
509.882	6435.85
510.25	6411.44
510.618	6456.86
510.986	6492.34
511.354	6480.59
511.722	6527.82
512.09	6527.82
512.458	6554.04
512.826	6604.88
513.193	6517.88
513.561	6593.36
513.929	6522.63
514.297	6560.82
514.664	6614.83
515.032	6685.56
515.4	6711.77
515.767	6675.62
516.135	6659.12
516.502	6632.45
516.869	6740.47
517.237	6773.92
517.604	6770.53
517.972	6783.18
518.339	6824.54
518.706	6830.41
519.073	6822.05
519.44	6874.93
519.808	6933.69
520.175	6906.34
520.542	6978.66
520.909	6943.41
521.276	6949.05
521.643	6991.99
522.009	7008.71
522.376	7073.35
522.743	6999.9
523.11	7154.02
523.477	7153.79
523.843	7125.55
524.21	7220.46
524.577	7284.64
524.943	7300.91
525.31	7259.1
525.676	7387.24
526.043	7315.37
526.409	7373
526.776	7478.08
527.142	7438.08
527.508	7443.28
527.874	7483.05
528.241	7490.74
528.607	7525.54
528.973	7558.53
529.339	7550.85
529.705	7605.08
530.071	7708.13
530.437	7668.58
530.803	7746.1
531.169	7717.17
531.535	7694.8
531.901	7715.14
532.267	7759.43
532.632	7838.3
532.998	7808.69
533.364	7843.72
533.73	7827.68
534.095	7946.54
534.461	7864.28
534.826	7963.72
535.192	8001
535.557	8105.86
535.923	8021.57
536.288	8052.08
536.653	8100.66
537.019	8040.1
537.384	8126.42
537.749	8093.43
538.114	8102.47
538.479	8205.74
538.845	8153.99
539.21	8121.45
539.575	8233.99
539.94	8175.46
540.305	8265.86
540.67	8206.65
541.034	8266.08
541.399	8335.01
541.764	8287.55
542.129	8303.6
542.494	8293.88
542.858	8377.27
543.223	8368
543.587	8442.57
543.952	8375.46
544.316	8432.86
544.681	8407.77
545.045	8431.05
545.41	8525.74
545.774	8494.78
546.138	8529.13
546.503	8451.61
546.867	8487.55
547.231	8575.23
547.595	8575
547.959	8579.07
548.324	8616.13
548.688	8525.74
549.052	8669.46
549.416	8615.45
549.779	8664.26
550.143	8632.63
550.507	8712.17
550.871	8676.24
551.235	8698.39
551.599	8796.69
551.962	8799.4
552.326	8767.99
552.689	8802.57
553.053	8724.83
553.417	8828.1
553.78	8877.37
554.143	8822
554.507	8811.6
554.87	8858.16
555.234	8916.01
555.597	8882.11
555.96	8871.94
556.323	8942.9
556.686	8925.95
557.05	8944.03
557.413	9032.39
557.776	9004.82
558.139	9054.54
558.502	9019.96
558.865	8975.89
559.228	9082.56
559.59	9170.01
559.953	9081.65
560.316	9147.41
560.679	9196.68
561.041	9217.02
561.404	9268.09
561.767	9277.35
562.129	9323.68
562.492	9285.49
562.854	9280.52
563.217	9270.35
563.579	9344.02
563.941	9393.06
564.304	9455.43
564.666	9497.69
565.028	9447.75
565.39	9517.12
565.753	9525.94
566.115	9468.54
566.477	9626.72
566.839	9594.41
567.201	9709.21
567.563	9628.31
567.925	9712.82
568.287	9718.47
568.648	9701.52
569.01	9766.83
569.372	9778.36
569.734	9809.77
570.095	9900.39
570.457	9902.42
570.819	9965.47
571.18	9908.52
571.542	9978.81
571.903	9926.6
572.265	10015.87
572.626	10040.95
572.987	10064.45
573.349	10094.51
573.71	10108.07
574.071	10150.78
574.432	10138.35
574.794	10187.61
575.155	10251.79
575.516	10158.24
575.877	10305.35
576.238	10259.48
576.599	10247.5
576.96	10276.2
577.32	10293.37
577.681	10319.59
578.042	10394.16
578.403	10396.42
578.763	10440.26
579.124	10471.22
579.485	10479.36
579.845	10532.24
580.206	10526.14
580.566	10526.14
580.927	10468.06
581.287	10514.61
581.648	10525.23
582.008	10568.39
582.368	10616.75
582.728	10518.68
583.089	10583.08
583.449	10625.79
583.809	10536.53
584.169	10560.26
584.529	10601.61
584.889	10688.84
585.249	10614.04
585.609	10610.65
585.969	10621.27
586.329	10677.32
586.688	10689.52
587.048	10716.41
587.408	10661.73
587.768	10687.94
588.127	10678.9
588.487	10674.38
588.846	10732.46
589.206	10679.35
589.565	10694.04
589.925	10681.39
590.284	10735.17
590.643	10664.89
591.003	10776.07
591.362	10825.56
591.721	10761.16
592.08	10858.33
592.44	10823.08
592.799	10796.19
593.158	10839.12
593.517	10833.7
593.876	10757.99
594.235	10791.21
594.593	10764.32
594.952	10827.14
595.311	10780.59
595.67	10803.64
596.029	10882.06
596.387	10798.9
596.746	10934.71
597.104	10830.99
597.463	10855.62
597.822	10840.93
598.18	10857.43
598.538	10863.3
598.897	10931.1
599.255	10827.37
599.613	10936.75
599.972	10826.92
600.33	10914.83
600.688	10852.91
601.046	10968.61
601.404	10977.65
601.762	11019.23
602.12	11037.99
602.478	11015.61
602.836	11017.65
603.194	10995.28
603.552	10964.32
603.91	10989.4
604.268	11037.76
604.625	10955.28
604.983	11023.52
605.341	11000.25
605.698	11007.48
606.056	11007.93
606.413	11006.35
606.771	11088.38
607.128	11044.54
607.485	11058.1
607.843	10942.85
608.2	11160.24
608.557	11144.88
608.914	11029.63
609.272	11176.74
609.629	11097.19
609.986	11225.78
610.343	11146.46
610.7	11216.74
611.057	11198.66
611.414	11216.74
611.771	11176.97
612.127	11236.4
612.484	11222.39
612.841	11237.53
613.198	11244.53
613.554	11232.11
613.911	11285.44
614.267	11294.93
614.624	11286.12
614.98	11243.63
615.337	11317.53
615.693	11282.5
616.05	11367.92
616.406	11380.12
616.762	11320.01
617.118	11332.44
617.475	11401.59
617.831	11482.72
618.187	11434.81
618.543	11420.58
618.899	11513
619.255	11455.83
619.611	11470.52
619.967	11457.18
620.323	11526.34
620.678	11500.8
621.034	11472.78
621.39	11531.76
621.746	11511.19
622.101	11699.44
622.457	11580.57
622.812	11599.55
623.168	11645.43
623.523	11594.81
623.879	11712.32
624.234	11570.63
624.589	11658.54
624.945	11590.51
625.3	11625.32
625.655	11683.85
626.01	11653.79
626.365	11658.99
626.72	11662.15
627.075	11649.27
627.43	11636.61
627.785	11693.56
628.14	11755.71
628.495	11675.26
628.85	11628.03
629.205	11701.92
629.559	11719.55
629.914	11704.86
630.269	11776.95
630.623	11728.36
630.978	11759.1
631.332	11802.94
631.687	11840.45
632.041	11769.94
632.396	11819.89
632.75	11798.42
633.104	11854.69
633.459	11841.13
633.813	11841.13
634.167	11843.16
634.521	11846.55
634.875	11950.05
635.229	11929.04
635.583	11853.11
635.937	11844.97
636.291	11858.98
636.645	11882.26
636.999	11871.41
637.352	11916.61
637.706	11846.55
638.06	11942.82
638.413	11886.55
638.767	11886.78
639.121	11980.11
639.474	11808.59
639.828	11901.69
640.181	11902.82
640.534	11893.11
640.888	11955.25
641.241	11892.65
641.594	11898.3
641.947	12004.97
642.301	11996.61
642.654	11919.77
643.007	11993.44
643.36	11985.53
643.713	12003.16
644.066	12013.78
644.419	12036.6
644.771	12003.16
645.124	11962.48
645.477	11959.09
645.83	11889.04
646.182	11847.23
646.535	11805.42
646.888	11742.83
647.24	11698.53
647.593	11913.44
647.945	11831.64
648.298	11879.55
648.65	11706.22
649.002	11781.24
649.355	11904.18
649.707	11918.87
650.059	12040.9
650.411	12146.88
650.763	12133.78
651.115	12221.46
651.467	12296.48
651.819	12281.34
652.171	12227.56
652.523	12242.02
652.875	12234.57
653.227	12205.64
653.578	12265.3
653.93	12370.38
654.282	12315.24
654.633	12301
654.985	12396.14
655.337	12430.49
655.688	12330.38
656.039	12443.83
656.391	12352.08
656.742	12402.7
657.094	12390.04
657.445	12435.69
657.796	12467.33
658.147	12411.96
658.498	12403.6
658.849	12501.22
659.2	12350.49
659.551	12390.95
659.902	12447.44
660.253	12414
660.604	12530.15
660.955	12393.66
661.306	12500.77
661.656	12479.53
662.007	12541.9
662.358	12568.79
662.708	12540.32
663.059	12505.97
663.409	12420.55
663.76	12640.43
664.11	12557.72
664.461	12544.39
664.811	12517.72
665.161	12579.64
665.511	12528.57
665.862	12496.71
666.212	12566.53
666.562	12471.62
666.912	12570.6
667.262	12483.37
667.612	12540.32
667.962	12556.36
668.312	12469.81
668.662	12526.76
669.011	12553.43
669.361	12442.24
669.711	12429.59
670.06	12397.27
670.41	12316.82
670.76	12388.23
671.109	12429.14
671.459	12345.3
671.808	12319.99
672.157	12370.38
672.507	12355.24
672.856	12328.57
673.205	12270.04
673.554	12348.01
673.904	12261.46
674.253	12292.64
674.602	12161.35
674.951	11999.77
675.3	11917.51
675.649	12158.64
675.998	12088.35
676.346	12117.73
676.695	12218.75
677.044	12042.71
677.393	12086.55
677.741	12105.3
678.09	12083.61
678.438	11944.86
678.787	11924.52
679.135	12009.26
679.484	11919.32
679.832	11906.66
680.181	11912.54
680.529	11851.07
680.877	11817.63
681.225	11807.68
681.573	11951.18
681.922	11816.27
682.27	11738.53
682.618	11724.52
682.966	11683.39
683.314	11725.88
683.661	11645.88
684.009	11556.84
684.357	11555.94
684.705	11600.68
685.053	11587.58
685.4	11569.95
685.748	11554.81
686.095	11482.49
686.443	11482.27
686.79	11403.4
687.138	11434.59
687.485	11426
687.832	11361.59
688.18	11470.07
688.527	11318.21
688.874	11334.02
689.221	11284.08
689.568	11303.74
689.915	11316.85
690.262	11295.83
690.609	11325.89
690.956	11222.84
691.303	11269.84
691.65	11203.86
691.997	11230.52
692.344	11146.01
692.69	11157.76
693.037	11180.36
693.383	11133.58
693.73	11106.91
694.077	11028.95
694.423	11053.35
694.769	10988.72
695.116	10991.66
695.462	10993.02
695.808	10976.29
696.155	10978.55
696.501	11020.81
696.847	10953.7
697.193	10916.41
697.539	10986.91
697.885	10868.5
698.231	10818.33
698.577	10840.93
698.923	10828.05
699.269	10802.51
699.614	10713.48
699.96	10779.46
700.306	10784.43
700.651	10724.32
700.997	10670.31
701.342	10622.4
701.688	10711.22
702.033	10686.58
702.379	10684.78
702.724	10598.9
703.069	10648.17
703.415	10562.74
703.76	10576.53
704.105	10623.76
704.45	10614.49
704.795	10550.09
705.14	10587.38
705.485	10542.86
705.83	10494.27
706.175	10527.72
706.52	10467.38
706.865	10497.44
707.209	10510.54
707.554	10473.26
707.899	10587.38
708.243	10458.57
708.588	10430.77
708.932	10354.39
709.277	10376.76
709.621	10427.38
709.966	10299.47
710.31	10432.58
710.654	10426.93
710.998	10358.23
711.342	10375.18
711.687	10409.75
712.031	10374.73
712.375	10325.91
712.719	10314.16
713.063	10299.25
713.407	10371.11
713.75	10336.08
714.094	10305.35
714.438	10255.63
714.782	10294.5
715.125	10236.2
715.469	10280.49
715.812	10262.87
716.156	10275.07
716.499	10206.14
716.843	10318.01
717.186	10195.3
717.53	10270.78
717.873	10233.26
718.216	10217.22
718.559	10198.23
718.902	10174.73
719.246	10232.13
719.589	10176.31
719.932	10142.64
720.275	10164.11
720.617	10092.93
720.96	10198.23
721.303	10126.15
721.646	10161.4
721.989	10148.74
722.331	10181.06
722.674	10160.72
723.016	10151.23
723.359	10122.76
723.701	10153.04
724.044	10086.37
724.386	10044.11
724.729	10189.42
725.071	10044.11
725.413	10168.63
725.755	10111.23
726.097	10111.23
726.439	10079.59
726.782	10116.88
727.124	10140.61
727.465	10140.38
727.807	10076.43
728.149	10127.05
728.491	10027.39
728.833	10129.99
729.175	10141.96
729.516	10161.4
729.858	10155.98
730.199	10049.31
730.541	10150.1
730.882	10101.06
731.224	10078.92
731.565	10092.7
731.906	10082.08
732.248	10205.69
732.589	10159.59
732.93	10190.78
733.271	10230.78
733.612	10143.32
733.953	10229.87
734.294	10177.67
734.635	10214.96
734.976	10270.78
735.317	10236.88
735.658	10217.67
735.999	10273.26
736.339	10234.17
736.68	10303.99
737.021	10252.24
737.361	10272.13
737.702	10304.9
738.042	10258.35
738.383	10353.94
738.723	10328.63
739.063	10362.75
739.404	10398
739.744	10382.86
740.084	10329.76
740.424	10395.07
740.764	10421.73
741.104	10386.25
741.444	10391
741.784	10424.9
742.124	10486.81
742.464	10456.53
742.804	10518.68
743.143	10541.73
743.483	10554.16
743.823	10584.67
744.162	10596.87
744.502	10625.57
744.841	10616.75
745.181	10800.7
745.52	10696.07
745.86	10698.56
746.199	10774.26
746.538	10757.77
746.877	10801.38
747.216	10828.27
747.556	10878.89
747.895	10898.56
748.234	10909.63
748.573	10887.93
748.911	10910.08
749.25	11043.41
749.589	10975.84
749.928	11051.09
750.267	11080.25
750.605	11147.14
750.944	11152.33
751.283	11093.13
751.621	11113.01
751.96	11132.9
752.298	11177.19
752.636	11174.03
752.975	11235.5
753.313	11200.24
753.651	11296.28
753.989	11294.48
754.327	11313.46
754.666	11341.03
755.004	11347.58
755.342	11443.4
755.679	11418.09
756.017	11445.66
756.355	11437.75
756.693	11430.74
757.031	11489.73
757.368	11516.62
757.706	11555.71
758.044	11550.06
758.381	11595.26
758.719	11611.76
