Data from blue_clamp_base_FLMS001491_00021.txt Node
Date: Wed Feb 08 15:15:45 GMT 2017
User: dcchb
Spectrometer: FLMS00149
Trigger mode: 0
Integration Time (sec): 2.000000E-2
Scans to average: 10
Electric dark correction enabled: true
Nonlinearity correction enabled: false
Boxcar width: 0
XAxis mode: Wavelengths
Number of Pixels in Spectrum: 2048
>>>>>Begin Spectral Data<<<<<
341.393	-2.33
341.776	-2.33
342.16	-2.33
342.543	-63.8
342.927	-62.22
343.31	-73.97
343.693	-55.89
344.077	-72.39
344.46	-64.93
344.843	-59.05
345.226	-49.79
345.61	-21.54
345.993	-23.8
346.376	-11.82
346.759	8.29
347.142	34.96
347.525	39.02
347.908	53.94
348.291	89.42
348.674	101.85
349.057	105.69
349.44	121.06
349.823	131.9
350.206	160.15
350.588	187.5
350.971	203.31
351.354	212.81
351.737	233.6
352.119	246.48
352.502	256.42
352.884	262.07
353.267	273.82
353.65	292.35
354.032	294.61
354.414	291
354.797	304.55
355.179	320.82
355.562	318.11
355.944	316.53
356.326	329.41
356.709	314.72
357.091	315.85
357.473	328.73
357.855	347.04
358.238	332.8
358.62	328.28
359.002	342.97
359.384	338.9
359.766	335.06
360.148	334.84
360.53	317.89
360.912	318.34
361.294	333.48
361.676	312.92
362.057	315.63
362.439	325.34
362.821	317.21
363.203	320.82
363.584	337.1
363.966	313.14
364.348	316.98
364.729	322.18
365.111	318.79
365.493	311.11
365.874	308.4
366.256	316.08
366.637	289.41
367.019	277.44
367.4	316.31
367.781	303.42
368.163	311.79
368.544	316.76
368.925	301.62
369.306	305.46
369.688	305.46
370.069	309.53
370.45	308.17
370.831	324.44
371.212	309.75
371.593	308.85
371.974	299.13
372.355	289.64
372.736	307.04
373.117	309.53
373.498	313.82
373.879	322.18
374.26	302.97
374.641	294.61
375.021	292.35
375.402	314.27
375.783	307.04
376.163	303.2
376.544	322.18
376.925	308.17
377.305	307.27
377.686	332.12
378.066	316.31
378.447	321.05
378.827	317.21
379.208	350.2
379.588	326.47
379.968	317.89
380.349	334.38
380.729	332.8
381.109	316.31
381.489	345.23
381.87	338.68
382.25	354.95
382.63	328.73
383.01	346.36
383.39	332.58
383.77	331.67
384.15	321.5
384.53	338.9
384.91	321.95
385.29	357.21
385.67	352.46
386.049	341.62
386.429	348.85
386.809	359.47
387.189	335.74
387.568	330.77
387.948	354.72
388.328	357.21
388.707	367.38
389.087	378.68
389.466	366.25
389.846	339.81
390.225	370.09
390.605	352.69
390.984	364.44
391.363	355.63
391.743	369.41
392.122	370.77
392.501	392.24
392.881	375.51
393.26	379.81
393.639	379.58
394.018	391.78
394.397	375.29
394.776	405.57
395.155	387.94
395.534	403.53
395.913	412.57
396.292	432.69
396.671	408.73
397.05	405.34
397.429	403.53
397.808	413.93
398.186	403.99
398.565	419.35
398.944	419.35
399.323	424.55
399.701	423.42
400.08	433.36
400.458	414.38
400.837	441.5
401.215	450.31
401.594	444.66
401.972	456.87
402.351	481.72
402.729	441.05
403.107	473.82
403.486	483.31
403.864	482.85
404.242	474.72
404.62	480.37
404.999	465.23
405.377	474.04
405.755	500.48
406.133	490.54
406.511	496.19
406.889	497.09
407.267	534.15
407.645	511.33
408.023	514.72
408.401	532.34
408.779	536.19
409.156	560.37
409.534	561.5
409.912	568.05
410.29	564.43
410.667	566.92
411.045	569.86
411.422	576.41
411.8	584.09
412.178	587.26
412.555	601.95
412.933	599.01
413.31	608.27
413.687	604.43
414.065	620.25
414.442	634.49
414.819	613.25
415.197	641.95
415.574	647.37
415.951	653.25
416.328	678.78
416.705	665.22
417.082	643.53
417.46	659.8
417.837	688.95
418.214	667.71
418.591	682.4
418.967	689.63
419.344	689.18
419.721	709.29
420.098	728.05
420.475	717.42
420.852	736.86
421.228	735.73
421.605	739.57
421.982	732.79
422.358	753.36
422.735	744.77
423.111	754.03
423.488	792.22
423.864	791.1
424.241	786.58
424.617	810.08
424.994	782.51
425.37	802.85
425.746	827.93
426.123	819.57
426.499	817.31
426.875	852.34
427.251	828.61
427.627	883.75
428.003	875.61
428.379	875.39
428.756	906.35
429.132	904.31
429.507	923.75
429.883	910.19
430.259	947.7
430.635	954.48
431.011	957.42
431.387	988.83
431.763	972.11
432.138	975.5
432.514	1015.95
432.89	989.51
433.265	1012.78
433.641	1031.77
434.016	1055.04
434.392	1054.36
434.767	1114.93
435.143	1071.09
435.518	1095.04
435.894	1104.08
436.269	1135.04
436.644	1163.51
437.02	1146.11
437.395	1148.6
437.77	1179.56
438.145	1215.94
438.52	1195.38
438.895	1185.89
439.271	1225.43
439.646	1217.07
440.021	1269.95
440.395	1269.95
440.77	1292.55
441.145	1293.68
441.52	1319.44
441.895	1280.35
442.27	1324.64
442.645	1337.75
443.019	1330.97
443.394	1360.57
443.769	1365.32
444.143	1352.66
444.518	1371.87
444.892	1407.12
445.267	1361.25
445.641	1407.8
446.016	1440.57
446.39	1417.52
446.764	1441.93
447.139	1462.49
447.513	1450.29
447.887	1467.46
448.262	1466.56
448.636	1480.34
449.01	1486.9
449.384	1497.97
449.758	1548.59
450.132	1554.69
450.506	1579.77
450.88	1555.82
451.254	1558.31
451.628	1620
452.002	1619.32
452.376	1617.97
452.75	1609.38
453.123	1648.93
453.497	1705.65
453.871	1713.56
454.244	1717.85
454.618	1754.69
454.992	1765.53
455.365	1728.92
455.739	1802.59
456.112	1813.89
456.486	1809.6
456.859	1830.16
457.232	1871.97
457.606	1893.44
457.979	1908.58
458.352	1930.73
458.725	1958.75
459.099	1980.44
459.472	2031.51
459.845	2004.4
460.218	2031.74
460.591	2048.24
460.964	2057.95
461.337	2115.81
461.71	2130.95
462.083	2139.31
462.456	2146.99
462.829	2164.62
463.201	2196.93
463.574	2214.79
463.947	2252.53
464.32	2312.18
464.692	2273.54
465.065	2312.64
465.438	2353.09
465.81	2363.94
466.183	2391.96
466.555	2422.92
466.928	2443.48
467.3	2430.6
467.672	2481.22
468.045	2524.16
468.417	2563.25
468.789	2578.84
469.161	2598.51
469.534	2605.96
469.906	2646.64
470.278	2674.66
470.65	2747.88
471.022	2753.53
471.394	2826.75
471.766	2820.19
472.138	2829.91
472.51	2881.66
472.882	2942.22
473.253	2972.51
473.625	3001.21
473.997	3018.61
474.369	3072.16
474.74	3076.68
475.112	3146.97
475.484	3202.78
475.855	3243.23
476.227	3258.83
476.598	3318.03
476.97	3368.43
477.341	3429.67
477.713	3468.54
478.084	3467.41
478.455	3556.22
478.827	3593.06
479.198	3640.74
479.569	3640.74
479.94	3777.46
480.311	3800.51
480.682	3866.27
481.053	3936.55
481.424	3940.39
481.795	3968.86
482.166	4039.15
482.537	4073.72
482.908	4153.94
483.279	4170.22
483.65	4249.31
484.021	4287.95
484.391	4346.71
484.762	4346.93
485.133	4370.44
485.503	4415.63
485.874	4459.47
486.244	4518.23
486.615	4575.63
486.985	4645
487.356	4727.71
487.726	4679.58
488.097	4776.75
488.467	4774.72
488.837	4905.56
489.207	4881.61
489.578	4937.88
489.948	4997.31
490.318	5025.33
490.688	5105.78
491.058	5118.66
491.428	5123.86
491.798	5157.99
492.168	5277.3
492.538	5313.91
492.908	5335.83
493.278	5339.22
493.648	5307.13
494.017	5361.14
494.387	5479.56
494.757	5472.78
495.126	5530.41
495.496	5524.53
495.866	5539.67
496.235	5572.44
496.605	5635.94
496.974	5564.53
497.344	5673
497.713	5669.38
498.082	5640.01
498.452	5747.12
498.821	5761.81
499.19	5741.93
499.559	5833.45
499.928	5801.13
500.298	5873.22
500.667	5891.98
501.036	5836.84
501.405	5911.19
501.774	5888.59
502.143	5969.49
502.512	5950.28
502.88	5950.28
503.249	5967.91
503.618	6007.68
503.987	6029.6
504.356	6077.06
504.724	6030.28
505.093	6063.5
505.462	6089.03
505.83	6121.35
506.199	6157.51
506.567	6226.21
506.936	6215.59
507.304	6275.7
507.672	6336.94
508.041	6293.55
508.409	6307.79
508.777	6379.65
509.145	6427.78
509.514	6368.12
509.882	6399.08
510.25	6389.59
510.618	6407.22
510.986	6435.24
511.354	6472.75
511.722	6551.62
512.09	6567.21
512.458	6542.81
512.826	6575.12
513.193	6601.79
513.561	6579.87
513.929	6593.43
514.297	6662.35
514.664	6707.78
515.032	6660.32
515.4	6733.99
515.767	6740.54
516.135	6765.18
516.502	6742.35
516.869	6827.09
517.237	6777.6
517.604	6799.52
517.972	6794.33
518.339	6895.34
518.706	6823.03
519.073	6927.66
519.44	6976.02
519.808	6962.68
520.175	6996.36
520.542	7013.98
520.909	7015.34
521.276	7016.02
521.643	7079.97
522.009	7114.09
522.376	7112.06
522.743	7131.04
523.11	7188.89
523.477	7249.68
523.843	7246.07
524.21	7286.52
524.577	7329.23
524.943	7347.76
525.31	7384.82
525.676	7406.97
526.043	7467.08
526.409	7455.78
526.776	7540.97
527.142	7517.47
527.508	7495.1
527.874	7605.15
528.241	7647.64
528.607	7670.69
528.973	7737.35
529.339	7693.96
529.705	7756.56
530.071	7805.6
530.437	7810.57
530.803	7909.33
531.169	7923.11
531.535	7930.34
531.901	7910
532.267	7990.23
532.632	7945.94
532.998	7963.11
533.364	8028.87
533.73	8050.34
534.095	8127.63
534.461	8116.78
534.826	8162.65
535.192	8156.78
535.557	8250.11
535.923	8219.37
536.288	8213.95
536.653	8279.26
537.019	8270.67
537.384	8257.11
537.749	8303.89
538.114	8315.64
538.479	8266.83
538.845	8360.39
539.21	8280.84
539.575	8346.83
539.94	8353.83
540.305	8460.95
540.67	8372.36
541.034	8427.5
541.399	8437.45
541.764	8457.56
542.129	8495.07
542.494	8479.03
542.858	8493.04
543.223	8540.04
543.587	8534.85
543.952	8538.69
544.316	8593.38
544.681	8562.64
545.045	8591.57
545.41	8632.24
545.774	8681.06
546.138	8686.93
546.503	8638.57
546.867	8674.96
547.231	8722.41
547.595	8758.12
547.959	8760.15
548.324	8766.48
548.688	8758.8
549.052	8833.6
549.416	8768.06
549.779	8836.08
550.143	8817.55
550.507	8899.58
550.871	8816.19
551.235	8815.29
551.599	8919.69
551.962	8806.03
552.326	8906.36
552.689	8949.07
553.053	8955.63
553.417	8928.06
553.78	9005.79
554.143	8971.9
554.507	8974.16
554.87	9043.99
555.234	9046.7
555.597	9047.6
555.96	8986.13
556.323	9035.85
556.686	9173.7
557.05	9099.58
557.413	9166.47
557.776	9147.26
558.139	9214.83
558.502	9214.15
558.865	9236.75
559.228	9360.14
559.59	9227.03
559.953	9288.5
560.316	9315.62
560.679	9285.56
561.041	9277.43
561.404	9380.02
561.767	9410.98
562.129	9385.9
562.492	9446.91
562.854	9427.7
563.217	9447.14
563.579	9580.02
563.941	9537.76
564.304	9529.62
564.666	9731.65
565.028	9637.64
565.39	9579.79
565.753	9684.87
566.115	9711.31
566.477	9716.51
566.839	9748.37
567.201	9845.32
567.563	9829.95
567.925	9842.16
568.287	9823.63
568.648	9886
569.01	9900.91
569.372	9990.85
569.734	9933.45
570.095	10052.09
570.457	10101.81
570.819	10056.16
571.18	10050.06
571.542	10118.76
571.903	10158.53
572.265	10141.81
572.626	10130.96
572.987	10157.85
573.349	10176.38
573.71	10298.64
574.071	10288.02
574.432	10310.84
574.794	10361.92
575.155	10365.98
575.516	10387.9
575.877	10391.29
576.238	10455.7
576.599	10431.75
576.96	10443.5
577.32	10472.87
577.681	10474.23
578.042	10550.39
578.403	10624.51
578.763	10565.75
579.124	10568.92
579.485	10556.26
579.845	10577.5
580.206	10652.76
580.566	10650.95
580.927	10624.06
581.287	10691.4
581.648	10649.59
582.008	10776.6
582.368	10691.4
582.728	10709.25
583.089	10714
583.449	10709.03
583.809	10736.82
584.169	10740.66
584.529	10745.41
584.889	10808.46
585.249	10735.47
585.609	10786.99
585.969	10862.24
586.329	10750.16
586.688	10836.03
587.048	10758.06
587.408	10754
587.768	10805.07
588.127	10842.81
588.487	10770.04
588.846	10900.43
589.206	10812.07
589.565	10852.07
589.925	10877.16
590.284	10815.01
590.643	10822.24
591.003	10865.41
591.362	10975.01
591.721	10913.09
592.08	10937.49
592.44	10871.73
592.799	10948.12
593.158	10882.13
593.517	10927.1
593.876	10985.4
594.235	10938.17
594.593	10914.22
594.952	11015.01
595.311	10980.21
595.67	11007.32
596.029	10984.73
596.387	11082.8
596.746	11050.03
597.104	10980.88
597.463	11032.63
597.822	11082.35
598.18	10968
598.538	10993.54
598.897	11102.46
599.255	11013.88
599.613	11075.8
599.972	11099.52
600.33	11071.05
600.688	11008.68
601.046	11034.44
601.404	11086.87
601.762	11141.56
602.12	11196.92
602.478	11146.08
602.836	11187.66
603.194	11075.8
603.552	11138.17
603.91	11101.56
604.268	11158.51
604.625	11110.37
604.983	11199.41
605.341	11073.08
605.698	11159.64
606.056	11174.1
606.413	11071.5
606.771	11160.99
607.128	11257.71
607.485	11174.32
607.843	11220.65
608.2	11252.74
608.557	11255
608.914	11285.51
609.272	11276.47
609.629	11313.53
609.986	11353.53
610.343	11264.72
610.7	11377.71
611.057	11402.57
611.414	11333.64
611.771	11367.09
612.127	11311.72
612.484	11414.54
612.841	11402.79
613.198	11406.18
613.554	11419.29
613.911	11451.83
614.267	11447.09
614.624	11474.88
614.98	11402.12
615.337	11532.51
615.693	11466.29
616.05	11433.75
616.406	11623.8
616.762	11542.9
617.118	11567.31
617.475	11578.61
617.831	11610.7
618.187	11555.78
618.543	11628.1
618.899	11694.76
619.255	11640.53
619.611	11653.63
619.967	11584.71
620.323	11762.78
620.678	11667.42
621.034	11687.76
621.39	11709.23
621.746	11634.2
622.101	11753.97
622.457	11790.81
622.812	11704.03
623.168	11764.14
623.523	11773.18
623.879	11901.09
624.234	11699.51
624.589	11851.6
624.945	11795.1
625.3	11750.13
625.655	11829.67
626.01	11827.19
626.365	11834.42
626.72	11883.01
627.075	11850.69
627.43	11887.3
627.785	11925.72
628.14	11905.83
628.495	11968.2
628.85	11945.83
629.205	11901.76
629.559	11898.6
629.914	11870.13
630.269	11921.65
630.623	11990.8
630.978	11874.19
631.332	11941.31
631.687	12020.86
632.041	11950.8
632.396	12019.73
632.75	11944.25
633.104	12003.68
633.459	11961.87
633.813	11976.56
634.167	12106.5
634.521	11967.52
634.875	11985.15
635.229	12005.49
635.583	11969.11
635.937	11970.24
636.291	11913.74
636.645	11996.68
636.999	11916.45
637.352	12054.75
637.706	12031.93
638.06	12038.48
638.413	11992.83
638.767	12001.87
639.121	12087.07
639.474	12042.32
639.828	11992.16
640.181	12003
640.534	12003.46
640.888	12051.59
641.241	11991.03
641.594	11986.73
641.947	12044.58
642.301	12092.49
642.654	12087.75
643.007	12131.81
643.36	12085.26
643.713	12058.82
644.066	12102.21
644.419	12072.83
644.771	12066.05
645.124	12033.51
645.477	12013.17
645.83	11990.12
646.182	11919.62
646.535	11867.87
646.888	11800.98
647.24	11723.24
647.593	11790.13
647.945	11790.35
648.298	11733.41
648.65	11671.71
649.002	11788.77
649.355	11882.55
649.707	11975.43
650.059	12042.78
650.411	12143.11
650.763	12124.36
651.115	12257.23
651.467	12204.35
651.819	12259.72
652.171	12238.93
652.523	12308.31
652.875	12274.86
653.227	12193.06
653.578	12397.8
653.93	12303.79
654.282	12269.21
654.633	12238.03
654.985	12285.03
655.337	12352.6
655.688	12305.82
656.039	12347.85
656.391	12291.58
656.742	12383.56
657.094	12412.71
657.445	12390.11
657.796	12411.35
658.147	12382.65
658.498	12356.44
658.849	12383.56
659.2	12351.02
659.551	12359.6
659.902	12503.78
660.253	12484.12
660.604	12434.18
660.955	12493.39
661.306	12547.4
661.656	12459.26
662.007	12442.31
662.358	12433.73
662.708	12439.6
663.059	12500.17
663.409	12346.27
663.76	12511.69
664.11	12522.54
664.461	12358.02
664.811	12468.98
665.161	12468.3
665.511	12490.22
665.862	12376.33
666.212	12461.75
666.562	12496.55
666.912	12469.21
667.262	12485.02
667.612	12515.31
667.962	12401.19
668.312	12406.38
668.662	12419.94
669.011	12374.75
669.361	12407.51
669.711	12290.68
670.06	12324.8
670.41	12312.15
670.76	12334.97
671.109	12324.8
671.459	12287.74
671.808	12182.43
672.157	12188.99
672.507	12215.43
672.856	12090.46
673.205	12233.05
673.554	12127.97
673.904	12168.87
674.253	12238.25
674.602	12108.76
674.951	11939.28
675.3	11833.97
675.649	12001.2
675.998	11986.05
676.346	11973.4
676.695	11967.3
677.044	11917.58
677.393	11999.61
677.741	11929.79
678.09	11897.02
678.438	11836
678.787	11955.77
679.135	11868.54
679.484	11786.51
679.832	11832.61
680.181	11702.67
680.529	11800.98
680.877	11734.08
681.225	11743.12
681.573	11753.52
681.922	11631.04
682.27	11616.57
682.618	11573.41
682.966	11536.58
683.314	11615.9
683.661	11546.07
684.009	11485.05
684.357	11471.72
684.705	11472.85
685.053	11472.17
685.4	11465.39
685.748	11334.09
686.095	11357.37
686.443	11281.21
686.79	11343.36
687.138	11280.31
687.485	11290.71
687.832	11275.11
688.18	11356.01
688.527	11255.23
688.874	11250.93
689.221	11154.89
689.568	11198.73
689.915	11186.98
690.262	11165.51
690.609	11166.64
690.956	11158.73
691.303	11158.28
691.65	11029.24
691.997	11101.11
692.344	11067.66
692.69	11034.44
693.037	11024.27
693.383	10941.11
693.73	11008.45
694.077	10962.58
694.423	10953.09
694.769	10858.63
695.116	10889.13
695.462	10905.41
695.808	10844.16
696.155	10906.08
696.501	10831.06
696.847	10810.94
697.193	10728.23
697.539	10706.77
697.885	10690.5
698.231	10665.86
698.577	10737.5
698.923	10661.8
699.269	10655.47
699.614	10689.59
699.96	10597.84
700.306	10623.15
700.651	10606.66
700.997	10618.86
701.342	10558.97
701.688	10543.15
702.033	10509.26
702.379	10525.98
702.724	10489.82
703.069	10571.18
703.415	10481.91
703.76	10507.45
704.105	10493.89
704.45	10489.37
704.795	10502.48
705.14	10438.07
705.485	10389.03
705.83	10440.78
706.175	10442.59
706.52	10445.98
706.865	10411.41
707.209	10390.62
707.554	10413.89
707.899	10531.4
708.243	10326.21
708.588	10306.78
708.932	10248.25
709.277	10263.39
709.621	10284.63
709.966	10257.29
710.31	10243.73
710.654	10195.37
710.998	10263.39
711.342	10307.91
711.687	10183.62
712.031	10167.57
712.375	10187.68
712.719	10170.74
713.063	10178.64
713.407	10212.77
713.75	10145.2
714.094	10195.82
714.438	10119.89
714.782	10170.96
715.125	10099.55
715.469	10145.43
715.812	10055.03
716.156	9966.22
716.499	10068.14
716.843	10126.67
717.186	10028.59
717.53	10098.65
717.873	10108.82
718.216	10018.87
718.559	10036.5
718.902	9973
719.246	9997.41
719.589	9988.82
719.932	9993.79
720.275	9970.06
720.617	10012.1
720.96	9972.77
721.303	9979.1
721.646	9954.92
721.989	9860.24
722.331	9933.68
722.674	9934.58
723.016	10009.38
723.359	9962.38
723.701	9955.37
724.044	9893.45
724.386	9908.6
724.729	9933.68
725.071	9859.78
725.413	9927.58
725.755	9891.87
726.097	9878.77
726.439	9779.33
726.782	9841.7
727.124	9889.16
727.465	9830.63
727.807	9869.27
728.149	9812.33
728.491	9894.13
728.833	9881.25
729.175	9869.27
729.516	9897.97
729.858	9890.97
730.199	9902.49
730.541	9887.13
730.882	9876.51
731.224	9945.43
731.565	9943.4
731.906	9919.22
732.248	9926.9
732.589	9822.27
732.93	9853.68
733.271	9853.91
733.612	9849.16
733.953	9908.82
734.294	9884.87
734.635	9844.19
734.976	9925.77
735.317	9856.85
735.658	9873.12
735.999	9931.19
736.339	9932.55
736.68	9937.3
737.021	9894.13
737.361	9948.37
737.702	9980.01
738.042	9967.12
738.383	9972.55
738.723	9935.94
739.063	9952.44
739.404	10036.95
739.744	10005.54
740.084	9999.21
740.424	10055.26
740.764	10070.4
741.104	10136.39
741.444	10090.06
741.784	10037.41
742.124	10164.63
742.464	10115.14
742.804	10164.18
743.143	10097.74
743.483	10171.41
743.823	10125.99
744.162	10211.64
744.502	10258.19
744.841	10257.29
745.181	10306.78
745.52	10314.01
745.86	10281.01
746.199	10361.01
746.538	10355.59
746.877	10314.46
747.216	10392.42
747.556	10343.84
747.895	10362.37
748.234	10373.22
748.573	10462.71
748.911	10480.56
749.25	10481.01
749.589	10395.36
749.928	10531.86
750.267	10583.83
750.605	10626.09
750.944	10628.58
751.283	10618.63
751.621	10633.32
751.96	10655.47
752.298	10605.98
752.636	10735.24
752.975	10646.66
753.313	10641.68
753.651	10683.94
753.989	10689.37
754.327	10754.45
754.666	10718.52
755.004	10821.34
755.342	10846.2
755.679	10736.6
756.017	10830.83
756.355	10841.9
756.693	10861.34
757.031	10906.31
757.368	10830.61
757.706	10874.45
758.044	10885.29
758.381	10964.16
758.719	10949.25
759.056	11007.1
759.394	11013.2
759.731	10897.27
760.068	10925.52
