Data from blue_chair_FLMS001491_00081.txt Node
Date: Wed Feb 08 10:31:54 GMT 2017
User: dcchb
Spectrometer: FLMS00149
Trigger mode: 0
Integration Time (sec): 2.000000E-2
Scans to average: 10
Electric dark correction enabled: true
Nonlinearity correction enabled: false
Boxcar width: 0
XAxis mode: Wavelengths
Number of Pixels in Spectrum: 2048
>>>>>Begin Spectral Data<<<<<
341.393	-2.39
341.776	-2.39
342.16	-2.39
342.543	-59.56
342.927	-61.14
343.31	-76.96
343.693	-60.01
344.077	-74.93
344.46	-57.53
344.843	-57.98
345.226	-36.96
345.61	-26.79
345.993	-14.82
346.376	2.36
346.759	21.79
347.142	24.96
347.525	37.84
347.908	65.18
348.291	62.92
348.674	104.05
349.057	86.88
349.44	123.71
349.823	135.91
350.206	172.52
350.588	173.65
350.971	191.96
351.354	187.21
351.737	195.12
352.119	222.01
352.502	227.66
352.884	248.23
353.267	266.53
353.65	264.5
354.032	274.89
354.414	286.87
354.797	285.74
355.179	294.55
355.562	291.62
355.944	323.93
356.326	321.45
356.709	321.45
357.091	313.99
357.473	329.13
357.855	310.83
358.238	319.86
358.62	319.41
359.002	294.55
359.384	306.98
359.766	324.84
360.148	309.92
360.53	309.47
360.912	326.19
361.294	304.05
361.676	305.4
362.057	300.43
362.439	320.54
362.821	319.64
363.203	304.72
363.584	308.11
363.966	293.65
364.348	304.95
364.729	290.49
365.111	313.76
365.493	297.49
365.874	288.45
366.256	289.58
366.637	291.16
367.019	300.43
367.4	270.83
367.781	290.03
368.163	288
368.544	285.29
368.925	288.68
369.306	289.81
369.688	282.13
370.069	275.35
370.45	291.62
370.831	289.13
371.212	300.43
371.593	277.83
371.974	287.77
372.355	297.27
372.736	281.9
373.117	288.45
373.498	293.2
373.879	281.45
374.26	270.15
374.641	287.77
375.021	289.81
375.402	281.45
375.783	286.87
376.163	281.45
376.544	311.73
376.925	283.03
377.305	290.26
377.686	285.29
378.066	274.89
378.447	284.61
378.827	299.75
379.208	299.98
379.588	299.53
379.968	284.61
380.349	308.34
380.729	281.67
381.109	292.07
381.489	309.47
381.87	292.07
382.25	303.82
382.63	289.13
383.01	291.16
383.39	304.95
383.77	290.71
384.15	308.79
384.53	304.5
384.91	312.41
385.29	309.47
385.67	297.72
386.049	322.12
386.429	311.96
386.809	326.19
387.189	294.33
387.568	310.83
387.948	291.62
388.328	321.22
388.707	318.51
389.087	313.54
389.466	329.36
389.846	306.31
390.225	312.41
390.605	319.19
390.984	330.49
391.363	299.3
391.743	335.23
392.122	317.15
392.501	337.27
392.881	320.99
393.26	302.46
393.639	319.41
394.018	331.84
394.397	351.05
394.776	336.14
395.155	344.04
395.534	323.93
395.913	328.45
396.292	318.51
396.671	319.41
397.05	303.37
397.429	345.63
397.808	332.75
398.186	332.29
398.565	356.93
398.944	327.1
399.323	348.34
399.701	341.78
400.08	383.14
400.458	336.14
400.837	351.28
401.215	352.86
401.594	350.15
401.972	332.97
402.351	340.88
402.729	349.24
403.107	353.99
403.486	368
403.864	358.96
404.242	350.82
404.62	358.73
404.999	353.54
405.377	371.39
405.755	382.91
406.133	367.32
406.511	386.08
406.889	373.42
407.267	367.77
407.645	388.56
408.023	387.66
408.401	359.86
408.779	380.65
409.156	399.18
409.534	410.48
409.912	391.05
410.29	398.51
410.667	404.83
411.045	407.77
411.422	408.45
411.8	427.66
412.178	390.37
412.555	414.55
412.933	406.19
413.31	454.32
413.687	412.07
414.065	415.23
414.442	419.3
414.819	413.87
415.197	438.05
415.574	420.43
415.951	437.38
416.328	413.87
416.705	414.78
417.082	440.54
417.46	447.77
417.837	432.63
418.214	432.63
418.591	437.38
418.967	432.4
419.344	452.52
419.721	456.58
420.098	440.99
420.475	457.26
420.852	462.69
421.228	452.29
421.605	484.38
421.982	496.58
422.358	485.06
422.735	488.9
423.111	501.78
423.488	464.04
423.864	492.06
424.241	503.14
424.617	487.54
424.994	475.79
425.37	505.85
425.746	479.18
426.123	507.43
426.499	506.07
426.875	553.3
427.251	491.61
427.627	535.68
428.003	528.67
428.379	531.61
428.756	534.55
429.132	541.33
429.507	541.1
429.883	542.01
430.259	545.17
430.635	553.98
431.011	566.41
431.387	586.52
431.763	571.61
432.138	595.79
432.514	556.47
432.89	577.26
433.265	589.01
433.641	575
434.016	577.03
434.392	581.78
434.767	604.15
435.143	603.92
435.518	609.35
435.894	615.9
436.269	643.47
436.644	649.35
437.02	651.16
437.395	644.6
437.77	679.4
438.145	664.71
438.52	683.7
438.895	676.01
439.271	673.98
439.646	726.63
440.021	709.68
440.395	702.45
440.77	718.5
441.145	713.53
441.52	718.72
441.895	735.45
442.27	742
442.645	759.85
443.019	765.05
443.394	757.37
443.769	769.34
444.143	749.01
444.518	784.03
444.892	768.21
445.267	805.5
445.641	780.87
446.016	785.39
446.39	787.87
446.764	780.42
447.139	795.78
447.513	794.43
447.887	805.95
448.262	803.02
448.636	785.61
449.01	819.06
449.384	840.08
449.758	838.95
450.132	855.44
450.506	851.15
450.88	855.22
451.254	852.28
451.628	859.74
452.002	880.98
452.376	870.81
452.75	859.29
453.123	897.02
453.497	862.45
453.871	899.96
454.244	906.29
454.618	898.15
454.992	917.59
455.365	897.25
455.739	947.64
456.112	950.81
456.486	941.09
456.859	950.81
457.232	976.8
457.606	965.95
457.979	989.9
458.352	987.87
458.725	996.46
459.099	1003.01
459.472	1025.61
459.845	1020.64
460.218	1037.36
460.591	1056.34
460.964	1063.12
461.337	1056.57
461.71	1053.86
462.083	1095.21
462.456	1079.62
462.829	1088.88
463.201	1105.61
463.574	1100.18
463.947	1108.54
464.32	1099.05
464.692	1114.65
465.065	1118.71
465.438	1131.14
465.81	1166.17
466.183	1162.33
466.555	1183.57
466.928	1165.49
467.3	1165.72
467.672	1179.05
468.045	1215.21
468.417	1197.36
468.789	1204.14
469.161	1221.76
469.534	1220.18
469.906	1254.98
470.278	1268.31
470.65	1248.88
471.022	1281.2
471.394	1292.72
471.766	1284.81
472.138	1294.3
472.51	1348.54
472.882	1341.98
473.253	1358.48
473.625	1351.93
473.997	1393.96
474.369	1381.08
474.74	1391.25
475.112	1425.82
475.484	1411.36
475.855	1442.32
476.227	1431.47
476.598	1477.12
476.97	1468.31
477.341	1494.07
477.713	1531.13
478.084	1517.12
478.455	1551.24
478.827	1551.92
479.198	1564.35
479.569	1567.06
479.94	1578.59
480.311	1610.9
480.682	1637.34
481.053	1646.84
481.424	1674.18
481.795	1684.35
482.166	1677.79
482.537	1684.57
482.908	1719.38
483.279	1719.15
483.65	1738.81
484.021	1769.09
484.391	1777.91
484.762	1740.84
485.133	1786.94
485.503	1776.1
485.874	1777.91
486.244	1814.74
486.615	1819.49
486.985	1864.46
487.356	1854.29
487.726	1865.81
488.097	1878.02
488.467	1863.55
488.837	1917.56
489.207	1920.95
489.578	1904.68
489.948	1893.83
490.318	1961.86
490.688	1950.78
491.058	1924.79
491.428	1938.35
491.798	1954.85
492.168	1962.99
492.538	1974.28
492.908	1992.59
493.278	1966.83
493.648	1992.81
494.017	2012.25
494.387	1980.39
494.757	1975.64
495.126	1988.97
495.496	2011.12
495.866	1982.65
496.235	1998.24
496.605	1995.75
496.974	2021.97
497.344	2009.99
497.713	2015.87
498.082	2002.53
498.452	2019.25
498.821	2005.47
499.19	2005.7
499.559	2020.38
499.928	2008.18
500.298	1961.86
500.667	2020.16
501.036	1971.8
501.405	1983.1
501.774	2006.83
502.143	2031.46
502.512	1990.56
502.88	2025.36
503.249	1985.81
503.618	1999.59
503.987	2021.06
504.356	1992.59
504.724	2010.44
505.093	2000.5
505.462	1990.56
505.83	2017.45
506.199	1980.16
506.567	2022.87
506.936	2016.32
507.304	1997.79
507.672	1969.54
508.041	1954.85
508.409	1995.98
508.777	1988.07
509.145	1974.96
509.514	1998.24
509.882	1993.04
510.25	1959.37
510.618	1984
510.986	1951.69
511.354	1978.35
511.722	1987.84
512.09	1973.61
512.458	1949.88
512.826	1954.4
513.193	1963.66
513.561	1960.5
513.929	1961.86
514.297	1967.5
514.664	1942.42
515.032	1975.41
515.4	1934.51
515.767	1930.44
516.135	1933.16
516.502	1895.19
516.869	1931.8
517.237	1909.43
517.604	1920.05
517.972	1885.7
518.339	1894.96
518.706	1910.33
519.073	1905.36
519.44	1908.75
519.808	1869.2
520.175	1878.24
520.542	1894.74
520.909	1852.71
521.276	1887.51
521.643	1902.65
522.009	1873.72
522.376	1879.6
522.743	1885.7
523.11	1880.28
523.477	1895.64
523.843	1866.49
524.21	1879.6
524.577	1853.16
524.943	1861.74
525.31	1862.87
525.676	1892.48
526.043	1881.63
526.409	1901.52
526.776	1888.64
527.142	1860.61
527.508	1866.49
527.874	1876.21
528.241	1907.85
528.607	1877.56
528.973	1879.6
529.339	1881.41
529.705	1881.41
530.071	1896.77
530.437	1883.67
530.803	1861.97
531.169	1889.99
531.535	1880.95
531.901	1868.3
532.267	1865.13
532.632	1849.99
532.998	1910.78
533.364	1889.31
533.73	1895.64
534.095	1880.73
534.461	1874.17
534.826	1872.37
535.192	1880.95
535.557	1892.7
535.923	1882.31
536.288	1881.86
536.653	1880.95
537.019	1869.65
537.384	1852.03
537.749	1847.06
538.114	1860.84
538.479	1867.62
538.845	1878.02
539.21	1881.63
539.575	1873.5
539.94	1861.74
540.305	1887.51
540.67	1869.2
541.034	1871.24
541.399	1856.1
541.764	1867.62
542.129	1874.63
542.494	1881.86
542.858	1887.73
543.223	1833.95
543.587	1854.51
543.952	1862.2
544.316	1860.84
544.681	1861.29
545.045	1844.12
545.41	1825.59
545.774	1843.21
546.138	1814.06
546.503	1858.36
546.867	1846.6
547.231	1845.93
547.595	1846.83
547.959	1843.21
548.324	1849.99
548.688	1819.94
549.052	1844.57
549.416	1850.22
549.779	1818.13
550.143	1845.25
550.507	1809.77
550.871	1820.39
551.235	1810.67
551.599	1805.02
551.962	1819.03
552.326	1833.95
552.689	1821.07
553.053	1807.96
553.417	1810.67
553.78	1793.5
554.143	1796.89
554.507	1802.76
554.87	1809.99
555.234	1818.58
555.597	1794.18
555.96	1822.65
556.323	1795.31
556.686	1809.54
557.05	1811.58
557.413	1804.57
557.776	1798.92
558.139	1827.62
558.502	1772.03
558.865	1791.24
559.228	1822.2
559.59	1777.45
559.953	1799.37
560.316	1809.09
560.679	1780.17
561.041	1817.23
561.404	1789.2
561.767	1821.97
562.129	1777.45
562.492	1834.4
562.854	1812.71
563.217	1809.32
563.579	1823.78
563.941	1838.24
564.304	1853.38
564.666	1833.27
565.028	1880.5
565.39	1833.05
565.753	1857.45
566.115	1841.63
566.477	1848.64
566.839	1846.38
567.201	1856.32
567.563	1902.87
567.925	1857.68
568.287	1883.89
568.648	1889.31
569.01	1880.95
569.372	1870.78
569.734	1867.85
570.095	1879.82
570.457	1891.57
570.819	1874.17
571.18	1874.17
571.542	1915.3
571.903	1898.58
572.265	1895.87
572.626	1905.13
572.987	1905.36
573.349	1909.2
573.71	1930.22
574.071	1941.29
574.432	1959.14
574.794	1936.09
575.155	1983.55
575.516	1973.83
575.877	1982.87
576.238	1968.41
576.599	1984.68
576.96	1962.31
577.32	1971.57
577.681	2004.79
578.042	1985.81
578.403	1977
578.763	2019.48
579.124	2014.28
579.485	2016.54
579.845	2042.08
580.206	2020.38
580.566	2034.17
580.927	2031.23
581.287	2027.39
581.648	2049.08
582.008	2068.52
582.368	2067.16
582.728	2052.93
583.089	2054.51
583.449	2078.91
583.809	2097.44
584.169	2073.49
584.529	2063.32
584.889	2069.42
585.249	2091.8
585.609	2076.65
585.969	2101.29
586.329	2136.09
586.688	2077.56
587.048	2087.73
587.408	2064.9
587.768	2090.44
588.127	2079.37
588.487	2097.67
588.846	2084.11
589.206	2107.84
589.565	2101.74
589.925	2095.64
590.284	2069.2
590.643	2078.91
591.003	2070.55
591.362	2086.82
591.721	2082.53
592.08	2085.92
592.44	2084.79
592.799	2067.39
593.158	2092.02
593.517	2095.64
593.876	2129.99
594.235	2115.3
594.593	2098.57
594.952	2114.39
595.311	2084.79
595.67	2105.13
596.029	2081.17
596.387	2101.06
596.746	2132.92
597.104	2114.39
597.463	2134.28
597.822	2141.74
598.18	2122.3
598.538	2098.8
598.897	2090.21
599.255	2094.06
599.613	2105.81
599.972	2107.16
600.33	2092.02
600.688	2096.54
601.046	2065.36
601.404	2105.35
601.762	2136.77
602.12	2120.5
602.478	2098.35
602.836	2120.5
603.194	2118.24
603.552	2098.8
603.91	2102.87
604.268	2123.43
604.625	2106.94
604.983	2099.25
605.341	2057.67
605.698	2071.23
606.056	2109.65
606.413	2085.24
606.771	2097.67
607.128	2111.46
607.485	2111
607.843	2102.42
608.2	2133.15
608.557	2118.24
608.914	2102.87
609.272	2115.52
609.629	2087.73
609.986	2119.37
610.343	2103.32
610.7	2073.26
611.057	2122.08
611.414	2117.11
611.771	2122.98
612.127	2151.68
612.484	2111.68
612.841	2122.53
613.198	2107.84
613.554	2139.7
613.911	2114.39
614.267	2123.43
614.624	2081.63
614.98	2126.14
615.337	2118.46
615.693	2149.87
616.05	2123.88
616.406	2139.7
616.762	2127.5
617.118	2132.92
617.475	2153.94
617.831	2117.33
618.187	2141.06
618.543	2149.19
618.899	2116.65
619.255	2152.58
619.611	2118.91
619.967	2120.5
620.323	2138.35
620.678	2180.38
621.034	2145.13
621.39	2166.37
621.746	2136.54
622.101	2150.78
622.457	2141.29
622.812	2102.64
623.168	2163.66
623.523	2152.81
623.879	2094.06
624.234	2132.92
624.589	2157.56
624.945	2166.37
625.3	2161.17
625.655	2160.27
626.01	2175.86
626.365	2141.74
626.72	2165.69
627.075	2146.71
627.43	2165.92
627.785	2144.45
628.14	2170.21
628.495	2144.68
628.85	2168.4
629.205	2137.9
629.559	2135.18
629.914	2154.84
630.269	2120.04
630.623	2138.35
630.978	2138.57
631.332	2148.06
631.687	2173.6
632.041	2134.28
632.396	2153.49
632.75	2176.31
633.104	2128.18
633.459	2118.01
633.813	2117.56
634.167	2152.81
634.521	2136.09
634.875	2180.15
635.229	2148.97
635.583	2129.76
635.937	2121.17
636.291	2138.8
636.645	2131.12
636.999	2129.53
637.352	2171.79
637.706	2141.51
638.06	2167.95
638.413	2129.31
638.767	2122.53
639.121	2124.79
639.474	2137.44
639.828	2139.93
640.181	2127.95
640.534	2160.04
640.888	2130.44
641.241	2125.47
641.594	2140.16
641.947	2140.38
642.301	2120.27
642.654	2128.18
643.007	2116.43
643.36	2125.69
643.713	2155.3
644.066	2139.03
644.419	2143.77
644.771	2125.01
645.124	2114.39
645.477	2113.49
645.83	2104
646.182	2097.67
646.535	2094.06
646.888	2121.85
647.24	2114.39
647.593	2124.11
647.945	2128.4
648.298	2105.35
648.65	2081.4
649.002	2134.05
649.355	2118.46
649.707	2118.46
650.059	2108.29
650.411	2186.93
650.763	2170.44
651.115	2183.09
651.467	2199.36
651.819	2170.44
652.171	2193.49
652.523	2202.53
652.875	2193.71
653.227	2196.65
653.578	2200.94
653.93	2204.33
654.282	2188.52
654.633	2186.03
654.985	2183.09
655.337	2208.18
655.688	2197.78
656.039	2186.26
656.391	2209.98
656.742	2197.78
657.094	2205.69
657.445	2203.88
657.796	2238.68
658.147	2252.02
658.498	2253.15
658.849	2204.11
659.2	2214.5
659.551	2257.67
659.902	2226.93
660.253	2210.66
660.604	2230.32
660.955	2209.31
661.306	2232.13
661.656	2209.53
662.007	2235.52
662.358	2210.66
662.708	2233.71
663.059	2194.17
663.409	2208.85
663.76	2273.94
664.11	2227.38
664.461	2246.37
664.811	2256.76
665.161	2255.63
665.511	2262.86
665.862	2247.05
666.212	2260.83
666.562	2249.31
666.912	2219.25
667.262	2235.07
667.612	2253.37
667.962	2238.46
668.312	2215.86
668.662	2260.38
669.011	2226.26
669.361	2219.7
669.711	2266.71
670.06	2238.01
670.41	2211.34
670.76	2207.72
671.109	2208.85
671.459	2196.65
671.808	2256.99
672.157	2190.78
672.507	2213.83
672.856	2200.94
673.205	2191
673.554	2189.65
673.904	2199.59
674.253	2199.82
674.602	2188.74
674.951	2179.02
675.3	2174.96
675.649	2166.14
675.998	2172.02
676.346	2176.99
676.695	2198.46
677.044	2125.92
677.393	2170.89
677.741	2162.3
678.09	2163.88
678.438	2168.86
678.787	2144
679.135	2134.05
679.484	2130.21
679.832	2184.45
680.181	2135.64
680.529	2163.21
680.877	2114.17
681.225	2138.57
681.573	2118.01
681.922	2112.81
682.27	2120.27
682.618	2115.52
682.966	2102.64
683.314	2138.8
683.661	2119.14
684.009	2101.06
684.357	2112.36
684.705	2041.63
685.053	2087.95
685.4	2087.73
685.748	2094.06
686.095	2042.76
686.443	2035.53
686.79	2075.98
687.138	2049.08
687.485	2054.51
687.832	2023.77
688.18	2057.45
688.527	2040.5
688.874	2030.55
689.221	2031.23
689.568	1994.62
689.915	2023.77
690.262	2002.08
690.609	2011.57
690.956	1995.53
691.303	2019.93
691.65	1983.1
691.997	1970.44
692.344	1982.19
692.69	1961.63
693.037	1984.45
693.383	1949.43
693.73	1930.9
694.077	1937.45
694.423	1946.26
694.769	1929.54
695.116	1929.09
695.462	1925.25
695.808	1938.8
696.155	1930.9
696.501	1895.64
696.847	1916.43
697.193	1897.68
697.539	1903.33
697.885	1868.75
698.231	1868.75
698.577	1875.98
698.923	1884.12
699.269	1826.04
699.614	1849.32
699.96	1857.9
700.306	1863.78
700.651	1868.98
700.997	1832.14
701.342	1840.95
701.688	1841.41
702.033	1819.26
702.379	1809.77
702.724	1858.36
703.069	1830.33
703.415	1814.97
703.76	1808.86
704.105	1837.11
704.45	1822.65
704.795	1815.42
705.14	1811.58
705.485	1804.12
705.83	1788.07
706.175	1814.51
706.52	1760.05
706.865	1814.06
707.209	1809.77
707.554	1796.21
707.899	1772.03
708.243	1808.64
708.588	1823.78
708.932	1795.08
709.277	1776.78
709.621	1807.28
709.966	1799.37
710.31	1794.63
710.654	1786.04
710.998	1815.87
711.342	1778.36
711.687	1750.11
712.031	1772.71
712.375	1796.89
712.719	1800.5
713.063	1795.31
713.407	1781.52
713.75	1824.01
714.094	1783.78
714.438	1801.41
714.782	1815.42
715.125	1784.91
715.469	1826.49
715.812	1806.38
716.156	1823.33
716.499	1826.04
716.843	1814.97
717.186	1827.62
717.53	1844.8
717.873	1822.65
718.216	1857.23
718.559	1812.25
718.902	1835.53
719.246	1839.37
719.589	1857.45
719.932	1815.64
720.275	1843.44
720.617	1892.48
720.96	1848.64
721.303	1895.19
721.646	1887.28
721.989	1874.85
722.331	1891.57
722.674	1862.87
723.016	1862.42
723.359	1877.56
723.701	1892.93
724.044	1925.47
724.386	1899.26
724.729	1916.66
725.071	1912.14
725.413	1910.56
725.755	1943.78
726.097	1927.73
726.439	1931.57
726.782	1949.65
727.124	1953.04
727.465	1921.4
727.807	1980.61
728.149	1980.39
728.491	1973.83
728.833	1990.33
729.175	1996.66
729.516	1991.91
729.858	2009.99
730.199	2002.76
730.541	2029.65
730.882	2005.47
731.224	2047.28
731.565	2069.87
731.906	2041.18
732.248	2075.3
732.589	2074.39
732.93	2093.6
733.271	2077.33
733.612	2067.62
733.953	2099.25
734.294	2076.43
734.635	2168.18
734.976	2120.04
735.317	2143.55
735.658	2151.68
735.999	2200.72
736.339	2176.99
736.68	2219.25
737.021	2209.76
737.361	2222.64
737.702	2228.97
738.042	2252.92
738.383	2251.34
738.723	2290.43
739.063	2304.67
739.404	2298.34
739.744	2348.06
740.084	2295.63
740.424	2377.89
740.764	2363.65
741.104	2383.31
741.444	2405.23
741.784	2432.13
742.124	2442.75
742.464	2500.37
742.804	2507.83
743.143	2515.06
743.483	2562.07
743.823	2563.2
744.162	2630.76
744.502	2593.48
744.841	2643.19
745.181	2702.17
745.52	2703.98
745.86	2728.39
746.199	2795.96
746.538	2770.42
746.877	2842.51
747.216	2879.35
747.556	2922.96
747.895	2923.41
748.234	2985.56
748.573	3040.92
748.911	3084.54
749.25	3114.37
749.589	3179
749.928	3198.43
750.267	3225.1
750.605	3309.39
750.944	3357.52
751.283	3381.48
751.621	3421.03
751.96	3439.78
752.298	3509.61
752.636	3565.65
752.975	3597.97
753.313	3643.62
753.651	3722.26
753.989	3764.97
754.327	3804.97
754.666	3853.33
755.004	3922.48
755.342	3960.67
755.679	4047.9
756.017	4089.48
756.355	4182.81
756.693	4220.1
757.031	4335.13
757.368	4388.23
757.706	4420.77
758.044	4474.78
758.381	4541
758.719	4613.31
759.056	4673.42
759.394	4680.2
759.731	4740.54
760.068	4810.37
760.405	4846.98
760.743	4901.89
761.08	4985.5
761.417	5035.67
761.754	5086.52
762.091	5089.68
762.428	5184.82
762.765	5185.27
763.102	5262.11
763.438	5324.03
763.775	5346.17
764.112	5448.54
764.449	5499.84
764.785	5493.51
765.122	5565.15
765.458	5629.33
765.795	5693.06
766.131	5728.31
766.467	5767.86
766.804	5745.94
767.14	5811.7
767.476	5882.88
767.812	5915.42
768.148	5950.22
768.485	5918.36
768.821	5963.56
769.157	6046.27
769.492	6056.21
769.828	6084.91
770.164	6059.83
770.5	6128.07
770.836	6222.31
