Data from blue_clamp_base_FLMS001491_00059.txt Node
Date: Wed Feb 08 15:16:13 GMT 2017
User: dcchb
Spectrometer: FLMS00149
Trigger mode: 0
Integration Time (sec): 2.000000E-2
Scans to average: 10
Electric dark correction enabled: true
Nonlinearity correction enabled: false
Boxcar width: 0
XAxis mode: Wavelengths
Number of Pixels in Spectrum: 2048
>>>>>Begin Spectral Data<<<<<
341.393	-17.23
341.776	-17.23
342.16	-17.23
342.543	-61.3
342.927	-58.81
343.31	-79.15
343.693	-81.18
344.077	-75.99
344.46	-78.7
344.843	-50.9
345.226	-45.03
345.61	-17.91
345.993	-29.89
346.376	-3.45
346.759	-0.51
347.142	22.32
347.525	61.41
347.908	55.76
348.291	84.24
348.674	95.99
349.057	142.99
349.44	116.55
349.823	146.38
350.206	164.91
350.588	188.41
350.971	204.91
351.354	242.2
351.737	240.39
352.119	261.63
352.502	258.47
352.884	255.3
353.267	286.49
353.65	295.3
354.032	283.55
354.414	307.05
354.797	311.35
355.179	328.75
355.562	328.3
355.944	345.92
356.326	339.6
356.709	339.82
357.091	303.89
357.473	329.43
357.855	345.02
358.238	357.67
358.62	326.04
359.002	335.75
359.384	351.35
359.766	351.12
360.148	327.17
360.53	333.72
360.912	345.25
361.294	314.06
361.676	346.6
362.057	330.1
362.439	340.05
362.821	307.96
363.203	334.17
363.584	348.86
363.966	330.33
364.348	311.12
364.729	307.28
365.111	334.17
365.493	324.45
365.874	314.74
366.256	312.03
366.637	311.35
367.019	299.82
367.4	308.86
367.781	326.71
368.163	318.81
368.544	306.38
368.925	326.71
369.306	317.22
369.688	312.25
370.069	298.92
370.45	307.51
370.831	306.15
371.212	307.96
371.593	301.4
371.974	292.59
372.355	298.47
372.736	328.52
373.117	299.14
373.498	311.57
373.879	308.41
374.26	321.97
374.641	320.39
375.021	324.91
375.402	291.91
375.783	302.31
376.163	342.99
376.544	344.79
376.925	339.14
377.305	342.08
377.686	306.6
378.066	349.31
378.447	360.84
378.827	331.91
379.208	318.35
379.588	330.78
379.968	327.39
380.349	332.14
380.729	320.84
381.109	347.5
381.489	340.05
381.87	335.3
382.25	362.19
382.63	324.68
383.01	336.88
383.39	342.31
383.77	352.7
384.15	362.42
384.53	338.01
384.91	341.63
385.29	346.83
385.67	342.99
386.049	354.96
386.429	341.4
386.809	342.31
387.189	367.39
387.568	342.31
387.948	368.52
388.328	390.44
388.707	382.08
389.087	349.31
389.466	387.05
389.846	402.42
390.225	380.5
390.605	397.45
390.984	388.18
391.363	392.93
391.743	395.87
392.122	388.63
392.501	394.74
392.881	406.94
393.26	421.4
393.639	426.37
394.018	415.3
394.397	407.39
394.776	396.32
395.155	429.08
395.534	411.01
395.913	417.11
396.292	425.7
396.671	432.47
397.05	428.86
397.429	449.42
397.808	453.94
398.186	444.68
398.565	456.88
398.944	449.2
399.323	447.16
399.701	453.94
400.08	446.71
400.458	460.95
400.837	469.99
401.215	496.88
401.594	483.32
401.972	485.35
402.351	490.1
402.729	503.89
403.107	516.31
403.486	528.52
403.864	498.91
404.242	509.31
404.62	537.56
404.999	521.74
405.377	538.69
405.755	547.05
406.133	562.41
406.511	544.11
406.889	563.77
407.267	557.44
407.645	577.78
408.023	563.32
408.401	594.96
408.779	592.7
409.156	601.28
409.534	596.09
409.912	620.27
410.29	615.07
410.667	632.24
411.045	641.06
411.422	643.77
411.8	635.41
412.178	652.58
412.555	686.71
412.933	696.87
413.31	688.96
413.687	678.34
414.065	719.02
414.442	697.33
414.819	713.6
415.197	711.34
415.574	740.26
415.951	716.53
416.328	740.26
416.705	741.17
417.082	739.36
417.46	770.09
417.837	770.77
418.214	778.68
418.591	785.69
418.967	773.26
419.344	803.99
419.721	819.13
420.098	790.43
420.475	816.87
420.852	820.26
421.228	832.46
421.605	838.57
421.982	826.81
422.358	894.38
422.735	867.04
423.111	873.14
423.488	896.19
423.864	879.92
424.241	885.57
424.617	915.63
424.994	915.17
425.37	954.27
425.746	924.21
426.123	933.48
426.499	950.88
426.875	976.87
427.251	994.49
427.627	991.56
428.003	1020.48
428.379	1034.94
428.756	1037.88
429.132	1038.33
429.507	1054.38
429.883	1053.48
430.259	1112.91
430.635	1110.42
431.011	1122.63
431.387	1124.66
431.763	1133.47
432.138	1163.08
432.514	1206.01
432.89	1179.57
433.265	1224.32
433.641	1178.22
434.016	1230.19
434.392	1245.79
434.767	1281.94
435.143	1294.6
435.518	1288.5
435.894	1323.3
436.269	1319.91
436.644	1342.51
437.02	1348.38
437.395	1340.7
437.77	1382.96
438.145	1384.54
438.52	1422.73
438.895	1425.44
439.271	1423.18
439.646	1455.72
440.021	1443.07
440.395	1509.73
440.77	1491.88
441.145	1507.25
441.52	1547.25
441.895	1502.5
442.27	1549.28
442.645	1557.64
443.019	1593.8
443.394	1594.7
443.769	1615.95
444.143	1589.73
444.518	1622.05
444.892	1644.87
445.267	1652.1
445.641	1694.36
446.016	1684.64
446.39	1679.45
446.764	1681.93
447.139	1711.08
447.513	1723.06
447.887	1726.45
448.262	1749.5
448.636	1765.09
449.01	1789.27
449.384	1806.45
449.758	1827.24
450.132	1843.74
450.506	1815.49
450.88	1850.74
451.254	1840.35
451.628	1864.53
452.002	1913.11
452.376	1938.42
452.75	1939.55
453.123	1955.6
453.497	1987.69
453.871	1993.56
454.244	2025.2
454.618	2076.5
454.992	2104.52
455.365	2125.31
455.739	2106.33
456.112	2168.25
456.486	2181.13
456.859	2197.4
457.232	2239.88
457.606	2252.99
457.979	2268.58
458.352	2325.08
458.725	2332.09
459.099	2329.83
459.472	2404.17
459.845	2405.08
460.218	2438.75
460.591	2452.31
460.964	2436.49
461.337	2522.82
461.71	2540.44
462.083	2548.35
462.456	2533.21
462.829	2570.95
463.201	2635.13
463.574	2653.66
463.947	2704.96
464.32	2716.71
464.692	2739.98
465.065	2756.26
465.438	2768.46
465.81	2822.92
466.183	2826.31
466.555	2853.88
466.928	2888
467.3	2900.43
467.672	2940.88
468.045	3050.94
468.417	3026.3
468.789	3050.03
469.161	3073.54
469.534	3117.6
469.906	3188.11
470.278	3202.8
470.65	3215.23
471.022	3263.36
471.394	3349.46
471.766	3342
472.138	3387.2
472.51	3471.72
472.882	3475.56
473.253	3522.34
473.625	3545.84
473.997	3624.93
474.369	3668.1
474.74	3702.9
475.112	3721.43
475.484	3750.81
475.855	3824.7
476.227	3892.95
476.598	3953.96
476.97	3962.1
477.341	4055.88
477.713	4073.06
478.084	4115.32
478.455	4182.43
478.827	4245.71
479.198	4352.6
479.569	4328.19
479.94	4474.63
480.311	4430.56
480.682	4527.51
481.053	4631.01
481.424	4741.51
481.795	4723.89
482.166	4772.02
482.537	4853.38
482.908	4866.03
483.279	4946.48
483.65	4922.3
484.021	5111
484.391	5059.47
484.762	5123.2
485.133	5130.2
485.503	5223.99
485.874	5285.91
486.244	5323.65
486.615	5397.77
486.985	5468.27
487.356	5541.49
487.726	5560.7
488.097	5613.13
488.467	5616.74
488.837	5733.58
489.207	5767.48
489.578	5782.39
489.948	5840.47
490.318	5894.03
490.688	5886.57
491.058	5956.62
491.428	6021.48
491.798	6041.14
492.168	6135.83
492.538	6156.17
492.908	6154.58
493.278	6234.13
493.648	6233.9
494.017	6320.68
494.387	6319.33
494.757	6331.75
495.126	6386.44
495.496	6381.24
495.866	6402.26
496.235	6389.15
496.605	6483.61
496.974	6453.79
497.344	6525.65
497.713	6538.75
498.082	6556.83
498.452	6588.24
498.821	6652.2
499.19	6619.43
499.559	6689.94
499.928	6669.15
500.298	6665.76
500.667	6744.62
501.036	6721.57
501.405	6785.08
501.774	6819.2
502.143	6823.04
502.512	6839.76
502.88	6882.25
503.249	6860.55
503.618	6863.94
503.987	6917.28
504.356	6897.84
504.724	6906.65
505.093	6934
505.462	6914.11
505.83	7003.6
506.199	7001.34
506.567	7023.26
506.936	7058.29
507.304	7079.31
507.672	7145.97
508.041	7087.89
508.409	7130.83
508.777	7191.17
509.145	7205.63
509.514	7177.61
509.882	7210.15
510.25	7185.97
510.618	7245.4
510.986	7276.81
511.354	7323.14
511.722	7359.52
512.09	7378.96
512.458	7357.72
512.826	7378.05
513.193	7380.99
513.561	7395.46
513.929	7456.7
514.297	7470.03
514.664	7505.51
515.032	7508.45
515.4	7531.72
515.767	7522.23
516.135	7562.91
516.502	7482.68
516.869	7618.27
517.237	7643.81
517.604	7559.74
517.972	7672.06
518.339	7688.1
518.706	7645.39
519.073	7665.5
519.44	7695.33
519.808	7751.83
520.175	7755.22
520.542	7829.12
520.909	7861.88
521.276	7789.8
521.643	7889.68
522.009	7892.17
522.376	7879.96
522.743	7947.08
523.11	7978.26
523.477	8031.6
523.843	8020.52
524.21	8114.76
524.577	8125.61
524.943	8106.17
525.31	8131.71
525.676	8192.95
526.043	8230.69
526.409	8237.92
526.776	8295.09
527.142	8302.32
527.508	8360.85
527.874	8391.81
528.241	8459.61
528.607	8395.65
528.973	8456.44
529.339	8510.68
529.705	8518.14
530.071	8596.33
530.437	8536.44
530.803	8558.36
531.169	8658.02
531.535	8643.11
531.901	8644.91
532.267	8660.51
532.632	8738.24
532.998	8711.35
533.364	8750.67
533.73	8795.64
534.095	8823.89
534.461	8848.98
534.826	8864.34
535.192	8885.81
535.557	8988.63
535.923	8907.28
536.288	8983.66
536.653	9012.14
537.019	9022.53
537.384	9078.57
537.749	9084
538.114	9068.41
538.479	9089.87
538.845	9092.59
539.21	9117.22
539.575	9135.07
539.94	9186.37
540.305	9160.15
540.67	9204.9
541.034	9165.35
541.399	9200.83
541.764	9292.81
542.129	9318.12
542.494	9307.04
542.858	9296.42
543.223	9283.77
543.587	9309.98
543.952	9319.02
544.316	9354.95
544.681	9337.55
545.045	9395.4
545.41	9411.22
545.774	9442.41
546.138	9389.75
546.503	9457.32
546.867	9516.53
547.231	9487.6
547.595	9493.03
547.959	9439.47
548.324	9501.61
548.688	9482.86
549.052	9566.02
549.416	9483.08
549.779	9566.92
550.143	9553.14
550.507	9637.2
550.871	9521.95
551.235	9549.52
551.599	9713.81
551.962	9625.91
552.326	9709.74
552.689	9740.25
553.053	9618.67
553.417	9693.47
553.78	9717.65
554.143	9778.44
554.507	9767.37
554.87	9790.42
555.234	9823.19
555.597	9803.53
555.96	9829.06
556.323	9838.33
556.686	9746.81
557.05	9877.65
557.413	9889.85
557.776	9819.35
558.139	9937.99
558.502	9860.93
558.865	9940.25
559.228	10019.57
559.59	9925.33
559.953	9968.04
560.316	10097.98
560.679	9992.22
561.041	10088.72
561.404	10129.85
561.767	10139.79
562.129	10059.11
562.492	10162.16
562.854	10072
563.217	10143.41
563.579	10160.58
563.941	10186.12
564.304	10221.82
564.666	10316.28
565.028	10351.99
565.39	10363.96
565.753	10400.35
566.115	10342.95
566.477	10428.14
566.839	10483.96
567.201	10519.21
567.563	10526.45
567.925	10609.16
568.287	10581.13
568.648	10614.35
569.01	10663.17
569.372	10657.52
569.734	10652.54
570.095	10755.59
570.457	10814.8
570.819	10823.61
571.18	10848.25
571.542	10888.47
571.903	10765.54
572.265	10857.29
572.626	10912.88
572.987	10926.66
573.349	10993.78
573.71	10997.62
574.071	11051.4
574.432	11017.51
574.794	11090.27
575.155	11109.71
575.516	11040.33
575.877	11112.87
576.238	11208.69
576.599	11137.05
576.96	11210.72
577.32	11262.92
577.681	11255.92
578.042	11287.56
578.403	11288.23
578.763	11251.4
579.124	11349.25
579.485	11306.31
579.845	11372.98
580.206	11383.6
580.566	11431.06
580.927	11397.84
581.287	11445.52
581.648	11374.33
582.008	11460.89
582.368	11479.64
582.728	11485.74
583.089	11441
583.449	11505.4
583.809	11511.96
584.169	11492.07
584.529	11554.44
584.889	11577.72
585.249	11514.22
585.609	11437.83
585.969	11612.75
586.329	11530.94
586.688	11616.36
587.048	11609.36
587.408	11612.29
587.768	11650.26
588.127	11574.33
588.487	11620.43
588.846	11703.59
589.206	11652.07
589.565	11657.72
589.925	11676.25
590.284	11571.39
590.643	11717.83
591.003	11697.72
591.362	11741.56
591.721	11687.32
592.08	11729.8
592.44	11746.3
592.799	11785.62
593.158	11757.83
593.517	11723.48
593.876	11726.87
594.235	11767.77
594.593	11691.84
594.952	11760.31
595.311	11734.78
595.67	11767.32
596.029	11823.14
596.387	11866.3
596.746	11860.87
597.104	11809.8
597.463	11863.36
597.822	11897.71
598.18	11746.3
598.538	11837.37
598.897	11846.64
599.255	11776.58
599.613	11971.38
599.972	11963.02
600.33	11894.09
600.688	11877.82
601.046	11939.06
601.404	11931.61
601.762	11915.56
602.12	11992.85
602.478	11921.89
602.836	11885.73
603.194	11894.32
603.552	11898.84
603.91	11845.06
604.268	11959.4
604.625	11877.6
604.983	11941.1
605.341	11882.79
605.698	12029.23
606.056	11989.01
606.413	11962.34
606.771	12047.08
607.128	12049.8
607.485	11950.59
607.843	11998.95
608.2	12040.3
608.557	12096.8
608.914	11990.59
609.272	12054.32
609.629	12102.9
609.986	12089.12
610.343	12074.88
610.7	12147.42
611.057	12170.02
611.414	12135.67
611.771	12146.97
612.127	12156.01
612.484	12185.39
612.841	12277.81
613.198	12191.49
613.554	12099.74
613.911	12298.83
614.267	12203.92
614.624	12250.24
614.98	12348.77
615.337	12446.62
615.693	12365.04
616.05	12293.86
616.406	12418.83
616.762	12354.19
617.118	12441.2
617.475	12394.87
617.831	12486.85
618.187	12429.67
618.543	12445.04
618.899	12521.65
619.255	12487.98
619.611	12508.99
619.967	12496.79
620.323	12513.06
620.678	12527.75
621.034	12448.66
621.39	12538.6
621.746	12513.74
622.101	12623.11
622.457	12516.22
622.812	12495.66
623.168	12565.49
623.523	12708.76
623.879	12680.06
624.234	12650.23
624.589	12650.91
624.945	12698.82
625.3	12745.82
625.655	12698.14
626.01	12739.27
626.365	12780.17
626.72	12727.74
627.075	12706.05
627.43	12668.31
627.785	12770.68
628.14	12735.2
628.495	12743.79
628.85	12786.27
629.205	12777.69
629.559	12852.94
629.914	12791.47
630.269	12815.2
630.623	12827.18
630.978	12805.26
631.332	12916.21
631.687	12855.2
632.041	12886.16
632.396	12866.05
632.75	12828.31
633.104	12946.27
633.459	12861.75
633.813	12903.79
634.167	12916.67
634.521	12924.12
634.875	12880.28
635.229	12840.06
635.583	12871.02
635.937	12845.03
636.291	12937.91
636.645	12931.35
636.999	12992.14
637.352	12932.26
637.706	12877.12
638.06	12995.31
638.413	13060.84
638.767	13029.43
639.121	13131.58
639.474	12905.82
639.828	12951.92
640.181	13110.11
640.534	13067.4
640.888	13100.16
641.241	13000.96
641.594	12952.82
641.947	13059.26
642.301	13026.04
642.654	12981.3
643.007	13167.28
643.36	13204.34
643.713	13089.32
644.066	13130.67
644.419	13129.77
644.771	13071.92
645.124	13142.87
645.477	13053.16
645.83	13011.58
646.182	12966.61
646.535	12898.14
646.888	12926.84
647.24	12853.84
647.593	12946.27
647.945	12886.61
648.298	12841.87
648.65	12908.08
649.002	12856.78
649.355	12950.79
649.707	12950.34
650.059	13064.68
650.411	13255.64
650.763	13239.37
651.115	13458.8
651.467	13499.7
651.819	13422.87
652.171	13435.07
652.523	13365.24
652.875	13428.29
653.227	13400.95
653.578	13480.49
653.93	13485.24
654.282	13423.32
654.633	13451.57
654.985	13482.3
655.337	13482.3
655.688	13563.88
656.039	13553.71
656.391	13415.86
656.742	13475.75
657.094	13597.33
657.445	13618.34
657.796	13604.56
658.147	13643.65
658.498	13646.36
658.849	13699.47
659.2	13572.02
659.551	13578.34
659.902	13693.82
660.253	13665.8
660.604	13754.16
660.955	13656.76
661.306	13691.33
661.656	13689.08
662.007	13762.07
662.358	13684.56
662.708	13784.21
663.059	13762.52
663.409	13659.92
663.76	13791.67
664.11	13732.92
664.461	13731.56
664.811	13766.59
665.161	13676.42
665.511	13721.62
665.862	13722.29
666.212	13787.15
666.562	13854.04
666.912	13743.54
667.262	13729.98
667.612	13755.74
667.962	13793.25
668.312	13765.46
668.662	13840.94
669.011	13802.74
669.361	13758.23
669.711	13691.79
670.06	13616.76
670.41	13642.3
670.76	13586.03
671.109	13733.14
671.459	13616.53
671.808	13603.43
672.157	13677.55
672.507	13485.92
672.856	13477.56
673.205	13490.66
673.554	13537.67
673.904	13446.82
674.253	13468.97
674.602	13446.37
674.951	13186.72
675.3	13146.04
675.649	13298.12
675.998	13282.08
676.346	13340.38
676.695	13306.26
677.044	13176.09
677.393	13285.02
677.741	13202.53
678.09	13284.34
678.438	13177.9
678.787	13172.25
679.135	13186.04
679.484	13058.36
679.832	13100.62
680.181	12928.87
680.529	13003.22
680.877	12979.26
681.225	12940.39
681.573	13046.38
681.922	12904.46
682.27	12916.21
682.618	12892.49
682.966	12823.34
683.314	12894.52
683.661	12816.78
684.009	12722.32
684.357	12651.36
684.705	12770.46
685.053	12650.23
685.4	12704.92
685.748	12561.65
686.095	12655.43
686.443	12540.63
686.79	12473.06
687.138	12562.1
687.485	12523.23
687.832	12444.36
688.18	12523.46
688.527	12415.66
688.874	12396.68
689.221	12341.54
689.568	12407.07
689.915	12373.18
690.262	12344.25
690.609	12347.87
690.956	12262.22
691.303	12250.69
691.65	12262.45
691.997	12164.6
692.344	12115.11
692.69	12252.95
693.037	12188.32
693.383	12076.91
693.73	12157.59
694.077	12112.39
694.423	12014.54
694.769	12053.64
695.116	12021.55
695.462	12050.02
695.808	12049.12
696.155	12056.58
696.501	11935.67
696.847	11924.83
697.193	11895.22
697.539	11944.04
697.885	11882.57
698.231	11784.04
698.577	11847.99
698.923	11942.23
699.269	11883.02
699.614	11834.21
699.96	11778.62
700.306	11785.4
700.651	11806.41
700.997	11707.88
701.342	11760.99
701.688	11746.08
702.033	11717.15
702.379	11736.13
702.724	11738.39
703.069	11726.87
703.415	11633.99
703.76	11624.27
704.105	11690.03
704.45	11581.56
704.795	11643.03
705.14	11642.35
705.485	11559.19
705.83	11503.82
706.175	11487.33
706.52	11542.24
706.865	11464.05
707.209	11460.66
707.554	11530.04
707.899	11562.58
708.243	11411.85
708.588	11491.39
708.932	11436.93
709.277	11336.82
709.621	11477.38
709.966	11358.29
710.31	11497.04
710.654	11371.62
710.998	11375.92
711.342	11331.4
711.687	11381.11
712.031	11361
712.375	11292.98
712.719	11336.37
713.063	11406.42
713.407	11446.87
713.75	11336.59
714.094	11349.93
714.438	11314
714.782	11328.01
715.125	11379.08
715.469	11374.11
715.812	11272.42
716.156	11205.75
716.499	11327.56
716.843	11227.67
717.186	11254.34
717.53	11375.01
717.873	11401
718.216	11356.03
718.559	11252.53
718.902	11235.58
719.246	11154.9
719.589	11172.98
719.932	11242.13
720.275	11179.31
720.617	11124.85
720.96	11095.47
721.303	11168.69
721.646	11165.75
721.989	11149.03
722.331	11263.83
722.674	11191.74
723.016	11186.09
723.359	11182.02
723.701	11167.79
724.044	11167.11
724.386	11157.16
724.729	11212.08
725.071	11170.72
725.413	11121.68
725.755	11168.46
726.097	11124.62
726.439	11067.22
726.782	11167.11
727.124	11224.96
727.465	11115.81
727.807	11105.64
728.149	11137.05
728.491	11138.41
728.833	11103.15
729.175	11127.11
729.516	11117.62
729.858	11099.54
730.199	11217.5
730.541	11192.42
730.882	11162.14
731.224	11229.03
731.565	11176.6
731.906	11267.44
732.248	11215.02
732.589	11181.57
732.93	11218.41
733.271	11260.89
733.612	11185.64
733.953	11231.96
734.294	11210.5
734.635	11272.87
734.976	11321
735.317	11260.21
735.658	11304.28
735.999	11356.48
736.339	11354.45
736.68	11359.64
737.021	11361.45
737.361	11258.4
737.702	11422.02
738.042	11358.97
738.383	11430.38
738.723	11476.93
739.063	11379.53
739.404	11436.93
739.744	11496.14
740.084	11520.54
740.424	11502.24
740.764	11586.31
741.104	11640.32
741.444	11590.15
741.784	11510.83
742.124	11641.22
742.464	11638.06
742.804	11724.38
743.143	11651.84
743.483	11712.86
743.823	11694.78
744.162	11726.41
744.502	11735.68
744.841	11810.93
745.181	11899.29
745.52	11819.52
745.86	11894.09
746.199	11912.17
746.538	11899.07
746.877	11949.69
747.216	12066.74
747.556	12052.96
747.895	12087.54
748.234	12087.08
748.573	12216.57
748.911	12196.01
749.25	12294.31
749.589	12192.62
749.928	12289.79
750.267	12373.63
750.605	12366.85
750.944	12459.95
751.283	12393.06
751.621	12530.69
751.96	12428.32
752.298	12526.17
752.636	12562.55
752.975	12520.07
753.313	12584.02
753.651	12713.96
753.989	12682.55
754.327	12663.57
754.666	12677.58
755.004	12703.11
755.342	12775.2
755.679	12802.77
756.017	12852.49
756.355	12857.01
756.693	12909.66
757.031	13001.18
757.368	12857.68
757.706	12962.99
758.044	12998.7
