Data from blue_chair_FLMS001491_00056.txt Node
Date: Wed Feb 08 10:31:18 GMT 2017
User: dcchb
Spectrometer: FLMS00149
Trigger mode: 0
Integration Time (sec): 2.000000E-2
Scans to average: 10
Electric dark correction enabled: true
Nonlinearity correction enabled: false
Boxcar width: 0
XAxis mode: Wavelengths
Number of Pixels in Spectrum: 2048
>>>>>Begin Spectral Data<<<<<
341.393	-33.98
341.776	-33.98
342.16	-33.98
342.543	-64.04
342.927	-74.21
343.31	-70.82
343.693	-56.81
344.077	-71.04
344.46	-36.47
344.843	-63.36
345.226	-47.54
345.61	-28.11
345.993	-26.3
346.376	2.85
346.759	13.47
347.142	18.9
347.525	37.88
347.908	67.94
348.291	63.64
348.674	99.12
349.057	96.64
349.44	131.89
349.823	128.95
350.206	156.3
350.588	154.26
350.971	180.48
351.354	196.07
351.737	208.05
352.119	225.9
352.502	220.47
352.884	250.3
353.267	242.85
353.65	265.22
354.032	277.2
354.414	276.97
354.797	264.99
355.179	282.85
355.562	284.65
355.944	284.88
356.326	299.34
356.709	300.02
357.091	305.67
357.473	317.42
357.855	329.4
358.238	305.9
358.62	306.35
359.002	314.26
359.384	313.58
359.766	306.35
360.148	310.42
360.53	321.94
360.912	315.39
361.294	312.9
361.676	291.21
362.057	300.02
362.439	298.44
362.821	312.9
363.203	299.79
363.584	277.2
363.966	286.91
364.348	308.61
364.729	287.14
365.111	293.69
365.493	272.9
365.874	298.21
366.256	292.34
366.637	280.36
367.019	288.04
367.4	286.24
367.781	303.18
368.163	283.3
368.544	291.21
368.925	296.63
369.306	276.07
369.688	280.36
370.069	272.9
370.45	272.45
370.831	273.81
371.212	257.54
371.593	277.2
371.974	264.77
372.355	292.11
372.736	274.48
373.117	275.16
373.498	278.33
373.879	271.09
374.26	273.58
374.641	275.16
375.021	277.2
375.402	287.59
375.783	294.37
376.163	281.72
376.544	272.22
376.925	292.34
377.305	273.58
377.686	286.46
378.066	300.02
378.447	286.69
378.827	296.86
379.208	268.61
379.588	301.83
379.968	298.89
380.349	297.76
380.729	291.21
381.109	290.98
381.489	289.63
381.87	297.08
382.25	277.2
382.63	293.01
383.01	300.47
383.39	294.82
383.77	302.28
384.15	283.07
384.53	301.38
384.91	305.44
385.29	315.61
385.67	290.08
386.049	311.09
386.429	300.02
386.809	286.46
387.189	300.02
387.568	297.08
387.948	303.86
388.328	308.38
388.707	298.89
389.087	321.04
389.466	291.66
389.846	290.53
390.225	305.9
390.605	318.32
390.984	310.19
391.363	315.16
391.743	306.35
392.122	321.04
392.501	327.36
392.881	324.2
393.26	312.68
393.639	311.77
394.018	293.69
394.397	322.39
394.776	336.86
395.155	333.47
395.534	326.91
395.913	310.64
396.292	308.83
396.671	323.3
397.05	312.22
397.429	324.43
397.808	324.88
398.186	333.69
398.565	340.92
398.944	323.52
399.323	329.62
399.701	310.64
400.08	321.49
400.458	342.05
400.837	349.74
401.215	344.09
401.594	335.05
401.972	356.74
402.351	344.99
402.729	343.64
403.107	342.73
403.486	370.08
403.864	350.19
404.242	339.79
404.62	343.18
404.999	348.83
405.377	344.54
405.755	352.67
406.133	343.64
406.511	342.73
406.889	372.56
407.267	361.04
407.645	342.96
408.023	375.05
408.401	397.42
408.779	382.96
409.156	390.19
409.534	370.98
409.912	385.67
410.29	373.92
410.667	380.47
411.045	397.64
411.422	375.5
411.8	406.01
412.178	424.08
412.555	406.01
412.933	382.5
413.31	398.55
413.687	388.38
414.065	400.36
414.442	412.33
414.819	431.09
415.197	403.97
415.574	410.07
415.951	448.94
416.328	410.07
416.705	411.43
417.082	417.31
417.46	420.92
417.837	432.67
418.214	414.37
418.591	431.54
418.967	428.83
419.344	425.89
419.721	443.97
420.098	426.34
420.475	422.73
420.852	423.63
421.228	447.81
421.605	433.12
421.982	451.88
422.358	461.15
422.735	455.72
423.111	452.11
423.488	446.91
423.864	477.19
424.241	458.43
424.617	467.47
424.994	466.34
425.37	466.8
425.746	486.23
426.123	480.81
426.499	478.77
426.875	495.95
427.251	486.91
427.627	496.85
428.003	519.9
428.379	525.33
428.756	506.57
429.132	529.62
429.507	512.22
429.883	516.06
430.259	523.52
430.635	542.95
431.011	539.56
431.387	529.39
431.763	548.38
432.138	575.49
432.514	511.54
432.89	547.47
433.265	572.1
433.641	576.4
434.016	575.49
434.392	562.61
434.767	593.12
435.143	585.89
435.518	615.72
435.894	600.13
436.269	606.45
436.644	591.54
437.02	619.33
437.395	636.06
437.77	671.08
438.145	655.27
438.52	655.04
438.895	662.04
439.271	671.54
439.646	686
440.021	685.09
440.395	709.73
440.77	693.91
441.145	698.65
441.52	723.74
441.895	712.89
442.27	733
442.645	729.84
443.019	762.38
443.394	709.5
443.769	735.04
444.143	755.38
444.518	759.44
444.892	779.33
445.267	769.39
445.641	786.11
446.016	783.17
446.39	775.26
446.764	778.2
447.139	775.94
447.513	812.1
447.887	828.14
448.262	788.6
448.636	806.9
449.01	836.73
449.384	827.46
449.758	820.23
450.132	822.04
450.506	847.8
450.88	857.07
451.254	861.14
451.628	839.67
452.002	853.45
452.376	876.5
452.75	881.93
453.123	860.91
453.497	865.43
453.871	884.41
454.244	902.26
454.618	916.95
454.992	934.35
455.365	895.71
455.739	956.95
456.112	955.14
456.486	965.77
456.859	942.49
457.232	955.37
457.606	977.97
457.979	988.14
458.352	966.9
458.725	988.36
459.099	1009.38
459.472	1019.32
459.845	1012.77
460.218	1034.01
460.591	1018.65
460.964	999.44
461.337	1048.7
461.71	1068.59
462.083	1068.14
462.456	1067.23
462.829	1085.99
463.201	1066.33
463.574	1077.63
463.947	1093.9
464.32	1103.62
464.692	1119.43
465.065	1127.57
465.438	1149.49
465.81	1148.81
466.183	1140.68
466.555	1158.98
466.928	1176.83
467.3	1171.86
467.672	1171.86
468.045	1201.24
468.417	1216.38
468.789	1219.54
469.161	1217.28
469.534	1228.13
469.906	1250.28
470.278	1241.01
470.65	1272.2
471.022	1274.68
471.394	1304.74
471.766	1292.08
472.138	1312.2
472.51	1295.47
472.882	1365.08
473.253	1323.95
473.625	1316.26
473.997	1337.73
474.369	1401.46
474.74	1381.57
475.112	1385.64
475.484	1416.83
475.855	1435.58
476.227	1443.04
476.598	1484.85
476.97	1467.67
477.341	1488.92
477.713	1498.18
478.084	1496.83
478.455	1525.98
478.827	1518.29
479.198	1534.34
479.569	1552.87
479.94	1586.77
480.311	1587.22
480.682	1614.11
481.053	1620.89
481.424	1669.02
481.795	1636.03
482.166	1668.35
482.537	1676.03
482.908	1706.76
483.279	1661.79
483.65	1708.8
484.021	1741.56
484.391	1787.89
484.762	1754.67
485.133	1786.53
485.503	1750.15
485.874	1806.2
486.244	1792.64
486.615	1826.31
486.985	1812.52
487.356	1854.33
487.726	1844.16
488.097	1851.39
488.467	1883.26
488.837	1920.09
489.207	1916.48
489.578	1908.57
489.948	1920.99
490.318	1917.15
490.688	1921.9
491.058	1934.55
491.428	1935.91
491.798	1941.79
492.168	1958.73
492.538	1953.31
492.908	1967.1
493.278	1964.38
493.648	1978.85
494.017	2005.29
494.387	1984.27
494.757	2000.54
495.126	2009.35
495.496	2002.35
495.866	1961.22
496.235	1999.86
496.605	1983.59
496.974	2022.01
497.344	1971.39
497.713	2000.31
498.082	1990.82
498.452	2018.17
498.821	2005.51
499.19	2000.77
499.559	2003.25
499.928	2019.75
500.298	2007.77
500.667	1998.28
501.036	1994.89
501.405	1997.83
501.774	1987.89
502.143	2043.03
502.512	1977.72
502.88	1995.34
503.249	1985.4
503.618	1979.52
503.987	1985.85
504.356	1992.63
504.724	1970.26
505.093	1973.42
505.462	1953.76
505.83	1996.7
506.199	1971.84
506.567	1963.48
506.936	1980.65
507.304	1975
507.672	1960.09
508.041	1945.4
508.409	1966.19
508.777	1980.43
509.145	1948.79
509.514	1945.17
509.882	1928.9
510.25	1950.37
510.618	1939.53
510.986	1946.3
511.354	1925.51
511.722	1948.79
512.09	1927.55
512.458	1954.21
512.826	1952.63
513.193	1967.55
513.561	1917.15
513.929	1920.99
514.297	1949.02
514.664	1906.08
515.032	1908.79
515.4	1913.99
515.767	1864.95
516.135	1904.5
516.502	1877.15
516.869	1900.88
517.237	1888
517.604	1845.06
517.972	1864.72
518.339	1842.8
518.706	1860.88
519.073	1841.9
519.44	1861.56
519.808	1818.4
520.175	1814.78
520.542	1827.89
520.909	1874.44
521.276	1819.3
521.643	1823.14
522.009	1841.22
522.376	1840.32
522.743	1810.26
523.11	1844.84
523.477	1798.96
523.843	1805.97
524.21	1816.59
524.577	1794.44
524.943	1792.64
525.31	1757.84
525.676	1782.47
526.043	1779.3
526.409	1802.81
526.776	1793.77
527.142	1771.39
527.508	1765.52
527.874	1762.13
528.241	1774.78
528.607	1763.26
528.973	1778.85
529.339	1744.5
529.705	1753.32
530.071	1761
530.437	1718.97
530.803	1761.45
531.169	1764.39
531.535	1734.78
531.901	1714.9
532.267	1738.4
532.632	1722.81
532.998	1732.98
533.364	1702.02
533.73	1726.2
534.095	1690.49
534.461	1717.61
534.826	1702.92
535.192	1707.67
535.557	1697.27
535.923	1697.5
536.288	1650.72
536.653	1684.39
537.019	1648.69
537.384	1678.06
537.749	1669.02
538.114	1660.66
538.479	1656.59
538.845	1653.66
539.21	1623.15
539.575	1646.43
539.94	1622.92
540.305	1627.67
540.67	1604.17
541.034	1643.26
541.399	1585.18
541.764	1632.64
542.129	1624.28
542.494	1590.16
542.858	1567.11
543.223	1571.4
543.587	1561.91
543.952	1559.2
544.316	1565.07
544.681	1557.61
545.045	1561.91
545.41	1534.11
545.774	1521.23
546.138	1545.86
546.503	1544.96
546.867	1528.46
547.231	1543.83
547.595	1527.78
547.959	1520.78
548.324	1532.08
548.688	1537.73
549.052	1513.1
549.416	1472.87
549.779	1517.62
550.143	1499.54
550.507	1492.76
550.871	1481.46
551.235	1481.46
551.599	1456.37
551.962	1502.93
552.326	1459.76
552.689	1497.95
553.053	1467
553.417	1476.71
553.78	1434.68
554.143	1474.45
554.507	1451.63
554.87	1451.18
555.234	1453.21
555.597	1413.21
555.96	1438.52
556.323	1462.48
556.686	1442.59
557.05	1421.35
557.413	1446.2
557.776	1454.11
558.139	1435.81
558.502	1410.95
558.865	1417.73
559.228	1423.15
559.59	1392.2
559.953	1400.33
560.316	1407.79
560.679	1422.25
561.041	1413.44
561.404	1420.67
561.767	1400.56
562.129	1410.73
562.492	1434.23
562.854	1421.57
563.217	1390.16
563.579	1432.19
563.941	1418.64
564.304	1429.26
564.666	1401.91
565.028	1437.17
565.39	1419.99
565.753	1422.02
566.115	1428.13
566.477	1433.1
566.839	1431.52
567.201	1428.58
567.563	1401.23
567.925	1417.05
568.287	1471.51
568.648	1412.99
569.01	1415.02
569.372	1408.47
569.734	1437.17
570.095	1436.71
570.457	1449.82
570.819	1445.53
571.18	1446.43
571.542	1429.26
571.903	1451.85
572.265	1457.28
572.626	1456.6
572.987	1463.38
573.349	1459.99
573.71	1464.06
574.071	1430.39
574.432	1451.63
574.794	1484.62
575.155	1484.17
575.516	1488.01
575.877	1467.9
576.238	1437.17
576.599	1494.11
576.96	1460.44
577.32	1488.01
577.681	1491.18
578.042	1507.67
578.403	1479.88
578.763	1493.44
579.124	1490.72
579.485	1488.46
579.845	1507.22
580.206	1491.85
580.566	1509.71
580.927	1506.54
581.287	1499.99
581.648	1499.76
582.008	1494.11
582.368	1503.83
582.728	1489.37
583.089	1512.64
583.449	1534.11
583.809	1532.98
584.169	1521.68
584.529	1531.85
584.889	1518.29
585.249	1493.89
585.609	1502.47
585.969	1529.14
586.329	1504.51
586.688	1512.64
587.048	1471.29
587.408	1516.71
587.768	1513.32
588.127	1486.66
588.487	1497.73
588.846	1501.12
589.206	1531.17
589.565	1509.48
589.925	1510.61
590.284	1505.19
590.643	1495.92
591.003	1527.11
591.362	1533.89
591.721	1509.25
592.08	1509.03
592.44	1482.36
592.799	1535.92
593.158	1505.19
593.517	1491.85
593.876	1507.22
594.235	1515.58
594.593	1505.19
594.952	1521.68
595.311	1486.43
595.67	1522.81
596.029	1517.16
596.387	1533.89
596.746	1528.91
597.104	1516.94
597.463	1482.81
597.822	1518.52
598.18	1504.73
598.538	1528.91
598.897	1557.61
599.255	1511.06
599.613	1496.15
599.972	1530.72
600.33	1522.14
600.688	1523.49
601.046	1518.29
601.404	1517.16
601.762	1514.68
602.12	1511.74
602.478	1490.27
602.836	1486.88
603.194	1500.21
603.552	1519.88
603.91	1498.18
604.268	1469.26
604.625	1524.62
604.983	1522.36
605.341	1475.13
605.698	1525.75
606.056	1501.8
606.413	1529.82
606.771	1531.4
607.128	1513.1
607.485	1483.94
607.843	1533.21
608.2	1523.72
608.557	1526.43
608.914	1499.76
609.272	1526.65
609.629	1550.83
609.986	1538.63
610.343	1527.33
610.7	1535.02
611.057	1539.54
611.414	1523.72
611.771	1519.42
612.127	1506.54
612.484	1532.3
612.841	1531.4
613.198	1516.71
613.554	1530.04
613.911	1558.97
614.267	1531.63
614.624	1535.02
614.98	1542.47
615.337	1529.14
615.693	1546.54
616.05	1547.67
616.406	1527.11
616.762	1558.29
617.118	1531.85
617.475	1542.93
617.831	1532.98
618.187	1537.28
618.543	1540.21
618.899	1543.38
619.255	1549.25
619.611	1538.63
619.967	1552.42
620.323	1556.03
620.678	1533.66
621.034	1520.1
621.39	1542.93
621.746	1550.16
622.101	1574.11
622.457	1562.81
622.812	1560.78
623.168	1543.15
623.523	1542.25
623.879	1569.82
624.234	1553.55
624.589	1567.33
624.945	1546.09
625.3	1553.77
625.655	1550.16
626.01	1555.58
626.365	1590.83
626.72	1584.96
627.075	1551.74
627.43	1558.97
627.785	1573.21
628.14	1569.14
628.495	1544.28
628.85	1565.3
629.205	1538.86
629.559	1582.92
629.914	1584.28
630.269	1535.69
630.623	1576.14
630.978	1569.37
631.332	1579.31
631.687	1563.72
632.041	1571.4
632.396	1557.16
632.75	1577.05
633.104	1591.96
633.459	1576.82
633.813	1565.52
634.167	1555.58
634.521	1538.41
634.875	1548.58
635.229	1549.03
635.583	1556.48
635.937	1573.43
636.291	1530.5
636.645	1547.22
636.999	1547.45
637.352	1550.83
637.706	1526.65
638.06	1556.48
638.413	1571.4
638.767	1555.58
639.121	1521.01
639.474	1544.96
639.828	1547.22
640.181	1550.16
640.534	1541.8
640.888	1549.93
641.241	1559.42
641.594	1533.66
641.947	1576.14
642.301	1598.07
642.654	1588.35
643.007	1564.85
643.36	1542.02
643.713	1548.35
644.066	1564.17
644.419	1589.25
644.771	1532.76
645.124	1549.71
645.477	1532.76
645.83	1499.99
646.182	1488.92
646.535	1523.49
646.888	1545.41
647.24	1532.3
647.593	1523.72
647.945	1533.21
648.298	1534.34
648.65	1514.45
649.002	1518.75
649.355	1509.93
649.707	1512.19
650.059	1505.64
650.411	1560.1
650.763	1556.03
651.115	1548.8
651.467	1549.93
651.819	1565.3
652.171	1585.64
652.523	1589.25
652.875	1553.77
653.227	1556.94
653.578	1568.46
653.93	1555.81
654.282	1557.61
654.633	1542.7
654.985	1565.98
655.337	1548.58
655.688	1570.04
656.039	1589.7
656.391	1579.76
656.742	1556.03
657.094	1583.6
657.445	1569.59
657.796	1572.76
658.147	1579.08
658.498	1539.31
658.849	1596.94
659.2	1591.06
659.551	1596.03
659.902	1568.46
660.253	1603.49
660.604	1578.86
660.955	1563.49
661.306	1574.56
661.656	1583.83
662.007	1587.44
662.358	1551.51
662.708	1600.1
663.059	1617.95
663.409	1576.6
663.76	1582.02
664.11	1598.52
664.461	1580.89
664.811	1586.54
665.161	1580.66
665.511	1569.59
665.862	1551.06
666.212	1580.44
666.562	1595.13
666.912	1524.62
667.262	1561.68
667.612	1589.93
667.962	1591.51
668.312	1579.08
668.662	1583.15
669.011	1576.37
669.361	1584.05
669.711	1542.93
670.06	1548.8
670.41	1560.55
670.76	1578.86
671.109	1566.65
671.459	1579.53
671.808	1578.18
672.157	1572.53
672.507	1564.17
672.856	1525.52
673.205	1542.93
673.554	1561.68
673.904	1558.52
674.253	1566.65
674.602	1556.71
674.951	1539.08
675.3	1542.7
675.649	1551.06
675.998	1562.59
676.346	1515.36
676.695	1533.66
677.044	1530.27
677.393	1527.11
677.741	1545.64
678.09	1556.03
678.438	1492.08
678.787	1511.51
679.135	1565.07
679.484	1549.03
679.832	1547.9
680.181	1486.88
680.529	1533.21
680.877	1538.18
681.225	1513.32
681.573	1543.38
681.922	1530.95
682.27	1512.19
682.618	1518.52
682.966	1489.14
683.314	1481.23
683.661	1506.32
684.009	1492.08
684.357	1476.26
684.705	1516.49
685.053	1474.68
685.4	1491.18
685.748	1481.01
686.095	1493.44
686.443	1476.71
686.79	1498.63
687.138	1486.88
687.485	1466.32
687.832	1464.28
688.18	1473.32
688.527	1465.41
688.874	1493.44
689.221	1455.47
689.568	1451.18
689.915	1425.64
690.262	1443.04
690.609	1465.87
690.956	1446.43
691.303	1418.18
691.65	1412.99
691.997	1419.99
692.344	1432.42
692.69	1414.34
693.037	1454.34
693.383	1455.92
693.73	1431.97
694.077	1438.07
694.423	1428.13
694.769	1374.57
695.116	1405.53
695.462	1381.57
695.808	1375.7
696.155	1391.97
696.501	1401.23
696.847	1396.26
697.193	1401.23
697.539	1400.1
697.885	1386.77
698.231	1375.92
698.577	1373.89
698.923	1387.45
699.269	1372.08
699.614	1357.39
699.96	1357.39
700.306	1377.05
700.651	1396.94
700.997	1367.56
701.342	1382.03
701.688	1382.93
702.033	1365.53
702.379	1351.29
702.724	1370.73
703.069	1373.44
703.415	1322.14
703.76	1356.72
704.105	1364.63
704.45	1333.44
704.795	1350.16
705.14	1350.16
705.485	1350.39
705.83	1334.12
706.175	1362.14
706.52	1349.71
706.865	1342.93
707.209	1343.38
707.554	1343.83
707.899	1335.47
708.243	1336.15
708.588	1355.13
708.932	1332.76
709.277	1370.27
709.621	1353.78
709.966	1313.33
710.31	1338.19
710.654	1356.94
710.998	1344.29
711.342	1378.41
711.687	1364.17
712.031	1331.86
712.375	1334.8
712.719	1342.7
713.063	1362.37
713.407	1355.13
713.75	1362.82
714.094	1361.01
714.438	1370.95
714.782	1373.66
715.125	1365.3
715.469	1366.88
715.812	1397.84
716.156	1344.06
716.499	1385.19
716.843	1405.3
717.186	1394.23
717.53	1382.93
717.873	1370.73
718.216	1382.93
718.559	1394
718.902	1360.78
719.246	1377.96
719.589	1382.7
719.932	1402.14
720.275	1414.34
720.617	1402.59
720.96	1393.78
721.303	1403.95
721.646	1441.69
721.989	1421.8
722.331	1429.03
722.674	1429.26
723.016	1428.58
723.359	1417.51
723.701	1426.32
724.044	1462.25
724.386	1446.88
724.729	1478.75
725.071	1437.17
725.413	1458.63
725.755	1461.12
726.097	1453.66
726.439	1435.81
726.782	1471.06
727.124	1488.69
727.465	1483.49
727.807	1486.2
728.149	1510.84
728.491	1498.86
728.833	1501.8
729.175	1506.09
729.516	1480.1
729.858	1530.04
730.199	1511.51
730.541	1520.78
730.882	1545.41
731.224	1545.41
731.565	1543.15
731.906	1558.29
732.248	1570.04
732.589	1571.63
732.93	1574.56
733.271	1556.03
733.612	1605.07
733.953	1592.42
734.294	1609.36
734.635	1585.18
734.976	1594.68
735.317	1614.56
735.658	1642.36
735.999	1652.3
736.339	1631.74
736.68	1672.41
737.021	1665.18
737.361	1665.18
737.702	1693.43
738.042	1705.18
738.383	1697.05
738.723	1734.11
739.063	1692.75
739.404	1748.8
739.744	1757.38
740.084	1779.76
740.424	1797.83
740.764	1808.68
741.104	1826.76
741.444	1849.58
741.784	1851.17
742.124	1875.12
742.464	1875.57
742.804	1901.11
743.143	1930.03
743.483	1970.71
743.823	1954.21
744.162	1996.02
744.502	2028.56
744.841	2043.25
745.181	2049.35
745.52	2066.98
745.86	2088.67
746.199	2134.55
746.538	2156.02
746.877	2178.62
747.216	2219.29
747.556	2253.64
747.895	2285.73
748.234	2314.2
748.573	2338.84
748.911	2387.88
749.25	2446.86
749.589	2450.47
749.928	2531.6
750.267	2564.14
750.605	2559.62
750.944	2622.45
751.283	2674.87
751.621	2684.59
751.96	2795.77
752.298	2801.65
752.636	2846.39
752.975	2877.58
753.313	2961.42
753.651	3031.47
753.989	3057.01
754.327	3128.42
754.666	3160.74
755.004	3235.08
755.342	3345.36
755.679	3378.81
756.017	3454.51
756.355	3502.2
756.693	3595.53
757.031	3687.5
757.368	3730.89
757.706	3737.9
758.044	3891.56
758.381	3981.28
758.719	3995.29
759.056	4048.4
759.394	4144.21
759.731	4234.15
760.068	4355.96
760.405	4367.26
760.743	4412.68
761.08	4556.86
761.417	4626.23
761.754	4682.5
762.091	4770.86
762.428	4860.8
762.765	4882.95
763.102	5006.11
763.438	5085.66
763.775	5095.83
764.112	5214.92
764.449	5303.96
764.785	5347.57
765.122	5426.67
765.458	5463.05
765.795	5563.16
766.131	5662.82
766.467	5743.49
766.804	5787.11
767.14	5881.57
767.476	6007.21
767.812	5977.39
768.148	6060.32
768.485	6106.2
768.821	6129.92
769.157	6222.12
769.492	6281.56
769.828	6373.08
770.164	6333.99
770.5	6472.29
770.836	6546.41
