Data from blue_surface_keyboard_FLMS001491_070.txt Node
Date: Tue Feb 07 11:13:30 GMT 2017
User: dcchb
Spectrometer: FLMS00149
Trigger mode: 0
Integration Time (sec): 2.000000E-2
Scans to average: 10
Electric dark correction enabled: true
Nonlinearity correction enabled: false
Boxcar width: 0
XAxis mode: Wavelengths
Number of Pixels in Spectrum: 2048
>>>>>Begin Spectral Data<<<<<
341.393	-14.15
341.776	-14.15
342.16	-14.15
342.543	-53.93
342.927	-64.32
343.31	-58.22
343.693	-77.88
344.077	-68.61
344.46	-52.57
344.843	-77.43
345.226	-42.63
345.61	-12.57
345.993	-15.51
346.376	-13.47
346.759	1.44
347.142	22.23
347.525	30.37
347.908	68.11
348.291	80.99
348.674	107.88
349.057	107.88
349.44	130.25
349.823	121.44
350.206	145.17
350.588	163.47
350.971	197.37
351.354	197.37
351.737	226.29
352.119	232.17
352.502	216.12
352.884	247.31
353.267	259.74
353.65	270.36
354.032	292.05
354.414	281.43
354.797	297.48
355.179	321.66
355.562	292.96
355.944	277.82
356.326	320.08
356.709	319.85
357.091	304.71
357.473	304.94
357.855	318.95
358.238	343.8
358.62	296.57
359.002	312.39
359.384	315.78
359.766	323.69
360.148	340.19
360.53	310.81
360.912	330.02
361.294	313.75
361.676	323.01
362.057	331.15
362.439	312.17
362.821	286.86
363.203	296.8
363.584	306.52
363.966	311.49
364.348	302
364.729	290.7
365.111	297.93
365.493	288.44
365.874	289.34
366.256	279.17
366.637	285.73
367.019	297.93
367.4	303.35
367.781	311.26
368.163	281.89
368.544	287.08
368.925	283.24
369.306	298.16
369.688	294.31
370.069	285.95
370.45	304.71
370.831	262.22
371.212	285.5
371.593	285.5
371.974	290.7
372.355	298.38
372.736	265.39
373.117	276.91
373.498	279.17
373.879	266.97
374.26	271.94
374.641	279.85
375.021	284.6
375.402	290.92
375.783	270.36
376.163	293.86
376.544	292.05
376.925	287.76
377.305	306.29
377.686	309
378.066	307.2
378.447	300.42
378.827	312.39
379.208	299.51
379.588	295.44
379.968	301.09
380.349	306.29
380.729	283.92
381.109	293.86
381.489	320.08
381.87	299.29
382.25	289.34
382.63	306.74
383.01	279.85
383.39	282.79
383.77	313.97
384.15	293.18
384.53	317.82
384.91	316.01
385.29	305.61
385.67	293.86
386.049	311.49
386.429	319.4
386.809	315.78
387.189	319.17
387.568	306.29
387.948	315.78
388.328	326.18
388.707	314.43
389.087	316.01
389.466	307.2
389.846	316.91
390.225	323.47
390.605	313.52
390.984	314.65
391.363	325.27
391.743	318.27
392.122	305.39
392.501	313.75
392.881	334.99
393.26	317.82
393.639	330.92
394.018	319.4
394.397	328.44
394.776	317.82
395.155	353.52
395.534	320.75
395.913	338.83
396.292	337.03
396.671	339.96
397.05	338.38
397.429	317.36
397.808	334.31
398.186	318.27
398.565	322.79
398.944	321.21
399.323	352.39
399.701	349.68
400.08	344.93
400.458	334.99
400.837	355.78
401.215	347.87
401.594	322.34
401.972	341.09
402.351	322.34
402.729	350.36
403.107	352.84
403.486	349.45
403.864	345.61
404.242	345.39
404.62	333.64
404.999	328.21
405.377	315.78
405.755	357.59
406.133	347.65
406.511	369.79
406.889	347.87
407.267	366.4
407.645	360.75
408.023	338.15
408.401	356.69
408.779	352.17
409.156	362.56
409.534	368.89
409.912	356.91
410.29	371.6
410.667	376.57
411.045	366.4
411.422	391.71
411.8	376.8
412.178	382
412.555	365.27
412.933	384.93
413.31	372.05
413.687	386.52
414.065	389
414.442	390.36
414.819	385.16
415.197	376.12
415.574	391.49
415.951	380.41
416.328	403.69
416.705	377.93
417.082	391.71
417.46	390.36
417.837	394.42
418.214	400.07
418.591	405.72
418.967	386.29
419.344	385.39
419.721	411.37
420.098	414.99
420.475	392.39
420.852	394.65
421.228	389
421.605	408.89
421.982	393.07
422.358	421.99
422.735	412.73
423.111	392.16
423.488	428.1
423.864	420.86
424.241	410.92
424.617	397.59
424.994	421.09
425.37	430.58
425.746	421.77
426.123	440.3
426.499	414.09
426.875	426.06
427.251	418.38
427.627	452.5
428.003	432.62
428.379	444.82
428.756	446.63
429.132	453.18
429.507	435.78
429.883	458.83
430.259	450.69
430.635	431.94
431.011	448.89
431.387	439.17
431.763	448.43
432.138	461.77
432.514	475.1
432.89	462.9
433.265	480.52
433.641	467.87
434.016	464.71
434.392	461.99
434.767	493.18
435.143	488.21
435.518	489.11
435.894	470.81
436.269	493.63
436.644	508.09
437.02	447.76
437.395	465.16
437.77	487.53
438.145	494.31
438.52	504.48
438.895	491.37
439.271	492.5
439.646	496.79
440.021	488.66
440.395	507.19
440.77	494.54
441.145	508.77
441.52	536.57
441.895	530.92
442.27	533.18
442.645	522.33
443.019	541.31
443.394	510.58
443.769	536.34
444.143	537.02
444.518	541.77
444.892	527.75
445.267	530.47
445.641	525.04
446.016	539.73
446.39	554.42
446.764	575.21
447.139	568.66
447.513	532.73
447.887	555.78
448.262	566.62
448.636	520.3
449.01	545.38
449.384	565.95
449.758	563.91
450.132	573.18
450.506	562.56
450.88	584.93
451.254	560.3
451.628	572.5
452.002	547.19
452.376	584.48
452.75	586.96
453.123	572.5
453.497	570.47
453.871	588.32
454.244	616.57
454.618	601.42
454.992	590.13
455.365	603.68
455.739	616.79
456.112	622.22
456.486	615.66
456.859	610.24
457.232	631.25
457.606	622.44
457.979	633.74
458.352	620.18
458.725	623.35
459.099	632.38
459.472	649.56
459.845	633.51
460.218	657.24
460.591	663.12
460.964	661.99
461.337	652.05
461.71	699.5
462.083	675.1
462.456	682.1
462.829	680.29
463.201	675.1
463.574	697.47
463.947	686.85
464.32	716.22
464.692	716.9
465.065	706.51
465.438	696.79
465.81	712.16
466.183	719.39
466.555	723.68
466.928	754.64
467.3	745.15
467.672	766.39
468.045	739.95
468.417	751.03
468.789	735.21
469.161	768.2
469.534	764.81
469.906	754.87
470.278	800.29
470.65	779.73
471.022	785.15
471.394	804.81
471.766	793.51
472.138	810.91
472.51	817.92
472.882	807.97
473.253	813.62
473.625	826.5
473.997	827.63
474.369	850.23
474.74	835.77
475.112	835.54
475.484	857.69
475.855	900.4
476.227	880.51
476.598	888.42
476.97	903.34
477.341	884.58
477.713	937.01
478.084	915.77
478.455	925.03
478.827	934.52
479.198	950.34
479.569	961.19
479.94	954.64
480.311	987.4
480.682	983.79
481.053	1002.77
481.424	1035.31
481.795	1013.17
482.166	1011.58
482.537	1049.32
482.908	1045.48
483.279	1063.11
483.65	1056.33
484.021	1076.89
484.391	1074.86
484.762	1093.62
485.133	1117.8
485.503	1115.76
485.874	1135.42
486.244	1139.94
486.615	1112.37
486.985	1150.79
487.356	1160.73
487.726	1137.91
488.097	1179.71
488.467	1202.54
488.837	1186.27
489.207	1187.85
489.578	1198.92
489.948	1200.28
490.318	1238.92
490.688	1249.09
491.058	1226.72
491.428	1235.53
491.798	1234.4
492.168	1252.03
492.538	1260.84
492.908	1287.73
493.278	1270.11
493.648	1290.9
494.017	1304.91
494.387	1295.64
494.757	1305.81
495.126	1312.82
495.496	1294.74
495.866	1314.85
496.235	1329.09
496.605	1314.85
496.974	1310.11
497.344	1311.01
497.713	1337.68
498.082	1362.99
498.452	1344.46
498.821	1364.79
499.19	1315.3
499.559	1385.36
499.928	1358.69
500.298	1384.68
500.667	1383.78
501.036	1350.33
501.405	1398.69
501.774	1369.99
502.143	1373.83
502.512	1342.42
502.88	1395.08
503.249	1382.65
503.618	1376.09
503.987	1409.54
504.356	1381.97
504.724	1391.23
505.093	1378.58
505.462	1382.42
505.83	1379.48
506.199	1410.9
506.567	1424.45
506.936	1426.71
507.304	1438.24
507.672	1399.82
508.041	1464.9
508.409	1445.47
508.777	1461.29
509.145	1450.44
509.514	1434.85
509.882	1422.42
510.25	1450.67
510.618	1445.02
510.986	1455.87
511.354	1470.78
511.722	1463.55
512.09	1460.16
512.458	1473.04
512.826	1510.1
513.193	1497.9
513.561	1472.81
513.929	1469.65
514.297	1485.24
514.664	1466.94
515.032	1485.24
515.4	1503.77
515.767	1523.21
516.135	1495.19
516.502	1475.53
516.869	1522.08
517.237	1489.99
517.604	1530.44
517.972	1504.45
518.339	1509.2
518.706	1492.02
519.073	1487.73
519.44	1526.82
519.808	1501.29
520.175	1504.68
520.542	1500.38
520.909	1518.91
521.276	1509.65
521.643	1525.47
522.009	1549.42
522.376	1541.51
522.743	1553.26
523.11	1548.97
523.477	1537.45
523.843	1570.21
524.21	1527.05
524.577	1539.48
524.943	1569.31
525.31	1580.61
525.676	1582.87
526.043	1602.08
526.409	1596.43
526.776	1592.59
527.142	1588.52
527.508	1577.67
527.874	1603.21
528.241	1588.74
528.607	1601.85
528.973	1621.06
529.339	1612.47
529.705	1586.94
530.071	1627.16
530.437	1629.42
530.803	1610.44
531.169	1625.58
531.535	1623.77
531.901	1622.64
532.267	1615.86
532.632	1645.24
532.998	1665.35
533.364	1624
533.73	1639.59
534.095	1629.87
534.461	1613.38
534.826	1641.17
535.192	1649.98
535.557	1660.15
535.923	1647.05
536.288	1649.76
536.653	1641.17
537.019	1648.85
537.384	1643.88
537.749	1667.16
538.114	1624.9
538.479	1637.56
538.845	1653.15
539.21	1638.91
539.575	1648.85
539.94	1643.21
540.305	1665.58
540.67	1675.52
541.034	1666.93
541.399	1654.5
541.764	1659.25
542.129	1653.83
542.494	1651.11
542.858	1660.15
543.223	1656.54
543.587	1639.82
543.952	1670.32
544.316	1670.1
544.681	1659.93
545.045	1652.7
545.41	1667.16
545.774	1692.7
546.138	1669.42
546.503	1660.38
546.867	1679.36
547.231	1666.71
547.595	1688.85
547.959	1673.94
548.324	1651.34
548.688	1691.11
549.052	1685.01
549.416	1678.23
549.779	1679.81
550.143	1671.68
550.507	1700.38
550.871	1682.07
551.235	1687.05
551.599	1690.66
551.962	1705.8
552.326	1692.92
552.689	1670.55
553.053	1672.58
553.417	1706.71
553.78	1705.8
554.143	1703.32
554.507	1690.21
554.87	1677.33
555.234	1710.55
555.597	1694.28
555.96	1675.75
556.323	1704.22
556.686	1700.15
557.05	1722.07
557.413	1689.08
557.776	1700.15
558.139	1700.83
558.502	1696.99
558.865	1705.12
559.228	1685.69
559.59	1735.18
559.953	1719.81
560.316	1716.88
560.679	1727.5
561.041	1754.61
561.404	1759.13
561.767	1721.4
562.129	1752.58
562.492	1747.84
562.854	1718.68
563.217	1758.91
563.579	1730.43
563.941	1746.48
564.304	1750.32
564.666	1774.28
565.028	1747.84
565.39	1750.55
565.753	1757.55
566.115	1736.31
566.477	1764.11
566.839	1759.36
567.201	1752.81
567.563	1770.89
567.925	1808.4
568.287	1770.21
568.648	1800.94
569.01	1790.55
569.372	1808.85
569.734	1781.73
570.095	1813.37
570.457	1782.86
570.819	1818.12
571.18	1776.08
571.542	1789.42
571.903	1776.31
572.265	1797.78
572.626	1861.05
572.987	1810.43
573.349	1839.58
573.71	1846.59
574.071	1823.31
574.432	1796.87
574.794	1827.16
575.155	1835.97
575.516	1807.27
575.877	1814.27
576.238	1843.2
576.599	1842.75
576.96	1873.93
577.32	1829.64
577.681	1816.08
578.042	1822.41
578.403	1832.35
578.763	1839.58
579.124	1843.2
579.485	1842.75
579.845	1854.95
580.206	1828.51
580.566	1857.66
580.927	1874.84
581.287	1850.88
581.648	1871.9
582.008	1886.59
582.368	1834.16
582.728	1880.04
583.089	1875.52
583.449	1838.45
583.809	1859.92
584.169	1858.34
584.529	1865.35
584.889	1903.99
585.249	1864.67
585.609	1844.33
585.969	1898.11
586.329	1855.18
586.688	1857.44
587.048	1913.03
587.408	1874.61
587.768	1881.84
588.127	1900.15
588.487	1866.48
588.846	1907.15
589.206	1887.49
589.565	1911.45
589.925	1889.07
590.284	1867.38
590.643	1890.43
591.003	1883.43
591.362	1887.94
591.721	1882.07
592.08	1868.28
592.44	1886.59
592.799	1914.16
593.158	1870.09
593.517	1897.44
593.876	1881.84
594.235	1911.22
594.593	1905.8
594.952	1907.15
595.311	1858.79
595.67	1892.69
596.029	1918.68
596.387	1911.22
596.746	1895.85
597.104	1870.09
597.463	1910.09
597.822	1910.32
598.18	1925.46
598.538	1915.97
598.897	1915.06
599.255	1894.72
599.613	1952.58
599.972	1923.2
600.33	1931.11
600.688	1923.88
601.046	1941.5
601.404	1913.48
601.762	1900.15
602.12	1956.87
602.478	1929.07
602.836	1957.32
603.194	1936.08
603.552	1932.01
603.91	1935.4
604.268	1949.19
604.625	1960.03
604.983	1940.37
605.341	1967.04
605.698	1989.86
606.056	1965.23
606.413	1977.66
606.771	1962.97
607.128	1995.29
607.485	1954.16
607.843	1931.56
608.2	1990.09
608.557	1981.05
608.914	1968.85
609.272	1970.88
609.629	1985.57
609.986	2016.53
610.343	1999.13
610.7	2021.73
611.057	1996.19
611.414	2000.03
611.771	2020.82
612.127	1984.44
612.484	1980.37
612.841	1990.31
613.198	2024.89
613.554	2013.82
613.911	2008.39
614.267	1989.18
614.624	2041.16
614.98	1994.61
615.337	2029.18
615.693	1986.02
616.05	2008.62
616.406	2071.44
616.762	2030.77
617.118	2033.93
617.475	2064.44
617.831	2016.3
618.187	2033.93
618.543	2030.09
618.899	2068.96
619.255	2026.47
619.611	2052.69
619.967	2070.76
620.323	2052.91
620.678	2064.21
621.034	2077.32
621.39	2085.23
621.746	2060.37
622.101	2071.22
622.457	2074.61
622.812	2100.37
623.168	2098.11
623.523	2117.77
623.879	2097.43
624.234	2107.15
624.589	2095.17
624.945	2088.84
625.3	2082.29
625.655	2092.46
626.01	2088.39
626.365	2110.99
626.72	2098.56
627.075	2102.63
627.43	2105.57
627.785	2088.84
628.14	2133.81
628.495	2135.62
628.85	2136.98
629.205	2138.33
629.559	2134.27
629.914	2173.59
630.269	2128.84
630.623	2141.05
630.978	2139.69
631.332	2132.46
631.687	2155.51
632.041	2130.88
632.396	2158.45
632.75	2165.68
633.104	2158.9
633.459	2142.18
633.813	2167.94
634.167	2183.08
634.521	2184.89
634.875	2194.38
635.229	2171.1
635.583	2193.47
635.937	2189.18
636.291	2202.51
636.645	2176.3
636.999	2181.5
637.352	2205.45
637.706	2200.48
638.06	2229.4
638.413	2202.74
638.767	2233.92
639.121	2187.37
639.474	2248.39
639.828	2197.54
640.181	2226.47
640.534	2256.75
640.888	2227.6
641.241	2234.83
641.594	2242.51
641.947	2295.62
642.301	2264.43
642.654	2278.89
643.007	2307.37
643.36	2261.49
643.713	2297.88
644.066	2306.92
644.419	2323.41
644.771	2316.18
645.124	2267.14
645.477	2313.24
645.83	2311.66
646.182	2268.73
646.535	2278.22
646.888	2313.02
647.24	2281.38
647.593	2335.39
647.945	2329.52
648.298	2339.91
648.65	2306.46
649.002	2304.66
649.355	2333.58
649.707	2352.11
650.059	2353.47
650.411	2462.39
650.763	2420.59
651.115	2433.47
651.467	2462.17
651.819	2449.51
652.171	2504.65
652.523	2449.74
652.875	2490.19
653.227	2457.87
653.578	2518.66
653.93	2522.96
654.282	2548.27
654.633	2538.55
654.985	2537.19
655.337	2543.75
655.688	2567.25
656.039	2587.59
656.391	2557.08
656.742	2578.77
657.094	2592.33
657.445	2629.39
657.796	2643.41
658.147	2611.77
658.498	2662.61
658.849	2641.15
659.2	2666.68
659.551	2662.39
659.902	2694.25
660.253	2712.78
660.604	2729.73
660.955	2739.45
661.306	2730.41
661.656	2716.4
662.007	2774.02
662.358	2798.43
662.708	2786.45
663.059	2796.62
663.409	2801.82
663.76	2821.71
664.11	2828.94
664.461	2838.88
664.811	2861.03
665.161	2891.08
665.511	2902.83
665.862	2934.47
666.212	2946.45
666.562	2954.36
666.912	2961.81
667.262	2967.24
667.612	2999.33
667.962	2956.62
668.312	2996.39
668.662	3014.02
669.011	3059.67
669.361	3035.49
669.711	3085.65
670.06	3027.8
670.41	3069.16
670.76	3114.81
671.109	3115.03
671.459	3088.14
671.808	3138.53
672.157	3154.13
672.507	3100.34
672.856	3163.39
673.205	3178.76
673.554	3203.16
673.904	3175.14
674.253	3218.76
674.602	3205.42
674.951	3202.49
675.3	3228.02
675.649	3219.44
675.998	3258.76
676.346	3299.88
676.695	3301.01
677.044	3301.69
677.393	3354.12
677.741	3336.95
678.09	3320.68
678.438	3339.21
678.787	3376.04
679.135	3376.49
679.484	3362.71
679.832	3425.98
680.181	3383.27
680.529	3456.04
680.877	3448.13
681.225	3462.59
681.573	3489.03
681.922	3494.23
682.27	3471.41
682.618	3502.82
682.966	3513.21
683.314	3511.18
683.661	3515.92
684.009	3488.58
684.357	3493.78
684.705	3510.27
685.053	3543.72
685.4	3545.75
685.748	3537.84
686.095	3571.29
686.443	3563.38
686.79	3580.56
687.138	3608.8
687.485	3601.8
687.832	3596.6
688.18	3613.1
688.527	3646.32
688.874	3593.21
689.221	3629.59
689.568	3635.02
689.915	3637.5
690.262	3623.49
690.609	3630.5
690.956	3640.44
691.303	3696.94
691.65	3683.6
691.997	3625.75
692.344	3623.04
692.69	3657.16
693.037	3685.19
693.383	3618.29
693.73	3665.3
694.077	3659.42
694.423	3670.5
694.769	3664.85
695.116	3678.41
695.462	3681.8
695.808	3688.58
696.155	3715.24
696.501	3669.14
696.847	3686.32
697.193	3645.41
697.539	3691.97
697.885	3689.03
698.231	3673.89
698.577	3656.03
698.923	3676.37
699.269	3648.35
699.614	3665.07
699.96	3639.76
700.306	3625.75
700.651	3662.36
700.997	3600.89
701.342	3634.57
701.688	3637.28
702.033	3618.52
702.379	3656.26
702.724	3638.18
703.069	3684.73
703.415	3596.37
703.76	3633.89
704.105	3620.1
704.45	3622.36
704.795	3614.9
705.14	3582.82
705.485	3596.6
705.83	3585.75
706.175	3627.11
706.52	3562.25
706.865	3581.91
707.209	3571.29
707.554	3601.12
707.899	3585.75
708.243	3609.71
708.588	3565.87
708.932	3587.79
709.277	3549.82
709.621	3558.64
709.966	3518.86
710.31	3580.33
710.654	3532.65
710.998	3540.33
711.342	3563.38
711.687	3554.57
712.031	3555.25
712.375	3556.38
712.719	3543.49
713.063	3530.16
713.407	3564.74
713.75	3532.42
714.094	3522.93
714.438	3537.17
714.782	3535.81
715.125	3519.31
715.469	3548.01
715.812	3547.34
716.156	3533.33
716.499	3538.97
716.843	3511.86
717.186	3525.19
717.53	3550.27
717.873	3516.38
718.216	3552.08
718.559	3493.78
718.902	3481.12
719.246	3532.2
719.589	3512.53
719.932	3506.89
720.275	3520.44
720.617	3501.01
720.96	3544.85
721.303	3489.71
721.646	3540.1
721.989	3474.57
722.331	3483.38
722.674	3522.93
723.016	3550.5
723.359	3514.57
723.701	3559.99
724.044	3492.2
724.386	3482.48
724.729	3519.31
725.071	3527.45
725.413	3517.96
725.755	3562.48
726.097	3547.34
726.439	3494
726.782	3479.54
727.124	3538.97
727.465	3501.24
727.807	3508.92
728.149	3543.04
728.491	3506.21
728.833	3547.34
729.175	3561.12
729.516	3550.27
729.858	3512.08
730.199	3531.07
730.541	3572.19
730.882	3538.3
731.224	3570.39
731.565	3527.45
731.906	3550.95
732.248	3551.86
732.589	3503.5
732.93	3554.79
733.271	3561.57
733.612	3554.12
733.953	3536.49
734.294	3561.12
734.635	3592.31
734.976	3562.7
735.317	3589.82
735.658	3573.55
735.999	3574
736.339	3605.64
736.68	3607.9
737.021	3607.22
737.361	3592.08
737.702	3629.82
738.042	3617.16
738.383	3636.37
738.723	3611.97
739.063	3639.09
739.404	3607.45
739.744	3650.84
740.084	3647.22
740.424	3653.77
740.764	3676.37
741.104	3657.62
741.444	3653.77
741.784	3663.49
742.124	3713.43
742.464	3704.62
742.804	3681.8
743.143	3676.82
743.483	3666.66
743.823	3710.95
744.162	3751.62
744.502	3770.38
744.841	3715.02
745.181	3781.23
745.52	3778.29
745.86	3837.5
746.199	3806.54
746.538	3816.03
746.877	3846.54
747.216	3901.23
747.556	3890.83
747.895	3923.15
748.234	3915.01
748.573	3921.56
748.911	3875.46
749.25	3976.48
749.589	3958.4
749.928	4012.18
750.267	4028.45
750.605	3986.19
750.944	4045.4
751.283	4036.59
751.621	4070.03
751.96	4074.1
752.298	4125.4
752.636	4135.57
752.975	4116.59
753.313	4126.3
753.651	4190.03
753.989	4197.04
754.327	4208.11
754.666	4191.16
755.004	4219.63
755.342	4254.44
755.679	4274.77
756.017	4283.14
756.355	4319.97
756.693	4320.65
757.031	4343.47
757.368	4311.38
757.706	4371.72
758.044	4372.85
758.381	4441.55
758.719	4459.85
759.056	4412.17
759.394	4456.92
759.731	4439.29
760.068	4486.52
760.405	4510.02
760.743	4517.25
761.08	4519.29
761.417	4487.88
761.754	4542.11
762.091	4526.97
762.428	4521.77
762.765	4541.43
763.102	4627.08
763.438	4620.98
763.775	4561.55
764.112	4597.03
764.449	4637.7
764.785	4649.68
765.122	4554.77
765.458	4642.9
765.795	4632.96
766.131	4638.38
766.467	4623.01
766.804	4632.96
767.14	4630.02
767.476	4615.1
767.812	4652.17
768.148	4663.92
768.485	4623.24
768.821	4612.62
769.157	4619.85
769.492	4635.22
769.828	4638.38
770.164	4603.35
770.5	4618.72
770.836	4599.74
771.171	4625.95
771.507	4659.85
771.842	4530.81
