Data from blue_surface_keyboard_FLMS001491_086.txt Node
Date: Tue Feb 07 11:13:46 GMT 2017
User: dcchb
Spectrometer: FLMS00149
Trigger mode: 0
Integration Time (sec): 2.000000E-2
Scans to average: 10
Electric dark correction enabled: true
Nonlinearity correction enabled: false
Boxcar width: 0
XAxis mode: Wavelengths
Number of Pixels in Spectrum: 2048
>>>>>Begin Spectral Data<<<<<
341.393	-13.26
341.776	-13.26
342.16	-13.26
342.543	-58.91
342.927	-66.14
343.31	-72.02
343.693	-63.66
344.077	-67.72
344.46	-62.3
344.843	-54.39
345.226	-34.05
345.61	-37.44
345.993	-22.98
346.376	-9.19
346.759	8.88
347.142	44.14
347.525	48.43
347.908	47.98
348.291	84.14
348.674	91.82
349.057	98.37
349.44	106.28
349.823	156.45
350.206	154.42
350.588	178.15
350.971	195.09
351.354	185.15
351.737	204.81
352.119	234.64
352.502	235.09
352.884	246.39
353.267	254.08
353.65	272.61
354.032	281.42
354.414	286.16
354.797	293.62
355.179	295.66
355.562	292.49
355.944	306.05
356.326	288.42
356.709	317.35
357.091	304.02
357.473	304.7
357.855	313.06
358.238	309.44
358.62	319.38
359.002	302.21
359.384	312.38
359.766	297.69
360.148	318.03
360.53	312.38
360.912	299.27
361.294	317.12
361.676	318.03
362.057	314.86
362.439	311.47
362.821	283.23
363.203	293.85
363.584	300.63
363.966	299.95
364.348	301.98
364.729	290.46
365.111	281.42
365.493	284.81
365.874	297.69
366.256	288.42
366.637	284.13
367.019	274.87
367.4	285.94
367.781	283.45
368.163	291.81
368.544	277.35
368.925	281.42
369.306	295.66
369.688	281.42
370.069	259.5
370.45	296.56
370.831	283
371.212	306.73
371.593	292.04
371.974	294.98
372.355	295.43
372.736	282.32
373.117	295.66
373.498	296.79
373.879	289.1
374.26	294.53
374.641	295.2
375.021	281.65
375.402	285.26
375.783	302.89
376.163	301.98
376.544	297.01
376.925	300.4
377.305	286.16
377.686	297.01
378.066	304.92
378.447	296.11
378.827	279.61
379.208	294.75
379.588	301.53
379.968	309.44
380.349	299.27
380.729	297.24
381.109	294.75
381.489	311.02
381.87	288.65
382.25	283.23
382.63	288.42
383.01	297.92
383.39	309.22
383.77	311.02
384.15	311.7
384.53	308.99
384.91	286.84
385.29	310.12
385.67	290.46
386.049	318.03
386.429	297.69
386.809	311.25
387.189	303.79
387.568	317.8
387.948	327.52
388.328	320.29
388.707	313.51
389.087	334.07
389.466	328.65
389.846	298.59
390.225	330.23
390.605	316.9
390.984	324.81
391.363	290.68
391.743	311.02
392.122	317.12
392.501	322.77
392.881	353.06
393.26	313.73
393.639	327.75
394.018	310.8
394.397	344.24
394.776	321.87
395.155	323
395.534	320.97
395.913	315.09
396.292	328.42
396.671	316.45
397.05	330.01
397.429	327.75
397.808	335.43
398.186	314.86
398.565	345.37
398.944	326.62
399.323	341.98
399.701	340.4
400.08	332.49
400.458	358.25
400.837	343.34
401.215	349.21
401.594	349.89
401.972	315.77
402.351	330.91
402.729	336.78
403.107	332.04
403.486	355.54
403.864	344.47
404.242	359.16
404.62	321.64
404.999	333.85
405.377	344.24
405.755	330.46
406.133	350.57
406.511	335.43
406.889	370.91
407.267	349.44
407.645	339.27
408.023	364.58
408.401	369.55
408.779	349.21
409.156	353.96
409.534	374.07
409.912	361.19
410.29	354.64
410.667	369.78
411.045	359.61
411.422	369.55
411.8	360.74
412.178	374.07
412.555	372.72
412.933	366.39
413.31	380.17
413.687	388.53
414.065	383.34
414.442	372.72
414.819	367.07
415.197	402.77
415.574	389.66
415.951	377.91
416.328	379.95
416.705	377.91
417.082	395.77
417.46	400.96
417.837	392.15
418.214	394.18
418.591	383.34
418.967	380.63
419.344	383.79
419.721	395.77
420.098	404.35
420.475	388.99
420.852	388.08
421.228	407.74
421.605	406.84
421.982	418.82
422.358	409.1
422.735	398.25
423.111	402.32
423.488	407.97
423.864	428.99
424.241	432.38
424.617	424.47
424.994	413.39
425.37	393.73
425.746	431.25
426.123	418.14
426.499	428.08
426.875	425.6
427.251	433.96
427.627	435.09
428.003	437.12
428.379	422.21
428.756	429.89
429.132	436.44
429.507	448.87
429.883	471.47
430.259	457.69
430.635	434.64
431.011	439.16
431.387	450.68
431.763	451.13
432.138	458.14
432.514	475.54
432.89	454.3
433.265	469.66
433.641	458.82
434.016	464.47
434.392	463.34
434.767	477.57
435.143	483.22
435.518	495.2
435.894	493.62
436.269	471.02
436.644	499.27
437.02	484.13
437.395	495.88
437.77	492.04
438.145	496.1
438.52	492.49
438.895	484.13
439.271	496.78
439.646	491.36
440.021	517.57
440.395	502.43
440.77	519.6
441.145	513.73
441.52	518.02
441.895	511.02
442.27	501.3
442.645	508.76
443.019	529.32
443.394	517.12
443.769	563.67
444.143	495.42
444.518	531.36
444.892	517.8
445.267	556.21
445.641	553.05
446.016	531.81
446.39	539.27
446.764	546.5
447.139	560.51
447.513	555.54
447.887	541.07
448.262	549.43
448.636	555.54
449.01	558.25
449.384	562.32
449.758	555.54
450.132	543.56
450.506	560.06
450.88	567.74
451.254	567.74
451.628	571.13
452.002	581.3
452.376	572.94
452.75	579.04
453.123	588.53
453.497	584.01
453.871	599.15
454.244	599.6
454.618	588.98
454.992	612.94
455.365	615.65
455.739	628.98
456.112	597.34
456.486	615.2
456.859	603.67
457.232	619.49
457.606	632.82
457.979	639.83
458.352	639.6
458.725	638.02
459.099	632.6
459.472	625.14
459.845	659.94
460.218	639.83
460.591	661.3
460.964	653.16
461.337	658.81
461.71	657.23
462.083	684.8
462.456	686.15
462.829	695.42
463.201	706.49
463.574	692.93
463.947	692.03
464.32	700.17
464.692	705.81
465.065	689.54
465.438	721.63
465.81	701.75
466.183	733.38
466.555	722.31
466.928	736.32
467.3	708.98
467.672	755.08
468.045	758.92
468.417	738.81
468.789	714.85
469.161	755.08
469.534	777.23
469.906	762.31
470.278	778.13
470.65	769.77
471.022	794.17
471.394	797.56
471.766	805.7
472.138	769.32
472.51	821.07
472.882	838.01
473.253	819.03
473.625	847.96
473.997	842.31
474.369	843.66
474.74	861.06
475.112	866.94
475.484	877.56
475.855	882.31
476.227	887.96
476.598	898.35
476.97	911.46
477.341	921.18
477.713	926.37
478.084	957.56
478.455	973.83
478.827	931.12
479.198	966.37
479.569	971.57
479.94	988.07
480.311	983.77
480.682	983.77
481.053	1007.5
481.424	1027.16
481.795	1023.77
482.166	1041.4
482.537	1032.36
482.908	1069.2
483.279	1058.57
483.65	1096.31
484.021	1069.65
484.391	1092.02
484.762	1104.45
485.133	1095.18
485.503	1106.03
485.874	1146.03
486.244	1123.88
486.615	1155.75
486.985	1178.8
487.356	1129.53
487.726	1160.04
488.097	1192.13
488.467	1186.93
488.837	1198.01
489.207	1207.5
489.578	1195.75
489.948	1233.94
490.318	1239.59
490.688	1210.43
491.058	1264.67
491.428	1225.58
491.798	1240.26
492.168	1251.79
492.538	1236.42
492.908	1289.3
493.278	1283.65
493.648	1289.75
494.017	1297.89
494.387	1285.01
494.757	1286.14
495.126	1338.79
495.496	1324.78
495.866	1306.25
496.235	1334.72
496.605	1323.2
496.974	1328.62
497.344	1342.63
497.713	1325.23
498.082	1349.19
498.452	1336.31
498.821	1364.1
499.19	1342.18
499.559	1372.92
499.928	1357.55
500.298	1363.2
500.667	1395.06
501.036	1394.84
501.405	1389.86
501.774	1423.54
502.143	1413.14
502.512	1374.72
502.88	1395.97
503.249	1406.14
503.618	1403.65
503.987	1398
504.356	1398.68
504.724	1410.2
505.093	1406.59
505.462	1416.53
505.83	1402.97
506.199	1412.46
506.567	1427.15
506.936	1446.13
507.304	1405.68
507.672	1452.01
508.041	1434.61
508.409	1456.3
508.777	1447.04
509.145	1459.02
509.514	1448.85
509.882	1437.55
510.25	1473.93
510.618	1483.42
510.986	1482.29
511.354	1469.86
511.722	1460.6
512.09	1482.52
512.458	1492.01
512.826	1468.05
513.193	1491.78
513.561	1507.83
513.929	1500.37
514.297	1491.78
514.664	1498.79
515.032	1495.17
515.4	1520.26
515.767	1510.77
516.135	1499.24
516.502	1513.48
516.869	1522.52
517.237	1523.87
517.604	1521.84
517.972	1530.65
518.339	1549.18
518.706	1545.34
519.073	1527.04
519.44	1548.73
519.808	1524.1
520.175	1537.21
520.542	1566.36
520.909	1590.54
521.276	1553.02
521.643	1555.51
522.009	1567.04
522.376	1588.96
522.743	1566.81
523.11	1594.6
523.477	1539.69
523.843	1605
524.21	1588.96
524.577	1572.23
524.943	1620.14
525.31	1577.88
525.676	1613.14
526.043	1649.52
526.409	1608.39
526.776	1596.19
527.142	1654.49
527.508	1621.95
527.874	1602.51
528.241	1628.95
528.607	1638.67
528.973	1641.84
529.339	1639.12
529.705	1646.36
530.071	1630.54
530.437	1667.37
530.803	1654.94
531.169	1672.57
531.535	1666.69
531.901	1644.77
532.267	1646.58
532.632	1661.72
532.998	1675.96
533.364	1661.5
533.73	1674.15
534.095	1680.25
534.461	1655.62
534.826	1689.52
535.192	1704.66
535.557	1706.01
535.923	1672.57
536.288	1675.51
536.653	1688.84
537.019	1678.44
537.384	1680.03
537.749	1709.63
538.114	1701.49
538.479	1676.41
538.845	1707.82
539.21	1716.41
539.575	1705.79
539.94	1701.72
540.305	1691.78
540.67	1680.7
541.034	1674.83
541.399	1714.15
541.764	1714.38
542.129	1708.5
542.494	1713.25
542.858	1727.71
543.223	1698.33
543.587	1704.43
543.952	1739.69
544.316	1706.24
544.681	1686.13
545.045	1730.42
545.41	1703.3
545.774	1707.82
546.138	1718.22
546.503	1723.19
546.867	1741.72
547.231	1748.5
547.595	1740.82
547.959	1734.71
548.324	1717.99
548.688	1733.81
549.052	1735.62
549.416	1726.13
549.779	1729.74
550.143	1684.09
550.507	1754.83
550.871	1728.39
551.235	1736.07
551.599	1748.27
551.962	1760.48
552.326	1753.24
552.689	1758.67
553.053	1744.21
553.417	1717.54
553.78	1772
554.143	1719.12
554.507	1762.96
554.87	1739.46
555.234	1754.83
555.597	1776.97
555.96	1742.85
556.323	1752.34
556.686	1779.46
557.05	1776.52
557.413	1725.45
557.776	1742.17
558.139	1801.38
558.502	1749.63
558.865	1787.82
559.228	1773.36
559.59	1805.67
559.953	1769.74
560.316	1782.4
560.679	1769.29
561.041	1793.24
561.404	1776.52
561.767	1792.11
562.129	1789.85
562.492	1795.28
562.854	1783.75
563.217	1779.68
563.579	1831.21
563.941	1804.77
564.304	1816.52
564.666	1821.04
565.028	1800.25
565.39	1832.34
565.753	1805.67
566.115	1839.34
566.477	1855.39
566.839	1819.91
567.201	1850.64
567.563	1817.2
567.925	1850.19
568.287	1847.48
568.648	1859
569.01	1879.12
569.372	1863.3
569.734	1860.81
570.095	1841.83
570.457	1850.42
570.819	1845.9
571.18	1864.88
571.542	1873.02
571.903	1837.76
572.265	1877.08
572.626	1896.07
572.987	1872.34
573.349	1897.65
573.71	1861.49
574.071	1894.26
574.432	1867.82
574.794	1896.07
575.155	1899.91
575.516	1894.71
575.877	1906.69
576.238	1896.74
576.599	1917.31
576.96	1896.74
577.32	1911.21
577.681	1921.15
578.042	1904.2
578.403	1893.35
578.763	1925.67
579.124	1927.03
579.485	1903.07
579.845	1922.05
580.206	1926.12
580.566	1937.87
580.927	1909.17
581.287	1910.53
581.648	1932.22
582.008	1928.61
582.368	1940.58
582.728	1931.77
583.089	1929.51
583.449	1943.97
583.809	1973.8
584.169	1959.12
584.529	1935.61
584.889	1949.17
585.249	1918.89
585.609	1952.11
585.969	1937.65
586.329	1937.19
586.688	1958.21
587.048	1911.88
587.408	1951.21
587.768	1950.53
588.127	1950.08
588.487	1958.66
588.846	1959.79
589.206	1979.68
589.565	1932.22
589.925	1971.32
590.284	1955.27
590.643	1997.53
591.003	1946.46
591.362	1944.88
591.721	1951.43
592.08	1953.01
592.44	1968.38
592.799	1989.17
593.158	1955.05
593.517	1983.75
593.876	1969.28
594.235	1953.01
594.593	1967.93
594.952	1993.92
595.311	1997.53
595.67	1976.29
596.029	1948.04
596.387	1948.49
596.746	1998.66
597.104	2004.09
597.463	1990.53
597.822	1975.61
598.18	1947.82
598.538	1965.67
598.897	1994.82
599.255	1987.14
599.613	2020.58
599.972	1995.5
600.33	1973.13
600.688	1994.14
601.046	1976.06
601.404	1994.37
601.762	2029.17
602.12	2013.13
602.478	2012.45
602.836	2030.75
603.194	1996.4
603.552	1999.11
603.91	2004.09
604.268	2013.58
604.625	2019
604.983	2013.35
605.341	2000.24
605.698	2005.22
606.056	2049.28
606.413	2033.69
606.771	2044.31
607.128	2051.77
607.485	2056.51
607.843	2030.3
608.2	2035.05
608.557	2016.74
608.914	2061.26
609.272	2057.64
609.629	2020.36
609.986	2060.81
610.343	2094.7
610.7	2066.46
611.057	2055.38
611.414	2033.92
611.771	2085.67
612.127	2067.13
612.484	2074.37
612.841	2080.47
613.198	2088.15
613.554	2059.68
613.911	2062.84
614.267	2078.43
614.624	2075.95
614.98	2092.22
615.337	2072.78
615.693	2093.35
616.05	2129.96
616.406	2102.84
616.762	2116.17
617.118	2132.22
617.475	2129.96
617.831	2142.16
618.187	2123.63
618.543	2101.94
618.899	2139
619.255	2171.76
619.611	2148.26
619.967	2138.55
620.323	2113.91
620.678	2145.55
621.034	2155.04
621.39	2139.68
621.746	2163.4
622.101	2148.71
622.457	2164.31
622.812	2115.95
623.168	2154.14
623.523	2186.23
623.879	2158.21
624.234	2168.15
624.589	2188.49
624.945	2177.87
625.3	2192.78
625.655	2192.56
626.01	2173.35
626.365	2190.07
626.72	2189.17
627.075	2175.38
627.43	2213.8
627.785	2189.17
628.14	2222.61
628.495	2177.87
628.85	2216.06
629.205	2201.37
629.559	2209.73
629.914	2219.9
630.269	2204.76
630.623	2224.87
630.978	2223.51
631.332	2213.8
631.687	2212.89
632.041	2201.37
632.396	2212.22
632.75	2245.44
633.104	2265.77
633.459	2221.71
633.813	2233.91
634.167	2239.79
634.521	2238.2
634.875	2264.87
635.229	2267.58
635.583	2270.07
635.937	2232.33
636.291	2256.28
636.645	2287.47
636.999	2265.1
637.352	2285.21
637.706	2254.93
638.06	2264.87
638.413	2263.97
638.767	2301.25
639.121	2304.42
639.474	2269.39
639.828	2326.11
640.181	2285.21
640.534	2300.8
640.888	2301.93
641.241	2328.82
641.594	2305.09
641.947	2323.17
642.301	2316.85
642.654	2309.16
643.007	2352.55
643.36	2355.26
643.713	2340.57
644.066	2389.84
644.419	2375.15
644.771	2362.04
645.124	2346
645.477	2360.46
645.83	2296.96
646.182	2385.77
646.535	2361.59
646.888	2408.14
647.24	2362.27
647.593	2334.25
647.945	2364.3
648.298	2382.38
648.65	2383.28
649.002	2394.58
649.355	2377.41
649.707	2415.6
650.059	2433.9
650.411	2441.81
650.763	2489.72
651.115	2521.36
651.467	2530.17
651.819	2527.01
652.171	2529.95
652.523	2516.16
652.875	2554.81
653.227	2539.21
653.578	2576.5
653.93	2555.26
654.282	2561.36
654.633	2545.77
654.985	2567.46
655.337	2614.69
655.688	2609.49
656.039	2652.2
656.391	2628.25
656.742	2664.63
657.094	2664.63
657.445	2658.98
657.796	2719.32
658.147	2665.76
658.498	2690.85
658.849	2689.72
659.2	2696.5
659.551	2720.9
659.902	2761.35
660.253	2756.83
660.604	2760.68
660.955	2754.8
661.306	2787.79
661.656	2798.42
662.007	2830.05
662.358	2824.63
662.708	2848.13
663.059	2861.24
663.409	2818.75
663.76	2875.93
664.11	2876.61
664.461	2892.42
664.811	2885.87
665.161	2898.3
665.511	2925.87
665.862	2962.7
666.212	2966.77
666.562	2998.41
666.912	2969.71
667.262	2974.91
667.612	3034.57
667.962	3054
668.312	3045.19
668.662	3059.43
669.011	3068.92
669.361	3082.93
669.711	3054.45
670.06	3101.91
670.41	3082.25
670.76	3116.6
671.109	3122.47
671.459	3171.96
671.808	3148.69
672.157	3183.04
672.507	3188.46
672.856	3163.15
673.205	3201.57
673.554	3226.88
673.904	3249.25
674.253	3213.55
674.602	3265.97
674.951	3207.9
675.3	3213.32
675.649	3282.7
675.998	3305.29
676.346	3310.04
676.695	3327.21
677.044	3295.8
677.393	3342.58
677.741	3373.77
678.09	3368.12
678.438	3392.07
678.787	3393.43
679.135	3404.27
679.484	3370.6
679.832	3457.38
680.181	3457.15
680.529	3413.54
680.877	3457.83
681.225	3483.14
681.573	3487.44
681.922	3476.59
682.27	3457.15
682.618	3491.5
682.966	3477.04
683.314	3482.24
683.661	3503.71
684.009	3522.92
684.357	3510.94
684.705	3501.22
685.053	3580.77
685.4	3542.35
685.748	3542.35
686.095	3543.48
686.443	3538.06
686.79	3597.49
687.138	3555.23
687.485	3618.96
687.832	3601.56
688.18	3638.62
688.527	3617.83
688.874	3590.48
689.221	3622.57
689.568	3639.75
689.915	3652.86
690.262	3652.63
690.609	3644.04
690.956	3641.1
691.303	3613.76
691.65	3667.77
691.997	3681.78
692.344	3667.32
692.69	3629.58
693.037	3663.25
693.383	3647.66
693.73	3657.83
694.077	3632.52
694.423	3644.49
694.769	3625.96
695.116	3663.03
695.462	3648.11
695.808	3655.57
696.155	3651.5
696.501	3662.35
696.847	3686.75
697.193	3618.51
697.539	3632.29
697.885	3659.18
698.231	3624.38
698.577	3658.05
698.923	3639.97
699.269	3590.48
699.614	3615.57
699.96	3598.17
700.306	3638.39
700.651	3597.49
700.997	3623.93
701.342	3625.74
701.688	3608.79
702.033	3618.73
702.379	3611.28
702.724	3644.72
703.069	3658.05
703.415	3606.3
703.76	3622.57
704.105	3577.83
704.45	3555.91
704.795	3586.64
705.14	3567.89
705.485	3582.12
705.83	3568.11
706.175	3606.53
706.52	3515.01
706.865	3576.7
707.209	3572.18
707.554	3566.53
707.899	3571.28
708.243	3557.72
708.588	3573.08
708.932	3535.12
709.277	3534.21
709.621	3489.7
709.966	3569.92
710.31	3570.6
710.654	3515.68
710.998	3535.12
711.342	3533.31
711.687	3492.86
712.031	3542.12
712.375	3524.05
712.719	3548.23
713.063	3529.7
713.407	3534.21
713.75	3509.13
714.094	3508.68
714.438	3519.3
714.782	3504.84
715.125	3549.13
715.469	3495.35
715.812	3503.03
716.156	3448.57
716.499	3522.92
716.843	3519.75
717.186	3491.5
717.53	3534.67
717.873	3490.6
718.216	3489.7
718.559	3518.85
718.902	3480.66
719.246	3498.28
719.589	3474.33
719.932	3458.06
720.275	3492.41
720.617	3454.44
720.96	3480.21
721.303	3505.52
721.646	3499.19
721.989	3473.2
722.331	3489.24
722.674	3449.47
723.016	3496.7
723.359	3510.71
723.701	3508.23
724.044	3492.18
724.386	3466.87
724.729	3501.22
725.071	3462.35
725.413	3499.19
725.755	3485.4
726.097	3495.35
726.439	3514.33
726.782	3468.68
727.124	3505.06
727.465	3496.25
727.807	3480.88
728.149	3456.48
728.491	3500.77
728.833	3520.2
729.175	3502.58
729.516	3491.96
729.858	3495.8
730.199	3515.23
730.541	3491.73
730.882	3477.04
731.224	3472.3
731.565	3469.13
731.906	3516.14
732.248	3510.49
732.589	3465.06
732.93	3503.26
733.271	3523.37
733.612	3560.43
733.953	3543.48
734.294	3526.08
734.635	3532.63
734.976	3564.5
735.317	3533.31
735.658	3550.71
735.999	3538.73
736.339	3532.41
736.68	3578.96
737.021	3548
737.361	3571.73
737.702	3606.53
738.042	3580.99
738.383	3571.5
738.723	3592.07
739.063	3572.18
739.404	3614.89
739.744	3613.99
740.084	3615.57
740.424	3608.11
740.764	3610.82
741.104	3625.06
741.444	3631.84
741.784	3646.75
742.124	3671.39
742.464	3670.93
742.804	3663.03
743.143	3710.03
743.483	3692.85
743.823	3674.78
744.162	3694.89
744.502	3733.76
744.841	3773.3
745.181	3744.83
745.52	3767.43
745.86	3772.63
746.199	3784.15
746.538	3814.21
746.877	3794.55
747.216	3826.86
747.556	3836.58
747.895	3854.21
748.234	3854.21
748.573	3880.87
748.911	3904.15
749.25	3855.79
749.589	3891.04
749.928	3940.76
750.267	3987.99
750.605	3950.7
750.944	3996.8
751.283	3989.34
751.621	4062.79
751.96	3993.64
752.298	4065.73
752.636	4091.71
752.975	4059.17
753.313	4098.49
753.651	4147.98
753.989	4145.05
754.327	4135.56
754.666	4217.81
755.004	4178.49
755.342	4204.48
755.679	4251.71
756.017	4208.55
756.355	4262.11
756.693	4283.8
757.031	4305.04
757.368	4311.6
757.706	4303.23
758.044	4354.98
758.381	4397.02
758.719	4378.49
759.056	4391.14
759.394	4426.85
759.731	4437.24
760.068	4420.97
760.405	4442.21
760.743	4416.68
761.08	4499.39
761.417	4467.52
761.754	4503.23
762.091	4465.94
762.428	4468.88
762.765	4536.45
763.102	4500.52
763.438	4512.49
763.775	4544.58
764.112	4534.87
764.449	4555.88
764.785	4561.31
765.122	4549.78
765.458	4590.68
765.795	4562.44
766.131	4604.24
766.467	4630.23
766.804	4561.53
767.14	4581.87
767.476	4554.75
767.812	4613.06
768.148	4602.44
768.485	4565.37
768.821	4621.64
769.157	4611.93
769.492	4582.32
769.828	4547.52
770.164	4591.59
770.5	4577.13
770.836	4561.31
771.171	4593.62
771.507	4539.39
771.842	4514.98
