Data from blue_clamp_base_FLMS001491_00073.txt Node
Date: Wed Feb 08 15:16:29 GMT 2017
User: dcchb
Spectrometer: FLMS00149
Trigger mode: 0
Integration Time (sec): 2.000000E-2
Scans to average: 10
Electric dark correction enabled: true
Nonlinearity correction enabled: false
Boxcar width: 0
XAxis mode: Wavelengths
Number of Pixels in Spectrum: 2048
>>>>>Begin Spectral Data<<<<<
341.393	-4.89
341.776	-4.89
342.16	-4.89
342.543	-58.22
342.927	-51.21
343.31	-65.9
343.693	-45.11
344.077	-51.67
344.46	-54.15
344.843	-55.51
345.226	-40.37
345.61	-29.74
345.993	-22.74
346.376	-18.45
346.759	2.57
347.142	22.91
347.525	39.86
347.908	64.72
348.291	47.54
348.674	97.48
349.057	108.56
349.44	125.51
349.823	132.51
350.206	167.76
350.588	186.07
350.971	200.08
351.354	214.99
351.737	226.75
352.119	248.89
352.502	279.63
352.884	289.12
353.267	287.76
353.65	288.21
354.032	310.36
354.414	322.34
354.797	317.36
355.179	312.84
355.562	313.52
355.944	319.85
356.326	338.15
356.709	325.5
357.091	336.8
357.473	347.42
357.855	345.39
358.238	334.09
358.62	330.25
359.002	339.28
359.384	328.66
359.766	337.25
360.148	332.51
360.53	356.01
360.912	354.2
361.294	351.94
361.676	321.21
362.057	317.14
362.439	344.26
362.821	336.35
363.203	322.34
363.584	325.05
363.966	312.84
364.348	337.7
364.729	306.29
365.111	319.17
365.493	327.76
365.874	306.52
366.256	316.69
366.637	326.63
367.019	319.4
367.4	304.71
367.781	336.12
368.163	308.33
368.544	325.73
368.925	334.99
369.306	325.5
369.688	337.93
370.069	294.54
370.45	351.94
370.831	318.95
371.212	328.66
371.593	303.81
371.974	335.9
372.355	324.82
372.736	324.37
373.117	307.87
373.498	318.04
373.879	339.28
374.26	292.51
374.641	323.24
375.021	339.51
375.402	335.44
375.783	349.45
376.163	347.87
376.544	319.62
376.925	330.02
377.305	341.32
377.686	333.41
378.066	346.97
378.447	357.59
378.827	338.15
379.208	369.11
379.588	374.31
379.968	339.51
380.349	355.78
380.729	362.56
381.109	352.17
381.489	350.58
381.87	358.27
382.25	337.48
382.63	355.56
383.01	358.95
383.39	367.98
383.77	364.59
384.15	382.22
384.53	395.55
384.91	370.47
385.29	368.21
385.67	388.32
386.049	386.52
386.429	378.83
386.809	408.44
387.189	400.07
387.568	356.91
387.948	374.99
388.328	387.19
388.707	372.05
389.087	418.83
389.466	414.76
389.846	385.61
390.225	443.46
390.605	413.18
390.984	426.51
391.363	426.29
391.743	419.96
392.122	403.92
392.501	430.81
392.881	438.27
393.26	459.51
393.639	441.88
394.018	438.27
394.397	443.46
394.776	420.41
395.155	462.45
395.534	460.86
395.913	466.97
396.292	456.34
396.671	478.26
397.05	478.72
397.429	488.43
397.808	515.1
398.186	487.08
398.565	496.34
398.944	511.71
399.323	500.86
399.701	494.31
400.08	533.18
400.458	534.53
400.837	506.96
401.215	527.08
401.594	532.73
401.972	534.76
402.351	544.48
402.729	527.08
403.107	557.81
403.486	567.3
403.864	555.55
404.242	548.09
404.62	572.27
404.999	587.64
405.377	590.58
405.755	589.67
406.133	611.59
406.511	600.29
406.889	598.04
407.267	620.18
407.645	608.88
408.023	635.1
408.401	636.45
408.779	654.53
409.156	674.19
409.534	648.2
409.912	666.96
410.29	672.16
410.667	667.19
411.045	678.03
411.422	727.98
411.8	734.98
412.178	726.17
412.555	744.02
412.933	749.67
413.31	732.95
413.687	742.44
414.065	761.19
414.442	771.36
414.819	765.71
415.197	785.6
415.574	794.41
415.951	805.71
416.328	828.76
416.705	819.72
417.082	824.24
417.46	858.82
417.837	829.22
418.214	836.22
418.591	837.12
418.967	865.82
419.344	861.08
419.721	871.47
420.098	860.4
420.475	910.8
420.852	900.4
421.228	894.52
421.605	917.35
421.982	931.59
422.358	935.2
422.735	936.78
423.111	960.96
423.488	971.58
423.864	965.71
424.241	1002.54
424.617	968.65
424.994	1009.1
425.37	1006.39
425.746	1004.8
426.123	998.25
426.499	1012.04
426.875	1046.16
427.251	1083.22
427.627	1092.26
428.003	1104.91
428.379	1085.93
428.756	1110.34
429.132	1140.17
429.507	1157.57
429.883	1157.12
430.259	1178.58
430.635	1200.73
431.011	1241.41
431.387	1202.09
431.763	1244.8
432.138	1243.22
432.514	1281.18
432.89	1285.47
433.265	1286.6
433.641	1344.68
434.016	1344
434.392	1345.36
434.767	1361.86
435.143	1387.62
435.518	1410.9
435.894	1408.86
436.269	1442.98
436.644	1436.66
437.02	1466.03
437.395	1459.71
437.77	1487.5
438.145	1510.1
438.52	1537.45
438.895	1537.22
439.271	1576.54
439.646	1599.36
440.021	1612.25
440.395	1598.91
440.77	1579.93
441.145	1621.51
441.52	1623.32
441.895	1638.91
442.27	1700.83
442.645	1643.66
443.019	1701.51
443.394	1674.62
443.769	1697.89
444.143	1684.33
444.518	1729.3
444.892	1749.42
445.267	1756.42
445.641	1773.37
446.016	1777.21
446.39	1781.73
446.764	1824.9
447.139	1809.53
447.513	1823.99
447.887	1833.48
448.262	1836.19
448.636	1873.93
449.01	1890.43
449.384	1896.98
449.758	1915.29
450.132	1953.48
450.506	1935.85
450.88	2000.71
451.254	1959.36
451.628	2015.17
452.002	2045.45
452.376	2028.73
452.75	2046.81
453.123	2078.9
453.497	2096.3
453.871	2064.66
454.244	2160.48
454.618	2150.31
454.992	2207.71
455.365	2180.37
455.739	2253.13
456.112	2256.52
456.486	2267.37
456.859	2307.37
457.232	2374.94
457.606	2362.51
457.979	2355.28
458.352	2412.22
458.725	2454.03
459.099	2465.33
459.472	2523.63
459.845	2540.58
460.218	2562.96
460.591	2564.99
460.964	2558.44
461.337	2634.82
461.71	2641.37
462.083	2695.16
462.456	2716.85
462.829	2727.24
463.201	2784.19
463.574	2789.39
463.947	2814.93
464.32	2871.2
464.692	2888.6
465.065	2854.02
465.438	2908.71
465.81	2976.28
466.183	2982.83
466.555	3045.43
466.928	3061.7
467.3	3032.32
467.672	3124.97
468.045	3175.59
468.417	3183.05
468.789	3190.06
469.161	3216.72
469.534	3278.87
469.906	3352.54
470.278	3352.76
470.65	3426.44
471.022	3459.2
471.394	3509.82
471.766	3531.74
472.138	3608.35
472.51	3625.75
472.882	3685.41
473.253	3709.37
473.625	3751.62
473.997	3819.42
474.369	3848.8
474.74	3893.32
475.112	3948.23
475.484	3994.56
475.855	4039.98
476.227	4105.06
476.598	4188
476.97	4168.79
477.341	4302.57
477.713	4311.61
478.084	4333.98
478.455	4454.43
478.827	4449.69
479.198	4591.83
479.569	4603.81
479.94	4650.13
480.311	4698.94
480.682	4784.59
481.053	4853.97
481.424	4940.52
481.795	4954.98
482.166	5041.31
482.537	5117.24
482.908	5180.51
483.279	5253.51
483.65	5291.25
484.021	5384.35
484.391	5415.76
484.762	5424.35
485.133	5435.65
485.503	5492.6
485.874	5588.64
486.244	5641.07
486.615	5755.19
486.985	5785.24
487.356	5823.66
487.726	5885.58
488.097	5970.1
488.467	5960.83
488.837	6123.09
489.207	6114.05
489.578	6159.02
489.948	6199.02
490.318	6264.78
490.688	6304.78
491.058	6347.71
491.428	6420.25
491.798	6439.01
492.168	6599.46
492.538	6535.73
492.908	6594.26
493.278	6690.53
493.648	6644.2
494.017	6722.62
494.387	6770.53
494.757	6789.74
495.126	6844.88
495.496	6873.8
495.866	6884.42
496.235	6890.98
496.605	6961.71
496.974	6930.52
497.344	7007.81
497.713	7038.54
498.082	7118.77
498.452	7136.17
498.821	7131.2
499.19	7187.92
499.559	7181.14
499.928	7182.49
500.298	7271.08
500.667	7278.09
501.036	7259.1
501.405	7260.01
501.774	7348.37
502.143	7380
502.512	7373.22
502.88	7398.99
503.249	7399.66
503.618	7434.47
503.987	7464.75
504.356	7517.85
504.724	7465.65
505.093	7513.79
505.462	7533.9
505.83	7552.2
506.199	7629.26
506.567	7693.67
506.936	7659.32
507.304	7756.49
507.672	7692.09
508.041	7747.68
508.409	7809.82
508.777	7840.33
509.145	7844.85
509.514	7854.79
509.882	7949.25
510.25	7904.06
510.618	7965.98
510.986	7970.72
511.354	8073.09
511.722	8033.32
512.09	8109.25
512.458	8107.89
512.826	8112.19
513.193	8171.62
513.561	8177.04
513.929	8198.74
514.297	8301.34
514.664	8257.95
515.032	8390.6
515.4	8317.15
515.767	8359.64
516.135	8313.54
516.502	8308.79
516.869	8410.49
517.237	8469.24
517.604	8391.28
517.972	8428.11
518.339	8551.05
518.706	8561.89
519.073	8530.93
519.44	8613.42
519.808	8634.21
520.175	8586.07
520.542	8728.22
520.909	8781.32
521.276	8720.53
521.643	8746.75
522.009	8813.41
522.376	8872.39
522.743	8936.57
523.11	8982.45
523.477	8974.54
523.843	8991.71
524.21	9120.3
524.577	9151.48
524.943	9157.36
525.31	9178.15
525.676	9313.74
526.043	9269.22
526.409	9331.14
526.776	9347.64
527.142	9436.22
527.508	9439.16
527.874	9492.94
528.241	9597.35
528.607	9610.91
528.973	9662.66
529.339	9652.71
529.705	9776.32
530.071	9761.41
530.437	9812.93
530.803	9853.16
531.169	9907.85
531.535	9886.6
531.901	9887.51
532.267	9977.45
532.632	10016.09
532.998	10069.88
533.364	10064.23
533.73	10141.96
534.095	10200.04
534.461	10153.49
534.826	10242.3
535.192	10195.52
535.557	10376.99
535.923	10280.04
536.288	10346.48
536.653	10336.76
537.019	10344.22
537.384	10446.82
537.749	10413.6
538.114	10548.51
538.479	10481.62
538.845	10496.31
539.21	10543.31
539.575	10551.45
539.94	10638.22
540.305	10670.31
540.67	10635.74
541.034	10676.87
541.399	10743.53
541.764	10664.66
542.129	10742.18
542.494	10782.63
542.858	10849.29
543.223	10876.41
543.587	10927.26
543.952	10882.96
544.316	10998.44
544.681	10951.89
545.045	10957.31
545.41	11085.22
545.774	11039.57
546.138	11047.25
546.503	11132.22
546.867	11055.39
547.231	11148.72
547.595	11158.66
547.959	11256.51
548.324	11232.56
548.688	11267.59
549.052	11279.79
549.416	11266.91
549.779	11376.73
550.143	11273.46
550.507	11362.5
550.871	11459.67
551.235	11444.98
551.599	11413.34
551.962	11491.31
552.326	11582.38
552.689	11593
553.053	11566.33
553.417	11583.28
553.78	11754.13
554.143	11600.91
554.507	11769.49
554.87	11692.66
555.234	11834.35
555.597	11738.53
555.96	11811.53
556.323	11892.2
556.686	11866.67
557.05	11865.99
557.413	11972.88
557.776	12003.38
558.139	12078.64
558.502	12069.82
558.865	12122.25
559.228	12232.08
559.59	12235.24
559.953	12206.54
560.316	12224.17
560.679	12270.04
561.041	12346.2
561.404	12448.8
561.767	12525.86
562.129	12491.06
562.492	12555.46
562.854	12612.86
563.217	12497.84
563.579	12581.9
563.941	12672.97
564.304	12734.44
564.666	12776.25
565.028	12806.53
565.39	12794.32
565.753	12929.01
566.115	13004.94
566.477	13044.26
566.839	13064.37
567.201	13103.02
567.563	13101.89
567.925	13187.08
568.287	13230.02
568.648	13284.03
569.01	13305.27
569.372	13411.94
569.734	13342.33
570.095	13451.48
570.457	13566.96
570.819	13488.54
571.18	13461.2
571.542	13672.49
571.903	13699.39
572.265	13776.45
572.626	13722.44
572.987	13790
573.349	13915.2
573.71	13903.22
574.071	13955.2
574.432	13978.7
574.794	14107.28
575.155	14102.09
575.516	14020.96
575.877	14100.05
576.238	14097.57
576.599	14177.11
576.96	14213.04
577.32	14291.23
577.681	14300.5
578.042	14380.72
578.403	14347.05
578.763	14358.13
579.124	14328.3
579.485	14525.8
579.845	14488.29
580.206	14513.6
580.566	14533.94
580.927	14473.38
581.287	14594.28
581.648	14540.04
582.008	14658.23
582.368	14570.55
582.728	14674.5
583.089	14611.45
583.449	14601.73
583.809	14695.52
584.169	14617.78
584.529	14620.27
584.889	14817.55
585.249	14722.41
585.609	14667.04
585.969	14784.55
586.329	14718.79
586.688	14795.63
587.048	14721.73
587.408	14795.18
587.768	14750.66
588.127	14770.54
588.487	14855.06
588.846	14900.71
589.206	14787.49
589.565	14929.41
589.925	14814.84
590.284	14878.79
590.643	14908.62
591.003	14949.75
591.362	14943.19
591.721	14942.97
592.08	14988.84
592.44	15040.82
592.799	14978
593.158	14949.75
593.517	14982.74
593.876	14986.58
594.235	15036.3
594.593	15027.03
594.952	15086.47
595.311	15027.26
595.67	14988.17
596.029	15113.59
596.387	15069.52
596.746	15105.45
597.104	15001.72
597.463	15054.6
597.822	15086.47
598.18	15125.34
598.538	15084.66
598.897	15233.13
599.255	15068.62
599.613	15272.68
599.972	15192.45
600.33	15279.01
600.688	15200.14
601.046	15283.3
601.404	15276.07
601.762	15240.59
602.12	15313.58
602.478	15329.17
602.836	15288.5
603.194	15193.13
603.552	15363.52
603.91	15246.46
604.268	15260.7
604.625	15266.58
604.983	15361.94
605.341	15270.87
605.698	15318.78
606.056	15469.06
606.413	15335.73
606.771	15399.91
607.128	15451.88
607.485	15343.18
607.843	15402.39
608.2	15519.22
608.557	15460.92
608.914	15476.97
609.272	15581.6
609.629	15544.53
609.986	15563.29
610.343	15601.03
610.7	15602.61
611.057	15624.53
611.414	15577.75
611.771	15584.99
612.127	15635.38
612.484	15625.44
612.841	15751.08
613.198	15611.43
613.554	15797.18
613.911	15809.61
614.267	15764.19
614.624	15818.43
614.98	15832.66
615.337	15852.32
615.693	15869.5
616.05	15785.66
616.406	15961.7
616.762	15926.67
617.118	15895.94
617.475	15881.93
617.831	15989.49
618.187	15964.64
618.543	15998.76
618.899	16159.21
619.255	16140.23
619.611	16017.06
619.967	16144.97
620.323	16222.03
620.678	16202.14
621.034	16124.18
621.39	16085.76
621.746	16042.15
622.101	16325.31
622.457	16078.08
622.812	16095.71
623.168	16205.08
623.523	16249.83
623.879	16268.81
624.234	16201.92
624.589	16230.62
624.945	16198.75
625.3	16354.46
625.655	16345.19
626.01	16321.24
626.365	16335.02
626.72	16323.27
627.075	16311.97
627.43	16348.58
627.785	16341.35
628.14	16411.63
628.495	16355.36
628.85	16496.6
629.205	16422.7
629.559	16525.98
629.914	16389.48
630.269	16395.36
630.623	16396.49
630.978	16326.66
631.332	16567.56
631.687	16481.69
632.041	16516.03
632.396	16508.58
632.75	16505.19
633.104	16501.8
633.459	16370.73
633.813	16432.87
634.167	16439.2
634.521	16506.32
634.875	16514.9
635.229	16517.39
635.583	16430.61
635.937	16589.93
636.291	16521.91
636.645	16499.54
636.999	16515.36
637.352	16537.95
637.706	16507
638.06	16572.3
638.413	16513.1
638.767	16508.8
639.121	16556.26
639.474	16515.36
639.828	16565.3
640.181	16540.67
640.534	16591.06
640.888	16621.12
641.241	16507
641.594	16600.1
641.947	16602.59
642.301	16628.57
642.654	16612.08
643.007	16704.96
643.36	16742.24
643.713	16660.66
644.066	16834.22
644.419	16661.79
644.771	16518.75
645.124	16418.64
645.477	16315.59
645.83	16222.71
646.182	16263.39
646.535	16356.94
646.888	16382.03
647.24	16421.12
647.593	16403.5
647.945	16410.95
648.298	16364.4
648.65	16396.04
649.002	16425.87
649.355	16431.97
649.707	16406.21
650.059	16409.37
650.411	16680.32
650.763	16685.3
651.115	16863.82
651.467	16862.47
651.819	16905.63
652.171	16925.52
652.523	16875.8
652.875	16897.27
653.227	16860.43
653.578	16850.49
653.93	16875.57
654.282	16958.28
654.633	16902.69
654.985	16901.56
655.337	16989.24
655.688	17010.03
656.039	17060.88
656.391	16939.3
656.742	17029.92
657.094	17037.38
657.445	17136.36
657.796	17001.22
658.147	16979.07
658.498	17053.65
658.849	17064.04
659.2	17071.5
659.551	17028.79
659.902	17163.48
660.253	17092.52
660.604	17080.31
660.955	17043.48
661.306	17171.84
661.656	17012.74
662.007	17162.12
662.358	17165.74
662.708	17095.68
663.059	17151.27
663.409	17054.55
663.76	17153.53
664.11	17119.18
664.461	17132.97
664.811	17161.89
665.161	17259.07
665.511	17093.42
665.862	17074.21
666.212	17158.28
666.562	17189.46
666.912	17036.02
667.262	17018.17
667.612	17143.36
667.962	17107.43
668.312	17096.81
668.662	17129.58
669.011	17077.15
669.361	16965.97
669.711	17005.29
670.06	16935.23
670.41	17005.74
670.76	16991.95
671.109	17023.59
671.459	16905.18
671.808	16941.33
672.157	16964.16
672.507	16872.86
672.856	16928.91
673.205	16891.84
673.554	16819.76
673.904	16729.81
674.253	16787.44
674.602	16765.29
674.951	16496.15
675.3	16382.25
675.649	16682.81
675.998	16644.39
676.346	16549.25
676.695	16580.67
677.044	16563.27
677.393	16580.21
677.741	16532.31
678.09	16467.67
678.438	16404.63
678.787	16476.04
679.135	16435.36
679.484	16337.96
679.832	16358.52
680.181	16350.39
680.529	16294.8
680.877	16262.93
681.225	16231.97
681.573	16323.27
681.922	16249.83
682.27	16191.3
682.618	16168.47
682.966	16132.99
683.314	16044.86
683.661	16036.5
684.009	16033.11
684.357	15976.39
684.705	15987.91
685.053	15885.32
685.4	15940.68
685.748	15812.1
686.095	15836.05
686.443	15671.54
686.79	15669.28
687.138	15766.45
687.485	15840.8
687.832	15633.8
688.18	15668.83
688.527	15617.3
688.874	15588.6
689.221	15674.02
689.568	15476.06
689.915	15469.73
690.262	15511.54
690.609	15477.19
690.956	15439.9
691.303	15504.54
691.65	15332.79
691.997	15356.97
692.344	15270.64
692.69	15380.7
693.037	15236.52
693.383	15286.69
693.73	15369.4
694.077	15151.32
694.423	15153.36
694.769	15219.35
695.116	15126.92
695.462	15182.51
695.808	15057.09
696.155	15151.78
696.501	15008.73
696.847	15073.59
697.193	14885.57
697.539	14930.99
697.885	14906.36
698.231	14878.34
698.577	14925.57
698.923	14831.33
699.269	14885.57
699.614	14815.97
699.96	14665.46
700.306	14809.41
700.651	14727.38
700.997	14731.9
701.342	14714.95
701.688	14668.63
702.033	14653.48
702.379	14643.99
702.724	14628.63
703.069	14644.22
703.415	14428.86
703.76	14544.56
704.105	14565.13
704.45	14486.03
704.795	14403.55
705.14	14428.86
705.485	14419.37
705.83	14391.8
706.175	14502.53
706.52	14439.71
706.865	14270.67
707.209	14288.97
707.554	14333.95
707.899	14365.36
708.243	14353.38
708.588	14271.12
708.932	14168.98
709.277	14197.45
709.621	14234.74
709.966	14217.34
710.31	14204.91
710.654	14067.51
710.998	14071.35
711.342	14127.4
711.687	14098.92
712.031	14075.19
712.375	14005.82
712.719	14086.49
713.063	14020.51
713.407	14162.2
713.75	14083.1
714.094	14088.53
714.438	14050.56
714.782	14144.8
715.125	14005.37
715.469	14073.39
715.812	13948.64
716.156	13949.77
716.499	13931.47
716.843	13937.12
717.186	13890.79
717.53	13873.84
717.873	13985.71
718.216	13891.47
718.559	13873.39
718.902	13818.93
719.246	13808.99
719.589	13780.06
719.932	13747.29
720.275	13786.84
720.617	13847.18
720.96	13807.41
721.303	13720.85
721.646	13799.04
721.989	13682.21
722.331	13780.97
722.674	13731.02
723.016	13712.72
723.359	13749.55
723.701	13762.66
724.044	13699.84
724.386	13633.17
724.729	13753.4
725.071	13727.63
725.413	13773.73
725.755	13705.49
726.097	13647.86
726.439	13609.44
726.782	13608.31
727.124	13644.92
727.465	13651.7
727.807	13613.06
728.149	13691.93
728.491	13590.46
728.833	13714.3
729.175	13508.88
729.516	13601.76
729.858	13569.67
730.199	13570.35
730.541	13568.99
730.882	13598.82
731.224	13677.69
731.565	13575.77
731.906	13605.6
732.248	13600.63
732.589	13575.77
732.93	13580.52
733.271	13627.52
733.612	13604.25
733.953	13700.52
734.294	13633.4
734.635	13522.44
734.976	13663.45
735.317	13595.21
735.658	13676.79
735.999	13737.58
736.339	13640.18
736.68	13711.59
737.021	13664.13
737.361	13625.72
737.702	13805.6
738.042	13776.9
738.383	13721.31
738.723	13722.66
739.063	13711.14
739.404	13827.74
739.744	13841.53
740.084	13719.27
740.424	13793.62
740.764	13861.87
741.104	13912.26
741.444	13963.56
741.784	13853.05
742.124	13847.63
742.464	13922.66
742.804	13902.54
743.143	13893.05
743.483	13974.63
743.823	13949.1
744.162	13963.79
744.502	14070.22
744.841	14060.96
745.181	14139.6
745.52	14059.38
745.86	14163.78
746.199	14112.26
746.538	14144.35
746.877	14215.76
747.216	14269.31
747.556	14190.22
747.895	14240.16
748.234	14287.84
748.573	14215.08
748.911	14279.71
749.25	14303.89
749.589	14262.99
749.928	14265.47
750.267	14413.72
750.605	14366.26
750.944	14418.01
751.283	14378.24
751.621	14528.52
751.96	14487.84
752.298	14431.8
752.636	14539.59
752.975	14541.4
753.313	14467.05
753.651	14641.96
753.989	14527.39
754.327	14580.72
754.666	14588.63
755.004	14621.17
755.342	14699.13
755.679	14717.21
756.017	14732.58
756.355	14750.43
