Data from blue_shiny_book_FLMS001491_00058.txt Node
Date: Wed Feb 08 15:27:13 GMT 2017
User: dcchb
Spectrometer: FLMS00149
Trigger mode: 0
Integration Time (sec): 2.000000E-2
Scans to average: 10
Electric dark correction enabled: true
Nonlinearity correction enabled: false
Boxcar width: 0
XAxis mode: Wavelengths
Number of Pixels in Spectrum: 2048
>>>>>Begin Spectral Data<<<<<
341.393	3.52
341.776	3.52
342.16	3.52
342.543	-68.35
342.927	-70.15
343.31	-63.83
343.693	-79.19
344.077	-67.44
344.46	-52.53
344.843	-63.37
345.226	-39.65
345.61	-45.07
345.993	-19.31
346.376	24.08
346.759	-8.01
347.142	39.22
347.525	37.41
347.908	62.95
348.291	81.25
348.674	92.33
349.057	101.14
349.44	128.71
349.823	137.3
350.206	184.53
350.588	222.04
350.971	215.26
351.354	223.85
351.737	256.62
352.119	276.28
352.502	288.03
352.884	315.6
353.267	320.12
353.65	330.74
354.032	320.8
354.414	338.42
354.797	313.79
355.179	351.3
355.562	370.96
355.944	342.49
356.326	367.12
356.709	371.19
357.091	347.01
357.473	370.51
357.855	363.51
358.238	355.15
358.62	353.34
359.002	367.35
359.384	367.8
359.766	386.56
360.148	400.79
360.53	372.09
360.912	377.97
361.294	330.29
361.676	353.11
362.057	375.03
362.439	347.91
362.821	363.28
363.203	361.47
363.584	370.51
363.966	351.3
364.348	365.09
364.729	365.32
365.111	363.73
365.493	376.61
365.874	363.73
366.256	342.27
366.637	346.78
367.019	336.39
367.4	351.98
367.781	335.94
368.163	349.27
368.544	372.55
368.925	369.16
369.306	371.19
369.688	341.81
370.069	368.93
370.45	364.64
370.831	374.81
371.212	386.78
371.593	384.75
371.974	386.56
372.355	382.26
372.736	386.11
373.117	369.61
373.498	350.63
373.879	390.4
374.26	390.4
374.641	376.84
375.021	394.24
375.402	371.87
375.783	392.66
376.163	401.02
376.544	413
376.925	421.58
377.305	413.9
377.686	383.17
378.066	407.8
378.447	411.19
378.827	426.56
379.208	411.87
379.588	432.43
379.968	425.65
380.349	434.47
380.729	419.55
381.109	420
381.489	420.68
381.87	461.13
382.25	441.02
382.63	448.93
383.01	422.71
383.39	461.36
383.77	462.04
384.15	426.78
384.53	447.57
384.91	443.96
385.29	467.46
385.67	462.26
386.049	493.22
386.429	480.79
386.809	496.84
387.189	510.4
387.568	483.28
387.948	510.4
388.328	502.26
388.707	523.96
389.087	512.88
389.466	529.15
389.846	525.99
390.225	540.68
390.605	534.12
390.984	530.51
391.363	547.01
391.743	551.53
392.122	565.54
392.501	551.07
392.881	577.06
393.26	586.78
393.639	581.81
394.018	582.94
394.397	606.66
394.776	628.13
395.155	616.38
395.534	645.99
395.913	634.91
396.292	629.26
396.671	641.01
397.05	626.55
397.429	658.41
397.808	666.55
398.186	675.59
398.565	673.78
398.944	686.21
399.323	678.98
399.701	676.72
400.08	687.34
400.458	708.13
400.837	709.26
401.215	718.53
401.594	729.15
401.972	723.72
402.351	719.66
402.729	738.64
403.107	741.58
403.486	777.06
403.864	778.86
404.242	775.7
404.62	798.98
404.999	817.28
405.377	808.02
405.755	812.54
406.133	847.34
406.511	845.08
406.889	847.56
407.267	859.09
407.645	859.54
408.023	904.74
408.401	902.02
408.779	916.49
409.156	923.04
409.534	937.96
409.912	953.1
410.29	998.07
410.667	963.94
411.045	976.37
411.422	1009.14
411.8	1035.58
412.178	1050.49
412.555	1073.32
412.933	1089.14
413.31	1092.08
413.687	1107.67
414.065	1122.81
414.442	1100.44
414.819	1123.71
415.197	1156.93
415.574	1192.86
415.951	1212.3
416.328	1203.94
416.705	1212.3
417.082	1224.5
417.46	1259.98
417.837	1244.16
418.214	1256.14
418.591	1287.32
418.967	1275.35
419.344	1300.66
419.721	1330.49
420.098	1323.71
420.475	1379.98
420.852	1347.44
421.228	1387.44
421.605	1411.16
421.982	1419.75
422.358	1440.77
422.735	1458.39
423.111	1464.27
423.488	1488.68
423.864	1522.57
424.241	1493.42
424.617	1531.84
424.994	1576.58
425.37	1557.15
425.746	1605.06
426.123	1617.49
426.499	1652.51
426.875	1647.32
427.251	1681.44
427.627	1742.68
428.003	1707.88
428.379	1698.61
428.756	1757.14
429.132	1760.76
429.507	1819.74
429.883	1850.93
430.259	1895.67
430.635	1906.52
431.011	1941.09
431.387	1983.58
431.763	1988.78
432.138	2047.98
432.514	2057.25
432.89	2060.86
433.265	2106.51
433.641	2114.42
434.016	2143.8
434.392	2189.22
434.767	2218.37
435.143	2291.82
435.518	2272.38
435.894	2328.88
436.269	2366.17
436.644	2413.17
437.02	2432.15
437.395	2428.99
437.77	2454.75
438.145	2504.69
438.52	2500.63
438.895	2529.33
439.271	2532.26
439.646	2640.74
440.021	2634.18
440.395	2672.83
440.77	2660.85
441.145	2699.49
441.52	2733.39
441.895	2762.31
442.27	2783.1
442.645	2776.55
443.019	2807.28
443.394	2865.36
443.769	2886.38
444.143	2838.24
444.518	2932.71
444.892	2924.12
445.267	2967.96
445.641	2983.1
446.016	3027.39
446.39	3062.42
446.764	3121.63
447.139	3081.18
447.513	3129.54
447.887	3122.76
448.262	3141.29
448.636	3143.1
449.01	3197.11
449.384	3269.87
449.758	3262.87
450.132	3323.66
450.506	3322.07
450.88	3359.81
451.254	3373.82
451.628	3426.48
452.002	3436.42
452.376	3535.18
452.75	3556.64
453.123	3608.39
453.497	3656.98
453.871	3674.38
454.244	3727.26
454.618	3749.63
454.992	3817.2
455.365	3816.52
455.739	3947.37
456.112	3986.24
456.486	4037.08
456.859	4104.88
457.232	4146.68
457.606	4142.17
457.979	4269.39
458.352	4330.86
458.725	4317.08
459.099	4393.91
459.472	4499.9
459.845	4514.36
460.218	4551.65
460.591	4634.13
460.964	4670.74
461.337	4794.35
461.71	4798.42
462.083	4905.53
462.456	4941.01
462.829	4964.97
463.201	5041.8
463.574	5075.93
463.947	5122.48
464.32	5234.79
464.692	5291.74
465.065	5369.25
465.438	5452.19
465.81	5586.65
466.183	5567.89
466.555	5679.75
466.928	5734.67
467.3	5800.43
467.672	5839.97
468.045	6058.05
468.417	6057.37
468.789	6104.83
469.161	6196.12
469.534	6284.71
469.906	6422.33
470.278	6415.55
470.65	6605.83
471.022	6681.76
471.394	6834.52
471.766	6874.75
472.138	6976.89
472.51	7098.7
472.882	7197.45
473.253	7293.04
473.625	7435.86
473.997	7531
474.369	7590.21
474.74	7723.99
475.112	7887.15
475.484	7955.4
475.855	8139.8
476.227	8244.2
476.598	8412.34
476.97	8473.58
477.341	8697.98
477.713	8850.52
478.084	8932.55
478.455	9097.06
478.827	9279.21
479.198	9548.8
479.569	9619.31
479.94	9884.16
480.311	9933.43
480.682	10102.69
481.053	10434.66
481.424	10529.34
481.795	10656.12
482.166	10830.12
482.537	10992.61
482.908	11228.53
483.279	11358.47
483.65	11588.97
484.021	11814.51
484.391	11921.17
484.762	12114.16
485.133	12118.45
485.503	12339.69
485.874	12615.16
486.244	12734.93
486.615	12911.88
486.985	13164.3
487.356	13396.61
487.726	13443.16
488.097	13769.03
488.467	13894.45
488.837	14125.63
489.207	14347.77
489.578	14617.82
489.948	14708.21
490.318	14945.72
490.688	15033.86
491.058	15234.3
491.428	15479.04
491.798	15718.81
492.168	15949.31
492.538	16025.47
492.908	16207.16
493.278	16406.7
493.648	16444.89
494.017	16729.4
494.387	16868.84
494.757	17060.02
495.126	17310.86
495.496	17424.75
495.866	17559.21
496.235	17942.25
496.605	18088.92
496.974	18119.42
497.344	18307.67
497.713	18338.4
498.082	18526.65
498.452	18678.96
498.821	18739.3
499.19	18866.52
499.559	18931.61
499.928	19178.15
500.298	19195.1
500.667	19422.89
501.036	19525.26
501.405	19790.79
501.774	19913.73
502.143	20086.15
502.512	20207.28
502.88	20518.91
503.249	20478.91
503.618	20657.21
503.987	20798.9
504.356	20758
504.724	20930.88
505.093	20976.07
505.462	21176.75
505.83	21223.98
506.199	21431.43
506.567	21801.81
506.936	21742.38
507.304	22014.46
507.672	22083.16
508.041	22256.72
508.409	22539.65
508.777	22716.82
509.145	23000.65
509.514	23048.56
509.882	23266.41
510.25	23340.53
510.618	23541.43
510.986	23542.56
511.354	23737.36
511.722	23963.56
512.09	24189.1
512.458	24169.66
512.826	24386.6
513.193	24483.55
513.561	24683.09
513.929	24724.22
514.297	25097.09
514.664	25250.08
515.032	25394.26
515.4	25622.5
515.767	26044.87
516.135	26168.03
516.502	26005.32
516.869	26652.99
517.237	26771.4
517.604	26662.93
517.972	26945.86
518.339	27088.68
518.706	27028.79
519.073	27078.74
519.44	27363.02
519.808	27661.32
520.175	27677.37
520.542	27961.65
520.909	28182.89
521.276	28161.42
521.643	28478.93
522.009	28816.09
522.376	28979.48
522.743	29221.28
523.11	29572.91
523.477	29928.61
523.843	30108.94
524.21	30473
524.577	30715.7
524.943	30826.21
525.31	30878.41
525.676	31126.09
526.043	31384.16
526.409	31601.56
526.776	31865.28
527.142	31833.41
527.508	32033.64
527.874	32306.85
528.241	32450.12
528.607	32624.13
528.973	33054.63
529.339	33126.94
529.705	33546.59
530.071	33856.86
530.437	34080.59
530.803	34427.92
531.169	34601.48
531.535	34587.24
531.901	34785.65
532.267	34875.37
532.632	35190.39
532.998	35304.96
533.364	35545.41
533.73	35462.25
534.095	35579.98
534.461	35663.82
534.826	35886.42
535.192	36018.62
535.557	36159.63
535.923	36145.62
536.288	36202.34
536.653	36540.41
537.019	36536.34
537.384	36840.06
537.749	37252.48
538.114	37491.57
538.479	37401.18
538.845	37699.93
539.21	37715.07
539.575	37976.98
539.94	37933.37
540.305	38205.68
540.67	38010.2
541.034	38122.51
541.399	38294.04
541.764	38283.64
542.129	38457.2
542.494	38431.66
542.858	38561.6
543.223	38700.35
543.587	38792.33
543.952	38801.59
544.316	39130.62
544.681	39277.96
545.045	39638.18
545.41	39790.27
545.774	40065.29
546.138	40021
546.503	40314.77
546.867	40483.13
547.231	40766.29
547.595	40781.88
547.959	40831.82
548.324	40824.59
548.688	40946.17
549.052	40824.14
549.416	41003.12
549.779	40964.47
550.143	40995.43
550.507	41151.81
550.871	41130.8
551.235	41230.23
551.599	41505.93
551.962	41491.47
552.326	41621.63
552.689	42094.61
553.053	42011.23
553.417	42159.24
553.78	42759.68
554.143	42623.64
554.507	42847.14
554.87	43119.67
555.234	43451.19
555.597	43164.87
555.96	43450.06
556.323	43518.08
556.686	43480.79
557.05	43674.46
557.413	43632.43
557.776	43643.05
558.139	43926.66
558.502	43834.91
558.865	43949.25
559.228	44084.17
559.59	44232.41
559.953	44350.15
560.316	44784.94
560.679	44864.26
561.041	45044.37
561.404	45310.35
561.767	45624.01
562.129	45705.14
562.492	46209.08
562.854	46187.16
563.217	46375.4
563.579	46543.99
563.941	46859.01
564.304	46939.46
564.666	47106.23
565.028	47198.66
565.39	47315.95
565.753	47559.1
566.115	47602.94
566.477	47601.59
566.839	47590.51
567.201	47833.67
567.563	47807.91
567.925	47898.53
568.287	47916.38
568.648	48167
569.01	48461.68
569.372	48557.27
569.734	48441.79
570.095	48835
570.457	49003.81
570.819	49187.53
571.18	49274.76
571.542	49606.05
571.903	49573.74
572.265	49803.11
572.626	49769.67
572.987	49912.71
573.349	50062.09
573.71	50216.21
574.071	50221.86
574.432	50177.34
574.794	50363.32
575.155	50189.32
575.516	49961.07
575.877	50122.88
576.238	50148.87
576.599	50157.68
576.96	50171.46
577.32	50269.99
577.681	50474.73
578.042	50557.89
578.403	50691.68
578.763	50618.01
579.124	50809.19
579.485	51019.58
579.845	51107.71
580.206	51148.61
580.566	51311.77
580.927	51426.12
581.287	51526
581.648	51459.11
582.008	51527.36
582.368	51569.84
582.728	51630.63
583.089	51559.45
583.449	51480.58
583.809	51570.3
584.169	51482.84
584.529	51479.45
584.889	51630.63
585.249	51382.73
585.609	51288.95
585.969	51448.72
586.329	51291.43
586.688	51440.58
587.048	51446.46
587.408	51518.09
587.768	51630.63
588.127	51616.4
588.487	51699.33
588.846	51869.72
589.206	51802.15
589.565	51794.02
589.925	52085.09
590.284	52035.37
590.643	52092.99
591.003	52188.13
591.362	52233.1
591.721	52083.96
592.08	52085.76
592.44	52113.33
592.799	52126.44
593.158	52099.77
593.517	52024.3
593.876	52049.15
594.235	51937.29
594.593	51870.18
594.952	52001.47
595.311	51754.47
595.67	51876.96
596.029	52048.93
596.387	52099.1
596.746	51974.35
597.104	51905.65
597.463	51943.39
597.822	52109.72
598.18	52026.33
598.538	52113.79
598.897	52303.84
599.255	52058.65
599.613	52531.63
599.972	52316.27
600.33	52457.5
600.688	52401.46
601.046	52578.18
601.404	52592.19
601.762	52531.63
602.12	52688.23
602.478	52701.11
602.836	52718.06
603.194	52558.97
603.552	52452.08
603.91	52406.88
604.268	52561.23
604.625	52373.21
604.983	52520.33
605.341	52191.98
605.698	52335.25
606.056	52475.58
606.413	52452.53
606.771	52629.48
607.128	52659.31
607.485	52461.8
607.843	52643.04
608.2	52871.28
608.557	53053.65
608.914	52924.61
609.272	53202.34
609.629	53207.77
609.986	53421.32
610.343	53334.77
610.7	53464.71
611.057	53486.63
611.414	53472.17
611.771	53511.71
612.127	53630.36
612.484	53559.17
612.841	53671.94
613.198	53532.73
613.554	53451.83
613.911	53609.56
614.267	53524.82
614.624	53440.08
614.98	53521.66
615.337	53651.37
615.693	53574.31
616.05	53539.51
616.406	53584.93
616.762	53585.61
617.118	53502.22
617.475	53509.68
617.831	53569.79
618.187	53610.02
618.543	53755.32
618.899	53819.95
619.255	53782.67
619.611	53692.27
619.967	53988.76
620.323	54021.98
620.678	53932.04
621.034	53968.43
621.39	54053.17
621.746	54044.81
622.101	54322.99
622.457	54028.99
622.812	54090.68
623.168	54069.21
623.523	54097.24
623.879	54195.54
624.234	53934.98
624.589	53873.06
624.945	53884.13
625.3	53905.38
625.655	53805.27
626.01	53892.72
626.365	53799.16
626.72	53716.45
627.075	53674.2
627.43	53694.76
627.785	53717.36
628.14	53705.16
628.495	53685.27
628.85	53622.67
629.205	53672.39
629.559	53890.91
629.914	53666.74
630.269	53771.59
630.623	53811.82
630.978	53913.51
631.332	53969.33
631.687	54064.24
632.041	53938.6
632.396	54037.58
632.75	53870.8
633.104	54024.24
633.459	53887.07
633.813	53956.22
634.167	53875.77
634.521	53901.76
634.875	53850.69
635.229	53759.62
635.583	53665.61
635.937	53609.34
636.291	53554.88
636.645	53452.96
636.999	53339.06
637.352	53340.65
637.706	53179.97
638.06	53221.1
638.413	53144.49
638.767	53083.48
639.121	52982.01
639.474	52773.2
639.828	52847.78
640.181	52888.23
640.534	52876.48
640.888	52825.63
641.241	52801.45
641.594	52820.43
641.947	52958.06
642.301	52883.93
642.654	52901.11
643.007	52895.46
643.36	52879.87
643.713	52885.97
644.066	53112.4
644.419	52888.45
644.771	52873.77
645.124	52762.58
645.477	52736.82
645.83	52388.81
646.182	52009.61
646.535	51770.29
646.888	51686.9
647.24	51462.95
647.593	51510.86
647.945	51373.47
648.298	51141.16
648.65	50972.35
649.002	50841.73
649.355	51066.81
649.707	50984.1
650.059	51150.19
650.411	51574.59
650.763	51625.21
651.115	51978.87
651.467	51818.2
651.819	51787.69
652.171	51723.96
652.523	51726.68
652.875	51760.57
653.227	51701.14
653.578	52002.83
653.93	51947.69
654.282	51896.39
654.633	51914.69
654.985	51928.93
655.337	51950.85
655.688	52062.71
656.039	52133.9
656.391	51868.82
656.742	52056.84
657.094	52031.08
657.445	52201.24
657.796	51964.64
658.147	52002.6
658.498	51941.13
658.849	51959.66
659.2	51920.57
659.551	51848.93
659.902	51817.52
660.253	51719.22
660.604	51804.87
660.955	51513.12
661.306	51582.05
661.656	51446.46
662.007	51384.99
662.358	51314.48
662.708	51314.26
663.059	51305.67
663.409	50982.97
663.76	51343.64
664.11	51234.71
664.461	51183.87
664.811	51316.52
665.161	51393.35
665.511	51305.44
665.862	51516.06
666.212	51678.54
666.562	51608.71
666.912	51562.84
667.262	51609.62
667.612	51632.44
667.962	51672.67
668.312	51600.8
668.662	51813.68
669.011	51814.13
669.361	51774.58
669.711	51641.93
670.06	51464.99
670.41	51419.11
670.76	51387.48
671.109	51437.19
671.459	51247.14
671.808	51218.22
672.157	51236.07
672.507	50850.32
672.856	50867.94
673.205	50822.29
673.554	50843.76
673.904	50673.15
674.253	50797.89
674.602	50600.15
674.951	50033.39
675.3	49912.26
675.649	50462.53
675.998	50326.71
676.346	50231.57
676.695	50409.2
677.044	50197.9
677.393	50533.04
677.741	50444.22
678.09	50440.16
678.438	50376.2
678.787	50399.48
679.135	50455.98
679.484	50329.43
679.832	50576.88
680.181	50318.35
680.529	50610.77
680.877	50548.63
681.225	50570.32
681.573	50605.35
681.922	50540.72
682.27	50443.55
682.618	50353.83
682.966	50259.82
683.314	50314.06
683.661	50225.25
684.009	50019.38
684.357	49979.83
684.705	49854.64
685.053	49766.95
685.4	49697.58
685.748	49394.99
686.095	49319.06
686.443	49129.68
686.79	49123.36
687.138	49024.6
687.485	48994.32
687.832	48753.87
688.18	48900.31
688.527	48616.48
688.874	48513.88
689.221	48407.89
689.568	48395.01
689.915	48206.54
690.262	48274.79
690.609	48291.06
690.956	48301
691.303	48244.96
691.65	48080.22
691.997	48218.75
692.344	47924.74
692.69	47913.67
693.037	47876.61
693.383	47725.88
693.73	47905.31
694.077	47773.11
694.423	47771.53
694.769	47534.02
695.116	47475.71
695.462	47331.09
695.808	47350.75
696.155	47364.76
696.501	47124.31
696.847	47051.77
697.193	46634.83
697.539	46768.16
697.885	46435.74
698.231	46210.89
698.577	46053.15
698.923	45800.5
699.269	45715.76
699.614	45457.91
699.96	45244.36
700.306	45322.55
700.651	44972.05
700.997	45008.21
701.342	44658.16
701.688	44567.09
702.033	44435.57
702.379	44441.22
702.724	44466.3
703.069	44490.93
703.415	44031.29
703.76	43963.04
704.105	44032.19
704.45	43938.63
704.795	43899.99
705.14	43598.08
705.485	43636.95
705.83	43600.79
706.175	43742.25
706.52	43643.05
706.865	43492.54
707.209	43594.91
707.554	43448.25
707.899	43433.11
708.243	43303.85
708.588	43300.91
708.932	43106.34
709.277	43239.22
709.621	43200.8
709.966	42691.43
710.31	42887.14
710.654	42570.99
710.998	42545
711.342	42488.73
711.687	42335.29
712.031	42216.87
712.375	41895.3
712.719	42110.88
713.063	41877.67
713.407	41827.28
713.75	41443.11
714.094	41486.72
714.438	41319.04
714.782	41306.61
715.125	41019.61
715.469	40931.25
715.812	40780.07
716.156	40703.24
716.499	40557.25
716.843	40556.35
717.186	40400.65
717.53	40601.55
717.873	40587.53
718.216	40366.3
718.559	40401.32
718.902	40387.54
719.246	40555.67
719.589	40617.82
719.932	40459.18
720.275	40576.46
720.617	40432.28
720.96	40479.29
721.303	40498.27
721.646	40623.24
721.989	40353.64
722.331	40604.71
722.674	40518.61
723.016	40598.83
723.359	40472.74
723.701	40424.37
724.044	40027.78
724.386	40036.59
724.729	40105.51
725.071	40018.06
725.413	39976.48
725.755	39965.63
726.097	39779.87
726.439	39529.26
726.782	39454.91
727.124	39553.89
727.465	39168.59
727.807	39137.63
728.149	38929.95
728.491	38882.04
728.833	38828.94
729.175	38521.83
729.516	38543.75
729.858	38617.19
730.199	38649.28
730.541	38478.44
730.882	38443.41
731.224	38645.66
731.565	38223.08
731.906	38370.64
732.248	38515.05
732.589	38206.35
732.93	38119.35
733.271	38269.63
733.612	38335.39
733.953	38401.6
734.294	38311.44
734.635	38132.01
734.976	38309.18
735.317	38300.14
735.658	38200.48
735.999	38252.23
736.339	38318.67
736.68	38392.79
737.021	38236.64
737.361	38198.67
737.702	38443.41
738.042	38254.26
738.383	38067.6
738.723	38304.2
739.063	38164.55
739.404	38225.56
739.744	38140.59
740.084	37983.31
740.424	38031.22
740.764	37969.75
741.104	38168.39
741.444	37857.89
741.784	37649.53
742.124	37736.54
742.464	37493.15
742.804	37642.08
743.143	37615.64
743.483	37531.34
743.823	37365.02
744.162	37255.42
744.502	37353.04
744.841	37166.38
745.181	37435.08
745.52	37214.06
745.86	37327.06
746.199	37231.69
746.538	37160.96
746.877	37380.61
747.216	37251.13
747.556	37080.28
747.895	37236.21
748.234	37233.5
748.573	37137
748.911	37149.21
749.25	37260.84
749.589	37266.72
749.928	37341.52
750.267	37462.87
750.605	37409.54
750.944	37519.82
751.283	37427.39
751.621	37600.04
751.96	37481.4
752.298	37593.49
752.636	37649.98
