Data from blue_shiny_book_FLMS001491_00080.txt Node
Date: Wed Feb 08 15:27:32 GMT 2017
User: dcchb
Spectrometer: FLMS00149
Trigger mode: 0
Integration Time (sec): 2.000000E-2
Scans to average: 10
Electric dark correction enabled: true
Nonlinearity correction enabled: false
Boxcar width: 0
XAxis mode: Wavelengths
Number of Pixels in Spectrum: 2048
>>>>>Begin Spectral Data<<<<<
341.393	-22.77
341.776	-22.77
342.16	-22.77
342.543	-64.57
342.927	-83.33
343.31	-64.12
343.693	-87.17
344.077	-74.29
344.46	-49.43
344.843	-42.2
345.226	-46.72
345.61	-42.65
345.993	-20.51
346.376	-1.75
346.759	-5.37
347.142	30.34
347.525	50
347.908	72.82
348.291	84.12
348.674	91.35
349.057	105.59
349.44	113.5
349.823	170.22
350.206	154.63
350.588	204.34
350.971	222.88
351.354	240.05
351.737	260.61
352.119	252.03
352.502	262.87
352.884	294.74
353.267	286.15
353.65	310.33
354.032	312.14
354.414	306.26
354.797	321.4
355.179	322.31
355.562	330.44
355.944	341.29
356.326	341.52
356.709	353.72
357.091	338.58
357.473	337.22
357.855	356.88
358.238	352.14
358.62	348.07
359.002	364.11
359.384	362.08
359.766	347.84
360.148	344.91
360.53	354.4
360.912	344
361.294	349.43
361.676	335.41
362.057	343.78
362.439	323.21
362.821	334.96
363.203	335.41
363.584	319.6
363.966	344.45
364.348	341.06
364.729	312.82
365.111	339.48
365.493	336.09
365.874	336.77
366.256	333.38
366.637	330.67
367.019	335.19
367.4	324.79
367.781	322.99
368.163	354.4
368.544	332.7
368.925	324.79
369.306	358.01
369.688	310.33
370.069	341.06
370.45	309.2
370.831	338.35
371.212	342.87
371.593	329.09
371.974	328.41
372.355	355.53
372.736	344.91
373.117	335.64
373.498	345.13
373.879	310.78
374.26	336.54
374.641	335.87
375.021	337
375.402	351.23
375.783	325.25
376.163	350.56
376.544	352.14
376.925	336.77
377.305	354.17
377.686	355.98
378.066	361.63
378.447	369.99
378.827	353.72
379.208	359.6
379.588	374.06
379.968	358.24
380.349	341.97
380.729	365.92
381.109	372.7
381.489	374.96
381.87	363.21
382.25	385.58
382.63	366.83
383.01	387.39
383.39	379.93
383.77	381.52
384.15	406.37
384.53	386.26
384.91	395.3
385.29	386.94
385.67	388.97
386.049	411.8
386.429	421.51
386.809	412.02
387.189	410.22
387.568	437.11
387.948	412.93
388.328	431.46
388.707	426.03
389.087	440.5
389.466	432.36
389.846	440.5
390.225	426.94
390.605	432.14
390.984	443.66
391.363	468.29
391.743	463.77
392.122	452.93
392.501	465.35
392.881	474.39
393.26	454.73
393.639	479.37
394.018	451.8
394.397	484.56
394.776	502.64
395.155	480.72
395.534	490.89
395.913	480.04
396.292	484.34
396.671	488.41
397.05	514.85
397.429	505.58
397.808	521.85
398.186	524.11
398.565	512.81
398.944	517.56
399.323	530.44
399.701	509.87
400.08	537.22
400.458	540.61
400.837	557.78
401.215	562.75
401.594	558.91
401.972	539.03
402.351	585.13
402.729	591.91
403.107	573.15
403.486	603.66
403.864	583.32
404.242	580.15
404.62	610.44
404.999	610.21
405.377	632.13
405.755	630.77
406.133	625.8
406.511	647.72
406.889	632.58
407.267	640.49
407.645	659.25
408.023	663.54
408.401	671.68
408.779	673.03
409.156	694.95
409.534	705.12
409.912	715.52
410.29	697.89
410.667	721.39
411.045	752.81
411.422	756.19
411.8	771.34
412.178	752.81
412.555	778.34
412.933	765.46
413.31	780.15
413.687	789.41
414.065	821.96
414.442	834.38
414.819	824.89
415.197	845.01
415.574	839.81
415.951	877.32
416.328	891.33
416.705	877.55
417.082	910.32
417.46	915.74
417.837	919.13
418.214	896.08
418.591	931.56
418.967	927.26
419.344	944.21
419.721	940.82
420.098	958.68
420.475	982.86
420.852	970.65
421.228	986.92
421.605	1007.94
421.982	1049.97
422.358	1033.02
422.735	1036.19
423.111	1039.13
423.488	1061.05
423.864	1090.42
424.241	1096.3
424.617	1072.57
424.994	1126.35
425.37	1128.39
425.746	1117.09
426.123	1152.34
426.499	1145.79
426.875	1186.69
427.251	1209.74
427.627	1221.27
428.003	1244.32
428.379	1263.3
428.756	1261.04
429.132	1297.42
429.507	1283.19
429.883	1281.83
430.259	1337.42
430.635	1367.03
431.011	1351.89
431.387	1390.08
431.763	1428.04
432.138	1413.13
432.514	1442.28
432.89	1449.51
433.265	1488.83
433.641	1491.32
434.016	1514.59
434.392	1539.9
434.767	1576.96
435.143	1555.04
435.518	1580.35
435.894	1616.96
436.269	1632.56
436.644	1693.57
437.02	1702.38
437.395	1716.17
437.77	1744.87
438.145	1729.95
438.52	1764.08
438.895	1810.63
439.271	1781.03
439.646	1814.7
440.021	1834.81
440.395	1854.02
440.77	1837.75
441.145	1917.29
441.52	1945.32
441.895	1942.6
442.27	1933.79
442.645	1951.42
443.019	1994.58
443.394	1984.19
443.769	2003.17
444.143	1975.6
444.518	2027.57
444.892	2034.35
445.267	2049.49
445.641	2129.49
446.016	2114.8
446.39	2100.57
446.764	2161.13
447.139	2127.46
447.513	2180.11
447.887	2192.32
448.262	2179.89
448.636	2216.95
449.01	2255.59
449.384	2280.67
449.758	2275.02
450.132	2281.35
450.506	2304.18
450.88	2336.27
451.254	2350.5
451.628	2376.49
452.002	2465.53
452.376	2420.56
452.75	2484.74
453.123	2508.24
453.497	2547.79
453.871	2576.26
454.244	2606.32
454.618	2636.6
454.992	2615.81
455.365	2662.36
455.739	2746.42
456.112	2750.04
456.486	2804.28
456.859	2828.46
457.232	2916.82
457.606	2891.96
457.979	2953.65
458.352	2999.53
458.725	3001.33
459.099	3013.31
459.472	3082.69
459.845	3167.2
460.218	3158.17
460.591	3211.95
460.964	3188.67
461.337	3297.14
461.71	3327.43
462.083	3403.81
462.456	3420.76
462.829	3431.38
463.201	3510.02
463.574	3544.14
463.947	3566.74
464.32	3634.99
464.692	3721.31
465.065	3691.71
465.438	3729
465.81	3778.71
466.183	3867.75
466.555	3932.83
466.928	3969.44
467.3	4009.22
467.672	4049.89
468.045	4169.21
468.417	4170.79
468.789	4241.07
469.161	4312.71
469.534	4327.17
469.906	4434.29
470.278	4457.57
470.65	4528.75
471.022	4596.77
471.394	4700.27
471.766	4698.46
472.138	4765.58
472.51	4869.53
472.882	4986.37
473.253	5005.57
473.625	5118.34
473.997	5210.09
474.369	5291.22
474.74	5311.78
475.112	5402.63
475.484	5532.34
475.855	5577.99
476.227	5621.38
476.598	5800.58
476.97	5833.8
477.341	5978.2
477.713	6036.73
478.084	6125.09
478.455	6285.54
478.827	6262.72
479.198	6537.74
479.569	6515.37
479.94	6741.57
480.311	6804.85
480.682	7011.85
481.053	7100.66
481.424	7174.33
481.795	7240.09
482.166	7381.78
482.537	7447.77
482.908	7665.62
483.279	7772.73
483.65	7885.05
484.021	8071.93
484.391	8210.24
484.762	8217.24
485.133	8251.82
485.503	8444.13
485.874	8570.23
486.244	8709.88
486.615	8866.04
486.985	8946.49
487.356	9219.02
487.726	9232.81
488.097	9465.12
488.467	9449.07
488.837	9697.43
489.207	9838.89
489.578	9957.76
489.948	10044.76
490.318	10200.69
490.688	10249.96
491.058	10473.45
491.428	10574.47
491.798	10709.38
492.168	10897.62
492.538	10915.25
492.908	11102.82
493.278	11275.92
493.648	11265.3
494.017	11432.75
494.387	11523.37
494.757	11645.85
495.126	11777.83
495.496	11846.52
495.866	11977.14
496.235	12119.06
496.605	12224.59
496.974	12338.49
497.344	12424.36
497.713	12448.99
498.082	12659.61
498.452	12702.1
498.821	12885.59
499.19	12894.63
499.559	12981.64
499.928	13075.87
500.298	13220.05
500.667	13277.22
501.036	13294.17
501.405	13455.75
501.774	13531.45
502.143	13702.52
502.512	13807.6
502.88	13960.14
503.249	13875.85
503.618	14097.09
503.987	14234.48
504.356	14241.72
504.724	14322.39
505.093	14410.07
505.462	14493.69
505.83	14574.59
506.199	14799.22
506.567	14879.21
506.936	14836.5
507.304	15030.85
507.672	15073.56
508.041	15230.16
508.409	15308.81
508.777	15471.51
509.145	15679.42
509.514	15734.33
509.882	15746.54
510.25	15830.15
510.618	16041.67
510.986	16057.04
511.354	16316.46
511.722	16372.96
512.09	16520.53
512.458	16469.68
512.826	16658.15
513.193	16837.13
513.561	16757.58
513.929	16845.94
514.297	16976.11
514.664	17191.69
515.032	17216.33
515.4	17461.29
515.767	17584
516.135	17631.46
516.502	17515.3
516.869	17981.5
517.237	17988.96
517.604	18076.87
517.972	18191.67
518.339	18428.05
518.706	18421.04
519.073	18558.89
519.44	18684.99
519.808	18862.16
520.175	18884.98
520.542	19128.37
520.909	19110.74
521.276	19138.54
521.643	19394.12
522.009	19559.32
522.376	19614
522.743	19821.91
523.11	19949.36
523.477	20261.22
523.843	20422.34
524.21	20707.31
524.577	20967.64
524.943	21023.68
525.31	21028.88
525.676	21279.05
526.043	21388.65
526.409	21518.13
526.776	21716.55
527.142	21787.96
527.508	21877
527.874	21994.28
528.241	22093.03
528.607	22105.01
528.973	22368.96
529.339	22286.25
529.705	22615.28
530.071	22719.01
530.437	22919.91
530.803	23117.19
531.169	23345.21
531.535	23408.03
531.901	23538.87
532.267	23653.45
532.632	23885.3
532.998	23865.64
533.364	24064.06
533.73	24195.35
534.095	24284.16
534.461	24274.22
534.826	24352.64
535.192	24586.08
535.557	24618.84
535.923	24546.3
536.288	24622.91
536.653	24664.27
537.019	24802.34
537.384	24864.49
537.749	25061.32
538.114	25245.04
538.479	25374.53
538.845	25440.74
539.21	25583.56
539.575	25832.82
539.94	25807.97
540.305	25911.47
540.67	25882.54
541.034	26070.56
541.399	26100.16
541.764	26143.32
542.129	26253.15
542.494	26174.06
542.858	26256.77
543.223	26284.79
543.587	26368.18
543.952	26428.74
544.316	26413.37
544.681	26554.84
545.045	26597.78
545.41	26822.85
545.774	26807.49
546.138	26835.51
546.503	26986.01
546.867	27085.9
547.231	27394.82
547.595	27487.92
547.959	27576.73
548.324	27688.82
548.688	27708.03
549.052	27749.16
549.416	27747.58
549.779	27708.93
550.143	27831.42
550.507	27884.07
550.871	27853.11
551.235	27765.88
551.599	27923.84
551.962	28032.77
552.326	27967.68
552.689	28184.4
553.053	28113.44
553.417	28211.07
553.78	28617.84
554.143	28503.49
554.507	28714.1
554.87	28801.33
555.234	29183.47
555.597	29064.6
555.96	29232.51
556.323	29324.48
556.686	29428.21
557.05	29738.94
557.413	29553.4
557.776	29624.36
558.139	29787.52
558.502	29780.29
558.865	29591.37
559.228	29697.13
559.59	29756.79
559.953	29713.63
560.316	30083.79
560.679	29989.32
561.041	30191.81
561.404	30370.33
561.767	30575.3
562.129	30547.73
562.492	30757.89
562.854	30959.47
563.217	30940.71
563.579	31188.39
563.941	31462.05
564.304	31648.26
564.666	31861.37
565.028	31893.91
565.39	31935.04
565.753	31986.79
566.115	32120.79
566.477	32223.16
566.839	32207.8
567.201	32287.8
567.563	32293.22
567.925	32307.91
568.287	32211.19
568.648	32332.77
569.01	32633.1
569.372	32696.37
569.734	32551.07
570.095	32803.71
570.457	33033.31
570.819	33056.14
571.18	33241.22
571.542	33491.15
571.903	33504.49
572.265	33752.84
572.626	33913.97
572.987	34080.06
573.349	34231.92
573.71	34324.13
574.071	34430.11
574.432	34504.91
574.794	34612.25
575.155	34416.78
575.516	34369.1
575.877	34469.21
576.238	34465.59
576.599	34426.72
576.96	34441.64
577.32	34437.12
577.681	34603.21
578.042	34516.21
578.403	34637.34
578.763	34570.9
579.124	34541.75
579.485	34773.15
579.845	34964.79
580.206	35075.52
580.566	35187.83
580.927	35201.84
581.287	35452.91
581.648	35473.02
582.008	35702.62
582.368	35545.56
582.728	35878.89
583.089	35735.16
583.449	35577.88
583.809	35660.14
584.169	35728.16
584.529	35620.36
584.889	35765.67
585.249	35447.94
585.609	35323.42
585.969	35546.47
586.329	35290.65
586.688	35322.97
587.048	35334.27
587.408	35344.21
587.768	35438.22
588.127	35499.46
588.487	35318.9
588.846	35579.23
589.206	35323.65
589.565	35450.2
589.925	35716.41
590.284	35695.16
590.643	35837.53
591.003	35962.73
591.362	36241.82
591.721	36058.54
592.08	36089.96
592.44	36372.21
592.799	36117.52
593.158	36265.09
593.517	36068.49
593.876	36148.48
594.235	35921.15
594.593	36089.73
594.952	36244.53
595.311	35869.4
595.67	35803.18
596.029	35940.81
596.387	35818.55
596.746	35915.72
597.104	35725.9
597.463	35804.31
597.822	35942.61
598.18	36034.14
598.538	36059
598.897	36190.52
599.255	35798.44
599.613	36417.86
599.972	36311.42
600.33	36471.41
600.688	36545.99
601.046	36561.36
601.404	36707.57
601.762	36697.4
602.12	36843.61
602.478	36830.05
602.836	36872.31
603.194	36599.77
603.552	36678.19
603.91	36452.66
604.268	36611.07
604.625	36412.43
604.983	36402.72
605.341	36305.99
605.698	36313.23
606.056	36509.15
606.413	36441.13
606.771	36581.24
607.128	36400
607.485	36370.85
607.843	36514.8
608.2	36718.41
608.557	36811.74
608.914	36808.35
609.272	37031.85
609.629	37035.69
609.986	37268.23
610.343	37230.94
610.7	37451.5
611.057	37419.19
611.414	37473.65
611.771	37448.11
612.127	37672.96
612.484	37759.29
612.841	37766.75
613.198	37646.3
613.554	37732.4
613.911	37805.62
614.267	37669.8
614.624	37640.42
614.98	37758.61
615.337	37901.43
615.693	37620.54
616.05	37472.97
616.406	37742.79
616.762	37543.48
617.118	37555.23
617.475	37661.44
617.831	37666.41
618.187	37756.8
618.543	37733.08
618.899	38033.63
619.255	37929.23
619.611	37915.44
619.967	38113.4
620.323	38158.38
620.678	38087.87
621.034	38242.44
621.39	38426.62
621.746	38472.04
622.101	38742.77
622.457	38496.67
622.812	38562.43
623.168	38610.11
623.523	38716.1
623.879	38824.12
624.234	38332.83
624.589	38684.69
624.945	38611.24
625.3	38590.45
625.655	38371.7
626.01	38260.97
626.365	38311.37
626.72	38248.09
627.075	38107.53
627.43	38239.5
627.785	37994.54
628.14	38039.96
628.495	38189.33
628.85	38171.71
629.205	38040.64
629.559	38185.04
629.914	37931.49
630.269	38089.22
630.623	38006.06
630.978	38065.5
631.332	38362.44
631.687	38387.07
632.041	38198.83
632.396	38385.04
632.75	38307.98
633.104	38368.09
633.459	38150.01
633.813	38071.15
634.167	38180.75
634.521	38192.95
634.875	38117.92
635.229	37935.56
635.583	37863.24
635.937	37842.23
636.291	37758.84
636.645	37632.74
636.999	37459.41
637.352	37495.12
637.706	37360.88
638.06	37533.98
638.413	37351.16
638.767	37312.07
639.121	37135.35
639.474	36855.81
639.828	36944.4
640.181	36809.71
640.534	36879.31
640.888	36837.96
641.241	36730.62
641.594	37019.42
641.947	37038.63
642.301	36954.34
642.654	37148.46
643.007	37044.96
643.36	37033.21
643.713	37006.77
644.066	37156.37
644.419	37024.39
644.771	37070.49
645.124	36962.7
645.477	36935.58
645.83	36869.37
646.182	36560
646.535	36198.2
646.888	36000.69
647.24	35575.84
647.593	35741.94
647.945	35448.16
648.298	35385.11
648.65	35332.91
649.002	35216.08
649.355	35547.82
649.707	35391.44
650.059	35610.19
650.411	36079.56
650.763	36218.09
651.115	36457.4
651.467	36144.64
651.819	36091.76
652.171	36139.67
652.523	35961.82
652.875	36000.92
653.227	35955.27
653.578	36237.52
653.93	36183.29
654.282	36144.19
654.633	35855.16
654.985	36043.4
655.337	36169.5
655.688	35990.52
656.039	36282.72
656.391	36210.86
656.742	36245.88
657.094	36248.82
657.445	36318.2
657.796	36220.35
658.147	36255.83
658.498	36175.6
658.849	36362.49
659.2	36167.92
659.551	36086.79
659.902	36072.1
660.253	35939.9
660.604	36107.81
660.955	36070.75
661.306	35960.92
661.656	35808.38
662.007	35787.36
662.358	35661.27
662.708	35714.82
663.059	35646.8
663.409	35334.72
663.76	35504.66
664.11	35437.77
664.461	35413.14
664.811	35351.22
665.161	35309.41
665.511	35294.5
665.862	35532.23
666.212	35619.46
666.562	35541.27
666.912	35618.55
667.262	35625.79
667.612	35774.94
667.962	35959.34
668.312	35851.77
668.662	36024.65
669.011	35903.29
669.361	35983.74
669.711	35918.43
670.06	35828.49
670.41	35700.59
670.76	35786.46
671.109	35718.44
671.459	35495.85
671.808	35526.35
672.157	35564.32
672.507	35236.64
672.856	35372.91
673.205	35395.28
673.554	35457.66
673.904	35102.18
674.253	35373.82
674.602	35005.46
674.951	34501.07
675.3	34332.04
675.649	34909.65
675.998	34855.41
676.346	34768.86
676.695	34895.18
677.044	34492.48
677.393	34653.83
677.741	34734.06
678.09	34677.11
678.438	34628.98
678.787	34606.15
679.135	34671.46
679.484	34428.53
679.832	34684.57
680.181	34562.76
680.529	34782.87
680.877	34591.92
681.225	34702.19
681.573	35011.34
681.922	34765.24
682.27	34553.27
682.618	34647.51
682.966	34532.71
683.314	34623.1
683.661	34435.54
684.009	34210.68
684.357	34166.16
684.705	34144.47
685.053	34102.21
685.4	33913.74
685.748	33801.2
686.095	33640.53
686.443	33442.57
686.79	33403.02
687.138	33359.18
687.485	33298.62
687.832	33192.86
688.18	33136.59
688.527	32947.21
688.874	32758.97
689.221	32720.1
689.568	32613.44
689.915	32594.45
690.262	32572.53
690.609	32452.08
690.956	32445.31
691.303	32374.12
691.65	32359.43
691.997	32237.63
692.344	32037.86
692.69	32063.17
693.037	32110.85
693.383	31897.07
693.73	32101.81
694.077	31921.48
694.423	31953.34
694.769	31815.27
695.116	31615.5
695.462	31637.42
695.808	31700.47
696.155	31814.36
696.501	31562.39
696.847	31532.79
697.193	31244.88
697.539	31228.84
697.885	30987.26
698.231	30912.46
698.577	30774.16
698.923	30614.17
699.269	30530.55
699.614	30264.57
699.96	30208.75
700.306	30170.11
700.651	30012.37
700.997	29865.03
701.342	29677.02
701.688	29627.07
702.033	29460.98
702.379	29346.86
702.724	29350.02
703.069	29466.17
703.415	28973.53
703.76	29044.49
704.105	29048.11
704.45	28997.49
704.795	28874.1
705.14	28760.66
705.485	28812.63
705.83	28785.29
706.175	28911.61
706.52	28736.93
706.865	28652.64
707.209	28787.1
707.554	28703.71
707.899	28675.46
708.243	28602.02
708.588	28563.83
708.932	28408.58
709.277	28445.41
709.621	28525.63
709.966	28355.02
710.31	28475.47
710.654	27987.57
710.998	28108.02
711.342	28236.83
711.687	28094.91
712.031	27836.39
712.375	27843.62
712.719	27770.85
713.063	27683.62
713.407	27579.9
713.75	27396.62
714.094	27374.25
714.438	27170.42
714.782	27178.55
715.125	27002.28
715.469	26990.99
715.812	26732.01
716.156	26680.03
716.499	26614.95
716.843	26586.48
717.186	26502.41
717.53	26658.79
717.873	26592.8
718.216	26446.37
718.559	26376.76
718.902	26407.27
719.246	26519.13
719.589	26595.29
719.932	26379.25
720.275	26344.9
720.617	26502.64
720.96	26355.97
721.303	26433.03
721.646	26451.79
721.989	26459.7
722.331	26599.58
722.674	26403.2
723.016	26459.7
723.359	26466.48
723.701	26525.69
724.044	26367.95
724.386	26134.28
724.729	26467.84
725.071	26330.44
725.413	26218.8
725.755	26134.74
726.097	26192.59
726.439	26058.13
726.782	25883.9
727.124	26013.84
727.465	25879.38
727.807	25740.85
728.149	25702.21
728.491	25603.45
728.833	25595.09
729.175	25559.16
729.516	25435.77
729.858	25387.86
730.199	25396.45
730.541	25347.41
730.882	25257.7
731.224	25392.16
731.565	25106.06
731.906	25159.85
732.248	25293.63
732.589	25162.11
732.93	25119.62
733.271	25189.22
733.612	25197.81
733.953	25042.56
734.294	25231.71
734.635	25221.99
734.976	25283.01
735.317	25209.34
735.658	25263.57
735.999	25252.27
736.339	25308.32
736.68	25398.26
737.021	25431.93
737.361	25284.36
737.702	25495.21
738.042	25273.97
738.383	25409.33
738.723	25586.73
739.063	25453.62
739.404	25613.39
739.744	25542.66
740.084	25446.39
740.424	25370.91
740.764	25440.52
741.104	25455.88
741.444	25237.36
741.784	25248.43
742.124	25294.76
742.464	25186.06
742.804	25155.1
743.143	25124.59
743.483	25167.08
743.823	25046.86
744.162	25011.15
744.502	25060.64
744.841	24982.68
745.181	25022.68
745.52	24872.62
745.86	25099.06
746.199	25014.09
746.538	25034.43
746.877	24975.22
747.216	24952.17
747.556	24876.46
747.895	25001.43
748.234	24984.94
748.573	24993.98
748.911	24957.59
749.25	24996.24
749.589	25040.3
749.928	25116.23
750.267	25141.99
750.605	25146.06
750.944	25121.43
751.283	25163.69
751.621	25481.19
751.96	25372.04
752.298	25414.76
752.636	25465.15
752.975	25500.18
753.313	25356.23
753.651	25571.59
