Data from blue_surface_keyboard_FLMS001491_008.txt Node
Date: Tue Feb 07 11:12:33 GMT 2017
User: dcchb
Spectrometer: FLMS00149
Trigger mode: 0
Integration Time (sec): 2.000000E-2
Scans to average: 10
Electric dark correction enabled: true
Nonlinearity correction enabled: false
Boxcar width: 0
XAxis mode: Wavelengths
Number of Pixels in Spectrum: 2048
>>>>>Begin Spectral Data<<<<<
341.393	-22.78
341.776	-22.78
342.16	-22.78
342.543	-53.29
342.927	-84.02
343.31	-72.95
343.693	-46.06
344.077	-85.38
344.46	-54.65
344.843	-58.49
345.226	-43.35
345.61	-29.11
345.993	-15.32
346.376	5.24
346.759	15.86
347.142	9.99
347.525	43.66
347.908	47.05
348.291	75.52
348.674	104.22
349.057	103.77
349.44	121.4
349.823	149.42
350.206	162.3
350.588	180.83
350.971	191.9
351.354	218.79
351.737	212.92
352.119	226.03
352.502	225.57
352.884	254.72
353.267	254.27
353.65	281.16
354.032	285.01
354.414	284.55
354.797	280.94
355.179	305.8
355.562	302.41
355.944	297.44
356.326	314.16
356.709	306.47
357.091	328.62
357.473	310.32
357.855	308.51
358.238	317.77
358.62	321.62
359.002	305.8
359.384	310.54
359.766	318.23
360.148	299.24
360.53	329.3
360.912	328.62
361.294	301.73
361.676	305.35
362.057	304.22
362.439	307.38
362.821	310.54
363.203	308.51
363.584	310.99
363.966	282.29
364.348	305.8
364.729	317.55
365.111	282.97
365.493	295.18
365.874	277.78
366.256	293.59
366.637	309.19
367.019	285.23
367.4	269.41
367.781	281.62
368.163	297.21
368.544	290.43
368.925	272.8
369.306	304.67
369.688	274.61
370.069	280.71
370.45	280.71
370.831	289.53
371.212	273.26
371.593	303.09
371.974	269.41
372.355	308.51
372.736	286.14
373.117	281.84
373.498	270.09
373.879	275.97
374.26	286.59
374.641	295.4
375.021	279.81
375.402	275.97
375.783	286.81
376.163	293.37
376.544	268.28
376.925	278.68
377.305	278.23
377.686	287.27
378.066	292.01
378.447	276.87
378.827	277.1
379.208	282.97
379.588	300.37
379.968	274.61
380.349	281.39
380.729	310.54
381.109	285.01
381.489	301.73
381.87	299.7
382.25	290.88
382.63	286.36
383.01	299.24
383.39	300.83
383.77	312.58
384.15	308.28
384.53	298.34
384.91	307.83
385.29	323.2
385.67	327.04
386.049	306.47
386.429	299.47
386.809	314.61
387.189	305.8
387.568	293.82
387.948	306.93
388.328	311.67
388.707	310.32
389.087	306.7
389.466	326.36
389.846	311.9
390.225	330.88
390.605	322.29
390.984	339.02
391.363	317.32
391.743	326.36
392.122	325.91
392.501	319.58
392.881	357.32
393.26	325.68
393.639	316.42
394.018	322.52
394.397	306.93
394.776	332.46
395.155	332.46
395.534	320.26
395.913	319.81
396.292	347.6
396.671	325.01
397.05	345.12
397.429	324.33
397.808	317.1
398.186	332.46
398.565	323.88
398.944	328.62
399.323	324.1
399.701	340.37
400.08	336.76
400.458	341.28
400.837	338.56
401.215	366.81
401.594	340.15
401.972	344.89
402.351	334.95
402.729	327.04
403.107	359.58
403.486	338.56
403.864	340.6
404.242	343.54
404.62	359.58
404.999	348.73
405.377	349.41
405.755	368.17
406.133	354.16
406.511	362.07
406.889	369.75
407.267	376.76
407.645	359.58
408.023	383.54
408.401	351.22
408.779	344.44
409.156	367.94
409.534	353.71
409.912	362.74
410.29	364.78
410.667	370.88
411.045	349.86
411.422	363.65
411.8	364.33
412.178	367.94
412.555	362.29
412.933	386.7
413.31	394.16
413.687	384.67
414.065	384.67
414.442	380.6
414.819	395.51
415.197	381.28
415.574	403.65
415.951	385.34
416.328	384.89
416.705	386.25
417.082	385.34
417.46	383.99
417.837	383.99
418.214	398.45
418.591	386.47
418.967	393.7
419.344	401.61
419.721	398.45
420.098	406.59
420.475	390.99
420.852	406.36
421.228	393.48
421.605	403.2
421.982	392.12
422.358	405.68
422.735	412.69
423.111	400.03
423.488	407.49
423.864	413.14
424.241	426.92
424.617	409.07
424.994	411.56
425.37	405.46
425.746	397.32
426.123	415.85
426.499	421.27
426.875	415.62
427.251	412.91
427.627	420.37
428.003	435.96
428.379	428.73
428.756	438.67
429.132	444.55
429.507	444.32
429.883	434.83
430.259	426.92
430.635	463.31
431.011	433.93
431.387	445.91
431.763	465.11
432.138	427.15
432.514	463.98
432.89	470.31
433.265	470.31
433.641	455.4
434.016	472.8
434.392	477.54
434.767	493.14
435.143	481.61
435.518	487.04
435.894	474.15
436.269	510.31
436.644	492.68
437.02	499.69
437.395	500.37
437.77	501.05
438.145	500.59
438.52	506.7
438.895	482.74
439.271	482.74
439.646	484.1
440.021	503.98
440.395	514.83
440.77	499.46
441.145	502.85
441.52	521.84
441.895	494.94
442.27	529.07
442.645	525.68
443.019	517.32
443.394	527.26
443.769	527.03
444.143	548.28
444.518	552.57
444.892	516.86
445.267	538.11
445.641	542.4
446.016	561.16
446.39	551.89
446.764	536.98
447.139	536.75
447.513	548.05
447.887	547.82
448.262	561.84
448.636	560.93
449.01	551.44
449.384	586.02
449.758	570.2
450.132	557.32
450.506	561.38
450.88	556.64
451.254	560.25
451.628	564.1
452.002	560.93
452.376	582.85
452.75	557.32
453.123	567.03
453.497	557.09
453.871	579.24
454.244	583.53
454.618	581.5
454.992	606.58
455.365	593.93
455.739	597.77
456.112	603.87
456.486	608.16
456.859	615.39
457.232	600.25
457.606	637.54
457.979	617.2
458.352	637.31
458.725	630.76
459.099	650.87
459.472	637.09
459.845	626.92
460.218	631.21
460.591	672.57
460.964	640.03
461.337	646.58
461.71	649.52
462.083	675.5
462.456	667.82
462.829	645.45
463.201	669.63
463.574	673.47
463.947	664.43
464.32	694.26
464.692	684.54
465.065	708.72
465.438	700.14
465.81	716.41
466.183	705.56
466.555	695.62
466.928	736.29
467.3	712.11
467.672	705.79
468.045	746.92
468.417	751.44
468.789	732
469.161	727.25
469.534	742.17
469.906	755.28
470.278	779
470.65	777.88
471.022	754.82
471.394	778.33
471.766	804.77
472.138	798.67
472.51	803.41
472.882	800.25
473.253	801.38
473.625	781.94
473.997	821.94
474.369	832.11
474.74	833.01
475.112	842.05
475.484	843.18
475.855	850.42
476.227	860.81
476.598	877.76
476.97	883.63
477.341	910.98
477.713	924.54
478.084	898.32
478.455	893.35
478.827	925.22
479.198	925.22
479.569	929.96
479.94	943.97
480.311	972.67
480.682	955.27
481.053	1005.21
481.424	979.45
481.795	990.52
482.166	1003.86
482.537	1015.61
482.908	1034.59
483.279	1013.58
483.65	1046.12
484.021	1080.01
484.391	1061.94
484.762	1064.2
485.133	1057.87
485.503	1082.95
485.874	1077.3
486.244	1086.34
486.615	1106.45
486.985	1130.18
487.356	1138.32
487.726	1133.12
488.097	1138.77
488.467	1135.38
488.837	1161.59
489.207	1179.9
489.578	1188.71
489.948	1190.07
490.318	1200.01
490.688	1192.33
491.058	1201.14
491.428	1211.08
491.798	1221.03
492.168	1222.84
492.538	1242.04
492.908	1247.92
493.278	1263.74
493.648	1257.64
494.017	1265.09
494.387	1253.34
494.757	1272.33
495.126	1267.81
495.496	1279.1
495.866	1309.39
496.235	1289.95
496.605	1279.78
496.974	1305.77
497.344	1297.64
497.713	1283.62
498.082	1308.93
498.452	1314.13
498.821	1299.44
499.19	1339.44
499.559	1324.98
499.928	1310.52
500.298	1319.33
500.667	1322.72
501.036	1353
501.405	1331.31
501.774	1371.98
502.143	1355.03
502.512	1350.97
502.88	1338.54
503.249	1350.06
503.618	1393.45
503.987	1350.06
504.356	1355.03
504.724	1359.33
505.093	1390.29
505.462	1382.6
505.83	1393.68
506.199	1371.76
506.567	1374.24
506.936	1388.93
507.304	1407.24
507.672	1403.85
508.041	1405.88
508.409	1402.27
508.777	1410.63
509.145	1389.38
509.514	1409.95
509.882	1403.4
510.25	1408.59
510.618	1413.11
510.986	1407.01
511.354	1416.05
511.722	1443.17
512.09	1452.89
512.458	1444.07
512.826	1409.04
513.193	1432.77
513.561	1438.2
513.929	1444.98
514.297	1447.24
514.664	1466.9
515.032	1418.99
515.4	1458.76
515.767	1469.61
516.135	1447.01
516.502	1461.7
516.869	1493.34
517.237	1481.81
517.604	1474.35
517.972	1484.3
518.339	1475.48
518.706	1509.61
519.073	1483.85
519.44	1525.2
519.808	1508.03
520.175	1471.42
520.542	1499.66
520.909	1489.04
521.276	1498.53
521.643	1477.97
522.009	1504.41
522.376	1481.13
522.743	1484.98
523.11	1500.34
523.477	1529.72
523.843	1512.77
524.21	1520.45
524.577	1521.13
524.943	1545.54
525.31	1547.12
525.676	1550.28
526.043	1549.38
526.409	1554.8
526.776	1543.05
527.142	1534.92
527.508	1565.65
527.874	1564.07
528.241	1574.01
528.607	1575.82
528.973	1573.79
529.339	1557.06
529.705	1561.13
530.071	1580.57
530.437	1597.97
530.803	1592.99
531.169	1583.28
531.535	1596.61
531.901	1590.28
532.267	1581.7
532.632	1561.58
532.998	1578.08
533.364	1592.77
533.73	1596.61
534.095	1613.79
534.461	1567.46
534.826	1613.11
535.192	1595.03
535.557	1616.72
535.923	1615.14
536.288	1619.21
536.653	1625.08
537.019	1574.01
537.384	1605.2
537.749	1595.25
538.114	1625.76
538.479	1640
538.845	1597.97
539.21	1597.29
539.575	1632.09
539.94	1610.85
540.305	1602.49
540.67	1632.77
541.034	1617.17
541.399	1605.65
541.764	1631.86
542.129	1611.75
542.494	1645.65
542.858	1633.67
543.223	1618.76
543.587	1638.42
543.952	1624.18
544.316	1631.86
544.681	1635.93
545.045	1641.13
545.41	1648.36
545.774	1615.82
546.138	1617.85
546.503	1622.6
546.867	1605.42
547.231	1621.24
547.595	1617.85
547.959	1640.9
548.324	1651.75
548.688	1629.6
549.052	1641.58
549.416	1628.93
549.779	1647.46
550.143	1648.36
550.507	1625.99
550.871	1628.47
551.235	1613.79
551.599	1620.79
551.962	1613.56
552.326	1656.95
552.689	1662.6
553.053	1666.21
553.417	1651.75
553.78	1647.68
554.143	1641.81
554.507	1680
554.87	1646.55
555.234	1659.43
555.597	1632.32
555.96	1636.38
556.323	1654.01
556.686	1655.59
557.05	1647.68
557.413	1643.16
557.776	1685.2
558.139	1682.26
558.502	1654.46
558.865	1678.64
559.228	1666.67
559.59	1680.22
559.953	1655.59
560.316	1681.58
560.679	1645.87
561.041	1701.92
561.404	1671.64
561.767	1705.31
562.129	1698.08
562.492	1665.31
562.854	1686.55
563.217	1695.37
563.579	1697.4
563.941	1679.77
564.304	1722.48
564.666	1708.7
565.028	1694.91
565.39	1708.02
565.753	1723.16
566.115	1689.26
566.477	1702.14
566.839	1699.66
567.201	1735.36
567.563	1736.49
567.925	1745.99
568.287	1758.19
568.648	1711.18
569.01	1724.97
569.372	1738.75
569.734	1746.66
570.095	1734.91
570.457	1745.53
570.819	1749.37
571.18	1737.85
571.542	1744.63
571.903	1745.99
572.265	1782.59
572.626	1731.52
572.987	1732.65
573.349	1752.31
573.71	1744.18
574.071	1770.17
574.432	1762.71
574.794	1752.76
575.155	1775.81
575.516	1755.48
575.877	1777.4
576.238	1803.16
576.599	1769.04
576.96	1770.17
577.32	1749.15
577.681	1778.3
578.042	1800.67
578.403	1785.31
578.763	1778.53
579.124	1801.35
579.485	1789.37
579.845	1787.34
580.206	1781.69
580.566	1812.42
580.927	1781.01
581.287	1782.59
581.648	1800.67
582.008	1792.09
582.368	1804.74
582.728	1779.43
583.089	1778.3
583.449	1797.06
583.809	1806.77
584.169	1814.01
584.529	1819.66
584.889	1812.42
585.249	1786.44
585.609	1796.83
585.969	1801.8
586.329	1819.66
586.688	1813.1
587.048	1807.23
587.408	1823.27
587.768	1816.72
588.127	1842.48
588.487	1791.63
588.846	1804.74
589.206	1802.03
589.565	1797.96
589.925	1818.07
590.284	1819.66
590.643	1835.93
591.003	1812.2
591.362	1830.5
591.721	1821.24
592.08	1852.65
592.44	1844.97
592.799	1795.48
593.158	1820.11
593.517	1836.6
593.876	1843.38
594.235	1830.73
594.593	1813.78
594.952	1843.61
595.311	1832.76
595.67	1856.26
596.029	1852.2
596.387	1832.76
596.746	1834.34
597.104	1846.55
597.463	1833.21
597.822	1831.18
598.18	1849.03
598.538	1849.94
598.897	1884.29
599.255	1854.91
599.613	1868.69
599.972	1868.24
600.33	1834.12
600.688	1866.66
601.046	1864.4
601.404	1860.56
601.762	1872.08
602.12	1852.42
602.478	1890.39
602.836	1864.17
603.194	1871.86
603.552	1867.11
603.91	1877.51
604.268	1889.71
604.625	1889.94
604.983	1894
605.341	1880.22
605.698	1887
606.056	1871.41
606.413	1858.07
606.771	1873.67
607.128	1897.85
607.485	1890.39
607.843	1913.44
608.2	1903.27
608.557	1940.56
608.914	1925.19
609.272	1927.45
609.629	1904.17
609.986	1907.11
610.343	1920.9
610.7	1925.19
611.057	1925.42
611.414	1910.73
611.771	1911.18
612.127	1934.68
612.484	1943.27
612.841	1947.79
613.198	1889.26
613.554	1925.64
613.911	1950.73
614.267	1944.85
614.624	1920.22
614.98	1944.17
615.337	1933.78
615.693	1965.64
616.05	1920.44
616.406	1951.63
616.762	1961.12
617.118	1958.63
617.475	1970.39
617.831	1999.09
618.187	1962.25
618.543	1991.18
618.899	1973.55
619.255	1964.51
619.611	1962.48
619.967	2007.45
620.323	2003.15
620.678	1981.01
621.034	1982.59
621.39	2025.75
621.746	2001.57
622.101	2051.06
622.457	2025.75
622.812	1996.6
623.168	2036.82
623.523	2040.44
623.879	2019.65
624.234	1995.24
624.589	2038.86
624.945	2035.02
625.3	2056.26
625.655	2024.4
626.01	2045.19
626.365	2043.83
626.72	2056.71
627.075	2040.21
627.43	2059.42
627.785	2027.11
628.14	2072.98
628.495	2061.01
628.85	2056.94
629.205	2095.81
629.559	2086.54
629.914	2095.13
630.269	2092.64
630.623	2079.08
630.978	2087.9
631.332	2091.96
631.687	2105.75
632.041	2062.36
632.396	2104.17
632.75	2120.21
633.104	2108.46
633.459	2070.95
633.813	2119.99
634.167	2115.47
634.521	2139.42
634.875	2122.02
635.229	2134
635.583	2121.79
635.937	2117.73
636.291	2161.12
636.645	2156.37
636.999	2119.99
637.352	2156.6
637.706	2144.84
638.06	2152.75
638.413	2175.13
638.767	2154.11
639.121	2170.61
639.474	2182.13
639.828	2163.38
640.181	2152.75
640.534	2170.83
640.888	2191.17
641.241	2191.85
641.594	2168.8
641.947	2184.17
642.301	2213.09
642.654	2178.29
643.007	2239.53
643.36	2221
643.713	2233.88
644.066	2254.45
644.419	2237.95
644.771	2236.82
645.124	2238.18
645.477	2225.75
645.83	2216.26
646.182	2232.3
646.535	2239.31
646.888	2228.46
647.24	2243.83
647.593	2249.25
647.945	2270.49
648.298	2241.34
648.65	2248.34
649.002	2262.36
649.355	2291.73
649.707	2282.69
650.059	2304.61
650.411	2379.19
650.763	2362.24
651.115	2385.29
651.467	2402.24
651.819	2379.19
652.171	2436.36
652.523	2401.56
652.875	2441.11
653.227	2413.54
653.578	2479.75
653.93	2442.92
654.282	2475.91
654.633	2460.09
654.985	2444.95
655.337	2452.41
655.688	2509.35
656.039	2482.91
656.391	2518.85
656.742	2515.23
657.094	2513.65
657.445	2570.82
657.796	2550.26
658.147	2580.54
658.498	2565.4
658.849	2626.19
659.2	2599.75
659.551	2611.27
659.902	2585.29
660.253	2627.09
660.604	2640.42
660.955	2674.1
661.306	2672.06
661.656	2685.17
662.007	2673.87
662.358	2707.54
662.708	2750.93
663.059	2702.8
663.409	2687.43
663.76	2732.63
664.11	2762
664.461	2753.42
664.811	2804.49
665.161	2807.2
665.511	2831.38
665.862	2854.66
666.212	2855.11
666.562	2880.42
666.912	2853.98
667.262	2885.16
667.612	2897.37
667.962	2904.6
668.312	2919.51
668.662	2928.1
669.011	2953.86
669.361	2968.55
669.711	2951.6
670.06	2962.45
670.41	2973.3
670.76	3030.92
671.109	3013.52
671.459	2979.17
671.808	3041.32
672.157	3072.05
672.507	3025.95
672.856	3080.64
673.205	3049.23
673.554	3124.48
673.904	3095.55
674.253	3141.43
674.602	3197.47
674.951	3126.51
675.3	3113.86
675.649	3160.64
675.998	3143.91
676.346	3190.01
676.695	3219.39
677.044	3233.63
677.393	3241.99
677.741	3268.66
678.09	3243.57
678.438	3263.91
678.787	3265.49
679.135	3289.9
679.484	3249.22
679.832	3330.8
680.181	3280.18
680.529	3299.39
680.877	3352.04
681.225	3308.88
681.573	3375.32
681.922	3324.7
682.27	3359.73
682.618	3367.86
682.966	3364.93
683.314	3372.84
683.661	3359.73
684.009	3408.09
684.357	3402.89
684.705	3415.32
685.053	3424.13
685.4	3450.8
685.748	3391.59
686.095	3432.49
686.443	3446.28
686.79	3440.18
687.138	3479.5
687.485	3466.39
687.832	3488.09
688.18	3491.93
688.527	3489.67
688.874	3528.31
689.221	3471.59
689.568	3493.51
689.915	3480.4
690.262	3533.73
690.609	3516.79
690.956	3491.02
691.303	3500.52
691.65	3527.86
691.997	3556.79
692.344	3521.31
692.69	3529.67
693.037	3571.47
693.383	3519.27
693.73	3532.83
694.077	3523.57
694.423	3528.31
694.769	3543.9
695.116	3556.79
695.462	3530.8
695.808	3533.73
696.155	3539.61
696.501	3579.16
696.847	3504.13
697.193	3541.87
697.539	3527.18
697.885	3542.77
698.231	3526.05
698.577	3526.96
698.923	3545.03
699.269	3527.41
699.614	3509.33
699.96	3501.87
700.306	3500.97
700.651	3479.05
700.997	3471.82
701.342	3511.81
701.688	3474.75
702.033	3491.02
702.379	3509.78
702.724	3458.26
703.069	3504.36
703.415	3473.62
703.76	3472.95
704.105	3507.29
704.45	3489.44
704.795	3519.95
705.14	3467.52
705.485	3428.43
705.83	3456.22
706.175	3451.93
706.52	3424.59
706.865	3448.54
707.209	3424.59
707.554	3396.34
707.899	3459.61
708.243	3416
708.588	3416.68
708.932	3374.87
709.277	3404.92
709.621	3412.16
709.966	3413.51
710.31	3441.53
710.654	3417.13
710.998	3416.9
711.342	3392.72
711.687	3415.77
712.031	3386.62
712.375	3394.76
712.719	3351.82
713.063	3378.94
713.407	3396.56
713.75	3440.18
714.094	3402.21
714.438	3389.33
714.782	3398.6
715.125	3360.18
715.469	3383.68
715.812	3338.26
716.156	3357.24
716.499	3402.21
716.843	3402.66
717.186	3387.98
717.53	3380.97
717.873	3377.58
718.216	3378.94
718.559	3380.52
718.902	3349.56
719.246	3396.11
719.589	3362.21
719.932	3370.58
720.275	3355.21
720.617	3394.76
720.96	3390.24
721.303	3372.38
721.646	3348.88
721.989	3382.1
722.331	3370.35
722.674	3366.28
723.016	3362.89
723.359	3376.45
723.701	3371.93
724.044	3366.73
724.386	3343.01
724.729	3392.04
725.071	3367.19
725.413	3336.68
725.755	3357.69
726.097	3383
726.439	3375.77
726.782	3339.16
727.124	3362.44
727.465	3340.75
727.807	3330.8
728.149	3347.3
728.491	3366.06
728.833	3394.3
729.175	3369.67
729.516	3388.88
729.858	3421.65
730.199	3402.66
730.541	3369.67
730.882	3385.49
731.224	3411.7
731.565	3373.29
731.906	3408.31
732.248	3397.24
732.589	3387.52
732.93	3414.19
733.271	3396.56
733.612	3365.83
733.953	3465.49
734.294	3372.16
734.635	3416.68
734.976	3387.3
735.317	3407.64
735.658	3420.74
735.999	3403.34
736.339	3391.37
736.68	3416.68
737.021	3427.52
737.361	3404.02
737.702	3443.12
738.042	3466.39
738.383	3440.86
738.723	3441.76
739.063	3430.91
739.404	3486.73
739.744	3466.62
740.084	3430.23
740.424	3488.76
740.764	3498.48
741.104	3512.72
741.444	3511.59
741.784	3502.78
742.124	3498.48
742.464	3523.57
742.804	3502.1
743.143	3521.31
743.483	3516.56
743.823	3560.17
744.162	3571.47
744.502	3593.85
744.841	3599.04
745.181	3634.52
745.52	3618.93
745.86	3606.05
746.199	3662.32
746.538	3637.23
746.877	3686.05
747.216	3688.53
747.556	3666.16
747.895	3698.7
748.234	3685.6
748.573	3710
748.911	3719.94
749.25	3770.11
749.589	3763.33
749.928	3749.77
750.267	3755.2
750.605	3825.25
750.944	3813.5
751.283	3836.1
751.621	3835.42
751.96	3867.06
752.298	3875.19
752.636	3907.96
752.975	3929.66
753.313	3915.19
753.651	3987.06
753.989	3982.54
754.327	3966.94
754.666	3990.9
755.004	4008.07
755.342	4055.08
755.679	4079.71
756.017	4034.29
756.355	4085.81
756.693	4086.26
757.031	4102.08
757.368	4111.57
757.706	4143.21
758.044	4168.97
758.381	4182.08
758.719	4173.04
759.056	4209.88
759.394	4269.08
759.731	4220.72
760.068	4261.4
760.405	4251.46
760.743	4238.8
761.08	4288.29
761.417	4301.4
761.754	4279.93
762.091	4329.19
762.428	4308.86
762.765	4313.6
763.102	4358.57
763.438	4329.42
763.775	4300.95
764.112	4313.83
764.449	4379.59
764.785	4399.47
765.122	4392.24
765.458	4367.84
765.795	4388.18
766.131	4368.29
766.467	4350.89
766.804	4421.85
767.14	4357.22
767.476	4382.3
767.812	4395.86
768.148	4412.58
768.485	4365.35
768.821	4411
769.157	4379.14
769.492	4402.86
769.828	4410.1
770.164	4360.38
770.5	4389.98
770.836	4399.25
771.171	4374.16
771.507	4342.98
771.842	4371.9
772.178	4375.97
