Data from blue_chair_FLMS001491_00053.txt Node
Date: Wed Feb 08 10:31:17 GMT 2017
User: dcchb
Spectrometer: FLMS00149
Trigger mode: 0
Integration Time (sec): 2.000000E-2
Scans to average: 10
Electric dark correction enabled: true
Nonlinearity correction enabled: false
Boxcar width: 0
XAxis mode: Wavelengths
Number of Pixels in Spectrum: 2048
>>>>>Begin Spectral Data<<<<<
341.393	-24.38
341.776	-24.38
342.16	-24.38
342.543	-50.14
342.927	-56.24
343.31	-75.68
343.693	-70.25
344.077	-74.09
344.46	-67.31
344.843	-39.52
345.226	-15.56
345.61	-26.64
345.993	-21.89
346.376	-10.37
346.759	22.85
347.142	29.41
347.525	19.91
347.908	55.85
348.291	65.34
348.674	95.84
349.057	112.12
349.44	124.54
349.823	144.88
350.206	163.41
350.588	156.18
350.971	191.66
351.354	211.32
351.737	221.04
352.119	250.19
352.502	236.18
352.884	255.61
353.267	246.8
353.65	267.82
354.032	267.14
354.414	281.6
354.797	308.49
355.179	301.26
355.562	293.58
355.944	279.34
356.326	305.56
356.709	309.85
357.091	303.75
357.473	330.64
357.855	305.56
358.238	317.08
358.62	318.44
359.002	337.65
359.384	336.52
359.766	329.06
360.148	327.93
360.53	314.82
360.912	315.5
361.294	305.33
361.676	305.33
362.057	306.91
362.439	303.07
362.821	308.72
363.203	311.43
363.584	315.27
363.966	314.37
364.348	295.84
364.729	300.81
365.111	302.39
365.493	289.29
365.874	300.81
366.256	326.12
366.637	282.28
367.019	298.33
367.4	284.77
367.781	285.67
368.163	287.7
368.544	276.41
368.925	270.76
369.306	288.83
369.688	281.6
370.069	275.28
370.45	273.47
370.831	290.19
371.212	284.09
371.593	303.3
371.974	282.96
372.355	288.16
372.736	277.31
373.117	287.03
373.498	278.66
373.879	310.75
374.26	301.94
374.641	267.37
375.021	280.47
375.402	289.51
375.783	281.83
376.163	291.32
376.544	307.59
376.925	296.29
377.305	311.43
377.686	307.59
378.066	284.09
378.447	287.48
378.827	296.52
379.208	283.41
379.588	274.15
379.968	299.23
380.349	293.35
380.729	296.52
381.109	304.88
381.489	273.92
381.87	287.93
382.25	314.14
382.63	310.98
383.01	320.47
383.39	285.67
383.77	286.35
384.15	309.62
384.53	316.86
384.91	309.17
385.29	326.35
385.67	317.08
386.049	314.6
386.429	318.66
386.809	309.62
387.189	316.63
387.568	324.31
387.948	307.14
388.328	296.07
388.707	301.49
389.087	302.62
389.466	296.29
389.846	296.52
390.225	343.52
390.605	324.31
390.984	314.14
391.363	301.04
391.743	324.09
392.122	312.11
392.501	319.57
392.881	318.21
393.26	322.51
393.639	323.64
394.018	313.01
394.397	299.68
394.776	327.7
395.155	324.77
395.534	314.82
395.913	334.26
396.292	343.3
396.671	322.05
397.05	345.1
397.429	346.69
397.808	337.42
398.186	335.84
398.565	336.97
398.944	327.7
399.323	348.49
399.701	334.48
400.08	335.16
400.458	327.48
400.837	348.04
401.215	350.75
401.594	331.77
401.972	334.03
402.351	332.9
402.729	364.09
403.107	363.41
403.486	357.53
403.864	336.06
404.242	371.77
404.62	349.4
404.999	353.01
405.377	374.26
405.755	339.68
406.133	367.93
406.511	364.09
406.889	390.3
407.267	382.17
407.645	370.19
408.023	376.74
408.401	383.97
408.779	376.29
409.156	379.68
409.534	386.23
409.912	384.42
410.29	394.14
410.667	393.92
411.045	382.17
411.422	391.88
411.8	397.08
412.178	411.77
412.555	409.28
412.933	418.55
413.31	415.61
413.687	416.51
414.065	417.87
414.442	428.04
414.819	412.45
415.197	429.4
415.574	428.72
415.951	425.1
416.328	428.04
416.705	434.37
417.082	430.53
417.46	425.1
417.837	405.44
418.214	433.92
418.591	435.27
418.967	448.38
419.344	438.43
419.721	408.61
420.098	442.95
420.475	446.34
420.852	423.75
421.228	442.73
421.605	453.58
421.982	455.16
422.358	465.78
422.735	450.41
423.111	475.5
423.488	473.91
423.864	485.67
424.241	491.77
424.617	491.77
424.994	493.35
425.37	502.61
425.746	515.04
426.123	489.96
426.499	490.64
426.875	491.09
427.251	527.02
427.627	549.17
428.003	499.45
428.379	513.91
428.756	524.08
429.132	537.64
429.507	499.68
429.883	527.92
430.259	530.86
430.635	542.39
431.011	552.33
431.387	562.27
431.763	555.95
432.138	556.85
432.514	565.89
432.89	575.15
433.265	572.22
433.641	592.56
434.016	596.85
434.392	581.03
434.767	587.81
435.143	608.83
435.518	614.25
435.894	632.1
436.269	607.24
436.644	619.22
437.02	632.55
437.395	624.87
437.77	644.76
438.145	670.52
438.52	663.97
438.895	676.85
439.271	674.36
439.646	681.37
440.021	704.19
440.395	714.13
440.77	716.39
441.145	723.4
441.52	728.14
441.895	725.43
442.27	755.26
442.645	733.79
443.019	750.07
443.394	734.25
443.769	767.24
444.143	752.1
444.518	767.24
444.892	766.11
445.267	790.06
445.641	771.53
446.016	766.79
446.39	811.31
446.764	789.39
447.139	792.78
447.513	785.32
447.887	813.34
448.262	803.4
448.636	815.37
449.01	837.75
449.384	827.35
449.758	821.7
450.132	828.48
450.506	841.81
450.88	845.88
451.254	852.66
451.628	859.89
452.002	877.75
452.376	880.68
452.75	862.83
453.123	887.91
453.497	900.34
453.871	906.45
454.244	903.73
454.618	925.2
454.992	938.08
455.365	949.38
455.739	952.55
456.112	963.62
456.486	959.33
456.859	940.79
457.232	968.14
457.606	947.8
457.979	977.63
458.352	1007.69
458.725	998.87
459.099	1010.4
459.472	1026.67
459.845	1027.35
460.218	1011.3
460.591	1032.77
460.964	1041.58
461.337	1068.7
461.71	1054.69
462.083	1064.18
462.456	1055.82
462.829	1073.9
463.201	1103.28
463.574	1088.36
463.947	1087.68
464.32	1104.41
464.692	1103.73
465.065	1154.35
465.438	1158.42
465.81	1116.16
466.183	1161.35
466.555	1178.08
466.928	1167
467.3	1183.05
467.672	1192.31
468.045	1217.17
468.417	1191.41
468.789	1221.47
469.161	1220.11
469.534	1225.31
469.906	1244.52
470.278	1240.22
470.65	1248.13
471.022	1284.74
471.394	1254.01
471.766	1302.14
472.138	1286.1
472.51	1319.09
472.882	1331.97
473.253	1334
473.625	1330.39
473.997	1374.68
474.369	1362.03
474.74	1350.28
475.112	1381.46
475.484	1422.36
475.855	1425.75
476.227	1463.94
476.598	1479.09
476.97	1445.64
477.341	1505.75
477.713	1452.19
478.084	1498.29
478.455	1517.05
478.827	1524.73
479.198	1557.05
479.569	1555.47
479.94	1571.29
480.311	1571.06
480.682	1620.78
481.053	1648.8
481.424	1629.36
481.795	1664.17
482.166	1646.76
482.537	1651.51
482.908	1688.57
483.279	1698.97
483.65	1707.33
484.021	1739.19
484.391	1752.98
484.762	1728.12
485.133	1742.81
485.503	1754.78
485.874	1769.25
486.244	1794.11
486.615	1792.07
486.985	1798.17
487.356	1839.98
487.726	1843.6
488.097	1859.41
488.467	1851.73
488.837	1877.27
489.207	1870.04
489.578	1904.16
489.948	1911.84
490.318	1912.97
490.688	1908.68
491.058	1908.23
491.428	1916.59
491.798	1938.73
492.168	1945.29
492.538	1946.87
492.908	1980.99
493.278	1971.95
493.648	1949.81
494.017	2005.4
494.387	1964.04
494.757	1949.13
495.126	1980.09
495.496	1971.28
495.866	1949.36
496.235	1971.28
496.605	1983.7
496.974	2020.09
497.344	1992.97
497.713	1974.67
498.082	1954.55
498.452	1995.46
498.821	1972.41
499.19	2013.99
499.559	1986.87
499.928	1970.37
500.298	1992.29
500.667	1971.5
501.036	1999.3
501.405	2026.64
501.774	1979.41
502.143	1984.61
502.512	2014.66
502.88	1997.94
503.249	1998.62
503.618	1968.79
503.987	1990.71
504.356	1978.51
504.724	1953.65
505.093	1954.55
505.462	1951.62
505.83	1946.64
506.199	1977.38
506.567	1959.52
506.936	1958.85
507.304	1959.52
507.672	1951.62
508.041	1967.21
508.409	1992.74
508.777	1962.46
509.145	1925.4
509.514	1966.53
509.882	1971.73
510.25	1938.28
510.618	1924.72
510.986	1960.2
511.354	1969.24
511.722	1935.12
512.09	1936.7
512.458	1919.3
512.826	1907.55
513.193	1924.95
513.561	1932.86
513.929	1894.89
514.297	1898.51
514.664	1875.46
515.032	1891.5
515.4	1902.13
515.767	1876.36
516.135	1885.85
516.502	1879.53
516.869	1905.97
517.237	1893.99
517.604	1879.75
517.972	1861.9
518.339	1835.69
518.706	1821.68
519.073	1842.92
519.44	1832.07
519.808	1824.61
520.175	1831.39
520.542	1799.98
520.909	1813.31
521.276	1796.59
521.643	1805.18
522.009	1815.12
522.376	1837.49
522.743	1824.61
523.11	1809.02
523.477	1797.04
523.843	1805.18
524.21	1797.72
524.577	1789.36
524.943	1803.6
525.31	1789.81
525.676	1790.04
526.043	1791.39
526.409	1764.5
526.776	1766.08
527.142	1766.76
527.508	1791.17
527.874	1743.03
528.241	1740.32
528.607	1749.59
528.973	1772.19
529.339	1764.05
529.705	1760.21
530.071	1762.69
530.437	1736.71
530.803	1755.91
531.169	1738.51
531.535	1735.35
531.901	1729.25
532.267	1693.09
532.632	1711.17
532.998	1721.79
533.364	1702.36
533.73	1716.37
534.095	1689.02
534.461	1689.02
534.826	1683.6
535.192	1689.25
535.557	1672.75
535.923	1686.31
536.288	1686.99
536.653	1683.15
537.019	1663.94
537.384	1662.13
537.749	1652.19
538.114	1652.41
538.479	1621.45
538.845	1629.14
539.21	1636.82
539.575	1599.08
539.94	1645.18
540.305	1608.8
540.67	1610.16
541.034	1613.32
541.399	1625.07
541.764	1615.58
542.129	1591.17
542.494	1588.46
542.858	1583.49
543.223	1565.86
543.587	1593.21
543.952	1583.26
544.316	1588.24
544.681	1558.86
545.045	1555.02
545.41	1573.77
545.774	1555.02
546.138	1541
546.503	1520.89
546.867	1534.9
547.231	1531.51
547.595	1519.76
547.959	1509.82
548.324	1509.59
548.688	1512.98
549.052	1504.4
549.416	1498.75
549.779	1492.42
550.143	1493.77
550.507	1482.48
550.871	1487.45
551.235	1490.16
551.599	1483.15
551.962	1494
552.326	1463.27
552.689	1432.31
553.053	1453.32
553.417	1474.79
553.78	1459.2
554.143	1455.81
554.507	1423.27
554.87	1442.02
555.234	1453.55
555.597	1439.76
555.96	1440.67
556.323	1431.63
556.686	1450.39
557.05	1451.29
557.413	1449.48
557.776	1451.06
558.139	1420.33
558.502	1449.48
558.865	1411.06
559.228	1408.8
559.59	1418.07
559.953	1443.83
560.316	1433.44
560.679	1420.33
561.041	1405.19
561.404	1442.02
561.767	1425.3
562.129	1409.93
562.492	1435.02
562.854	1420.1
563.217	1414.23
563.579	1387.34
563.941	1402.48
564.304	1415.81
564.666	1408.58
565.028	1421.69
565.39	1424.85
565.753	1418.07
566.115	1423.95
566.477	1434.11
566.839	1400.9
567.201	1435.7
567.563	1425.75
567.925	1462.36
568.287	1463.72
568.648	1430.5
569.01	1441.12
569.372	1449.03
569.734	1446.32
570.095	1452.87
570.457	1450.16
570.819	1447.45
571.18	1445.64
571.542	1454.23
571.903	1436.37
572.265	1446.09
572.626	1455.81
572.987	1456.04
573.349	1459.88
573.71	1472.53
574.071	1457.17
574.432	1471.4
574.794	1471.63
575.155	1476.15
575.516	1459.2
575.877	1475.24
576.238	1498.75
576.599	1482.7
576.96	1489.71
577.32	1467.79
577.681	1506.88
578.042	1471.63
578.403	1513.89
578.763	1512.53
579.124	1483.38
579.485	1476.15
579.845	1507.11
580.206	1497.39
580.566	1483.61
580.927	1486.32
581.287	1502.59
581.648	1478.41
582.008	1520.21
582.368	1512.98
582.728	1528.58
583.089	1508.24
583.449	1518.63
583.809	1517.28
584.169	1514.11
584.529	1523.15
584.889	1515.92
585.249	1523.83
585.609	1505.75
585.969	1516.37
586.329	1521.34
586.688	1514.34
587.048	1513.21
587.408	1510.72
587.768	1519.99
588.127	1514.56
588.487	1487.22
588.846	1481.12
589.206	1481.8
589.565	1492.64
589.925	1501.91
590.284	1499.2
590.643	1503.72
591.003	1526.99
591.362	1522.47
591.721	1504.17
592.08	1513.66
592.44	1515.02
592.799	1520.44
593.158	1547.78
593.517	1516.15
593.876	1526.77
594.235	1521.57
594.593	1510.5
594.952	1521.34
595.311	1507.56
595.67	1516.15
596.029	1523.15
596.387	1526.32
596.746	1517.73
597.104	1543.72
597.463	1503.27
597.822	1504.62
598.18	1490.38
598.538	1503.49
598.897	1527.45
599.255	1498.52
599.613	1506.43
599.972	1518.41
600.33	1495.81
600.688	1490.16
601.046	1534.23
601.404	1536.49
601.762	1479.76
602.12	1519.08
602.478	1532.87
602.836	1515.02
603.194	1495.58
603.552	1504.85
603.91	1523.6
604.268	1503.94
604.625	1511.63
604.983	1518.86
605.341	1515.02
605.698	1527.67
606.056	1538.52
606.413	1489.93
606.771	1482.7
607.128	1524.96
607.485	1538.29
607.843	1532.64
608.2	1515.47
608.557	1519.99
608.914	1502.36
609.272	1540.33
609.629	1552.98
609.986	1541.46
610.343	1521.34
610.7	1533.1
611.057	1520.89
611.414	1561.57
611.771	1537.61
612.127	1531.51
612.484	1562.93
612.841	1534.23
613.198	1520.21
613.554	1543.72
613.911	1555.02
614.267	1517.5
614.624	1550.95
614.98	1551.63
615.337	1547.56
615.693	1556.37
616.05	1529.93
616.406	1545.98
616.762	1525.86
617.118	1547.11
617.475	1563.38
617.831	1573.09
618.187	1569.7
618.543	1565.64
618.899	1537.39
619.255	1562.02
619.611	1548.01
619.967	1553.21
620.323	1546.65
620.678	1584.39
621.034	1552.53
621.39	1551.85
621.746	1523.6
622.101	1584.17
622.457	1581.91
622.812	1563.15
623.168	1522.93
623.523	1571.96
623.879	1621.23
624.234	1554.56
624.589	1570.38
624.945	1563.83
625.3	1560.44
625.655	1570.83
626.01	1571.96
626.365	1554.34
626.72	1564.73
627.075	1561.12
627.43	1546.65
627.785	1548.01
628.14	1562.93
628.495	1573.09
628.85	1593.43
629.205	1581.23
629.559	1598.86
629.914	1565.18
630.269	1563.15
630.623	1620.1
630.978	1569.48
631.332	1566.09
631.687	1563.6
632.041	1565.18
632.396	1588.91
632.75	1561.12
633.104	1575.13
633.459	1570.61
633.813	1558.86
634.167	1579.87
634.521	1561.8
634.875	1579.65
635.229	1564.73
635.583	1576.03
635.937	1551.63
636.291	1541.46
636.645	1556.82
636.999	1531.51
637.352	1568.8
637.706	1554.11
638.06	1567.9
638.413	1550.27
638.767	1536.03
639.121	1529.71
639.474	1535.36
639.828	1542.36
640.181	1560.89
640.534	1545.52
640.888	1568.35
641.241	1560.89
641.594	1559.31
641.947	1550.5
642.301	1527.45
642.654	1549.82
643.007	1562.7
643.36	1562.7
643.713	1544.39
644.066	1561.34
644.419	1537.39
644.771	1551.4
645.124	1545.98
645.477	1542.59
645.83	1546.88
646.182	1505.98
646.535	1533.55
646.888	1540.1
647.24	1553.89
647.593	1529.48
647.945	1541.68
648.298	1526.99
648.65	1513.89
649.002	1548.91
649.355	1522.47
649.707	1518.86
650.059	1542.59
650.411	1569.7
650.763	1544.39
651.115	1581
651.467	1581.91
651.819	1572.42
652.171	1579.2
652.523	1597.05
652.875	1562.93
653.227	1556.82
653.578	1572.42
653.93	1595.24
654.282	1584.17
654.633	1585.52
654.985	1561.57
655.337	1568.8
655.688	1586.2
656.039	1575.81
656.391	1616.48
656.742	1553.43
657.094	1563.83
657.445	1610.83
657.796	1594.11
658.147	1593.43
658.498	1614.22
658.849	1566.99
659.2	1581
659.551	1567.9
659.902	1562.02
660.253	1588.46
660.604	1591.85
660.955	1575.81
661.306	1590.27
661.656	1601.12
662.007	1614.68
662.358	1610.83
662.708	1593.43
663.059	1590.04
663.409	1588.46
663.76	1599.76
664.11	1605.18
664.461	1593.88
664.811	1582.59
665.161	1583.94
665.511	1581.46
665.862	1567.22
666.212	1578.07
666.562	1579.2
666.912	1589.82
667.262	1589.82
667.612	1578.74
667.962	1571.29
668.312	1578.74
668.662	1609.25
669.011	1576.03
669.361	1594.79
669.711	1575.58
670.06	1587.11
670.41	1566.09
670.76	1577.16
671.109	1578.52
671.459	1559.76
671.808	1571.74
672.157	1539.42
672.507	1554.34
672.856	1558.41
673.205	1568.12
673.554	1546.2
673.904	1539.42
674.253	1565.18
674.602	1571.96
674.951	1568.8
675.3	1546.65
675.649	1570.61
675.998	1569.03
676.346	1534.68
676.695	1558.63
677.044	1522.93
677.393	1543.72
677.741	1552.76
678.09	1555.92
678.438	1535.13
678.787	1532.64
679.135	1530.84
679.484	1515.02
679.832	1524.28
680.181	1498.29
680.529	1513.43
680.877	1542.81
681.225	1506.88
681.573	1510.95
681.922	1522.47
682.27	1511.4
682.618	1524.96
682.966	1540.78
683.314	1517.28
683.661	1489.93
684.009	1493.1
684.357	1509.37
684.705	1526.77
685.053	1494.68
685.4	1481.57
685.748	1481.12
686.095	1498.75
686.443	1495.81
686.79	1478.18
687.138	1483.15
687.485	1494.9
687.832	1491.51
688.18	1466.88
688.527	1470.27
688.874	1508.24
689.221	1481.8
689.568	1436.83
689.915	1450.84
690.262	1447.22
690.609	1462.36
690.956	1455.36
691.303	1464.17
691.65	1451.52
691.997	1431.63
692.344	1442.48
692.69	1432.08
693.037	1434.34
693.383	1404.29
693.73	1444.06
694.077	1419.43
694.423	1412.65
694.769	1397.73
695.116	1427.34
695.462	1412.19
695.808	1384.4
696.155	1418.52
696.501	1417.84
696.847	1400.22
697.193	1386.66
697.539	1379.43
697.885	1391.4
698.231	1382.82
698.577	1345.08
698.923	1382.82
699.269	1378.52
699.614	1384.62
699.96	1360.44
700.306	1367.68
700.651	1334.68
700.997	1359.31
701.342	1363.38
701.688	1355.92
702.033	1356.15
702.379	1385.53
702.724	1382.36
703.069	1356.83
703.415	1380.56
703.76	1370.61
704.105	1368.81
704.45	1359.54
704.795	1342.14
705.14	1359.99
705.485	1348.47
705.83	1341.24
706.175	1326.55
706.52	1352.31
706.865	1351.18
707.209	1343.04
707.554	1355.7
707.899	1353.66
708.243	1352.54
708.588	1349.82
708.932	1370.61
709.277	1351.41
709.621	1364.51
709.966	1356.83
710.31	1366.09
710.654	1356.15
710.998	1347.79
711.342	1367.22
711.687	1333.55
712.031	1331.29
712.375	1372.65
712.719	1380.1
713.063	1357.51
713.407	1352.76
713.75	1354.57
714.094	1342.14
714.438	1376.72
714.782	1385.53
715.125	1377.85
715.469	1382.36
715.812	1380.33
716.156	1383.49
716.499	1380.56
716.843	1402.25
717.186	1423.49
717.53	1387.34
717.873	1396.83
718.216	1384.17
718.559	1388.47
718.902	1403.16
719.246	1387.11
719.589	1420.33
719.932	1387.11
720.275	1389.82
720.617	1385.75
720.96	1406.54
721.303	1399.09
721.646	1416.49
721.989	1421.46
722.331	1432.98
722.674	1472.98
723.016	1434.34
723.359	1435.7
723.701	1430.27
724.044	1442.25
724.386	1431.63
724.729	1448.8
725.071	1468.46
725.413	1418.75
725.755	1453.55
726.097	1466.88
726.439	1460.33
726.782	1467.79
727.124	1463.72
727.465	1473.66
727.807	1502.81
728.149	1476.37
728.491	1493.77
728.833	1508.01
729.175	1525.86
729.516	1521.8
729.858	1527.22
730.199	1539.87
730.541	1515.69
730.882	1516.82
731.224	1543.26
731.565	1573.55
731.906	1569.25
732.248	1576.94
732.589	1575.13
732.93	1575.81
733.271	1563.6
733.612	1604.73
733.953	1562.93
734.294	1605.64
734.635	1600.89
734.976	1627.78
735.317	1650.38
735.658	1621.68
735.999	1669.36
736.339	1662.58
736.68	1639.99
737.021	1676.37
737.361	1676.59
737.702	1703.03
738.042	1694.67
738.383	1726.54
738.723	1721.79
739.063	1736.93
739.404	1751.85
739.744	1753.43
740.084	1792.75
740.424	1782.35
740.764	1777.38
741.104	1850.6
741.444	1832.97
741.784	1847.21
742.124	1877.72
742.464	1920.66
742.804	1886.98
743.143	1917.27
743.483	1980.54
743.823	1980.99
744.162	1999.75
744.502	2020.54
744.841	2005.4
745.181	2060.77
745.52	2078.84
745.86	2097.37
746.199	2147.99
746.538	2171.5
746.877	2190.25
747.216	2211.04
747.556	2261.89
747.895	2279.06
748.234	2340.31
748.573	2363.81
748.911	2403.13
749.25	2427.76
749.589	2453.75
749.928	2492.62
750.267	2544.14
750.605	2577.36
750.944	2613.97
751.283	2642.22
751.621	2703.01
751.96	2735.1
752.298	2843.34
752.636	2846.06
752.975	2912.04
753.313	2964.7
753.651	2988.42
753.989	3104.58
754.327	3115.65
754.666	3187.97
755.004	3229.77
755.342	3308.19
755.679	3379.83
756.017	3427.06
756.355	3529.65
756.693	3563.55
757.031	3661.85
757.368	3719.7
757.706	3785.47
758.044	3833.83
758.381	3929.19
758.719	3980.49
759.056	4113.82
759.394	4151.78
759.731	4196.98
760.068	4273.14
760.405	4348.16
760.743	4443.98
761.08	4524.66
761.417	4590.19
761.754	4659.79
762.091	4724.65
762.428	4809.39
762.765	4829.73
763.102	5022.04
763.438	4997.64
763.775	5091.42
764.112	5146.79
764.449	5236.73
764.785	5357.4
765.122	5374.8
765.458	5467.23
765.795	5549.94
766.131	5596.49
766.467	5719.88
766.804	5752.87
767.14	5816.82
767.476	5871.74
767.812	5924.17
768.148	5972.98
768.485	6037.16
768.821	6120.77
769.157	6212.07
769.492	6235.57
769.828	6275.57
770.164	6319.41
770.5	6356.92
