Data from blue_clamp_base_FLMS001491_00030.txt Node
Date: Wed Feb 08 15:15:47 GMT 2017
User: dcchb
Spectrometer: FLMS00149
Trigger mode: 0
Integration Time (sec): 2.000000E-2
Scans to average: 10
Electric dark correction enabled: true
Nonlinearity correction enabled: false
Boxcar width: 0
XAxis mode: Wavelengths
Number of Pixels in Spectrum: 2048
>>>>>Begin Spectral Data<<<<<
341.393	-7.97
341.776	-7.97
342.16	-7.97
342.543	-53.39
342.927	-52.48
343.31	-66.72
343.693	-100.84
344.077	-69.66
344.46	-50.9
344.843	-57
345.226	-52.71
345.61	-27.63
345.993	-21.3
346.376	-7.51
346.759	8.08
347.142	40.39
347.525	53.73
347.908	74.07
348.291	81.3
348.674	89.21
349.057	107.51
349.44	147.06
349.823	143.22
350.206	184.8
350.588	176.21
350.971	216.21
351.354	220.5
351.737	228.41
352.119	253.95
352.502	257.56
352.884	261.63
353.267	272.03
353.65	301.63
354.032	295.75
354.414	305.92
354.797	309.09
355.179	318.58
355.562	304.79
355.944	317.45
356.326	306.38
356.709	338.69
357.091	323.32
357.473	338.92
357.855	319.71
358.238	329.65
358.62	340.73
359.002	322.87
359.384	340.5
359.766	318.13
360.148	336.43
360.53	322.87
360.912	339.37
361.294	326.94
361.676	308.64
362.057	312.03
362.439	305.25
362.821	322.65
363.203	320.61
363.584	324.23
363.966	298.47
364.348	333.27
364.729	314.51
365.111	310.9
365.493	321.29
365.874	309.99
366.256	321.74
366.637	311.35
367.019	298.24
367.4	311.8
367.781	295.98
368.163	301.4
368.544	309.09
368.925	311.8
369.306	309.54
369.688	305.02
370.069	308.41
370.45	299.82
370.831	295.08
371.212	312.25
371.593	302.76
371.974	282.87
372.355	298.92
372.736	308.18
373.117	301.18
373.498	297.56
373.879	310.67
374.26	308.64
374.641	305.92
375.021	314.96
375.402	308.18
375.783	322.19
376.163	314.51
376.544	307.73
376.925	316.77
377.305	300.05
377.686	321.29
378.066	345.7
378.447	337.34
378.827	312.03
379.208	314.96
379.588	332.36
379.968	339.6
380.349	338.01
380.729	315.19
381.109	316.77
381.489	329.2
381.87	347.5
382.25	326.94
382.63	336.88
383.01	366.71
383.39	329.2
383.77	337.56
384.15	344.34
384.53	328.52
384.91	357
385.29	355.64
385.67	327.62
386.049	356.09
386.429	350.67
386.809	350.89
387.189	338.69
387.568	350.67
387.948	341.18
388.328	370.56
388.707	361.52
389.087	376.43
389.466	376.66
389.846	356.77
390.225	363.55
390.605	371.69
390.984	372.82
391.363	386.15
391.743	371.46
392.122	378.46
392.501	379.37
392.881	366.71
393.26	377.79
393.639	384.57
394.018	389.99
394.397	409.42
394.776	398.58
395.155	395.19
395.534	403.32
395.913	384.57
396.292	404.68
396.671	403.77
397.05	402.64
397.429	403.1
397.808	425.02
398.186	436.32
398.565	408.75
398.944	439.25
399.323	426.82
399.701	432.93
400.08	432.25
400.458	432.25
400.837	444.68
401.215	464.79
401.594	430.89
401.972	441.29
402.351	447.62
402.729	442.87
403.107	449.2
403.486	464.79
403.864	477.45
404.242	472.25
404.62	482.19
404.999	506.6
405.377	482.64
405.755	505.47
406.133	487.16
406.511	496.43
406.889	512.7
407.267	531.23
407.645	535.52
408.023	524.45
408.401	516.77
408.779	541.85
409.156	547.27
409.534	533.71
409.912	552.25
410.29	552.02
410.667	541.85
411.045	567.39
411.422	583.66
411.8	579.82
412.178	585.01
412.555	583.43
412.933	613.03
413.31	596.31
413.687	609.64
414.065	648.29
414.442	626.37
414.819	646.03
415.197	639.93
415.574	674.05
415.951	671.79
416.328	650.77
416.705	666.14
417.082	669.76
417.46	675.86
417.837	684.9
418.214	681.51
418.591	697.55
418.967	699.59
419.344	703.43
419.721	684.67
420.098	729.42
420.475	704.11
420.852	707.5
421.228	725.57
421.605	724.9
421.982	749.75
422.358	770.09
422.735	779.36
423.111	775.74
423.488	780.26
423.864	778.91
424.241	769.64
424.617	812.13
424.994	791.11
425.37	825.01
425.746	823.2
426.123	846.25
426.499	810.77
426.875	860.03
427.251	862.97
427.627	868.85
428.003	900.03
428.379	893.93
428.756	885.57
429.132	877.89
429.507	916.76
429.883	935.06
430.259	939.35
430.635	948.85
431.011	961.95
431.387	990.43
431.763	1003.08
432.138	983.42
432.514	1008.5
432.89	1008.05
433.265	1064.77
433.641	1070.88
434.016	1062.74
434.392	1068.39
434.767	1099.8
435.143	1098.45
435.518	1109.07
435.894	1155.85
436.269	1154.49
436.644	1152.68
437.02	1161.04
437.395	1139.8
437.77	1170.31
438.145	1208.27
438.52	1190.42
438.895	1208.5
439.271	1226.8
439.646	1224.77
440.021	1257.76
440.395	1261.15
440.77	1245.11
441.145	1298.89
441.52	1322.39
441.895	1310.64
442.27	1346.8
442.645	1326.46
443.019	1359
443.394	1359
443.769	1346.35
444.143	1376.18
444.518	1407.82
444.892	1375.05
445.267	1400.81
445.641	1433.35
446.016	1434.93
446.39	1424.76
446.764	1444.43
447.139	1447.82
447.513	1504.54
447.887	1493.69
448.262	1488.27
448.636	1513.12
449.01	1540.69
449.384	1507.7
449.758	1559.45
450.132	1569.62
450.506	1566
450.88	1598.55
451.254	1576.4
451.628	1598.09
452.002	1591.31
452.376	1652.33
452.75	1669.5
453.123	1660.69
453.497	1685.1
453.871	1709.96
454.244	1715.83
454.618	1718.77
454.992	1778.65
455.365	1742.5
455.739	1796.73
456.112	1790.18
456.486	1849.16
456.859	1861.59
457.232	1909.05
457.606	1889.61
457.979	1901.14
458.352	1959.67
458.725	1936.62
459.099	1973.45
459.472	2005.77
459.845	2043.28
460.218	2086.67
460.591	2069.04
460.964	2074.47
461.337	2131.64
461.71	2158.3
462.083	2147.01
462.456	2167.12
462.829	2174.12
463.201	2227.68
463.574	2196.04
463.947	2218.87
464.32	2289.83
464.692	2302.26
465.065	2310.17
465.438	2318.98
465.81	2341.35
466.183	2385.19
466.555	2428.81
466.928	2459.54
467.3	2467.68
467.672	2453.66
468.045	2556.26
468.417	2546.09
468.789	2564.85
469.161	2585.19
469.534	2636.48
469.906	2694.79
470.278	2702.02
470.65	2732.3
471.022	2774.56
471.394	2833.09
471.766	2832.86
472.138	2882.58
472.51	2909.92
472.882	2944.5
473.253	2998.28
473.625	3002.12
473.997	3082.12
474.369	3080.54
474.74	3109.01
475.112	3169.35
475.484	3195.57
475.855	3272.63
476.227	3276.24
476.598	3346.97
476.97	3401.44
477.341	3459.74
477.713	3457.48
478.084	3448.67
478.455	3585.16
478.827	3560.08
479.198	3663.35
479.569	3687.98
479.94	3733.4
480.311	3749.45
480.682	3835.77
481.053	3873.74
481.424	3970.46
481.795	3995.32
482.166	4013.17
482.537	4064.02
482.908	4152.38
483.279	4138.59
483.65	4243.67
484.021	4315.31
484.391	4334.52
484.762	4317.12
485.133	4380.39
485.503	4453.61
485.874	4551.91
486.244	4531.12
486.615	4610.22
486.985	4629.88
487.356	4686.83
487.726	4682.53
488.097	4801.85
488.467	4822.64
488.837	4881.17
489.207	4897.67
489.578	5006.37
489.948	5005.46
490.318	5061.73
490.688	5068.74
491.058	5144.44
491.428	5194.61
491.798	5182.41
492.168	5272.8
492.538	5280.48
492.908	5380.82
493.278	5439.8
493.648	5415.17
494.017	5440.93
494.387	5475.73
494.757	5452.23
495.126	5467.14
495.496	5511.44
495.866	5546.92
496.235	5566.58
496.605	5628.04
496.974	5603.64
497.344	5686.57
497.713	5719.79
498.082	5744.88
498.452	5785.55
498.821	5786.91
499.19	5735.16
499.559	5831.65
499.928	5856.29
500.298	5846.57
500.667	5910.75
501.036	5884.08
501.405	5929.51
501.774	5935.15
502.143	5985.32
502.512	5986
502.88	5996.17
503.249	6013.8
503.618	6014.7
503.987	6058.77
504.356	6063.06
504.724	6039.11
505.093	6068.26
505.462	6066
505.83	6091.08
506.199	6245.43
506.567	6237.07
506.936	6176.28
507.304	6318.65
507.672	6278.65
508.041	6314.13
508.409	6336.27
508.777	6343.28
509.145	6360.68
509.514	6317.29
509.882	6411.98
510.25	6407.91
510.618	6454.92
510.986	6516.83
511.354	6492.88
511.722	6531.52
512.09	6575.36
512.458	6547.12
512.826	6618.07
513.193	6576.95
513.561	6628.24
513.929	6638.41
514.297	6703.95
514.664	6675.7
515.032	6691.97
515.4	6743.27
515.767	6770.84
516.135	6815.13
516.502	6755.47
516.869	6821.01
517.237	6816.49
517.604	6798.41
517.972	6866.2
518.339	6928.35
518.706	6903.04
519.073	6954.79
519.44	6959.31
519.808	6997.95
520.175	6956.37
520.542	7032.07
520.909	7044.5
521.276	7057.61
521.643	7047.67
522.009	7196.14
522.376	7138.29
522.743	7176.25
523.11	7230.26
523.477	7258.96
523.843	7319.75
524.21	7344.16
524.577	7375.12
524.943	7402.23
525.31	7451.05
525.676	7427.54
526.043	7473.19
526.409	7514.55
526.776	7566.52
527.142	7605.17
527.508	7580.54
527.874	7686.97
528.241	7748.67
528.607	7672.51
528.973	7690.59
529.339	7727.2
529.705	7776.69
530.071	7810.13
530.437	7863.92
530.803	7948.89
531.169	7920.41
531.535	7901.2
531.901	7914.09
532.267	7970.81
532.632	8026.4
532.998	8036.57
533.364	8067.3
533.73	8077.02
534.095	8091.03
534.461	8114.76
534.826	8134.64
535.192	8256.9
535.557	8254.19
535.923	8192.95
536.288	8172.16
536.653	8309.56
537.019	8289.44
537.384	8305.94
537.749	8328.09
538.114	8315.88
538.479	8317.69
538.845	8396.56
539.21	8335.54
539.575	8389.55
539.94	8383
540.305	8440.63
540.67	8434.07
541.034	8448.08
541.399	8466.84
541.764	8518.14
542.129	8492.15
542.494	8498.25
542.858	8554.52
543.223	8534.41
543.587	8592.49
543.952	8575.54
544.316	8618.7
544.681	8613.73
545.045	8665.25
545.41	8733.27
545.774	8724.23
546.138	8678.81
546.503	8671.81
546.867	8690.56
547.231	8761.52
547.595	8759.04
547.959	8787.51
548.324	8818.92
548.688	8761.07
549.052	8820.95
549.416	8791.12
549.779	8835.42
550.143	8868.64
550.507	8808.98
550.871	8888.52
551.235	8876.77
551.599	8910.22
551.962	8981.18
552.326	8879.03
552.689	8964.23
553.053	8980.72
553.417	9006.49
553.78	9056.2
554.143	9071.34
554.507	9069.99
554.87	9047.62
555.234	9119.25
555.597	9074.96
555.96	9071.57
556.323	9088.52
556.686	9113.15
557.05	9160.38
557.413	9218.46
557.776	9182.75
558.139	9230.21
558.502	9243.77
558.865	9249.19
559.228	9264.33
559.59	9283.77
559.953	9308.17
560.316	9345.69
560.679	9337.33
561.041	9381.39
561.404	9433.37
561.767	9460.71
562.129	9406.48
562.492	9531.22
562.854	9475.85
563.217	9526.92
563.579	9547.72
563.941	9598.34
564.304	9629.52
564.666	9650.99
565.028	9673.14
565.39	9646.92
565.753	9714.94
566.115	9688.05
566.477	9799.46
566.839	9833.36
567.201	9806.92
567.563	9873.81
567.925	9907.25
568.287	9879.91
568.648	9897.31
569.01	9925.11
569.372	10102.73
569.734	10006.01
570.095	10055.05
570.457	10159
570.819	10095.72
571.18	10080.36
571.542	10167.13
571.903	10172.78
572.265	10237.41
572.626	10188.83
572.987	10290.07
573.349	10272.89
573.71	10326.68
574.071	10358.09
574.432	10361.48
574.794	10406.9
575.155	10429.95
575.516	10392.21
575.877	10440.12
576.238	10484.87
576.599	10535.26
576.96	10520.57
577.32	10525.77
577.681	10508.37
578.042	10592.89
578.403	10547.69
578.763	10581.13
579.124	10582.72
579.485	10663.17
579.845	10738.87
580.206	10725.76
580.566	10735.93
580.927	10676.05
581.287	10761.02
581.648	10674.92
582.008	10723.5
582.368	10816.38
582.728	10805.31
583.089	10704.29
583.449	10740.9
583.809	10787.68
584.169	10822.03
584.529	10783.16
584.889	10840.79
585.249	10857.29
585.609	10829.26
585.969	10896.38
586.329	10815.25
586.688	10795.14
587.048	10860.9
587.408	10884.86
587.768	10890.96
588.127	10867.68
588.487	10827.23
588.846	10975.93
589.206	10883.73
589.565	10942.93
589.925	10926.66
590.284	10894.35
590.643	10866.32
591.003	10927.79
591.362	10978.64
591.721	10976.83
592.08	10966.66
592.44	10996.49
592.799	11014.12
593.158	11035.59
593.517	10968.24
593.876	10992.65
594.235	10957.4
594.593	11014.12
594.952	11069.71
595.311	11055.92
595.67	11003.5
596.029	11097.5
596.387	11075.13
596.746	11115.13
597.104	11041.69
597.463	11114.68
597.822	11097.96
598.18	11038.07
598.538	11059.31
598.897	11121.68
599.255	11057.96
599.613	11287.56
599.972	11076.26
600.33	11108.13
600.688	11088.69
601.046	11183.15
601.404	11181.34
601.762	11110.84
602.12	11224.96
602.478	11199.42
602.836	11259.53
603.194	11197.84
603.552	11193.55
603.91	11139.76
604.268	11252.3
604.625	11188.35
604.983	11204.39
605.341	11176.82
605.698	11219.99
606.056	11308.12
606.413	11237.84
606.771	11184.06
607.128	11328.01
607.485	11204.62
607.843	11212.98
608.2	11386.76
608.557	11341.57
608.914	11299.76
609.272	11365.07
609.629	11377.72
609.986	11384.28
610.343	11292.3
610.7	11393.54
611.057	11423.37
611.414	11344.28
611.771	11442.81
612.127	11473.31
612.484	11405.97
612.841	11455.46
613.198	11436.93
613.554	11480.77
613.911	11566.87
614.267	11525.97
614.624	11533.43
614.98	11551.28
615.337	11605.29
615.693	11538.17
616.05	11612.75
616.406	11622.69
616.762	11550.37
617.118	11603.71
617.475	11590.6
617.831	11586.53
618.187	11640.77
618.543	11654.33
618.899	11763.48
619.255	11734.32
619.611	11684.16
619.967	11711.95
620.323	11776.58
620.678	11677.83
621.034	11729.58
621.39	11761.67
621.746	11783.81
622.101	11957.14
622.457	11791.05
622.812	11858.39
623.168	11907.2
623.523	11792.4
623.879	11896.13
624.234	11774.32
624.589	11854.1
624.945	11904.26
625.3	11938.61
625.655	11949.01
626.01	11958.05
626.365	11928.67
626.72	11915.34
627.075	11911.49
627.43	11956.24
627.785	11948.56
628.14	12001.66
628.495	11988.78
628.85	11940.42
629.205	11846.41
629.559	12011.61
629.914	11932.96
630.269	11966.18
630.623	11985.17
630.978	11968.67
631.332	12109
631.687	12060.87
632.041	12060.64
632.396	12064.03
632.75	11957.6
633.104	12041.89
633.459	11921.89
633.813	12012.28
634.167	12058.38
634.521	11994.43
634.875	12059.74
635.229	12036.24
635.583	12067.65
635.937	12061.32
636.291	12063.36
636.645	12078.27
636.999	12048.21
637.352	12102.45
637.706	12018.84
638.06	12080.53
638.413	12075.78
638.767	12120.3
639.121	12147.42
639.474	12064.49
639.828	12032.4
640.181	12118.72
640.534	12136.8
640.888	12059.51
641.241	12095.22
641.594	12197.14
641.947	12135.9
642.301	12189.23
642.654	12143.35
643.007	12149.68
643.36	12233.29
643.713	12232.62
644.066	12215.67
644.419	12151.71
644.771	12084.15
645.124	12130.47
645.477	12094.31
645.83	12066.74
646.182	12017.71
646.535	11852.97
646.888	11915.56
647.24	11846.41
647.593	11920.76
647.945	11775.23
648.298	11730.71
648.65	11752.85
649.002	11765.06
649.355	11906.3
649.707	11942.23
650.059	12054.77
650.411	12246.4
650.763	12237.59
651.115	12308.09
651.467	12282.78
651.819	12292.05
652.171	12318.49
652.523	12263.8
652.875	12313.52
653.227	12289.79
653.578	12415.21
653.93	12358.26
654.282	12371.6
654.633	12276
654.985	12415.44
655.337	12325.5
655.688	12330.69
656.039	12386.51
656.391	12400.75
656.742	12456.34
657.094	12414.76
657.445	12490.01
657.796	12461.54
658.147	12443.68
658.498	12450.46
658.849	12465.83
659.2	12501.54
659.551	12474.87
659.902	12532.04
660.253	12481.42
660.604	12477.13
660.955	12462.21
661.306	12490.46
661.656	12517.13
662.007	12415.44
662.358	12538.37
662.708	12481.2
663.059	12520.74
663.409	12391.48
663.76	12565.94
664.11	12477.13
664.461	12524.36
664.811	12502.89
665.161	12504.25
665.511	12477.13
665.862	12535.66
666.212	12608.65
666.562	12549.44
666.912	12545.15
667.262	12571.36
667.612	12546.28
667.962	12469.9
668.312	12452.95
668.662	12501.99
669.011	12339.05
669.361	12463.12
669.711	12447.75
670.06	12375.66
670.41	12415.21
670.76	12351.71
671.109	12394.65
671.459	12324.37
671.808	12269.23
672.157	12293.86
672.507	12182
672.856	12267.64
673.205	12268.32
673.554	12257.93
673.904	12191.71
674.253	12203.01
674.602	12197.14
674.951	11987.2
675.3	11880.31
675.649	12070.81
675.998	12038.5
676.346	12106.74
676.695	12094.31
677.044	12018.38
677.393	11984.71
677.741	11991.94
678.09	11978.39
678.438	11940.65
678.787	11940.87
679.135	11916.01
679.484	11826.75
679.832	11892.96
680.181	11785.85
680.529	11768.9
680.877	11814.1
681.225	11760.09
681.573	11803.02
681.922	11717.83
682.27	11669.92
682.618	11652.74
682.966	11590.15
683.314	11622.46
683.661	11619.75
684.009	11550.83
684.357	11514.22
684.705	11472.86
685.053	11492.97
685.4	11459.3
685.748	11466.53
686.095	11443.03
686.443	11427.44
686.79	11341.11
687.138	11396.25
687.485	11441
687.832	11350.15
688.18	11335.24
688.527	11283.49
688.874	11274.22
689.221	11269.48
689.568	11259.31
689.915	11186.32
690.262	11259.08
690.609	11213.89
690.956	11248.91
691.303	11245.3
691.65	11160.33
691.997	11183.6
692.344	11142.7
692.69	11098.41
693.037	11094.57
693.383	11075.36
693.73	11041.69
694.077	11025.42
694.423	11051.18
694.769	10954.46
695.116	10970.95
695.462	10883.73
695.808	10948.36
696.155	10986.1
696.501	10872.88
696.847	10869.04
697.193	10752.43
697.539	10914.68
697.885	10830.85
698.231	10739.32
698.577	10738.87
698.923	10770.96
699.269	10659.32
699.614	10681.02
699.96	10645.99
700.306	10617.97
700.651	10669.95
700.997	10573.68
701.342	10550.85
701.688	10649.16
702.033	10606.44
702.379	10637.4
702.724	10567.12
703.069	10652.54
703.415	10485.32
703.76	10488.93
704.105	10607.12
704.45	10569.38
704.795	10528.48
705.14	10516.5
705.485	10461.82
705.83	10537.52
706.175	10472.44
706.52	10485.77
706.865	10413.23
707.209	10411.87
707.554	10436.96
707.899	10391.31
708.243	10416.62
708.588	10337.3
708.932	10285.55
709.277	10356.73
709.621	10344.3
709.966	10343.4
710.31	10371.42
710.654	10333.23
710.998	10321.71
711.342	10291.2
711.687	10300.92
712.031	10251.88
712.375	10264.76
712.719	10268.83
713.063	10259.11
713.407	10275.38
713.75	10217.75
714.094	10266.79
714.438	10195.38
714.782	10243.74
715.125	10199.45
715.469	10205.1
715.812	10136.4
716.156	10088.49
716.499	10119.9
716.843	10175.27
717.186	10073.12
717.53	10137.98
717.873	10075.38
718.216	10106.12
718.559	10002.39
718.902	9982.28
719.246	10063.18
719.589	10048.72
719.932	9973.24
720.275	10054.82
720.617	10014.14
720.96	9934.37
721.303	10042.17
721.646	10069.28
721.989	9982.96
722.331	10029.28
722.674	10022.28
723.016	10048.72
723.359	9954.71
723.701	10015.27
724.044	9963.75
724.386	9947.7
724.729	9966.69
725.071	9924.65
725.413	9922.85
725.755	9954.48
726.097	9899.8
726.439	9926.01
726.782	9886.24
727.124	9917.65
727.465	9921.49
727.807	9909.97
728.149	9866.58
728.491	9879.46
728.833	9907.93
729.175	9854.15
729.516	9917.65
729.858	9854.83
730.199	9919.23
730.541	9954.26
730.882	9912
731.224	9991.77
731.565	9866.35
731.906	9951.09
732.248	9939.34
732.589	9858.44
732.93	9904.32
733.271	9922.85
733.612	9952.68
733.953	9967.14
734.294	9898.44
734.635	9853.47
734.976	9955.39
735.317	9891.43
735.658	9902.06
735.999	9977.53
736.339	9941.15
736.68	9984.09
737.021	9970.08
737.361	9964.65
737.702	10030.87
738.042	9981.6
738.383	9959.68
738.723	10047.81
739.063	10001.71
739.404	10042.39
739.744	10055.72
740.084	10019.34
740.424	10106.12
740.764	10082.62
741.104	10128.26
741.444	10106.34
741.784	10113.12
742.124	10144.99
742.464	10164.65
742.804	10221.37
743.143	10204.19
743.483	10224.31
743.823	10193.57
744.162	10220.01
744.502	10271.99
744.841	10274.48
745.181	10320.8
745.52	10311.76
745.86	10381.59
746.199	10369.16
746.538	10354.7
746.877	10440.8
747.216	10472.66
747.556	10380.24
747.895	10420.46
748.234	10309.5
748.573	10465.66
748.911	10480.8
749.25	10518.76
749.589	10442.15
749.928	10531.64
750.267	10630.85
750.605	10613
750.944	10600.79
751.283	10582.04
751.621	10652.32
751.96	10656.16
752.298	10707.46
752.636	10673.56
752.975	10686.67
753.313	10700.68
753.651	10824.07
753.989	10700.23
754.327	10702.03
754.666	10801.47
755.004	10794.46
755.342	10867
755.679	10814.12
756.017	10841.69
756.355	10866.32
756.693	10858.87
757.031	10977.73
757.368	10981.12
757.706	10937.06
758.044	10939.77
758.381	11007.11
758.719	10923.05
759.056	11029.71
759.394	10937.74
759.731	10991.07
