Data from blue_clamp_base_FLMS001491_00050.txt Node
Date: Wed Feb 08 15:16:05 GMT 2017
User: dcchb
Spectrometer: FLMS00149
Trigger mode: 0
Integration Time (sec): 2.000000E-2
Scans to average: 10
Electric dark correction enabled: true
Nonlinearity correction enabled: false
Boxcar width: 0
XAxis mode: Wavelengths
Number of Pixels in Spectrum: 2048
>>>>>Begin Spectral Data<<<<<
341.393	-8.77
341.776	-8.77
342.16	-8.77
342.543	-61.2
342.927	-58.04
343.31	-66.17
343.693	-68.43
344.077	-64.59
344.46	-50.35
344.843	-46.28
345.226	-39.05
345.61	-50.13
345.993	-6.96
346.376	2.98
346.759	1.17
347.142	14.96
347.525	53.6
347.908	47.95
348.291	66.93
348.674	92.24
349.057	112.13
349.44	131.79
349.823	146.93
350.206	175.63
350.588	195.74
350.971	220.83
351.354	228.74
351.737	241.84
352.119	266.48
352.502	286.59
352.884	294.05
353.267	293.14
353.65	311.45
354.032	297.44
354.414	313.93
354.797	342.41
355.179	321.39
355.562	355.29
355.944	341.5
356.326	340.37
356.709	344.21
357.091	349.41
357.473	366.81
357.855	362.52
358.238	338.34
358.62	354.38
359.002	358
359.384	370.2
359.766	351.67
360.148	355.51
360.53	357.77
360.912	362.74
361.294	347.6
361.676	341.05
362.057	354.61
362.439	355.29
362.821	341.95
363.203	351.67
363.584	347.38
363.966	337.21
364.348	322.52
364.729	351.9
365.111	325.91
365.493	351.67
365.874	327.72
366.256	349.86
366.637	322.29
367.019	345.34
367.4	308.06
367.781	327.27
368.163	327.49
368.544	323.65
368.925	325.91
369.306	349.41
369.688	329.98
370.069	350.99
370.45	352.8
370.831	358.23
371.212	331.11
371.593	358.45
371.974	362.97
372.355	329.07
372.736	334.5
373.117	324.33
373.498	361.84
373.879	329.07
374.26	334.04
374.641	335.17
375.021	345.57
375.402	375.85
375.783	369.3
376.163	362.29
376.544	350.32
376.925	359.81
377.305	355.06
377.686	356.19
378.066	368.62
378.447	368.39
378.827	384.21
379.208	366.13
379.588	381.28
379.968	372.91
380.349	364.78
380.729	385.12
381.109	377.21
381.489	384.21
381.87	370.65
382.25	390.77
382.63	387.38
383.01	386.7
383.39	388.73
383.77	377.43
384.15	388.28
384.53	403.87
384.91	413.59
385.29	388.51
385.67	401.16
386.049	430.99
386.429	409.07
386.809	418.11
387.189	394.83
387.568	444.78
387.948	446.13
388.328	436.87
388.707	412.01
389.087	432.57
389.466	428.96
389.846	453.59
390.225	418.79
390.605	444.55
390.984	461.27
391.363	449.3
391.743	463.76
392.122	450.43
392.501	461.05
392.881	467.37
393.26	486.13
393.639	475.06
394.018	514.61
394.397	488.62
394.776	486.36
395.155	484.1
395.534	491.55
395.913	492.46
396.292	506.02
396.671	515.06
397.05	525.68
397.429	506.47
397.808	523.42
398.186	538.56
398.565	520.71
398.944	548.28
399.323	549.86
399.701	565.9
400.08	560.03
400.458	543.98
400.837	568.39
401.215	561.61
401.594	579.24
401.972	559.35
402.351	581.27
402.729	602.06
403.107	567.03
403.486	614.72
403.864	627.37
404.242	621.04
404.62	616.07
404.999	628.5
405.377	651.78
405.755	632.12
406.133	650.42
406.511	677.54
406.889	662.62
407.267	669.63
407.645	674.15
408.023	675.5
408.401	697.2
408.779	705.79
409.156	719.12
409.534	742.17
409.912	736.52
410.29	764.09
410.667	762.51
411.045	775.62
411.422	773.13
411.8	782.62
412.178	792.11
412.555	821.72
412.933	819.23
413.31	814.94
413.687	836.4
414.065	842.05
414.442	851.09
414.819	877.53
415.197	843.86
415.574	880.02
415.951	871.43
416.328	886.8
416.705	897.42
417.082	916.85
417.46	936.06
417.837	914.37
418.214	931.32
418.591	960.92
418.967	983.75
419.344	955.05
419.721	993.24
420.098	988.49
420.475	1000.24
420.852	970.41
421.228	1018.09
421.605	1030.98
421.982	1046.34
422.358	1050.86
422.735	1047.02
423.111	1052.44
423.488	1068.71
423.864	1065.1
424.241	1064.42
424.617	1121.14
424.994	1092.89
425.37	1101.93
425.746	1140.58
426.123	1131.31
426.499	1141.93
426.875	1174.47
427.251	1193.68
427.627	1193.23
428.003	1212.67
428.379	1233
428.756	1244.08
429.132	1257.41
429.507	1289.95
429.883	1291.08
430.259	1338.09
430.635	1320.69
431.011	1335.15
431.387	1369.05
431.763	1424.64
432.138	1435.26
432.514	1425.99
432.89	1417.63
433.265	1472.55
433.641	1476.84
434.016	1489.04
434.392	1527.01
434.767	1524.52
435.143	1527.01
435.518	1566.33
435.894	1568.36
436.269	1573.79
436.644	1623.73
437.02	1618.98
437.395	1645.42
437.77	1685.65
438.145	1690.62
438.52	1672.77
438.895	1719.09
439.271	1716.16
439.646	1765.42
440.021	1789.15
440.395	1799.32
440.77	1794.12
441.145	1820.11
441.52	1858.07
441.895	1844.97
442.27	1869.15
442.645	1866.21
443.019	1941.23
443.394	1899.88
443.769	1932.87
444.143	1898.52
444.518	1951.18
444.892	1972.19
445.267	1974.91
445.641	1992.76
446.016	2013.32
446.39	2020.78
446.764	2046.54
447.139	2055.81
447.513	2065.98
447.887	2059.42
448.262	2107.78
448.636	2105.07
449.01	2153.21
449.384	2149.59
449.758	2162.92
450.132	2169.02
450.506	2202.02
450.88	2199.53
451.254	2225.75
451.628	2224.39
452.002	2260.77
452.376	2309.59
452.75	2335.8
453.123	2327.44
453.497	2386.65
453.871	2395.69
454.244	2458.06
454.618	2426.65
454.992	2477.94
455.365	2517.72
455.739	2547.09
456.112	2569.01
456.486	2589.13
456.859	2606.98
457.232	2628.22
457.606	2654.44
457.979	2723.36
458.352	2742.8
458.725	2763.13
459.099	2820.53
459.472	2841.1
459.845	2840.65
460.218	2883.58
460.591	2903.02
460.964	2936.91
461.337	2940.53
461.71	3003.35
462.083	3059.85
462.456	3017.59
462.829	3060.3
463.201	3140.52
463.574	3133.29
463.947	3182.78
464.32	3218.94
464.692	3272.95
465.065	3279.96
465.438	3342.55
465.81	3326.96
466.183	3425.49
466.555	3438.14
466.928	3418.71
467.3	3438.82
467.672	3538.48
468.045	3604.92
468.417	3632.04
468.789	3630.46
469.161	3664.35
469.534	3708.19
469.906	3798.13
470.278	3846.04
470.65	3871.13
471.022	3909.32
471.394	3978.69
471.766	4006.94
472.138	4049.88
472.51	4098.92
472.882	4185.47
473.253	4201.74
473.625	4235.41
473.997	4312.25
474.369	4364.9
474.74	4391.79
475.112	4459.36
475.484	4529.64
475.855	4599.92
476.227	4636.98
476.598	4715.4
476.97	4754.27
477.341	4831.1
477.713	4897.09
478.084	4926.69
478.455	5081.72
478.827	5113.58
479.198	5184.31
479.569	5202.17
479.94	5339.56
480.311	5344.76
480.682	5399
481.053	5529.61
481.424	5595.15
481.795	5635.83
482.166	5747.69
482.537	5817.97
482.908	5868.59
483.279	5895.93
483.65	5990.85
484.021	6139.99
484.391	6147.45
484.762	6178.64
485.133	6235.81
485.503	6277.39
485.874	6409.59
486.244	6501.11
486.615	6572.52
486.985	6578.63
487.356	6670.83
487.726	6705.4
488.097	6793.76
488.467	6786.98
488.837	6942.68
489.207	6966.64
489.578	7085.73
489.948	7084.38
490.318	7191.27
490.688	7184.71
491.058	7278.27
491.428	7318.95
491.798	7365.27
492.168	7450.24
492.538	7534.31
492.908	7557.36
493.278	7594.64
493.648	7620.18
494.017	7692.72
494.387	7793.96
494.757	7793.96
495.126	7821.53
495.496	7852.49
495.866	7860.4
496.235	7955.77
496.605	7932.26
496.974	7987.85
497.344	8018.81
497.713	8098.13
498.082	8087.06
498.452	8158.25
498.821	8171.8
499.19	8169.55
499.559	8220.39
499.928	8291.8
500.298	8270.11
500.667	8378.58
501.036	8334.96
501.405	8324.34
501.774	8410.44
502.143	8405.25
502.512	8499.03
502.88	8515.52
503.249	8551.46
503.618	8533.15
503.987	8576.31
504.356	8598.01
504.724	8648.4
505.093	8640.49
505.462	8632.13
505.83	8722.3
506.199	8706.71
506.567	8834.16
506.936	8760.26
507.304	8845.46
507.672	8840.94
508.041	8888.85
508.409	8947.15
508.777	9041.84
509.145	9029.86
509.514	8992.12
509.882	9087.71
510.25	9098.11
510.618	9085
510.986	9105.34
511.354	9230.53
511.722	9217.43
512.09	9282.51
512.458	9286.35
512.826	9337.88
513.193	9358.67
513.561	9328.61
513.929	9384.2
514.297	9428.04
514.664	9475.73
515.032	9530.87
515.4	9581.03
515.767	9614.93
516.135	9630.07
516.502	9538.1
516.869	9675.27
517.237	9693.12
517.604	9689.28
517.972	9784.64
518.339	9842.72
518.706	9796.39
519.073	9870.74
519.44	9847.69
519.808	9910.06
520.175	9959.78
520.542	10027.35
520.909	10070.29
521.276	10022.83
521.643	10060.34
522.009	10157.06
522.376	10264.18
522.743	10203.16
523.11	10318.87
523.477	10349.6
523.843	10453.78
524.21	10484.29
524.577	10530.16
524.943	10549.37
525.31	10588.69
525.676	10601.8
526.043	10743.94
526.409	10773.77
526.776	10823.49
527.142	10821.45
527.508	10846.08
527.874	10983.71
528.241	10995.23
528.607	10988.23
528.973	11065.97
529.339	11071.39
529.705	11188.22
530.071	11251.95
530.437	11271.84
530.803	11363.59
531.169	11336.02
531.535	11280.88
531.901	11346.64
532.267	11450.36
532.632	11580.75
532.998	11586.18
533.364	11576.46
533.73	11571.26
534.095	11715.89
534.461	11702.79
534.826	11699.62
535.192	11858.26
535.557	11873.85
535.923	11800.86
536.288	11887.19
536.653	11975.32
537.019	11862.1
537.384	12071.59
537.749	12100.97
538.114	12057.13
538.479	12123.57
538.845	12150.46
539.21	12212.38
539.575	12138.25
539.94	12182.77
540.305	12289.21
540.67	12269.55
541.034	12315.88
541.399	12381.86
541.764	12367.85
542.129	12429.77
542.494	12510.45
542.858	12516.55
543.223	12557.23
543.587	12609.88
543.952	12586.6
544.316	12644.91
544.681	12599.49
545.045	12685.81
545.41	12742.98
545.774	12701.4
546.138	12750.44
546.503	12834.73
546.867	12816.88
547.231	12910.44
547.595	12923.09
547.959	12927.16
548.324	12915.18
548.688	12990.89
549.052	12970.55
549.416	13016.88
549.779	13011.23
550.143	13076.08
550.507	13071.79
550.871	13131.67
551.235	13155.18
551.599	13309.75
551.962	13306.13
552.326	13241.5
552.689	13354.49
553.053	13347.94
553.417	13238.34
553.78	13460.93
554.143	13504.09
554.507	13468.39
554.87	13414.38
555.234	13625.67
555.597	13545.9
555.96	13612.57
556.323	13634.49
556.686	13719.68
557.05	13691.66
557.413	13777.99
557.776	13777.99
558.139	13794.48
558.502	13850.07
558.865	13947.7
559.228	14029.28
559.59	14052.55
559.953	14025.66
560.316	14169.84
560.679	14202.38
561.041	14270.4
561.404	14145.89
561.767	14355.82
562.129	14280.8
562.492	14423.84
562.854	14390.4
563.217	14464.97
563.579	14461.58
563.941	14584.97
564.304	14670.84
564.666	14735.93
565.028	14737.06
565.39	14772.08
565.753	14857.73
566.115	14935.24
566.477	14961
566.839	15027.9
567.201	15135.92
567.563	15053.43
567.925	15201
568.287	15094.56
568.648	15230.38
569.01	15303.14
569.372	15441.22
569.734	15309.47
570.095	15493.19
570.457	15537.03
570.819	15509.69
571.18	15547.2
571.542	15710.36
571.903	15732.51
572.265	15732.51
572.626	15764.37
572.987	15877.59
573.349	15946.06
573.71	15968.44
574.071	16047.98
574.432	16065.83
574.794	16232.84
575.155	16217.7
575.516	16102.67
575.877	16251.14
576.238	16266.28
576.599	16358.03
576.96	16343.79
577.32	16379.05
577.681	16384.02
578.042	16471.02
578.403	16470.34
578.763	16417.92
579.124	16522.09
579.485	16601.64
579.845	16602.77
580.206	16597.8
580.566	16603
580.927	16671.47
581.287	16688.87
581.648	16616.1
582.008	16749.66
582.368	16689.1
582.728	16775.42
583.089	16714.18
583.449	16684.8
583.809	16891.8
584.169	16851.58
584.529	16805.7
584.889	16991.46
585.249	16766.61
585.609	16752.6
585.969	16922.08
586.329	16821.07
586.688	16942.65
587.048	16966.6
587.408	16878.69
587.768	16970.67
588.127	16970.44
588.487	16880.28
588.846	17068.75
589.206	16901.29
589.565	16947.62
589.925	17051.12
590.284	16899.03
590.643	17083.89
591.003	17132.25
591.362	17120.04
591.721	17055.87
592.08	17086.37
592.44	17083.43
592.799	17162.98
593.158	17076.43
593.517	17065.36
593.876	17158.01
594.235	17077.56
594.593	17110.1
594.952	17111.46
595.311	17129.54
595.67	17194.39
596.029	17224.45
596.387	17303.09
596.746	17320.49
597.104	17230.1
597.463	17256.76
597.822	17299.25
598.18	17248.63
598.538	17169.31
598.897	17315.75
599.255	17207.05
599.613	17466.93
599.972	17312.13
600.33	17312.36
600.688	17202.53
601.046	17283.43
601.404	17402.3
601.762	17412.69
602.12	17468.96
602.478	17392.35
602.836	17525.23
603.194	17316.88
603.552	17402.52
603.91	17377.89
604.268	17473.26
604.625	17426.7
604.983	17489.3
605.341	17416.08
605.698	17551.45
606.056	17550.54
606.413	17479.81
606.771	17613.59
607.128	17576.3
607.485	17483.42
607.843	17555.96
608.2	17616.08
608.557	17698.79
608.914	17616.75
609.272	17763.87
609.629	17782.4
609.986	17735.17
610.343	17741.27
610.7	17867.37
611.057	17756.41
611.414	17740.59
611.771	17809.52
612.127	17841.16
612.484	17858.1
612.841	17864.88
613.198	17917.76
613.554	17853.36
613.911	17967.93
614.267	17935.16
614.624	17890.65
614.98	18059.45
615.337	18058.1
615.693	18115.72
616.05	18017.87
616.406	18101.26
616.762	17964.77
617.118	18128.61
617.475	17984.43
617.831	18084.76
618.187	18088.38
618.543	18097.42
618.899	18319.79
619.255	18220.58
619.611	18220.35
619.967	18246.79
620.323	18233.01
620.678	18195.72
621.034	18248.6
621.39	18287.47
621.746	18240.24
622.101	18475.49
622.457	18345.32
622.812	18264.42
623.168	18402.95
623.523	18524.08
623.879	18394.36
624.234	18393.68
624.589	18446.34
624.945	18385.77
625.3	18515.26
625.655	18438.88
626.01	18479.33
626.365	18623.96
626.72	18546.22
627.075	18636.84
627.43	18569.27
627.785	18413.57
628.14	18498.54
628.495	18559.1
628.85	18589.16
629.205	18541.93
629.559	18671.64
629.914	18544.87
630.269	18585.54
630.623	18626.45
630.978	18510.74
631.332	18534.24
631.687	18672.09
632.041	18560.46
632.396	18581.93
632.75	18569.72
633.104	18609.5
633.459	18591.64
633.813	18601.36
634.167	18665.77
634.521	18545.54
634.875	18673.9
635.229	18665.09
635.583	18621.47
635.937	18627.58
636.291	18549.16
636.645	18614.24
636.999	18551.64
637.352	18689.95
637.706	18567.92
638.06	18697.4
638.413	18632.55
638.767	18607.01
639.121	18817.17
639.474	18589.61
639.828	18648.37
640.181	18707.8
640.534	18738.53
640.888	18697.86
641.241	18533.79
641.594	18734.69
641.947	18718.19
642.301	18621.25
642.654	18709.61
643.007	18698.76
643.36	18692.21
643.713	18712.77
644.066	18766.55
644.419	18666.44
644.771	18576.96
645.124	18378.77
645.477	18348.03
645.83	18233.69
646.182	18267.36
646.535	18235.5
646.888	18382.61
647.24	18272.33
647.593	18437.98
647.945	18492.44
648.298	18395.94
648.65	18400.91
649.002	18357.3
649.355	18450.18
649.707	18381.25
650.059	18526.11
650.411	18627.35
650.763	18704.86
651.115	18879.32
651.467	18863.05
651.819	18901.47
652.171	19053.33
652.523	18929.26
652.875	18890.17
653.227	18911.18
653.578	19092.87
653.93	19061.24
654.282	19023.95
654.633	19040.9
654.985	18972.88
655.337	19075.92
655.688	19005.87
656.039	19210.84
656.391	19012.65
656.742	18950.28
657.094	19086.77
657.445	19133.55
657.796	19119.09
658.147	19045.64
658.498	19070.5
658.849	19115.47
659.2	19038.19
659.551	19079.09
659.902	19125.64
660.253	19146.21
660.604	19121.57
660.955	19074.8
661.306	19145.08
661.656	19108.69
662.007	19114.12
662.358	19236.37
662.708	19129.93
663.059	19134.68
663.409	19056.26
663.76	19185.98
664.11	19188.46
664.461	19251.74
664.811	19165.64
665.161	19214
665.511	19104.62
665.862	19250.84
666.212	19184.17
666.562	19247.67
666.912	19147.11
667.262	19189.82
667.612	19136.71
667.962	19135.58
668.312	19104.85
668.662	19175.13
669.011	19165.19
669.361	19070.73
669.711	19164.96
670.06	19021.24
670.41	18937.17
670.76	19060.33
671.109	19089.26
671.459	19009.49
671.808	18874.8
672.157	18963.16
672.507	18834.58
672.856	18749.38
673.205	18838.87
673.554	18882.71
673.904	18720.68
674.253	18842.94
674.602	18734.47
674.951	18490.4
675.3	18411.31
675.649	18690.62
675.998	18597.29
676.346	18607.69
676.695	18649.95
677.044	18386
677.393	18506.67
677.741	18532.44
678.09	18515.26
678.438	18410.86
678.787	18408.15
679.135	18460.35
679.484	18320.01
679.832	18371.76
680.181	18280.47
680.529	18300.13
680.877	18291.76
681.225	18197.53
681.573	18131.99
681.922	18078.89
682.27	18065.33
682.618	18062.39
682.966	18010.19
683.314	17937.42
683.661	17980.59
684.009	17915.5
684.357	17862.4
684.705	17788.05
685.053	17901.49
685.4	17814.49
685.748	17782.4
686.095	17716.86
686.443	17670.76
686.79	17684.1
687.138	17711.89
687.485	17820.14
687.832	17605.68
688.18	17565.46
688.527	17549.19
688.874	17483.88
689.221	17529.75
689.568	17514.84
689.915	17415.63
690.262	17401.84
690.609	17361.17
690.956	17208.86
691.303	17338.12
691.65	17219.93
691.997	17279.81
692.344	17080.95
692.69	17120.27
693.037	17272.13
693.383	17131.34
693.73	17116.43
694.077	17020.39
694.423	16971.8
694.769	17006.37
695.116	16905.81
695.462	16923.89
695.808	16923.21
696.155	16874.63
696.501	16723.22
696.847	16846.38
697.193	16750.56
697.539	16848.19
697.885	16609.55
698.231	16680.96
698.577	16670.34
698.923	16712.15
699.269	16597.57
699.614	16550.34
699.96	16479.84
700.306	16559.15
700.651	16440.06
700.997	16492.26
701.342	16351.7
701.688	16410.23
702.033	16383.11
702.379	16320.07
702.724	16354.87
703.069	16384.02
703.415	16301.31
703.76	16322.1
704.105	16309.9
704.45	16227.64
704.795	16206.17
705.14	16129.34
705.485	16167.98
705.83	16004.82
706.175	16143.35
706.52	16101.99
706.865	16010.92
707.209	16057.02
707.554	15997.14
707.899	15951.94
708.243	15972.73
708.588	15956.23
708.932	15799.63
709.277	15855.22
709.621	15873.98
709.966	15828.55
710.31	15911.04
710.654	15770.25
710.998	15782.23
711.342	15784.03
711.687	15800.98
712.031	15720.98
712.375	15646.18
712.719	15746.52
713.063	15751.72
713.407	15772.73
713.75	15702.45
714.094	15695.67
714.438	15561.67
714.782	15631.5
715.125	15595.34
715.469	15605.51
715.812	15616.35
716.156	15544.04
716.499	15608.45
716.843	15584.04
717.186	15482.35
717.53	15542.91
717.873	15520.99
718.216	15542.23
718.559	15473.53
718.902	15365.74
719.246	15425.85
719.589	15372.75
719.932	15392.86
720.275	15349.24
720.617	15322.35
720.96	15333.2
721.303	15402.12
721.646	15339.53
721.989	15346.31
722.331	15367.1
722.674	15303.37
723.016	15357.15
723.359	15370.94
723.701	15343.37
724.044	15249.81
724.386	15200.55
724.729	15285.52
725.071	15298.4
725.413	15206.87
725.755	15282.8
726.097	15146.76
726.439	15182.92
726.782	15206.87
727.124	15192.19
727.465	15170.49
727.807	15279.19
728.149	15103.83
728.491	15129.36
728.833	15185.41
729.175	15169.59
729.516	15151.06
729.858	15096.14
730.199	15128.91
730.541	15037.61
730.882	15134.11
731.224	15191.96
731.565	15126.42
731.906	15199.42
732.248	15171.85
732.589	15061.79
732.93	15183.15
733.271	15179.53
733.612	15240.32
733.953	15149.7
734.294	15184.5
734.635	15095.24
734.976	15274.22
735.317	15175.91
735.658	15164.84
735.999	15224.27
736.339	15139.98
736.68	15305.4
737.021	15239.64
737.361	15156.71
737.702	15349.92
738.042	15349.92
738.383	15231.96
738.723	15446.42
739.063	15269.25
739.404	15393.08
739.744	15354.21
740.084	15250.04
740.424	15279.41
740.764	15306.98
741.104	15378.4
741.444	15328.68
741.784	15370.71
742.124	15400.09
742.464	15418.39
742.804	15528
743.143	15452.97
743.483	15473.08
743.823	15516.92
744.162	15543.81
744.502	15640.08
744.841	15480.54
745.181	15645.28
745.52	15692.51
745.86	15778.61
746.199	15741.1
746.538	15720.76
746.877	15797.14
747.216	15832.62
747.556	15845.05
747.895	15913.3
748.234	15912.84
748.573	15896.35
748.911	15939.74
749.25	15997.14
749.589	15925.27
749.928	16009.11
750.267	15992.16
750.605	16040.98
750.944	15987.19
751.283	16096.34
751.621	16135.89
751.96	16071.48
752.298	16078.26
752.636	16198.49
752.975	16166.17
753.313	16097.7
753.651	16293.17
753.989	16217.02
754.327	16205.94
754.666	16183.57
755.004	16186.51
755.342	16380.4
755.679	16337.69
