Data from blue_chair_FLMS001491_00016.txt Node
Date: Wed Feb 08 10:29:32 GMT 2017
User: dcchb
Spectrometer: FLMS00149
Trigger mode: 0
Integration Time (sec): 2.000000E-2
Scans to average: 10
Electric dark correction enabled: true
Nonlinearity correction enabled: false
Boxcar width: 0
XAxis mode: Wavelengths
Number of Pixels in Spectrum: 2048
>>>>>Begin Spectral Data<<<<<
341.393	-3.79
341.776	-3.79
342.16	-3.79
342.543	-46.95
342.927	-81.3
343.31	-72.03
343.693	-59.6
344.077	-64.12
344.46	-57.12
344.843	-61.18
345.226	-41.98
345.61	-18.93
345.993	-26.84
346.376	6.84
346.759	-7.85
347.142	39.15
347.525	35.76
347.908	77.34
348.291	66.72
348.674	92.71
349.057	91.13
349.44	105.82
349.823	123.67
350.206	157.57
350.588	170.9
350.971	186.04
351.354	175.65
351.737	205.47
352.119	217
352.502	244.12
352.884	250.45
353.267	247.06
353.65	278.02
354.032	283.66
354.414	289.77
354.797	285.7
355.179	298.13
355.562	295.19
355.944	286.6
356.326	312.59
356.709	294.74
357.091	291.57
357.473	312.14
357.855	320.27
358.238	294.06
358.62	295.64
359.002	313.27
359.384	319.14
359.766	315.53
360.148	326.6
360.53	302.65
360.912	313.49
361.294	310.78
361.676	301.74
362.057	285.7
362.439	309.43
362.821	308.52
363.203	306.49
363.584	293.83
363.966	333.16
364.348	303.78
364.729	282.53
365.111	302.42
365.493	304.23
365.874	305.59
366.256	268.3
366.637	281.41
367.019	257.45
367.4	277.79
367.781	282.31
368.163	291.57
368.544	285.92
368.925	281.86
369.306	289.99
369.688	283.89
370.069	292.48
370.45	292.25
370.831	284.79
371.212	287.51
371.593	260.84
371.974	281.41
372.355	275.98
372.736	279.37
373.117	268.52
373.498	261.29
373.879	265.81
374.26	292.48
374.641	280.5
375.021	285.02
375.402	280.05
375.783	287.51
376.163	282.99
376.544	288.18
376.925	291.57
377.305	286.6
377.686	268.3
378.066	281.41
378.447	284.12
378.827	282.53
379.208	295.64
379.588	298.81
379.968	290.44
380.349	292.7
380.729	290.9
381.109	304.68
381.489	308.52
381.87	281.41
382.25	295.19
382.63	285.7
383.01	284.57
383.39	282.31
383.77	319.37
384.15	293.16
384.53	285.92
384.91	307.39
385.29	315.53
385.67	301.52
386.049	304.23
386.429	310.33
386.809	287.73
387.189	282.31
387.568	308.52
387.948	295.42
388.328	313.95
388.707	300.39
389.087	310.33
389.466	318.47
389.846	327.73
390.225	312.36
390.605	295.64
390.984	308.52
391.363	308.3
391.743	309.43
392.122	289.09
392.501	308.3
392.881	348.97
393.26	314.85
393.639	306.72
394.018	327.96
394.397	320.5
394.776	311.23
395.155	346.04
395.534	314.85
395.913	326.83
396.292	315.98
396.671	314.17
397.05	323.66
397.429	318.69
397.808	323.66
398.186	296.77
398.565	321.63
398.944	331.57
399.323	323.44
399.701	320.05
400.08	334.74
400.458	331.35
400.837	345.36
401.215	332.03
401.594	347.17
401.972	321.63
402.351	346.49
402.729	339.26
403.107	356.21
403.486	366.15
403.864	332.93
404.242	344.68
404.62	347.84
404.999	362.76
405.377	369.31
405.755	354.85
406.133	352.14
406.511	364.11
406.889	351.91
407.267	353.27
407.645	383.78
408.023	362.76
408.401	372.93
408.779	357.79
409.156	371.12
409.534	390.55
409.912	361.18
410.29	359.14
410.667	347.62
411.045	395.3
411.422	391.23
411.8	372.25
412.178	391.01
412.555	389.88
412.933	401.18
413.31	400.05
413.687	381.74
414.065	382.19
414.442	409.31
414.819	416.99
415.197	393.94
415.574	423.32
415.951	398.92
416.328	412.25
416.705	400.27
417.082	415.64
417.46	393.04
417.837	415.86
418.214	392.59
418.591	429.65
418.967	438.46
419.344	393.94
419.721	421.74
420.098	410.22
420.475	417.9
420.852	411.8
421.228	434.4
421.605	426.26
421.982	432.14
422.358	456.09
422.735	438.69
423.111	473.72
423.488	457.9
423.864	442.98
424.241	468.29
424.617	459.48
424.994	456.09
425.37	462.42
425.746	460.84
426.123	462.19
426.499	459.71
426.875	461.97
427.251	480.95
427.627	496.77
428.003	501.51
428.379	501.96
428.756	503.09
429.132	477.78
429.507	480.72
429.883	496.99
430.259	493.15
430.635	518.01
431.011	486.6
431.387	534.28
431.763	514.39
432.138	529.53
432.514	516.2
432.89	506.03
433.265	536.54
433.641	546.03
434.016	559.59
434.392	546.71
434.767	554.62
435.143	564.34
435.518	561.62
435.894	569.08
436.269	577.89
436.644	591
437.02	598.91
437.395	594.62
437.77	622.86
438.145	599.59
438.52	612.02
438.895	643.43
439.271	616.09
439.646	627.84
440.021	636.88
440.395	634.16
440.77	670.77
441.145	647.5
441.52	672.81
441.895	672.58
442.27	667.84
442.645	682.3
443.019	682.07
443.394	677.78
443.769	681.17
444.143	688.85
444.518	690.66
444.892	700.15
445.267	706.93
445.641	712.81
446.016	736.53
446.39	685.01
446.764	697.21
447.139	734.27
447.513	740.15
447.887	748.96
448.262	744.22
448.636	733.6
449.01	743.09
449.384	755.52
449.758	750.09
450.132	755.74
450.506	761.62
450.88	776.53
451.254	774.73
451.628	769.75
452.002	798.91
452.376	785.12
452.75	778.57
453.123	802.3
453.497	822.63
453.871	819.02
454.244	832.35
454.618	844.1
454.992	835.97
455.365	825.8
455.739	832.58
456.112	855.4
456.486	844.33
456.859	867.15
457.232	877.77
457.606	891.78
457.979	891.11
458.352	872.35
458.725	910.99
459.099	902.86
459.472	920.26
459.845	927.94
460.218	930.43
460.591	942.86
460.964	942.18
461.337	954.83
461.71	948.73
462.083	960.26
462.456	983.76
462.829	989.63
463.201	980.6
463.574	993.25
463.947	1000.93
464.32	991.22
464.692	1014.72
465.065	1029.86
465.438	1036.19
465.81	1039.13
466.183	1047.26
466.555	1058.56
466.928	1038.9
467.3	1066.7
467.672	1072.12
468.045	1098.11
468.417	1089.29
468.789	1110.99
469.161	1091.33
469.534	1120.93
469.906	1134.49
470.278	1130.42
470.65	1133.59
471.022	1145.56
471.394	1165.22
471.766	1166.13
472.138	1152.12
472.51	1182.17
472.882	1204.32
473.253	1188.73
473.625	1216.07
473.997	1224.43
474.369	1219.69
474.74	1229.63
475.112	1268.5
475.484	1301.27
475.855	1300.81
476.227	1291.32
476.598	1302.62
476.97	1311.66
477.341	1363.64
477.713	1380.81
478.084	1374.94
478.455	1407.25
478.827	1384.88
479.198	1421.26
479.569	1409.28
479.94	1433.24
480.311	1445.22
480.682	1449.74
481.053	1507.59
481.424	1516.85
481.795	1518.66
482.166	1483.18
482.537	1531.54
482.908	1534.93
483.279	1541.03
483.65	1562.73
484.021	1576.74
484.391	1609.28
484.762	1611.77
485.133	1627.13
485.503	1605.44
485.874	1625.32
486.244	1665.55
486.615	1661.26
486.985	1694.02
487.356	1723.63
487.726	1679.33
488.097	1704.42
488.467	1710.29
488.837	1667.13
489.207	1738.54
489.578	1735.83
489.948	1715.49
490.318	1731.08
490.688	1750.29
491.058	1776.73
491.428	1785.32
491.798	1803.4
492.168	1754.81
492.538	1793.91
492.908	1803.17
493.278	1795.49
493.648	1797.3
494.017	1796.62
494.387	1840.01
494.757	1821.25
495.126	1831.87
495.496	1863.28
495.866	1821.93
496.235	1816.05
496.605	1835.71
496.974	1854.47
497.344	1871.87
497.713	1862.38
498.082	1832.78
498.452	1875.04
498.821	1841.36
499.19	1872.32
499.559	1820.12
499.928	1862.83
500.298	1811.76
500.667	1836.84
501.036	1845.21
501.405	1873.91
501.774	1834.81
502.143	1876.84
502.512	1820.35
502.88	1840.46
503.249	1844.98
503.618	1857.41
503.987	1862.83
504.356	1858.09
504.724	1840.46
505.093	1840.01
505.462	1814.47
505.83	1831.87
506.199	1835.04
506.567	1843.17
506.936	1827.13
507.304	1867.35
507.672	1822.61
508.041	1826.68
508.409	1837.3
508.777	1851.76
509.145	1857.18
509.514	1849.73
509.882	1851.53
510.25	1839.1
510.618	1834.81
510.986	1827.13
511.354	1849.73
511.722	1853.57
512.09	1852.44
512.458	1800.24
512.826	1815.83
513.193	1823.96
513.561	1790.97
513.929	1822.38
514.297	1838.65
514.664	1813.12
515.032	1831.19
515.4	1844.75
515.767	1820.35
516.135	1810.63
516.502	1771.99
516.869	1825.32
517.237	1813.12
517.604	1768.82
517.972	1776.96
518.339	1814.25
518.706	1759.11
519.073	1762.72
519.44	1796.39
519.808	1806.79
520.175	1795.72
520.542	1748.49
520.909	1762.95
521.276	1775.38
521.643	1740.35
522.009	1790.07
522.376	1776.51
522.743	1738.32
523.11	1735.83
523.477	1778.31
523.843	1795.26
524.21	1790.52
524.577	1782.16
524.943	1774.47
525.31	1738.99
525.676	1762.72
526.043	1754.59
526.409	1767.47
526.776	1748.03
527.142	1767.02
527.508	1769.73
527.874	1747.13
528.241	1750.52
528.607	1744.64
528.973	1774.02
529.339	1750.52
529.705	1774.02
530.071	1778.09
530.437	1758.43
530.803	1753.91
531.169	1737.41
531.535	1747.36
531.901	1764.98
532.267	1727.02
532.632	1746.23
532.998	1782.61
533.364	1772.21
533.73	1768.6
534.095	1777.64
534.461	1752.78
534.826	1766.11
535.192	1757.98
535.557	1766.79
535.923	1727.02
536.288	1741.71
536.653	1756.17
537.019	1725.89
537.384	1742.38
537.749	1716.17
538.114	1734.25
538.479	1705.55
538.845	1724.53
539.21	1711.65
539.575	1700.58
539.94	1710.97
540.305	1701.71
540.67	1704.64
541.034	1690.41
541.399	1684.53
541.764	1682.05
542.129	1689.05
542.494	1688.15
542.858	1686.11
543.223	1718.66
543.587	1680.92
543.952	1670.75
544.316	1666.45
544.681	1686.57
545.045	1675.72
545.41	1691.09
545.774	1672.1
546.138	1687.47
546.503	1676.62
546.867	1683.85
547.231	1678.66
547.595	1659.22
547.959	1671.88
548.324	1644.76
548.688	1636.17
549.052	1661.71
549.416	1657.87
549.779	1634.36
550.143	1666.45
550.507	1638.43
550.871	1606.79
551.235	1635.49
551.599	1676.4
551.962	1627.58
552.326	1642.73
552.689	1626.91
553.053	1619
553.417	1598.88
553.78	1628.94
554.143	1587.36
554.507	1619
554.87	1609.05
555.234	1614.25
555.597	1617.42
555.96	1599.34
556.323	1596.85
556.686	1597.3
557.05	1626.45
557.413	1581.48
557.776	1620.35
558.139	1592.11
558.502	1615.83
558.865	1596.85
559.228	1600.24
559.59	1589.62
559.953	1597.3
560.316	1651.09
560.679	1597.53
561.041	1644.31
561.404	1614.03
561.767	1603.4
562.129	1617.19
562.492	1628.71
562.854	1623.97
563.217	1600.69
563.579	1607.47
563.941	1605.21
564.304	1607.47
564.666	1605.66
565.028	1613.12
565.39	1608.15
565.753	1609.05
566.115	1628.49
566.477	1626.23
566.839	1637.08
567.201	1657.41
567.563	1666.45
567.925	1624.42
568.287	1635.49
568.648	1629.17
569.01	1655.61
569.372	1642.5
569.734	1663.29
570.095	1675.04
570.457	1668.94
570.819	1686.11
571.18	1672.55
571.542	1668.71
571.903	1666.23
572.265	1666.91
572.626	1706.23
572.987	1684.31
573.349	1686.57
573.71	1682.95
574.071	1700.35
574.432	1694.02
574.794	1717.07
575.155	1713.46
575.516	1714.36
575.877	1701.25
576.238	1726.34
576.599	1719.11
576.96	1688.6
577.32	1713.68
577.681	1732.21
578.042	1739.22
578.403	1729.05
578.763	1751.2
579.124	1733.12
579.485	1755.26
579.845	1733.8
580.206	1773.34
580.566	1704.42
580.927	1720.24
581.287	1762.5
581.648	1750.29
582.008	1776.96
582.368	1771.08
582.728	1755.72
583.089	1753.23
583.449	1732.44
583.809	1766.79
584.169	1752.55
584.529	1796.39
584.889	1783.51
585.249	1758.2
585.609	1738.32
585.969	1750.07
586.329	1775.38
586.688	1776.28
587.048	1783.29
587.408	1804.3
587.768	1798.65
588.127	1786.68
588.487	1771.08
588.846	1807.01
589.206	1739.22
589.565	1784.64
589.925	1772.44
590.284	1797.07
590.643	1760.91
591.003	1788.26
591.362	1759.33
591.721	1753
592.08	1782.38
592.44	1762.5
592.799	1801.14
593.158	1803.62
593.517	1818.54
593.876	1771.31
594.235	1795.26
594.593	1789.39
594.952	1796.85
595.311	1796.17
595.67	1786.9
596.029	1785.09
596.387	1775.15
596.746	1768.37
597.104	1778.09
597.463	1760.01
597.822	1775.15
598.18	1792.1
598.538	1753.91
598.897	1803.4
599.255	1768.82
599.613	1792.33
599.972	1792.1
600.33	1796.17
600.688	1762.95
601.046	1789.84
601.404	1790.74
601.762	1757.3
602.12	1794.59
602.478	1782.38
602.836	1737.19
603.194	1760.46
603.552	1782.83
603.91	1768.6
604.268	1785.09
604.625	1784.87
604.983	1762.04
605.341	1760.69
605.698	1781.25
606.056	1787.58
606.413	1764.76
606.771	1781.48
607.128	1770.63
607.485	1760.91
607.843	1768.6
608.2	1782.38
608.557	1792.1
608.914	1795.72
609.272	1798.88
609.629	1810.86
609.986	1810.86
610.343	1790.07
610.7	1803.17
611.057	1786
611.414	1769.05
611.771	1769.28
612.127	1794.13
612.484	1789.61
612.841	1799.56
613.198	1797.07
613.554	1794.81
613.911	1807.69
614.267	1847.24
614.624	1790.07
614.98	1803.17
615.337	1828.93
615.693	1821.25
616.05	1793
616.406	1803.4
616.762	1818.77
617.118	1804.98
617.475	1819.9
617.831	1806.34
618.187	1820.35
618.543	1793.46
618.899	1802.04
619.255	1831.19
619.611	1828.26
619.967	1817.86
620.323	1788.26
620.678	1813.34
621.034	1814.92
621.39	1825.32
621.746	1806.56
622.101	1803.4
622.457	1804.98
622.812	1802.49
623.168	1791.42
623.523	1829.16
623.879	1865.09
624.234	1804.98
624.589	1789.16
624.945	1818.99
625.3	1842.95
625.655	1817.64
626.01	1815.15
626.365	1825.32
626.72	1840.69
627.075	1850.86
627.43	1849.05
627.785	1839.56
628.14	1834.13
628.495	1843.17
628.85	1842.95
629.205	1843.62
629.559	1806.56
629.914	1869.61
630.269	1813.34
630.623	1813.79
630.978	1851.08
631.332	1814.02
631.687	1817.18
632.041	1832.78
632.396	1817.64
632.75	1835.94
633.104	1817.41
633.459	1804.3
633.813	1790.52
634.167	1823.74
634.521	1842.72
634.875	1836.84
635.229	1823.51
635.583	1824.42
635.937	1822.83
636.291	1820.57
636.645	1828.03
636.999	1844.98
637.352	1799.78
637.706	1803.4
638.06	1818.31
638.413	1813.79
638.767	1803.85
639.121	1827.13
639.474	1813.57
639.828	1815.83
640.181	1852.21
640.534	1832.1
640.888	1829.61
641.241	1810.86
641.594	1825.32
641.947	1822.38
642.301	1828.26
642.654	1815.83
643.007	1820.8
643.36	1826.22
643.713	1787.13
644.066	1811.31
644.419	1835.49
644.771	1778.54
645.124	1783.96
645.477	1779.67
645.83	1784.42
646.182	1760.01
646.535	1779.9
646.888	1782.83
647.24	1775.6
647.593	1769.73
647.945	1794.13
648.298	1808.37
648.65	1789.61
649.002	1798.2
649.355	1811.99
649.707	1812.89
650.059	1797.3
650.411	1817.86
650.763	1806.34
651.115	1853.79
651.467	1833
651.819	1857.63
652.171	1832.1
652.523	1816.51
652.875	1854.7
653.227	1821.7
653.578	1829.16
653.93	1863.06
654.282	1842.04
654.633	1831.65
654.985	1837.07
655.337	1846.56
655.688	1854.47
656.039	1862.83
656.391	1845.43
656.742	1834.13
657.094	1843.62
657.445	1842.49
657.796	1863.51
658.147	1881.59
658.498	1837.07
658.849	1842.27
659.2	1837.97
659.551	1857.41
659.902	1863.96
660.253	1851.53
660.604	1853.34
660.955	1858.09
661.306	1874.81
661.656	1851.08
662.007	1871.65
662.358	1843.4
662.708	1885.43
663.059	1865.77
663.409	1842.95
663.76	1881.14
664.11	1893.57
664.461	1886.56
664.811	1866
665.161	1855.15
665.511	1847.69
665.862	1856.28
666.212	1891.08
666.562	1868.03
666.912	1864.64
667.262	1851.76
667.612	1831.42
667.962	1858.99
668.312	1816.96
668.662	1850.4
669.011	1868.71
669.361	1839.1
669.711	1861.7
670.06	1871.87
670.41	1829.16
670.76	1866.22
671.109	1847.69
671.459	1853.34
671.808	1844.75
672.157	1862.83
672.507	1851.08
672.856	1822.83
673.205	1849.5
673.554	1845.66
673.904	1865.54
674.253	1855.83
674.602	1810.4
674.951	1825.09
675.3	1807.92
675.649	1826.22
675.998	1807.92
676.346	1817.41
676.695	1833
677.044	1840.46
677.393	1829.16
677.741	1845.88
678.09	1830.52
678.438	1851.76
678.787	1807.24
679.135	1821.25
679.484	1815.83
679.832	1807.24
680.181	1807.92
680.529	1797.3
680.877	1773.8
681.225	1793
681.573	1809.5
681.922	1793
682.27	1746
682.618	1756.17
682.966	1765.43
683.314	1755.04
683.661	1770.41
684.009	1743.74
684.357	1762.27
684.705	1759.11
685.053	1747.81
685.4	1754.81
685.748	1737.86
686.095	1724.3
686.443	1748.49
686.79	1754.81
687.138	1752.55
687.485	1725.21
687.832	1703.74
688.18	1715.27
688.527	1709.39
688.874	1756.39
689.221	1725.66
689.568	1742.16
689.915	1705.77
690.262	1710.29
690.609	1682.27
690.956	1690.41
691.303	1709.62
691.65	1705.77
691.997	1722.95
692.344	1701.71
692.69	1662.84
693.037	1664.42
693.383	1640.24
693.73	1677.3
694.077	1665.1
694.423	1647.24
694.769	1680.69
695.116	1670.3
695.462	1665.1
695.808	1639.56
696.155	1621.71
696.501	1644.98
696.847	1645.21
697.193	1617.42
697.539	1642.05
697.885	1606.79
698.231	1602.05
698.577	1629.39
698.923	1610.64
699.269	1619.45
699.614	1591.43
699.96	1597.98
700.306	1601.82
700.651	1588.49
700.997	1574.25
701.342	1600.01
701.688	1566.79
702.033	1593.01
702.379	1577.64
702.724	1565.44
703.069	1578.55
703.415	1564.76
703.76	1537.87
704.105	1578.55
704.45	1569.51
704.795	1548.26
705.14	1554.59
705.485	1571.09
705.83	1549.39
706.175	1571.99
706.52	1579
706.865	1544.2
707.209	1543.52
707.554	1583.29
707.899	1555.27
708.243	1532.45
708.588	1534.71
708.932	1548.94
709.277	1571.09
709.621	1558.21
709.966	1566.34
710.31	1513.69
710.654	1544.42
710.998	1550.98
711.342	1583.74
711.687	1561.6
712.031	1550.98
712.375	1551.65
712.719	1547.59
713.063	1559.11
713.407	1572.67
713.75	1528.83
714.094	1566.79
714.438	1551.43
714.782	1587.81
715.125	1545.55
715.469	1556.4
715.812	1564.99
716.156	1534.71
716.499	1589.17
716.843	1552.78
717.186	1540.81
717.53	1550.52
717.873	1572.44
718.216	1522.05
718.559	1556.63
718.902	1567.02
719.246	1592.78
719.589	1580.58
719.932	1586.46
720.275	1586.91
720.617	1588.26
720.96	1591.65
721.303	1563.63
721.646	1543.52
721.989	1593.23
722.331	1590.3
722.674	1611.77
723.016	1593.23
723.359	1639.56
723.701	1620.8
724.044	1611.99
724.386	1608.6
724.729	1624.19
725.071	1625.55
725.413	1642.27
725.755	1637.75
726.097	1631.88
726.439	1658.77
726.782	1638.66
727.124	1656.06
727.465	1658.32
727.807	1654.25
728.149	1645.66
728.491	1680.69
728.833	1670.3
729.175	1669.62
729.516	1669.39
729.858	1710.75
730.199	1692.67
730.541	1689.5
730.882	1718.43
731.224	1722.05
731.565	1726.79
731.906	1728.6
732.248	1698.77
732.589	1727.92
732.93	1753
733.271	1742.38
733.612	1769.95
733.953	1779.22
734.294	1794.81
734.635	1799.11
734.976	1777.64
735.317	1766.56
735.658	1784.42
735.999	1808.14
736.339	1794.59
736.68	1836.39
737.021	1813.34
737.361	1825.32
737.702	1856.28
738.042	1851.08
738.383	1880.23
738.723	1887.92
739.063	1902.61
739.404	1886.33
739.744	1893.57
740.084	1931.98
740.424	1957.52
740.764	1976.73
741.104	1995.94
741.444	1985.09
741.784	2006.78
742.124	2017.86
742.464	2062.15
742.804	2041.81
743.143	2068.02
743.483	2097.4
743.823	2093.56
744.162	2123.39
744.502	2158.42
744.841	2148.7
745.181	2184.41
745.52	2173.78
745.86	2235.7
746.199	2254.91
746.538	2297.85
746.877	2283.16
747.216	2338.3
747.556	2375.59
747.895	2381.69
748.234	2420.33
748.573	2446.32
748.911	2480.9
749.25	2510.95
749.589	2563.83
749.928	2611.29
750.267	2581.91
750.605	2640.44
750.944	2670.72
751.283	2698.97
751.621	2769.02
751.96	2789.59
752.298	2823.94
752.636	2919.3
752.975	2903.93
753.313	2982.8
753.651	3001.11
753.989	3079.52
754.327	3137.6
754.666	3167.2
755.004	3208.56
755.342	3286.3
755.679	3344.83
756.017	3355.22
756.355	3450.59
756.693	3501.21
757.031	3542.56
757.368	3566.29
757.706	3630.7
758.044	3685.16
758.381	3783.69
758.719	3820.97
759.056	3877.69
759.394	3906.85
759.731	3942.33
760.068	4087.41
760.405	4050.57
760.743	4131.7
761.08	4211.02
761.417	4264.58
761.754	4351.81
762.091	4411.92
762.428	4438.58
762.765	4460.96
763.102	4600.61
763.438	4609.88
763.775	4628.41
764.112	4725.36
764.449	4825.92
764.785	4801.74
765.122	4858.46
765.458	4909.98
765.795	4982.52
766.131	5015.52
766.467	5074.27
766.804	5088.96
767.14	5196.53
767.476	5207.6
767.812	5308.84
768.148	5328.28
768.485	5352.46
768.821	5423.87
769.157	5459.35
769.492	5503.87
769.828	5554.71
770.164	5547.71
770.5	5577.54
770.836	5605.33
771.171	5654.37
771.507	5635.16
771.842	5696.63
