Data from blue_surface_keyboard_FLMS001491_090.txt Node
Date: Tue Feb 07 11:13:47 GMT 2017
User: dcchb
Spectrometer: FLMS00149
Trigger mode: 0
Integration Time (sec): 2.000000E-2
Scans to average: 10
Electric dark correction enabled: true
Nonlinearity correction enabled: false
Boxcar width: 0
XAxis mode: Wavelengths
Number of Pixels in Spectrum: 2048
>>>>>Begin Spectral Data<<<<<
341.393	-12.17
341.776	-12.17
342.16	-12.17
342.543	-56.47
342.927	-59.63
343.31	-80.42
343.693	-61.21
344.077	-74.09
344.46	-59.18
344.843	-60.08
345.226	-46.98
345.61	-19.86
345.993	-18.28
346.376	-3.81
346.759	24.66
347.142	20.14
347.525	36.86
347.908	54.94
348.291	75.73
348.674	88.16
349.057	123.41
349.44	123.87
349.823	141.49
350.206	163.19
350.588	188.72
350.971	181.49
351.354	210.19
351.737	216.07
352.119	220.59
352.502	223.98
352.884	263.3
353.267	271.66
353.65	250.64
354.032	284.54
354.414	278.89
354.797	287.93
355.179	296.97
355.562	297.65
355.944	308.49
356.326	317.08
356.709	332
357.091	328.61
357.473	297.87
357.855	324.54
358.238	333.35
358.62	315.27
359.002	325.44
359.384	327.25
359.766	327.93
360.148	314.14
360.53	297.87
360.912	327.7
361.294	319.12
361.676	289.96
362.057	319.34
362.439	296.29
362.821	299.46
363.203	309.17
363.584	302.39
363.966	290.64
364.348	321.83
364.729	306.91
365.111	296.29
365.493	306.91
365.874	297.87
366.256	296.52
366.637	299.23
367.019	292.9
367.4	290.42
367.781	287.03
368.163	301.72
368.544	286.8
368.925	279.12
369.306	286.12
369.688	295.39
370.069	294.71
370.45	299.68
370.831	285.67
371.212	297.2
371.593	291.09
371.974	280.7
372.355	282.51
372.736	298.1
373.117	296.74
373.498	278.44
373.879	270.08
374.26	282.73
374.641	283.86
375.021	309.85
375.402	281.83
375.783	289.29
376.163	302.17
376.544	307.82
376.925	303.07
377.305	277.08
377.686	287.03
378.066	288.61
378.447	295.16
378.827	296.74
379.208	284.31
379.588	299.23
379.968	315.27
380.349	309.85
380.729	310.08
381.109	310.08
381.489	310.08
381.87	294.94
382.25	314.37
382.63	314.37
383.01	299
383.39	300.36
383.77	288.61
384.15	306.23
384.53	321.6
384.91	308.27
385.29	303.75
385.67	307.36
386.049	289.06
386.429	308.04
386.809	319.34
387.189	302.39
387.568	315.95
387.948	309.4
388.328	317.53
388.707	309.17
389.087	312.56
389.466	334.48
389.846	311.88
390.225	300.13
390.605	308.27
390.984	334.48
391.363	320.7
391.743	324.77
392.122	307.14
392.501	343.75
392.881	335.16
393.26	335.39
393.639	321.38
394.018	326.35
394.397	327.25
394.776	338.55
395.155	329.96
395.534	322.28
395.913	342.17
396.292	338.78
396.671	348.49
397.05	324.31
397.429	332.45
397.808	347.59
398.186	323.41
398.565	332.67
398.944	331.54
399.323	335.16
399.701	341.26
400.08	346.69
400.458	341.71
400.837	329.74
401.215	339.68
401.594	351.21
401.972	337.65
402.351	358.44
402.729	350.08
403.107	362.28
403.486	342.84
403.864	351.43
404.242	356.86
404.62	333.13
404.999	345.1
405.377	346.69
405.755	354.6
406.133	327.93
406.511	352.34
406.889	374.26
407.267	345.78
407.645	356.86
408.023	362.28
408.401	356.18
408.779	331.32
409.156	350.75
409.534	377.42
409.912	368.61
410.29	381.04
410.667	394.59
411.045	366.57
411.422	365.22
411.8	392.79
412.178	362.28
412.555	364.09
412.933	376.52
413.31	371.32
413.687	370.19
414.065	386.46
414.442	374.03
414.819	386.46
415.197	387.36
415.574	381.94
415.951	380.36
416.328	398.66
416.705	391.2
417.082	390.53
417.46	398.21
417.837	379
418.214	410.86
418.591	400.24
418.967	390.3
419.344	402.28
419.721	389.85
420.098	404.76
420.475	407.7
420.852	427.59
421.228	422.39
421.605	417.42
421.982	413.58
422.358	407.02
422.735	400.24
423.111	438.66
423.488	416.97
423.864	431.2
424.241	453.8
424.617	416.51
424.994	410.41
425.37	430.75
425.746	419.68
426.123	438.66
426.499	429.62
426.875	421.71
427.251	430.53
427.627	416.97
428.003	433.69
428.379	425.1
428.756	434.59
429.132	446.12
429.507	435.5
429.883	441.6
430.259	471.65
430.635	456.74
431.011	434.59
431.387	432.56
431.763	469.39
432.138	473.24
432.514	481.37
432.89	455.84
433.265	481.15
433.641	467.13
434.016	475.27
434.392	460.13
434.767	463.74
435.143	477.76
435.518	478.89
435.894	487.47
436.269	492.67
436.644	480.24
437.02	495.16
437.395	490.86
437.77	490.18
438.145	509.39
438.52	498.09
438.895	510.07
439.271	495.83
439.646	503.52
440.021	497.87
440.395	527.02
440.77	525.44
441.145	504.2
441.52	517.53
441.895	505.33
442.27	515.95
442.645	526.12
443.019	534.7
443.394	524.31
443.769	530.18
444.143	557.3
444.518	523.63
444.892	534.48
445.267	550.3
445.641	540.35
446.016	545.78
446.39	546.91
446.764	550.75
447.139	544.42
447.513	551.2
447.887	535.83
448.262	535.83
448.636	564.76
449.01	553.69
449.384	560.24
449.758	566.12
450.132	581.26
450.506	559.79
450.88	562.05
451.254	555.27
451.628	565.89
452.002	560.24
452.376	555.27
452.75	593.91
453.123	602.95
453.497	595.27
453.871	601.37
454.244	617.64
454.618	622.84
454.992	613.12
455.365	594.14
455.739	618.32
456.112	600.01
456.486	624.42
456.859	627.58
457.232	621.03
457.606	614.93
457.979	633.91
458.352	633.01
458.725	655.6
459.099	642.95
459.472	654.02
459.845	665.32
460.218	631.2
460.591	659.67
460.964	678.2
461.337	677.98
461.71	666.68
462.083	674.81
462.456	677.07
462.829	678.65
463.201	683.17
463.574	683.63
463.947	667.36
464.32	723.85
464.692	700.8
465.065	713.23
465.438	694.7
465.81	724.3
466.183	708.94
466.555	745.32
466.928	732.89
467.3	736.51
467.672	753
468.045	755.71
468.417	746.45
468.789	767.01
469.161	761.59
469.534	739.9
469.906	773.34
470.278	776.05
470.65	789.39
471.022	786.45
471.394	830.74
471.766	790.06
472.138	803.4
472.51	820.12
472.882	822.83
473.253	837.07
473.625	850.63
473.997	848.59
474.369	857.86
474.74	837.29
475.112	850.4
475.484	876.16
475.855	890.17
476.227	875.49
476.598	877.97
476.97	906.45
477.341	930.4
477.713	913
478.084	914.13
478.455	953.45
478.827	965.43
479.198	962.49
479.569	949.38
479.94	993.9
480.311	987.12
480.682	1024.18
481.053	1026.44
481.424	1003.39
481.795	1035.93
482.166	1033.45
482.537	1046.1
482.908	1048.14
483.279	1089.04
483.65	1087.01
484.021	1093.11
484.391	1094.69
484.762	1097.17
485.133	1111.19
485.503	1117.74
485.874	1129.94
486.244	1134.69
486.615	1136.04
486.985	1162.26
487.356	1152.77
487.726	1155.03
488.097	1198.41
488.467	1179.21
488.837	1201.35
489.207	1207.45
489.578	1224.18
489.948	1224.63
490.318	1258.75
490.688	1232.54
491.058	1234.12
491.428	1267.57
491.798	1252.88
492.168	1278.64
492.538	1252.42
492.908	1282.25
493.278	1291.07
493.648	1277.51
494.017	1294.46
494.387	1291.07
494.757	1308.02
495.126	1331.07
495.496	1337.62
495.866	1314.12
496.235	1325.42
496.605	1334.23
496.974	1352.76
497.344	1344.85
497.713	1331.07
498.082	1342.82
498.452	1372.2
498.821	1394.79
499.19	1361.57
499.559	1352.76
499.928	1369.71
500.298	1393.89
500.667	1396.6
501.036	1386.88
501.405	1381.69
501.774	1388.01
502.143	1389.6
502.512	1389.14
502.88	1399.31
503.249	1412.19
503.618	1406.32
503.987	1403.83
504.356	1417.84
504.724	1405.64
505.093	1398.86
505.462	1411.74
505.83	1437.05
506.199	1437.96
506.567	1420.56
506.936	1464.17
507.304	1444.06
507.672	1468.24
508.041	1464.4
508.409	1470.27
508.777	1462.81
509.145	1469.14
509.514	1433.89
509.882	1467.33
510.25	1465.53
510.618	1453.55
510.986	1458.75
511.354	1476.83
511.722	1475.47
512.09	1509.82
512.458	1496.49
512.826	1503.72
513.193	1484.96
513.561	1505.07
513.929	1487.9
514.297	1483.38
514.664	1539.87
515.032	1508.92
515.4	1540.78
515.767	1496.03
516.135	1515.92
516.502	1490.84
516.869	1548.24
517.237	1507.79
517.604	1552.53
517.972	1529.71
518.339	1545.98
518.706	1533.1
519.073	1526.09
519.44	1521.12
519.808	1538.07
520.175	1552.3
520.542	1566.99
520.909	1564.73
521.276	1536.03
521.643	1572.64
522.009	1596.6
522.376	1570.61
522.743	1577.61
523.11	1588.24
523.477	1598.4
523.843	1599.31
524.21	1598.63
524.577	1614.9
524.943	1582.36
525.31	1612.42
525.676	1626.2
526.043	1640.89
526.409	1630.72
526.776	1637.73
527.142	1622.81
527.508	1644.5
527.874	1629.14
528.241	1658.06
528.607	1622.58
528.973	1624.17
529.339	1658.06
529.705	1663.71
530.071	1649.7
530.437	1667.33
530.803	1699.19
531.169	1675.46
531.535	1685.86
531.901	1666.65
532.267	1678.4
532.632	1679.98
532.998	1681.34
533.364	1691.28
533.73	1692.87
534.095	1662.81
534.461	1714.33
534.826	1689.02
535.192	1687.89
535.557	1698.51
535.923	1701.45
536.288	1715.01
536.653	1687.67
537.019	1702.36
537.384	1703.26
537.749	1691.96
538.114	1712.53
538.479	1687.67
538.845	1724.28
539.21	1677.95
539.575	1709.59
539.94	1705.07
540.305	1719.76
540.67	1711.85
541.034	1738.74
541.399	1705.29
541.764	1724.28
542.129	1705.52
542.494	1746.2
542.858	1710.27
543.223	1722.92
543.587	1726.31
543.952	1706.2
544.316	1733.09
544.681	1703.26
545.045	1701
545.41	1729.02
545.774	1740.1
546.138	1731.51
546.503	1744.16
546.867	1727.89
547.231	1744.62
547.595	1711.62
547.959	1705.75
548.324	1723.82
548.688	1749.36
549.052	1732.41
549.416	1697.84
549.779	1730.15
550.143	1733.32
550.507	1750.94
550.871	1778.74
551.235	1728.34
551.599	1755.69
551.962	1754.33
552.326	1742.81
552.689	1755.24
553.053	1764.95
553.417	1735.8
553.78	1758.63
554.143	1755.91
554.507	1745.97
554.87	1733.99
555.234	1765.63
555.597	1754.33
555.96	1764.73
556.323	1770.6
556.686	1764.05
557.05	1750.72
557.413	1774.44
557.776	1789.81
558.139	1774.67
558.502	1784.39
558.865	1776.25
559.228	1782.35
559.59	1797.04
559.953	1773.31
560.316	1747.55
560.679	1799.98
561.041	1828.68
561.404	1778.51
561.767	1815.12
562.129	1824.39
562.492	1801.56
562.854	1792.07
563.217	1815.57
563.579	1808.79
563.941	1804.05
564.304	1820.32
564.666	1844.05
565.028	1836.59
565.39	1830.94
565.753	1818.96
566.115	1820.32
566.477	1847.44
566.839	1826.19
567.201	1846.08
567.563	1839.75
567.925	1821.45
568.287	1851.05
568.648	1855.8
569.01	1855.35
569.372	1855.35
569.734	1827.78
570.095	1842.24
570.457	1898.06
570.819	1865.97
571.18	1850.83
571.542	1876.82
571.903	1852.18
572.265	1882.01
572.626	1868.23
572.987	1889.02
573.349	1866.65
573.71	1894.22
574.071	1914.33
574.432	1896.48
574.794	1926.08
575.155	1897.61
575.516	1888.11
575.877	1906.42
576.238	1895.8
576.599	1864.39
576.96	1911.16
577.32	1899.19
577.681	1929.7
578.042	1928.79
578.403	1932.18
578.763	1913.65
579.124	1931.05
579.485	1915.68
579.845	1925.85
580.206	1904.38
580.566	1931.95
580.927	1906.87
581.287	1927.44
581.648	1913.2
582.008	1946.87
582.368	1933.76
582.728	1938.51
583.089	1925.63
583.449	1939.86
583.809	1943.93
584.169	1940.99
584.529	1929.47
584.889	1968.79
585.249	1943.48
585.609	1952.97
585.969	1983.93
586.329	1922.01
586.688	1922.24
587.048	1956.81
587.408	1934.44
587.768	1943.71
588.127	1948.23
588.487	1929.7
588.846	1978.96
589.206	1958.17
589.565	1981.45
589.925	1941.22
590.284	1964.04
590.643	1952.29
591.003	1963.14
591.362	1953.42
591.721	1950.49
592.08	1960.88
592.44	1940.99
592.799	1973.54
593.158	1978.28
593.517	1961.78
593.876	1962.46
594.235	1973.31
594.593	1987.55
594.952	2003.82
595.311	1981.9
595.67	1985.06
596.029	1989.81
596.387	1993.65
596.746	2011.05
597.104	1992.97
597.463	2000.88
597.822	2019.41
598.18	1998.39
598.538	1985.96
598.897	1989.13
599.255	2014.44
599.613	1994.78
599.972	1983.93
600.33	2004.5
600.688	1982.12
601.046	2013.99
601.404	2036.81
601.762	2014.44
602.12	2002.91
602.478	2011.05
602.836	2024.83
603.194	2006.08
603.552	2003.14
603.91	1981.22
604.268	2008.34
604.625	2046.53
604.983	2022.8
605.341	1986.19
605.698	2006.3
606.056	2052.63
606.413	2025.06
606.771	2026.42
607.128	2037.49
607.485	2029.81
607.843	2032.97
608.2	2086.98
608.557	2061.22
608.914	2049.69
609.272	2044.27
609.629	2067.32
609.986	2061.44
610.343	2027.77
610.7	2075.23
611.057	2021.44
611.414	2065.51
611.771	2060.54
612.127	2078.84
612.484	2063.93
612.841	2084.27
613.198	2095.11
613.554	2072.06
613.911	2091.05
614.267	2091.5
614.624	2098.96
614.98	2111.61
615.337	2071.84
615.693	2117.94
616.05	2085.85
616.406	2126.07
616.762	2105.06
617.118	2119.75
617.475	2107.09
617.831	2121.78
618.187	2104.83
618.543	2116.13
618.899	2129.24
619.255	2150.03
619.611	2129.69
619.967	2133.53
620.323	2137.83
620.678	2135.57
621.034	2181.89
621.39	2122.23
621.746	2114.55
622.101	2204.94
622.457	2164.49
622.812	2178.05
623.168	2167.65
623.523	2170.59
623.879	2185.06
624.234	2162.91
624.589	2178.95
624.945	2175.56
625.3	2191.38
625.655	2168.33
626.01	2170.14
626.365	2195.9
626.72	2215.56
627.075	2211.27
627.43	2208.56
627.785	2173.98
628.14	2200.87
628.495	2211.72
628.85	2215.79
629.205	2218.28
629.559	2219.18
629.914	2215.79
630.269	2235
630.623	2188.9
630.978	2234.09
631.332	2235.45
631.687	2235.45
632.041	2218.73
632.396	2254.43
632.75	2224.83
633.104	2246.52
633.459	2249.46
633.813	2235.22
634.167	2251.49
634.521	2278.39
634.875	2272.28
635.229	2283.13
635.583	2240.65
635.937	2236.13
636.291	2304.37
636.645	2280.65
636.999	2291.95
637.352	2304.6
637.706	2266.41
638.06	2287.2
638.413	2283.13
638.767	2290.59
639.121	2311.61
639.474	2300.31
639.828	2317.48
640.181	2323.81
640.534	2311.83
640.888	2300.98
641.241	2352.73
641.594	2330.59
641.947	2336.46
642.301	2343.7
642.654	2318.84
643.007	2346.41
643.36	2375.56
643.713	2395.67
644.066	2394.32
644.419	2407.65
644.771	2380.98
645.124	2369.23
645.477	2380.98
645.83	2340.76
646.182	2359.29
646.535	2355.67
646.888	2373.98
647.24	2379.85
647.593	2387.76
647.945	2392.96
648.298	2376.91
648.65	2385.95
649.002	2400.19
649.355	2419.85
649.707	2407.2
650.059	2434.99
650.411	2481.54
650.763	2458.95
651.115	2511.6
651.467	2522.67
651.819	2499.17
652.171	2515.44
652.523	2550.02
652.875	2550.47
653.227	2561.54
653.578	2566.97
653.93	2592.73
654.282	2571.94
654.633	2593.41
654.985	2579.4
655.337	2635.67
655.688	2612.61
656.039	2612.39
656.391	2632.5
656.742	2643.35
657.094	2660.98
657.445	2645.61
657.796	2689
658.147	2699.62
658.498	2691.93
658.849	2733.97
659.2	2723.8
659.551	2762.67
659.902	2735.78
660.253	2748.88
660.604	2789.56
660.955	2768.09
661.306	2801.76
661.656	2769.22
662.007	2831.37
662.358	2841.54
662.708	2848.31
663.059	2842.21
663.409	2842.44
663.76	2866.17
664.11	2907.75
664.461	2889.67
664.811	2913.85
665.161	2924.02
665.511	2910.46
665.862	2966.28
666.212	2987.52
666.562	2976.22
666.912	2980.29
667.262	3026.39
667.612	3034.3
667.962	2994.75
668.312	2997.92
668.662	3074.3
669.011	3055.99
669.361	3051.47
669.711	3091.25
670.06	3094.86
670.41	3140.51
670.76	3155.43
671.109	3118.82
671.459	3149.32
671.808	3163.56
672.157	3177.8
672.507	3194.97
672.856	3198.81
673.205	3158.59
673.554	3208.76
673.904	3205.82
674.253	3220.28
674.602	3278.81
674.951	3233.62
675.3	3228.42
675.649	3254.41
675.998	3319.94
676.346	3289.89
676.695	3338.7
677.044	3369.88
677.393	3326.95
677.741	3364.23
678.09	3377.79
678.438	3347.06
678.787	3399.49
679.135	3415.08
679.484	3406.72
679.832	3439.49
680.181	3416.66
680.529	3388.19
680.877	3459.37
681.225	3416.44
681.573	3472.48
681.922	3500.05
682.27	3491.24
682.618	3514.51
682.966	3512.93
683.314	3516.09
683.661	3551.8
684.009	3564
684.357	3501.86
684.705	3511.8
685.053	3523.33
685.4	3560.61
685.748	3557.45
686.095	3567.84
686.443	3582.53
686.79	3577.79
687.138	3605.58
687.485	3578.69
687.832	3621.18
688.18	3630.89
688.527	3625.02
688.874	3604
689.221	3610.78
689.568	3629.54
689.915	3624.79
690.262	3630.89
690.609	3632.48
690.956	3644.9
691.303	3624.34
691.65	3622.76
691.997	3666.37
692.344	3606.71
692.69	3662.53
693.037	3663.89
693.383	3616.88
693.73	3694.39
694.077	3589.54
694.423	3639.03
694.769	3649.2
695.116	3680.84
695.462	3658.92
695.808	3650.78
696.155	3674.06
696.501	3609.65
696.847	3652.36
697.193	3605.13
697.539	3661.63
697.885	3639.71
698.231	3600.39
698.577	3670.89
698.923	3614.85
699.269	3655.07
699.614	3633.83
699.96	3657.56
700.306	3610.55
700.651	3614.4
700.997	3630.22
701.342	3656.88
701.688	3623.44
702.033	3650.33
702.379	3615.98
702.724	3634.51
703.069	3583.89
703.415	3594.06
703.76	3615.98
704.105	3589.76
704.45	3582.76
704.795	3536.66
705.14	3574.4
705.485	3585.7
705.83	3569.65
706.175	3598.58
706.52	3587.96
706.865	3567.62
707.209	3527.39
707.554	3578.24
707.899	3576.43
708.243	3551.35
708.588	3573.27
708.932	3549.31
709.277	3545.02
709.621	3558.35
709.966	3531.23
710.31	3528.52
710.654	3524.23
710.998	3544.34
711.342	3518.35
711.687	3561.29
712.031	3546.38
712.375	3558.8
712.719	3532.82
713.063	3528.07
713.407	3523.33
713.75	3493.72
714.094	3536.88
714.438	3513.16
714.782	3521.29
715.125	3484.23
715.469	3498.69
715.812	3501.18
716.156	3510.67
716.499	3550.44
716.843	3518.35
717.186	3492.59
717.53	3523.78
717.873	3496.89
718.216	3503.66
718.559	3516.55
718.902	3462.54
719.246	3498.02
719.589	3488.3
719.932	3491.91
720.275	3508.41
720.617	3500.05
720.96	3518.13
721.303	3493.72
721.646	3540.27
721.989	3481.52
722.331	3478.13
722.674	3491.91
723.016	3502.54
723.359	3500.95
723.701	3458.02
724.044	3479.26
724.386	3466.83
724.729	3480.84
725.071	3496.21
725.413	3519.48
725.755	3491.01
726.097	3477.22
726.439	3479.48
726.782	3503.21
727.124	3486.04
727.465	3473.61
727.807	3518.35
728.149	3497.11
728.491	3512.93
728.833	3501.86
729.175	3500.28
729.516	3501.18
729.858	3491.01
730.199	3505.25
730.541	3513.61
730.882	3510.44
731.224	3498.92
731.565	3524
731.906	3557
732.248	3549.31
732.589	3531.23
732.93	3517.68
733.271	3520.39
733.612	3497.56
733.953	3553.83
734.294	3559.48
734.635	3512.25
734.976	3544.12
735.317	3535.3
735.658	3541.63
735.999	3581.63
736.339	3564.23
736.68	3559.93
737.021	3567.17
737.361	3569.43
737.702	3587.5
738.042	3626.6
738.383	3605.13
738.723	3601.52
739.063	3593.83
739.404	3631.8
739.744	3645.58
740.084	3611.91
740.424	3621.85
740.764	3662.53
741.104	3655.53
741.444	3673.83
741.784	3670.44
742.124	3668.63
742.464	3636.09
742.804	3706.6
743.143	3695.07
743.483	3709.99
743.823	3659.37
744.162	3695.3
744.502	3744.79
744.841	3737.33
745.181	3755.18
745.52	3764
745.86	3768.29
746.199	3763.32
746.538	3802.41
746.877	3849.19
747.216	3835.41
747.556	3807.16
747.895	3877.67
748.234	3866.14
748.573	3905.91
748.911	3905.69
749.25	3897.78
749.589	3964.9
749.928	3906.37
750.267	3953.6
750.605	4023.43
750.944	3952.47
751.283	3970.55
751.621	4013.93
751.96	4004.22
752.298	4064.1
752.636	4065.46
752.975	4051.9
753.313	4125.12
753.651	4089.19
753.989	4136.19
754.327	4173.25
754.666	4157.21
755.004	4192.46
755.342	4232.01
755.679	4254.61
756.017	4230.88
756.355	4323.76
756.693	4361.27
757.031	4294.6
757.368	4354.26
757.706	4348.39
758.044	4346.58
758.381	4372.12
758.719	4402.62
759.056	4393.36
759.394	4412.12
759.731	4420.48
760.068	4457.54
760.405	4411.66
760.743	4473.36
761.08	4494.37
761.417	4442.4
761.754	4472.23
762.091	4485.79
762.428	4526.01
762.765	4505.45
763.102	4510.19
763.438	4546.12
763.775	4566.01
764.112	4523.53
764.449	4590.87
764.785	4546.35
765.122	4563.07
765.458	4577.31
765.795	4547.25
766.131	4603.97
766.467	4575.28
766.804	4550.42
767.14	4563.52
767.476	4598.55
767.812	4550.64
768.148	4619.79
768.485	4575.28
768.821	4581.83
769.157	4645.78
769.492	4537.08
769.828	4565.56
770.164	4564.88
770.5	4519.91
770.836	4528.72
771.171	4562.39
771.507	4546.8
771.842	4544.32
772.178	4520.14
