Data from blue_chair_FLMS001491_00084.txt Node
Date: Wed Feb 08 10:31:55 GMT 2017
User: dcchb
Spectrometer: FLMS00149
Trigger mode: 0
Integration Time (sec): 2.000000E-2
Scans to average: 10
Electric dark correction enabled: true
Nonlinearity correction enabled: false
Boxcar width: 0
XAxis mode: Wavelengths
Number of Pixels in Spectrum: 2048
>>>>>Begin Spectral Data<<<<<
341.393	1.13
341.776	1.13
342.16	1.13
342.543	-50.17
342.927	-58.3
343.31	-67.79
343.693	-70.05
344.077	-30.73
344.46	-60.79
344.843	-38.87
345.226	-30.51
345.61	-36.84
345.993	-28.93
346.376	-7.91
346.759	9.72
347.142	20.34
347.525	43.61
347.908	54.24
348.291	56.04
348.674	90.39
349.057	98.08
349.44	122.71
349.823	156.83
350.206	166.78
350.588	177.4
350.971	183.95
351.354	188.92
351.737	193.89
352.119	235.25
352.502	220.33
352.884	251.29
353.267	247.9
353.65	283.83
354.032	288.13
354.414	290.39
354.797	278.64
355.179	304.4
355.562	287.22
355.944	294.91
356.326	306.88
356.709	307.11
357.091	321.35
357.473	294
357.855	332.19
358.238	312.53
358.62	297.17
359.002	327.9
359.384	309.37
359.766	315.25
360.148	311.4
360.53	329.03
360.912	319.09
361.294	315.7
361.676	305.75
362.057	290.16
362.439	311.4
362.821	306.21
363.203	296.49
363.584	308.92
363.966	314.34
364.348	311.63
364.729	298.75
365.111	311.63
365.493	286.09
365.874	291.97
366.256	308.24
366.637	304.17
367.019	285.87
367.4	283.83
367.781	285.42
368.163	292.2
368.544	274.8
368.925	287.45
369.306	288.35
369.688	289.71
370.069	296.94
370.45	287.22
370.831	268.02
371.212	292.65
371.593	308.92
371.974	292.87
372.355	284.06
372.736	288.35
373.117	287.45
373.498	283.61
373.879	300.11
374.26	275.47
374.641	293.33
375.021	293.1
375.402	288.81
375.783	325.64
376.163	313.21
376.544	276.38
376.925	306.66
377.305	282.93
377.686	292.42
378.066	293.1
378.447	292.65
378.827	291.97
379.208	305.75
379.588	295.59
379.968	302.14
380.349	305.75
380.729	323.38
381.109	311.86
381.489	303.49
381.87	298.52
382.25	295.81
382.63	298.3
383.01	316.83
383.39	285.19
383.77	318.64
384.15	308.69
384.53	309.14
384.91	307.79
385.29	314.34
385.67	298.07
386.049	300.56
386.429	305.3
386.809	317.73
387.189	315.25
387.568	307.56
387.948	307.34
388.328	316.38
388.707	313.89
389.087	312.31
389.466	295.13
389.846	325.64
390.225	326.09
390.605	332.19
390.984	314.12
391.363	312.31
391.743	328.13
392.122	324.74
392.501	341.91
392.881	327.45
393.26	315.25
393.639	339.43
394.018	331.74
394.397	318.41
394.776	306.66
395.155	324.06
395.534	329.93
395.913	330.61
396.292	351.4
396.671	340.78
397.05	337.39
397.429	350.95
397.808	322.03
398.186	342.82
398.565	353.89
398.944	338.75
399.323	366.54
399.701	343.04
400.08	354.57
400.458	361.12
400.837	354.79
401.215	365.64
401.594	350.05
401.972	358.86
402.351	358.86
402.729	342.36
403.107	369.26
403.486	336.94
403.864	361.57
404.242	377.17
404.62	373.78
404.999	387.11
405.377	382.59
405.755	362.7
406.133	374.68
406.511	355.02
406.889	382.36
407.267	385.3
407.645	395.47
408.023	387.11
408.401	398.41
408.779	405.19
409.156	398.86
409.534	396.83
409.912	387.33
410.29	390.72
410.667	406.09
411.045	425.98
411.422	409.71
411.8	399.99
412.178	431.18
412.555	414
412.933	415.81
413.31	439.76
413.687	426.88
414.065	426.66
414.442	391.85
414.819	417.84
415.197	429.37
415.574	446.99
415.951	438.41
416.328	441.57
416.705	426.88
417.082	442.47
417.46	454
417.837	466.88
418.214	440.21
418.591	457.16
418.967	452.42
419.344	444.28
419.721	459.42
420.098	458.74
420.475	447.9
420.852	453.32
421.228	458.52
421.605	467.11
421.982	495.35
422.358	467.56
422.735	487.44
423.111	468.01
423.488	485.18
423.864	506.88
424.241	494.45
424.617	504.62
424.994	492.64
425.37	523.6
425.746	509.82
426.123	510.72
426.499	523.6
426.875	525.41
427.251	508.24
427.627	510.04
428.003	522.7
428.379	545.3
428.756	546.65
429.132	534.22
429.507	565.41
429.883	546.43
430.259	537.61
430.635	546.65
431.011	554.79
431.387	569.02
431.763	578.74
432.138	569.25
432.514	576.71
432.89	595.46
433.265	584.39
433.641	601.11
434.016	589.81
434.392	601.79
434.767	624.84
435.143	639.08
435.518	613.77
435.894	641.11
436.269	665.52
436.644	661.9
437.02	639.76
437.395	663.03
437.77	695.12
438.145	683.82
438.52	677.04
438.895	679.3
439.271	696.93
439.646	711.85
440.021	707.55
440.395	711.62
440.77	697.16
441.145	713.88
441.52	734.44
441.895	726.53
442.27	734.44
442.645	743.03
443.019	755.23
443.394	775.35
443.769	784.16
444.143	775.8
444.518	781.45
444.892	802.24
445.267	792.97
445.641	790.49
446.016	790.49
446.39	804.95
446.764	811.05
447.139	796.59
447.513	812.86
447.887	815.57
448.262	828.45
448.636	856.47
449.01	819.41
449.384	842.24
449.758	820.77
450.132	839.98
450.506	863.25
450.88	860.32
451.254	859.19
451.628	875.46
452.002	892.41
452.376	865.51
452.75	889.02
453.123	882.46
453.497	891.95
453.871	911.84
454.244	915.46
454.618	937.38
454.992	942.35
455.365	936.47
455.739	950.94
456.112	953.87
456.486	971.73
456.859	938.73
457.232	968.11
457.606	973.08
457.979	984.15
458.352	998.39
458.725	1003.36
459.099	1036.81
459.472	1023.7
459.845	1042.01
460.218	1035.23
460.591	1035.23
460.964	1051.05
461.337	1044.72
461.71	1089.24
462.083	1084.72
462.456	1078.16
462.829	1063.02
463.201	1091.95
463.574	1109.58
463.947	1152.74
464.32	1139.41
464.692	1144.6
465.065	1145.05
465.438	1161.55
465.81	1135.56
466.183	1168.78
466.555	1198.39
466.928	1193.41
467.3	1183.7
467.672	1202
468.045	1226.63
468.417	1211.27
468.789	1227.54
469.161	1242.23
469.534	1260.31
469.906	1264.6
470.278	1268.22
470.65	1257.59
471.022	1292.4
471.394	1286.52
471.766	1320.64
472.138	1331.04
472.51	1351.15
472.882	1351.83
473.253	1372.39
473.625	1378.27
473.997	1411.71
474.369	1409.23
474.74	1381.21
475.112	1427.53
475.484	1419.4
475.855	1453.3
476.227	1481.54
476.598	1495.78
476.97	1439.51
477.341	1489.68
477.713	1504.14
478.084	1491.26
478.455	1543.46
478.827	1552.73
479.198	1594.99
479.569	1594.99
479.94	1610.81
480.311	1622.56
480.682	1656.23
481.053	1665.72
481.424	1678.6
481.795	1653.97
482.166	1694.87
482.537	1692.61
482.908	1758.15
483.279	1719.05
483.65	1748.65
484.021	1773.51
484.391	1770.35
484.762	1785.94
485.133	1787.52
485.503	1802.21
485.874	1824.13
486.244	1809.22
486.615	1845.15
486.985	1834.53
487.356	1886.96
487.726	1878.59
488.097	1890.57
488.467	1901.64
488.837	1921.31
489.207	1934.86
489.578	1936.9
489.948	1954.98
490.318	1955.2
490.688	1914.75
491.058	1968.31
491.428	1949.78
491.798	1971.7
492.168	2001.53
492.538	1979.61
492.908	1976.9
493.278	2006.05
493.648	2009.44
494.017	2012.6
494.387	1983
494.757	2011.47
495.126	2035.43
495.496	2019.16
495.866	2029.1
496.235	2018.7
496.605	1997.24
496.974	2030.23
497.344	2024.13
497.713	2012.83
498.082	2028.42
498.452	2035.43
498.821	2049.89
499.19	2060.51
499.559	2033.17
499.928	2031.36
500.298	2051.02
500.667	2054.86
501.036	2000.4
501.405	2029.1
501.774	2045.82
502.143	2041.3
502.512	2010.57
502.88	2044.24
503.249	2016.22
503.618	2030.46
503.987	2012.83
504.356	2031.81
504.724	2018.03
505.093	2038.36
505.462	2019.16
505.83	2013.96
506.199	1991.59
506.567	2030.46
506.936	2004.24
507.304	2008.31
507.672	2002.89
508.041	2001.98
508.409	2015.09
508.777	1990.68
509.145	2000.85
509.514	1999.5
509.882	2020.96
510.25	1968.31
510.618	1970.34
510.986	2000.4
511.354	1987.29
511.722	1987.97
512.09	1979.61
512.458	1986.39
512.826	1979.61
513.193	1971.02
513.561	1953.17
513.929	1983.45
514.297	1946.62
514.664	2006.5
515.032	1972.83
515.4	1961.76
515.767	1981.19
516.135	1966.73
516.502	1944.13
516.869	1940.06
517.237	1918.14
517.604	1921.76
517.972	1934.64
518.339	1936.45
518.706	1917.24
519.073	1895.09
519.44	1912.94
519.808	1906.62
520.175	1894.41
520.542	1883.57
520.909	1884.24
521.276	1874.08
521.643	1908.65
522.009	1877.92
522.376	1911.59
522.743	1898.03
523.11	1880.18
523.477	1861.65
523.843	1902.55
524.21	1870.23
524.577	1912.94
524.943	1909.33
525.31	1890.12
525.676	1885.6
526.043	1883.57
526.409	1905.49
526.776	1885.83
527.142	1884.24
527.508	1893.06
527.874	1889.67
528.241	1904.58
528.607	1876.33
528.973	1903.23
529.339	1906.62
529.705	1898.26
530.071	1954.07
530.437	1883.57
530.803	1883.34
531.169	1909.33
531.535	1882.89
531.901	1890.35
532.267	1899.84
532.632	1896.45
532.998	1898.48
533.364	1888.09
533.73	1889.67
534.095	1893.51
534.461	1902.55
534.826	1910.01
535.192	1896
535.557	1884.7
535.923	1933.51
536.288	1917.46
536.653	1903.9
537.019	1902.1
537.384	1895.54
537.749	1855.32
538.114	1896.9
538.479	1903.45
538.845	1880.85
539.21	1884.92
539.575	1881.08
539.94	1858.48
540.305	1893.51
540.67	1888.99
541.034	1872.72
541.399	1876.79
541.764	1893.96
542.129	1841.99
542.494	1848.76
542.858	1866.39
543.223	1866.62
543.587	1884.24
543.952	1860.97
544.316	1867.07
544.681	1849.44
545.045	1877.46
545.41	1854.87
545.774	1863.45
546.138	1878.37
546.503	1858.03
546.867	1844.02
547.231	1876.56
547.595	1866.62
547.959	1804.7
548.324	1851.02
548.688	1852.61
549.052	1853.96
549.416	1823.45
549.779	1842.89
550.143	1845.6
550.507	1820.29
550.871	1823
551.235	1825.04
551.599	1836.34
551.962	1836.56
552.326	1827.07
552.689	1837.01
553.053	1816.9
553.417	1845.6
553.78	1834.75
554.143	1815.32
554.507	1813.51
554.87	1841.08
555.234	1816.68
555.597	1830.69
555.96	1832.04
556.323	1812.38
556.686	1846.96
557.05	1782.78
557.413	1779.16
557.776	1799.27
558.139	1815.09
558.502	1805.38
558.865	1809.44
559.228	1810.57
559.59	1803.79
559.953	1819.39
560.316	1838.6
560.679	1810.57
561.041	1824.13
561.404	1833.85
561.767	1822.55
562.129	1820.52
562.492	1813.06
562.854	1838.37
563.217	1787.3
563.579	1790.01
563.941	1865.49
564.304	1835.88
564.666	1870.01
565.028	1846.05
565.39	1839.5
565.753	1848.99
566.115	1860.74
566.477	1846.05
566.839	1853.96
567.201	1873.17
567.563	1874.75
567.925	1868.2
568.287	1879.95
568.648	1891.25
569.01	1898.26
569.372	1932.6
569.734	1877.46
570.095	1889.44
570.457	1921.08
570.819	1916.56
571.18	1917.69
571.542	1890.35
571.903	1927.41
572.265	1949.78
572.626	1960.4
572.987	1969.44
573.349	1943.68
573.71	1948.42
574.071	1957.46
574.432	1975.09
574.794	1969.44
575.155	1984.13
575.516	1979.16
575.877	1982.32
576.238	1989.78
576.599	1983.68
576.96	1985.48
577.32	1986.39
577.681	2013.51
578.042	1999.04
578.403	1998.59
578.763	2018.93
579.124	2026.61
579.485	2023.68
579.845	2021.87
580.206	2043.56
580.566	2070.23
580.927	2054.86
581.287	2062.77
581.648	2013.05
582.008	2066.39
582.368	2060.96
582.728	2056.9
583.089	2097.8
583.449	2052.15
583.809	2026.16
584.169	2087.18
584.529	2088.76
584.889	2095.09
585.249	2092.6
585.609	2089.66
585.969	2103.67
586.329	2090.11
586.688	2083.34
587.048	2124.01
587.408	2118.36
587.768	2128.76
588.127	2129.66
588.487	2103.67
588.846	2138.93
589.206	2103.9
589.565	2124.24
589.925	2105.71
590.284	2116.33
590.643	2097.35
591.003	2100.74
591.362	2105.26
591.721	2115.88
592.08	2119.72
592.44	2079.27
592.799	2101.64
593.158	2110.9
593.517	2126.27
593.876	2124.92
594.235	2097.57
594.593	2121.3
594.952	2128.53
595.311	2139.6
595.67	2135.54
596.029	2135.99
596.387	2131.47
596.746	2131.47
597.104	2110
597.463	2064.13
597.822	2135.09
598.18	2115.2
598.538	2149.55
598.897	2113.62
599.255	2159.94
599.613	2105.03
599.972	2096.89
600.33	2126.95
600.688	2102.09
601.046	2140.96
601.404	2116.33
601.762	2133.28
602.12	2143.67
602.478	2115.42
602.836	2142.09
603.194	2124.92
603.552	2122.43
603.91	2093.5
604.268	2073.84
604.625	2118.59
604.983	2110.23
605.341	2081.53
605.698	2126.27
606.056	2142.77
606.413	2119.49
606.771	2132.83
607.128	2137.12
607.485	2112.03
607.843	2128.98
608.2	2113.16
608.557	2113.84
608.914	2121.07
609.272	2122.88
609.629	2122.66
609.986	2129.89
610.343	2110
610.7	2098.93
611.057	2132.37
611.414	2139.6
611.771	2131.92
612.127	2161.07
612.484	2145.93
612.841	2133.5
613.198	2106.39
613.554	2153.84
613.911	2158.81
614.267	2137.57
614.624	2146.38
614.98	2169.89
615.337	2161.75
615.693	2148.19
616.05	2149.77
616.406	2139.83
616.762	2148.64
617.118	2145.93
617.475	2169.89
617.831	2168.98
618.187	2154.97
618.543	2161.3
618.899	2161.3
619.255	2148.19
619.611	2115.42
619.967	2142.32
620.323	2125.82
620.678	2112.03
621.034	2166.95
621.39	2172.15
621.746	2178.25
622.101	2192.26
622.457	2197.91
622.812	2160.85
623.168	2146.84
623.523	2141.19
623.879	2154.97
624.234	2168.53
624.589	2126.72
624.945	2133.28
625.3	2170.34
625.655	2193.61
626.01	2185.48
626.365	2165.59
626.72	2180.06
627.075	2184.58
627.43	2186.16
627.785	2196.78
628.14	2171.69
628.495	2184.8
628.85	2172.15
629.205	2188.42
629.559	2168.53
629.914	2184.12
630.269	2126.72
630.623	2133.28
630.978	2185.25
631.332	2201.52
631.687	2166.04
632.041	2142.54
632.396	2124.46
632.75	2155.2
633.104	2178.7
633.459	2179.6
633.813	2162.2
634.167	2151.36
634.521	2180.06
634.875	2177.34
635.229	2168.53
635.583	2137.12
635.937	2170.34
636.291	2142.54
636.645	2173.05
636.999	2170.11
637.352	2196.78
637.706	2178.02
638.06	2136.44
638.413	2199.94
638.767	2164.46
639.121	2164.01
639.474	2135.99
639.828	2137.8
640.181	2189.77
640.534	2154.29
640.888	2130.79
641.241	2177.8
641.594	2145.93
641.947	2149.55
642.301	2182.32
642.654	2178.02
643.007	2193.61
643.36	2135.31
643.713	2196.1
644.066	2168.98
644.419	2123.33
644.771	2129.66
645.124	2118.59
645.477	2133.05
645.83	2126.05
646.182	2125.82
646.535	2155.65
646.888	2128.08
647.24	2134.63
647.593	2130.34
647.945	2136.67
648.298	2103
648.65	2125.14
649.002	2111.13
649.355	2119.27
649.707	2147.29
650.059	2133.96
650.411	2161.07
650.763	2170.34
651.115	2197.68
651.467	2207.63
651.819	2181.19
652.171	2203.78
652.523	2205.37
652.875	2231.35
653.227	2211.92
653.578	2220.28
653.93	2233.39
654.282	2199.94
654.633	2232.26
654.985	2190.22
655.337	2199.94
655.688	2246.04
656.039	2212.6
656.391	2209.66
656.742	2202.88
657.094	2240.17
657.445	2248.75
657.796	2203.78
658.147	2230
658.498	2235.2
658.849	2235.65
659.2	2264.12
659.551	2271.8
659.902	2247.62
660.253	2263.67
660.604	2253.73
660.955	2228.87
661.306	2266.38
661.656	2246.27
662.007	2226.83
662.358	2228.64
662.708	2232.26
663.059	2268.19
663.409	2212.37
663.76	2255.76
664.11	2266.16
664.461	2271.13
664.811	2276.78
665.161	2281.97
665.511	2263.67
665.862	2243.56
666.212	2244.69
666.562	2204.69
666.912	2270.22
667.262	2274.52
667.612	2250.34
667.962	2255.53
668.312	2280.39
668.662	2270.22
669.011	2237
669.361	2250.79
669.711	2285.59
670.06	2282.88
670.41	2223.9
670.76	2255.31
671.109	2273.16
671.459	2248.75
671.808	2236.33
672.157	2231.58
672.507	2227.74
672.856	2211.24
673.205	2188.87
673.554	2227.74
673.904	2202.43
674.253	2219.15
674.602	2227.96
674.951	2193.61
675.3	2136.67
675.649	2198.81
675.998	2190
676.346	2175.99
676.695	2174.63
677.044	2146.38
677.393	2204.46
677.741	2219.15
678.09	2175.76
678.438	2173.73
678.787	2141.86
679.135	2170.56
679.484	2146.16
679.832	2153.84
680.181	2161.75
680.529	2144.12
680.877	2155.42
681.225	2127.63
681.573	2153.62
681.922	2156.55
682.27	2164.46
682.618	2122.43
682.966	2149.1
683.314	2106.16
683.661	2117.68
684.009	2125.37
684.357	2107.97
684.705	2112.94
685.053	2117.23
685.4	2111.58
685.748	2049.44
686.095	2065.71
686.443	2067.06
686.79	2071.81
687.138	2074.3
687.485	2075.88
687.832	2076.78
688.18	2055.99
688.527	2049.21
688.874	2053.73
689.221	2048.08
689.568	2011.25
689.915	2014.41
690.262	2035.88
690.609	2035.2
690.956	2031.36
691.303	2012.6
691.65	2008.53
691.997	1962.21
692.344	1959.72
692.69	1973.51
693.037	1968.99
693.383	1977.35
693.73	1950.91
694.077	1995.88
694.423	1959.72
694.769	1945.49
695.116	1965.6
695.462	1931.93
695.808	1935.77
696.155	1954.07
696.501	1922.44
696.847	1908.2
697.193	1903
697.539	1909.78
697.885	1891.7
698.231	1894.87
698.577	1890.57
698.923	1895.54
699.269	1884.02
699.614	1885.37
699.96	1901.64
700.306	1877.92
700.651	1854.64
700.997	1831.59
701.342	1874.98
701.688	1904.13
702.033	1883.11
702.379	1873.17
702.724	1853.28
703.069	1863.45
703.415	1826.39
703.76	1839.5
704.105	1829.78
704.45	1867.3
704.795	1836.56
705.14	1827.52
705.485	1799.73
705.83	1839.27
706.175	1787.07
706.52	1819.61
706.865	1824.36
707.209	1808.31
707.554	1818.26
707.899	1811.48
708.243	1821.2
708.588	1826.62
708.932	1824.58
709.277	1785.72
709.621	1788.65
709.966	1825.71
710.31	1814.64
710.654	1802.89
710.998	1839.95
711.342	1816
711.687	1839.95
712.031	1800.63
712.375	1796.11
712.719	1841.99
713.063	1809.22
713.407	1824.81
713.75	1823.68
714.094	1839.27
714.438	1809.9
714.782	1815.32
715.125	1847.41
715.469	1852.61
715.812	1824.58
716.156	1833.17
716.499	1825.71
716.843	1844.92
717.186	1837.92
717.53	1830.01
717.873	1864.13
718.216	1858.48
718.559	1857.58
718.902	1828.88
719.246	1844.25
719.589	1862.32
719.932	1837.47
720.275	1891.02
720.617	1872.27
720.96	1890.57
721.303	1862.55
721.646	1872.04
721.989	1901.19
722.331	1910.46
722.674	1928.31
723.016	1895.54
723.359	1912.27
723.701	1931.7
724.044	1925.83
724.386	1908.88
724.729	1937.58
725.071	1939.84
725.413	1942.1
725.755	1938.93
726.097	1925.15
726.439	1958.14
726.782	1933.96
727.124	1964.24
727.465	1982.09
727.807	1990.91
728.149	1954.98
728.491	1974.64
728.833	2021.42
729.175	1990.46
729.516	2010.34
729.858	2040.4
730.199	2034.75
730.541	2011.25
730.882	2026.39
731.224	2077.23
731.565	2087.85
731.906	2116.1
732.248	2089.21
732.589	2112.26
732.93	2094.41
733.271	2104.13
733.612	2116.55
733.953	2137.34
734.294	2115.88
734.635	2121.53
734.976	2175.08
735.317	2160.17
735.658	2177.57
735.999	2178.02
736.339	2209.66
736.68	2220.96
737.021	2231.58
737.361	2235.2
737.702	2255.53
738.042	2283.56
738.383	2279.49
738.723	2308.87
739.063	2306.38
739.404	2327.62
739.744	2336.21
740.084	2339.15
740.424	2386.6
740.764	2402.42
741.104	2459.14
741.444	2416.43
741.784	2482.87
742.124	2495.98
742.464	2506.15
742.804	2517.67
743.143	2549.31
743.483	2594.73
743.823	2573.04
744.162	2640.61
744.502	2677.9
744.841	2688.74
745.181	2718.57
745.52	2704.79
745.86	2768.06
746.199	2811
746.538	2872.69
746.877	2874.95
747.216	2918.34
747.556	2929.19
747.895	2959.92
748.234	3001.5
748.573	3063.87
748.911	3083.53
749.25	3102.97
749.589	3161.05
749.928	3234.72
750.267	3282.4
750.605	3278.78
750.944	3362.4
751.283	3389.29
751.621	3481.72
751.96	3454.15
752.298	3522.85
752.636	3575.5
752.975	3642.39
753.313	3651.88
753.651	3730.07
753.989	3796.06
754.327	3816.4
754.666	3895.49
755.004	3943.17
755.342	4031.76
755.679	4076.5
756.017	4137.97
756.355	4234.92
756.693	4267.01
757.031	4336.84
757.368	4400.34
757.706	4434.01
758.044	4523.27
758.381	4590.61
758.719	4617.28
759.056	4670.39
759.394	4716.94
759.731	4789.48
760.068	4826.99
760.405	4890.72
760.743	4943.6
761.08	4986.76
761.417	5053.65
761.754	5145.4
762.091	5207.32
762.428	5237.83
762.765	5251.84
763.102	5278.96
763.438	5353.76
763.775	5452.06
764.112	5479.18
764.449	5525.5
764.785	5549.01
765.122	5643.24
765.458	5620.64
765.795	5745.61
766.131	5722.79
766.467	5805.5
766.804	5832.61
767.14	5861.31
767.476	5893.18
767.812	5944.7
768.148	5986.06
768.485	6031.03
768.821	6088.88
769.157	6078.94
769.492	6111.25
769.828	6142.21
770.164	6167.07
770.5	6188.31
770.836	6199.16
771.171	6235.99
771.507	6287.97
