Data from blue_surface_keyboard_FLMS001491_056.txt Node
Date: Tue Feb 07 11:13:20 GMT 2017
User: dcchb
Spectrometer: FLMS00149
Trigger mode: 0
Integration Time (sec): 2.000000E-2
Scans to average: 10
Electric dark correction enabled: true
Nonlinearity correction enabled: false
Boxcar width: 0
XAxis mode: Wavelengths
Number of Pixels in Spectrum: 2048
>>>>>Begin Spectral Data<<<<<
341.393	-10.28
341.776	-10.28
342.16	-10.28
342.543	-63.16
342.927	-65.2
343.31	-49.6
343.693	-70.62
344.077	-70.17
344.46	-52.32
344.843	-58.42
345.226	-41.92
345.61	-31.52
345.993	-10.51
346.376	-2.37
346.759	12.32
347.142	20.68
347.525	37.63
347.908	54.12
348.291	67.68
348.674	87.79
349.057	107.23
349.44	123.05
349.823	143.16
350.206	154.91
350.588	165.53
350.971	183.61
351.354	213.67
351.737	230.84
352.119	238.52
352.502	235.14
352.884	269.48
353.267	263.16
353.65	285.98
354.032	283.04
354.414	274
354.797	307.22
355.179	316.94
355.562	295.7
355.944	301.35
356.326	297.28
356.709	318.3
357.091	306.55
357.473	310.39
357.855	308.13
358.238	305.42
358.62	334.79
359.002	309.26
359.384	301.8
359.766	305.64
360.148	304.51
360.53	316.71
360.912	290.05
361.294	298.18
361.676	320.33
362.057	271.07
362.439	302.93
362.821	310.61
363.203	283.04
363.584	298.41
363.966	308.81
364.348	301.12
364.729	298.18
365.111	307.45
365.493	280.11
365.874	294.34
366.256	280.11
366.637	296.38
367.019	279.88
367.4	283.72
367.781	292.99
368.163	281.46
368.544	285.08
368.925	295.25
369.306	277.85
369.688	296.15
370.069	292.53
370.45	286.66
370.831	309.03
371.212	281.46
371.593	276.49
371.974	260.9
372.355	278.52
372.736	291.18
373.117	276.94
373.498	280.78
373.879	293.21
374.26	285.08
374.641	284.63
375.021	287.11
375.402	290.27
375.783	299.31
376.163	285.08
376.544	293.66
376.925	292.53
377.305	285.3
377.686	299.31
378.066	295.92
378.447	321.46
378.827	293.66
379.208	273.78
379.588	299.09
379.968	292.31
380.349	283.72
380.729	301.35
381.109	297.73
381.489	294.57
381.87	300.22
382.25	310.39
382.63	294.34
383.01	309.03
383.39	303.61
383.77	301.8
384.15	312.2
384.53	310.84
384.91	307.22
385.29	318.3
385.67	294.12
386.049	310.39
386.429	299.54
386.809	316.94
387.189	314
387.568	297.05
387.948	305.42
388.328	308.35
388.707	311.97
389.087	296.15
389.466	324.17
389.846	308.35
390.225	314.46
390.605	317.84
390.984	309.48
391.363	310.84
391.743	347.67
392.122	332.99
392.501	330.95
392.881	344.51
393.26	322.36
393.639	317.17
394.018	327.34
394.397	323.27
394.776	314
395.155	322.14
395.534	324.62
395.913	309.48
396.292	333.89
396.671	326.66
397.05	330.05
397.429	339.31
397.808	333.21
398.186	334.57
398.565	353.32
398.944	343.15
399.323	329.82
399.701	323.27
400.08	346.77
400.458	349.48
400.837	333.44
401.215	327.34
401.594	339.31
401.972	346.09
402.351	339.54
402.729	334.57
403.107	342.7
403.486	351.06
403.864	351.74
404.242	355.81
404.62	354.91
404.999	361.91
405.377	363.72
405.755	338.64
406.133	360.1
406.511	359.43
406.889	353.55
407.267	370.72
407.645	356.04
408.023	348.8
408.401	354.45
408.779	342.02
409.156	376.37
409.534	366.66
409.912	380.44
410.29	368.46
410.667	374.34
411.045	350.61
411.422	357.84
411.8	360.56
412.178	386.09
412.555	368.46
412.933	385.41
413.31	379.54
413.687	396.71
414.065	387.9
414.442	380.22
414.819	398.07
415.197	382.02
415.574	365.98
415.951	396.26
416.328	390.84
416.705	391.06
417.082	380.67
417.46	364.4
417.837	382.48
418.214	387
418.591	380.44
418.967	395.13
419.344	395.13
419.721	394
420.098	378.63
420.475	381.8
420.852	429.25
421.228	399.2
421.605	379.09
421.982	396.26
422.358	389.48
422.735	401.23
423.111	396.94
423.488	410.95
423.864	417.96
424.241	438.07
424.617	402.59
424.994	414.34
425.37	421.12
425.746	429.71
426.123	433.55
426.499	440.33
426.875	432.42
427.251	432.19
427.627	424.51
428.003	433.1
428.379	456.82
428.756	427.45
429.132	448.01
429.507	457.28
429.883	428.58
430.259	452.53
430.635	456.37
431.011	452.98
431.387	450.04
431.763	438.75
432.138	457.05
432.514	465.64
432.89	471.74
433.265	472.42
433.641	468.58
434.016	472.42
434.392	470.38
434.767	457.28
435.143	493.66
435.518	470.61
435.894	487.33
436.269	487.11
436.644	498.86
437.02	499.76
437.395	491.85
437.77	469.71
438.145	492.08
438.52	515.35
438.895	513.09
439.271	511.74
439.646	511.51
440.021	513.55
440.395	513.09
440.77	521.91
441.145	525.3
441.52	506.77
441.895	500.21
442.27	516.48
442.645	505.64
443.019	515.81
443.394	521.68
443.769	525.52
444.143	537.27
444.518	530.49
444.892	521.91
445.267	550.38
445.641	525.07
446.016	554
446.39	546.09
446.764	543.83
447.139	533.43
447.513	548.12
447.887	546.77
448.262	554.22
448.636	529.82
449.01	548.8
449.384	546.99
449.758	580.44
450.132	563.26
450.506	534.11
450.88	572.53
451.254	544.96
451.628	570.72
452.002	574.56
452.376	591.06
452.75	586.99
453.123	581.79
453.497	588.12
453.871	579.53
454.244	597.61
454.618	603.71
454.992	606.88
455.365	606.88
455.739	605.97
456.112	624.05
456.486	616.14
456.859	607.78
457.232	619.53
457.606	621.11
457.979	626.54
458.352	649.59
458.725	632.19
459.099	650.27
459.472	626.31
459.845	641
460.218	647.55
460.591	646.42
460.964	654.56
461.337	660.43
461.71	663.82
462.083	682.35
462.456	667.67
462.829	665.63
463.201	673.32
463.574	681
463.947	713.77
464.32	692.07
464.692	697.72
465.065	705.63
465.438	715.57
465.81	722.35
466.183	726.2
466.555	699.53
466.928	726.2
467.3	724.39
467.672	730.72
468.045	745.18
468.417	752.18
468.789	741.11
469.161	758.96
469.534	772.3
469.906	767.32
470.278	787.66
470.65	800.09
471.022	791.5
471.394	797.83
471.766	789.47
472.138	819.75
472.51	795.8
472.882	843.93
473.253	826.31
473.625	822.69
473.997	818.4
474.369	858.62
474.74	846.87
475.112	857.72
475.484	875.12
475.855	893.65
476.227	883.71
476.598	895.68
476.97	905.4
477.341	935.91
477.713	916.02
478.084	933.42
478.455	944.04
478.827	953.53
479.198	952.63
479.569	949.01
479.94	969.35
480.311	966.19
480.682	1003.25
481.053	999.63
481.424	1016.81
481.795	1015.45
482.166	1034.89
482.537	1026.3
482.908	1056.13
483.279	1053.64
483.65	1059.29
484.021	1085.06
484.391	1056.13
484.762	1119.41
485.133	1130.93
485.503	1123.02
485.874	1119.18
486.244	1112.4
486.615	1135
486.985	1126.41
487.356	1127.09
487.726	1182.91
488.097	1161.66
488.467	1177.94
488.837	1195.56
489.207	1231.72
489.578	1243.02
489.948	1231.72
490.318	1238.95
490.688	1240.76
491.058	1238.05
491.428	1232.4
491.798	1263.36
492.168	1262.9
492.538	1279.85
492.908	1261.55
493.278	1323.24
493.648	1279.63
494.017	1276.24
494.387	1285.95
494.757	1291.6
495.126	1322.56
495.496	1310.14
495.866	1334.32
496.235	1304.94
496.605	1334.09
496.974	1331.15
497.344	1353.3
497.713	1336.58
498.082	1334.32
498.452	1354.2
498.821	1337.48
499.19	1321.66
499.559	1367.08
499.928	1337.93
500.298	1379.06
500.667	1373.64
501.036	1360.53
501.405	1381.09
501.774	1366.18
502.143	1386.97
502.512	1405.5
502.88	1381.55
503.249	1382.9
503.618	1402.79
503.987	1377.93
504.356	1401.21
504.724	1407.08
505.093	1398.49
505.462	1413.41
505.83	1406.4
506.199	1427.42
506.567	1438.27
506.936	1433.3
507.304	1459.96
507.672	1442.56
508.041	1444.14
508.409	1409.34
508.777	1442.11
509.145	1448.21
509.514	1468.32
509.882	1461.54
510.25	1461.54
510.618	1471.71
510.986	1450.92
511.354	1448.21
511.722	1459.51
512.09	1474.88
512.458	1439.85
512.826	1504.03
513.193	1494.09
513.561	1491.6
513.929	1497.7
514.297	1501.54
514.664	1502.45
515.032	1503.12
515.4	1493.41
515.767	1522.56
516.135	1501.09
516.502	1539.06
516.869	1533.18
517.237	1529.11
517.604	1525.27
517.972	1519.62
518.339	1542.9
518.706	1551.48
519.073	1563.69
519.44	1502.22
519.808	1522.33
520.175	1520.98
520.542	1521.2
520.909	1539.73
521.276	1548.32
521.643	1534.31
522.009	1563.46
522.376	1536.12
522.743	1599.17
523.11	1569.34
523.477	1565.72
523.843	1584.03
524.21	1579.05
524.577	1598.72
524.943	1611.14
525.31	1605.95
525.676	1620.18
526.043	1598.72
526.409	1586.29
526.776	1606.85
527.142	1621.09
527.508	1624.03
527.874	1616.12
528.241	1616.12
528.607	1637.58
528.973	1661.31
529.339	1604.36
529.705	1652.5
530.071	1644.59
530.437	1652.95
530.803	1641.88
531.169	1652.5
531.535	1664.48
531.901	1670.8
532.267	1658.6
532.632	1660.63
532.998	1653.4
533.364	1655.89
533.73	1662.67
534.095	1662.67
534.461	1673.97
534.826	1645.49
535.192	1685.27
535.557	1666.28
535.923	1693.4
536.288	1649.79
536.653	1695.89
537.019	1646.17
537.384	1663.8
537.749	1698.6
538.114	1704.93
538.479	1684.36
538.845	1703.8
539.21	1673.52
539.575	1669
539.94	1695.44
540.305	1667.19
540.67	1710.12
541.034	1698.37
541.399	1673.74
541.764	1697.47
542.129	1716
542.494	1677.36
542.858	1693.18
543.223	1686.85
543.587	1703.57
543.952	1691.82
544.316	1703.35
544.681	1741.31
545.045	1728.66
545.41	1703.57
545.774	1704.02
546.138	1688.66
546.503	1727.3
546.867	1721.88
547.231	1747.19
547.595	1709.45
547.959	1694.31
548.324	1725.72
548.688	1714.87
549.052	1681.2
549.416	1701.09
549.779	1748.77
550.143	1721.2
550.507	1724.36
550.871	1701.99
551.235	1704.7
551.599	1737.47
551.962	1738.82
552.326	1715.55
552.689	1752.61
553.053	1723.23
553.417	1713.29
553.78	1717.36
554.143	1735.89
554.507	1744.02
554.87	1736.34
555.234	1752.16
555.597	1745.83
555.96	1734.3
556.323	1713.74
556.686	1750.12
557.05	1750.58
557.413	1752.16
557.776	1727.98
558.139	1771.14
558.502	1736.79
558.865	1744.93
559.228	1758.94
559.59	1777.24
559.953	1776.11
560.316	1772.72
560.679	1767.98
561.041	1800.52
561.404	1781.31
561.767	1760.97
562.129	1789.9
562.492	1797.58
562.854	1754.64
563.217	1788.99
563.579	1793.51
563.941	1797.81
564.304	1796.22
564.666	1806.39
565.028	1826.96
565.39	1802.1
565.753	1815.66
566.115	1809.1
566.477	1834.19
566.839	1828.54
567.201	1836.9
567.563	1852.04
567.925	1858.14
568.287	1861.98
568.648	1831.25
569.01	1865.37
569.372	1832.83
569.734	1832.16
570.095	1835.77
570.457	1891.14
570.819	1850.91
571.18	1877.13
571.542	1860.86
571.903	1878.26
572.265	1857.24
572.626	1886.84
572.987	1877.8
573.349	1875.32
573.71	1871.93
574.071	1892.72
574.432	1880.29
574.794	1892.27
575.155	1901.76
575.516	1866.96
575.877	1880.97
576.238	1884.58
576.599	1896.11
576.96	1917.35
577.32	1894.98
577.681	1907.86
578.042	1922.55
578.403	1910.12
578.763	1907.18
579.124	1901.31
579.485	1915.09
579.845	1915.32
580.206	1905.15
580.566	1924.36
580.927	1930.46
581.287	1931.36
581.648	1943.11
582.008	1889.78
582.368	1913.73
582.728	1916.9
583.089	1897.46
583.449	1969.55
583.809	1930.01
584.169	1937.69
584.529	1941.08
584.889	1934.75
585.249	1910.57
585.609	1910.12
585.969	1942.89
586.329	1916.67
586.688	1929.78
587.048	1926.39
587.408	1916.9
587.768	1938.14
588.127	1949.21
588.487	1913.96
588.846	1908.54
589.206	1911.02
589.565	1933.4
589.925	1950.34
590.284	1920.97
590.643	1888.88
591.003	1902.89
591.362	1942.89
591.721	1938.14
592.08	1938.59
592.44	1937.69
592.799	1941.08
593.158	1942.21
593.517	1948.76
593.876	1930.91
594.235	1953.28
594.593	1939.27
594.952	1962.77
595.311	1909.89
595.67	1975.88
596.029	1946.5
596.387	1959.16
596.746	1965.49
597.104	1961.87
597.463	1939.5
597.822	1973.17
598.18	1944.92
598.538	1948.76
598.897	1971.13
599.255	1939.72
599.613	1974.75
599.972	1968.87
600.33	1958.25
600.688	1941.98
601.046	1967.52
601.404	1954.19
601.762	1973.17
602.12	1995.31
602.478	2024.01
602.836	1998.93
603.194	1971.13
603.552	1967.97
603.91	1967.97
604.268	1995.99
604.625	2007.29
604.983	2024.47
605.341	1999.83
605.698	2005.48
606.056	2021.98
606.413	2001.19
606.771	2007.52
607.128	2013.85
607.485	2038.7
607.843	2024.47
608.2	2018.14
608.557	2027.4
608.914	1983.79
609.272	2042.55
609.629	2028.53
609.986	2033.73
610.343	2037.8
610.7	2050.68
611.057	2036.44
611.414	2058.82
611.771	2050.91
612.127	2014.98
612.484	2030.34
612.841	2049.78
613.198	2031.02
613.554	2050.23
613.911	2070.79
614.267	2074.18
614.624	2085.26
614.98	2090.91
615.337	2109.89
615.693	2096.56
616.05	2094.3
616.406	2072.37
616.762	2105.82
617.118	2107.63
617.475	2097.91
617.831	2106.5
618.187	2081.19
618.543	2110.79
618.899	2109.89
619.255	2122.32
619.611	2102.43
619.967	2120.96
620.323	2153.73
620.678	2138.59
621.034	2112.83
621.39	2093.17
621.746	2132.26
622.101	2140.85
622.457	2157.12
622.812	2115.54
623.168	2114.41
623.523	2102.66
623.879	2139.04
624.234	2170
624.589	2151.69
624.945	2135.88
625.3	2163.9
625.655	2168.42
626.01	2146.72
626.365	2179.72
626.72	2164.8
627.075	2142.43
627.43	2172.49
627.785	2165.71
628.14	2179.72
628.495	2196.21
628.85	2179.04
629.205	2156.89
629.559	2197.57
629.914	2203.9
630.269	2209.55
630.623	2212.94
630.978	2216.78
631.332	2203.22
631.687	2208.87
632.041	2206.16
632.396	2230.79
632.75	2245.03
633.104	2214.52
633.459	2232.37
633.813	2246.83
634.167	2227.4
634.521	2207.96
634.875	2266.49
635.229	2274.86
635.583	2246.38
635.937	2244.35
636.291	2251.58
636.645	2261.97
636.999	2266.04
637.352	2266.27
637.706	2224.69
638.06	2266.04
638.413	2262.2
638.767	2277.79
639.121	2283.89
639.474	2309.2
639.828	2290.9
640.181	2282.99
640.534	2327.74
640.888	2287.28
641.241	2315.76
641.594	2317.34
641.947	2353.72
642.301	2342.2
642.654	2337.9
643.007	2358.02
643.36	2370.22
643.713	2334.97
644.066	2347.4
644.419	2359.15
644.771	2339.94
645.124	2352.82
645.477	2336.55
645.83	2366.6
646.182	2337.23
646.535	2310.79
646.888	2374.51
647.24	2341.75
647.593	2345.36
647.945	2363.89
648.298	2362.54
648.65	2373.84
649.002	2405.25
649.355	2404.57
649.707	2418.13
650.059	2441.86
650.411	2457.68
650.763	2467.62
651.115	2474.62
651.467	2492.02
651.819	2523.21
652.171	2547.62
652.523	2513.04
652.875	2518.01
653.227	2540.16
653.578	2557.79
653.93	2581.06
654.282	2577.67
654.633	2594.17
654.985	2573.6
655.337	2595.98
655.688	2617.67
656.039	2644.56
656.391	2611.57
656.742	2579.71
657.094	2663.55
657.445	2647.73
657.796	2684.79
658.147	2678.69
658.498	2732.47
658.849	2735.63
659.2	2738.12
659.551	2716.88
659.902	2765.01
660.253	2765.46
660.604	2762.75
660.955	2760.94
661.306	2838.91
661.656	2815.63
662.007	2801.85
662.358	2807.5
662.708	2843.2
663.059	2857.21
663.409	2871.9
663.76	2872.35
664.11	2882.52
664.461	2892.69
664.811	2918
665.161	2945.57
665.511	2954.84
665.862	2979.7
666.212	2971.11
666.562	2970.66
666.912	3034.38
667.262	3011.33
667.612	3019.24
667.962	3015.85
668.312	3023.54
668.662	3096.08
669.011	3071.9
669.361	3122.74
669.711	3091.78
670.06	3115.29
670.41	3113.7
670.76	3104.44
671.109	3146.02
671.459	3182.63
671.808	3144.89
672.157	3200.93
672.507	3191.89
672.856	3200.25
673.205	3221.95
673.554	3220.59
673.904	3222.85
674.253	3285
674.602	3270.08
674.951	3231.67
675.3	3280.7
675.649	3298.56
675.998	3298.56
676.346	3343.75
676.695	3361.38
677.044	3349.4
677.393	3352.12
677.741	3359.12
678.09	3369.06
678.438	3373.58
678.787	3413.81
679.135	3406.8
679.484	3440.7
679.832	3461.49
680.181	3461.94
680.529	3425.79
680.877	3479.12
681.225	3494.94
681.573	3486.57
681.922	3481.38
682.27	3474.15
682.618	3513.47
682.966	3545.1
683.314	3537.2
683.661	3545.33
684.009	3524.77
684.357	3525.44
684.705	3525.22
685.053	3574.93
685.4	3593.24
685.748	3584.43
686.095	3581.71
686.443	3570.19
686.79	3602.05
687.138	3602.96
687.485	3607.48
687.832	3599.57
688.18	3664.65
688.527	3633.92
688.874	3603.63
689.221	3659
689.568	3625.33
689.915	3647.02
690.262	3640.92
690.609	3651.99
690.956	3624.2
691.303	3614.26
691.65	3653.8
691.997	3644.76
692.344	3653.58
692.69	3628.49
693.037	3643.41
693.383	3646.12
693.73	3671.43
694.077	3654.25
694.423	3682.28
694.769	3675.5
695.116	3672.56
695.462	3692.45
695.808	3633.24
696.155	3705.55
696.501	3659.23
696.847	3645.89
697.193	3684.99
697.539	3674.14
697.885	3656.51
698.231	3722.5
698.577	3645.44
698.923	3691.77
699.269	3639.79
699.614	3669.85
699.96	3656.51
700.306	3670.07
700.651	3647.47
700.997	3627.81
701.342	3626.23
701.688	3625.78
702.033	3640.24
702.379	3618.55
702.724	3622.39
703.069	3629.62
703.415	3581.71
703.76	3619
704.105	3621.94
704.45	3609.51
704.795	3592.11
705.14	3625.33
705.485	3606.57
705.83	3590.53
706.175	3594.82
706.52	3600.92
706.865	3583.3
707.209	3569.28
707.554	3601.83
707.899	3586.91
708.243	3563.64
708.588	3547.36
708.932	3559.34
709.277	3516.4
709.621	3557.76
709.966	3553.92
710.31	3535.16
710.654	3546.46
710.998	3546.01
711.342	3559.12
711.687	3527.25
712.031	3532.45
712.375	3526.12
712.719	3568.15
713.063	3526.12
713.407	3593.01
713.75	3504.88
714.094	3517.08
714.438	3519.57
714.782	3507.14
715.125	3496.97
715.469	3532.22
715.812	3536.52
716.156	3469.63
716.499	3497.42
716.843	3535.16
717.186	3494.71
717.53	3538.1
717.873	3526.57
718.216	3533.58
718.559	3525.22
718.902	3472.11
719.246	3503.07
719.589	3519.12
719.932	3518.21
720.275	3518.44
720.617	3502.39
720.96	3519.57
721.303	3516.4
721.646	3489.74
721.989	3491.77
722.331	3517.31
722.674	3521.6
723.016	3532.22
723.359	3539.45
723.701	3489.96
724.044	3523.18
724.386	3507.82
724.729	3505.78
725.071	3513.69
725.413	3510.98
725.755	3562.96
726.097	3487.25
726.439	3529.74
726.782	3540.13
727.124	3556.4
727.465	3538.1
727.807	3483.41
728.149	3531.32
728.491	3496.07
728.833	3530.19
729.175	3519.57
729.516	3523.41
729.858	3568.38
730.199	3560.02
730.541	3519.79
730.882	3556.63
731.224	3534.03
731.565	3529.06
731.906	3594.14
732.248	3548.04
732.589	3556.63
732.93	3568.83
733.271	3551.43
733.612	3521.6
733.953	3552.79
734.294	3562.73
734.635	3541.71
734.976	3571.77
735.317	3591.21
735.658	3525.67
735.999	3594.14
736.339	3591.66
736.68	3627.14
737.021	3586.23
737.361	3601.15
737.702	3567.25
738.042	3609.06
738.383	3583.75
738.723	3624.65
739.063	3586.69
739.404	3645.21
739.744	3624.88
740.084	3665.55
740.424	3628.49
740.764	3662.62
741.104	3656.29
741.444	3676.17
741.784	3666.91
742.124	3676.17
742.464	3686.8
742.804	3660.58
743.143	3668.94
743.483	3671.2
743.823	3684.54
744.162	3746.68
744.502	3694.71
744.841	3763.18
745.181	3750.3
745.52	3737.64
745.86	3776.06
746.199	3768.6
746.538	3826.68
746.877	3819.22
747.216	3856.06
747.556	3813.12
747.895	3858.99
748.234	3813.57
748.573	3877.75
748.911	3863.74
749.25	3904.42
749.589	3917.75
749.928	3896.73
750.267	3920.91
750.605	4007.24
750.944	3960.91
751.283	4006.79
751.621	4039.78
751.96	4014.02
752.298	4015.83
752.636	4051.53
752.975	4071.87
753.313	4042.72
753.651	4124.52
753.989	4135.6
754.327	4153.45
754.666	4087.01
755.004	4151.42
755.342	4202.04
755.679	4201.58
756.017	4229.61
756.355	4281.81
756.693	4302.37
757.031	4312.09
757.368	4274.35
757.706	4312.09
758.044	4337.17
758.381	4376.95
758.719	4395.48
759.056	4398.64
759.394	4389.83
759.731	4343.05
760.068	4409.49
760.405	4396.38
760.743	4451.3
761.08	4477.96
761.417	4451.07
761.754	4461.92
762.091	4479.09
762.428	4477.74
762.765	4445.87
763.102	4495.14
763.438	4495.81
763.775	4534.91
764.112	4505.76
764.449	4495.59
764.785	4530.39
765.122	4511.86
765.458	4561.57
765.795	4524.29
766.131	4515.93
766.467	4528.36
766.804	4525.87
767.14	4480.45
767.476	4573.1
767.812	4523.61
768.148	4519.99
768.485	4526.77
768.821	4536.94
769.157	4508.24
769.492	4451.75
769.828	4509.37
770.164	4470.28
770.5	4505.08
770.836	4514.34
771.171	4513.44
771.507	4481.13
771.842	4485.64
772.178	4456.49
772.513	4483.38
