Data from blue_shiny_book_FLMS001491_00089.txt Node
Date: Wed Feb 08 15:27:41 GMT 2017
User: dcchb
Spectrometer: FLMS00149
Trigger mode: 0
Integration Time (sec): 2.000000E-2
Scans to average: 10
Electric dark correction enabled: true
Nonlinearity correction enabled: false
Boxcar width: 0
XAxis mode: Wavelengths
Number of Pixels in Spectrum: 2048
>>>>>Begin Spectral Data<<<<<
341.393	-23.57
341.776	-23.57
342.16	-23.57
342.543	-63.8
342.927	-59.05
343.31	-70.8
343.693	-92.27
344.077	-68.09
344.46	-65.15
344.843	-36
345.226	-33.74
345.61	-36.45
345.993	-20.64
346.376	1.51
346.759	14.17
347.142	19.14
347.525	46.71
347.908	71.11
348.291	67.05
348.674	108.63
349.057	94.84
349.44	138.91
349.823	142.3
350.206	173.94
350.588	190.43
350.971	227.04
351.354	227.72
351.737	244.44
352.119	260.04
352.502	258.68
352.884	281.05
353.267	293.26
353.65	300.26
354.032	293.71
354.414	319.69
354.797	318.79
355.179	312.92
355.562	340.03
355.944	353.14
356.326	346.36
356.709	366.7
357.091	327.38
357.473	347.94
357.855	342.75
358.238	356.08
358.62	335.97
359.002	365.34
359.384	359.24
359.766	349.98
360.148	337.55
360.53	358.11
360.912	344.33
361.294	351.78
361.676	338.45
362.057	344.55
362.439	343.2
362.821	342.07
363.203	326.02
363.584	335.74
363.966	321.5
364.348	340.49
364.729	338.68
365.111	321.5
365.493	336.42
365.874	335.29
366.256	326.02
366.637	343.88
367.019	333.93
367.4	328.28
367.781	346.36
368.163	330.54
368.544	324.89
368.925	346.13
369.306	348.85
369.688	332.58
370.069	328.06
370.45	337.55
370.831	349.52
371.212	333.25
371.593	355.4
371.974	335.29
372.355	352.01
372.736	327.38
373.117	351.11
373.498	377.55
373.879	348.17
374.26	340.71
374.641	362.63
375.021	337.1
375.402	336.87
375.783	352.69
376.163	385
376.544	386.36
376.925	357.89
377.305	368.73
377.686	356.53
378.066	361.28
378.447	375.29
378.827	370.32
379.208	382.74
379.588	381.39
379.968	361.95
380.349	381.39
380.729	390.43
381.109	402.86
381.489	397.43
381.87	383.65
382.25	410.54
382.63	423.65
383.01	417.77
383.39	395.85
383.77	407.15
384.15	404.21
384.53	422.74
384.91	416.64
385.29	407.6
385.67	429.52
386.049	442.63
386.429	439.69
386.809	438.34
387.189	444.21
387.568	448.73
387.948	443.76
388.328	444.66
388.707	456.19
389.087	460.71
389.466	444.21
389.846	467.26
390.225	458.9
390.605	470.65
390.984	475.62
391.363	473.59
391.743	495.28
392.122	487.15
392.501	509.52
392.881	526.47
393.26	501.39
393.639	547.26
394.018	519.46
394.397	530.99
394.776	539.35
395.155	516.07
395.534	518.79
395.913	535.73
396.292	558.33
396.671	579.12
397.05	537.77
397.429	546.36
397.808	562.85
398.186	575.28
398.565	588.61
398.944	579.8
399.323	556.3
399.701	572.12
400.08	573.47
400.458	597.43
400.837	607.82
401.215	619.35
401.594	618.22
401.972	606.92
402.351	616.41
402.729	647.6
403.107	649.86
403.486	649.86
403.864	646.92
404.242	664.09
404.62	678.78
404.999	698.22
405.377	673.81
405.755	709.06
406.133	697.54
406.511	729.63
406.889	714.94
407.267	736.63
407.645	743.64
408.023	779.57
408.401	774.82
408.779	786.58
409.156	822.28
409.534	801.72
409.912	817.31
410.29	851.66
410.667	827.03
411.045	843.52
411.422	853.01
411.8	855.27
412.178	874.03
412.555	915.16
412.933	917.65
413.31	920.58
413.687	950.41
414.065	942.96
414.442	952.67
414.819	957.64
415.197	956.06
415.574	985.21
415.951	1002.16
416.328	1008.04
416.705	1036.74
417.082	1037.87
417.46	1049.85
417.837	1029.05
418.214	1086.68
418.591	1098.88
418.967	1091.65
419.344	1087.58
419.721	1119.67
420.098	1128.04
420.475	1140.24
420.852	1163.74
421.228	1194.25
421.605	1204.64
421.982	1202.84
422.358	1191.54
422.735	1247.13
423.111	1234.02
423.488	1260.69
423.864	1261.59
424.241	1294.81
424.617	1270.63
424.994	1307.24
425.37	1317.63
425.746	1338.2
426.123	1342.94
426.499	1361.93
426.875	1406.45
427.251	1456.61
427.627	1464.52
428.003	1477.63
428.379	1469.72
428.756	1488.25
429.132	1503.17
429.507	1542.94
429.883	1552.43
430.259	1559.21
430.635	1578.42
431.011	1602.83
431.387	1671.98
431.763	1703.16
432.138	1674.24
432.514	1747.23
432.89	1737.51
433.265	1794.01
433.641	1807.79
434.016	1796.49
434.392	1854.12
434.767	1883.5
435.143	1870.39
435.518	1928.47
435.894	1942.25
436.269	1997.62
436.644	2031.29
437.02	2040.1
437.395	2032.42
437.77	2056.6
438.145	2128.91
438.52	2116.26
438.895	2160.78
439.271	2158.97
439.646	2224.5
440.021	2235.12
440.395	2224.73
440.77	2215.92
441.145	2292.52
441.52	2328.23
441.895	2333.65
442.27	2383.6
442.645	2401
443.019	2394.44
443.394	2423.37
443.769	2431.96
444.143	2419.98
444.518	2442.8
444.892	2480.77
445.267	2492.97
445.641	2541.11
446.016	2552.86
446.39	2556.25
446.764	2573.87
447.139	2591.5
447.513	2642.12
447.887	2652.97
448.262	2641.67
448.636	2679.63
449.01	2718.73
449.384	2746.75
449.758	2744.49
450.132	2803.92
450.506	2828.33
450.88	2841.66
451.254	2830.59
451.628	2904.49
452.002	2951.72
452.376	2991.49
452.75	3052.28
453.123	3037.82
453.497	3058.38
453.871	3121.66
454.244	3171.37
454.618	3167.98
454.992	3221.99
455.365	3219.73
455.739	3354.64
456.112	3384.02
456.486	3430.57
456.859	3441.42
457.232	3515.32
457.606	3536.56
457.979	3581.76
458.352	3626.5
458.725	3712.37
459.099	3728.87
459.472	3816.1
459.845	3818.59
460.218	3840.73
460.591	3910.11
460.964	3892.93
461.337	4025.13
461.71	4071.01
462.083	4148.07
462.456	4174.28
462.829	4175.64
463.201	4296.54
463.574	4344.45
463.947	4420.83
464.32	4506.93
464.692	4536.31
465.065	4538.34
465.438	4620.37
465.81	4706.25
466.183	4735.17
466.555	4827.6
466.928	4866.02
467.3	4907.82
467.672	4986.01
468.045	5102.85
468.417	5130.64
468.789	5239.34
469.161	5273.01
469.534	5337.87
469.906	5439.11
470.278	5461.03
470.65	5541.25
471.022	5685.66
471.394	5780.12
471.766	5823.05
472.138	5873.67
472.51	6025.99
472.882	6149.82
473.253	6202.93
473.625	6269.37
473.997	6437.95
474.369	6451.74
474.74	6596.82
475.112	6668.68
475.484	6834.33
475.855	6951.61
476.227	6912.97
476.598	7218.95
476.97	7193.86
477.341	7470.92
477.713	7478.6
478.084	7596.79
478.455	7811.02
478.827	7874.3
479.198	8126.72
479.569	8102.09
479.94	8377.56
480.311	8490.33
480.682	8653.94
481.053	8792.24
481.424	8882.86
481.795	9112.91
482.166	9238.1
482.537	9318.55
482.908	9588.83
483.279	9664.76
483.65	9803.51
484.021	9988.14
484.391	10179.1
484.762	10270.17
485.133	10385.42
485.503	10599.42
485.874	10793.77
486.244	10867.44
486.615	11031.5
486.985	11205.51
487.356	11406.64
487.726	11500.42
488.097	11787.64
488.467	11789.9
488.837	12060.4
489.207	12199.83
489.578	12436.21
489.948	12530.22
490.318	12676.21
490.688	12809.31
491.058	12974.73
491.428	13302.4
491.798	13458.33
492.168	13709.85
492.538	13706.01
492.908	13880.69
493.278	14076.17
493.648	14144.42
494.017	14240.01
494.387	14418.08
494.757	14557.51
495.126	14680.9
495.496	14759.99
495.866	15003.83
496.235	15046.99
496.605	15250.83
496.974	15430.71
497.344	15544.61
497.713	15710.02
498.082	15850.81
498.452	16078.83
498.821	16140.07
499.19	16148.66
499.559	16333.51
499.928	16428.2
500.298	16503.45
500.667	16705.25
501.036	16688.3
501.405	16835.64
501.774	16901.86
502.143	17044.68
502.512	17216.65
502.88	17461.39
503.249	17523.08
503.618	17600.82
503.987	17693.48
504.356	17943.64
504.724	17928.27
505.093	18055.5
505.462	18124.42
505.83	18326.91
506.199	18430.18
506.567	18674.01
506.936	18583.85
507.304	18821.36
507.672	18798.53
508.041	18934.57
508.409	19129.14
508.777	19316.03
509.145	19447.55
509.514	19488
509.882	19753.31
510.25	19855.68
510.618	20043.47
510.986	20242.33
511.354	20351.03
511.722	20479.16
512.09	20648.88
512.458	20672.83
512.826	20812.04
513.193	20944.69
513.561	20925.25
513.929	21189.65
514.297	21302.19
514.664	21448.63
515.032	21579.02
515.4	21729.98
515.767	21827.15
516.135	22039.8
516.502	21997.32
516.869	22491.32
517.237	22549.17
517.604	22582.61
517.972	22850.4
518.339	23077.06
518.706	23140.79
519.073	23335.14
519.44	23389.82
519.808	23671.85
520.175	23566.32
520.542	23774.45
520.909	23832.52
521.276	23892.63
521.643	24179.18
522.009	24170.14
522.376	24522
522.743	24615.1
523.11	24962.89
523.477	25210.11
523.843	25390.9
524.21	25754.28
524.577	26037.21
524.943	26166.02
525.31	26335.28
525.676	26523.3
526.043	26792.45
526.409	26804.87
526.776	27105.88
527.142	27107.47
527.508	27143.85
527.874	27442.6
528.241	27566.21
528.607	27573.22
528.973	27816.6
529.339	27774.79
529.705	28205.29
530.071	28386.3
530.437	28537.03
530.803	28789.68
531.169	29032.61
531.535	29033.29
531.901	29259.27
532.267	29506.27
532.632	29706.94
532.998	29790.56
533.364	29923.66
533.73	30042.98
534.095	30345.57
534.461	30239.36
534.826	30547.15
535.192	30425.12
535.557	30525.45
535.923	30471.22
536.288	30553.93
536.653	30699.91
537.019	30814.94
537.384	30877.76
537.749	31117.76
538.114	31265.55
538.479	31419.22
538.845	31604.75
539.21	31704.18
539.575	31891.29
539.94	32040.89
540.305	32365.41
540.67	32314.11
541.034	32399.53
541.399	32540.09
541.764	32496.7
542.129	32574.67
542.494	32566.76
542.858	32772.85
543.223	32809.24
543.587	32766.3
543.952	32859.4
544.316	32935.33
544.681	32912.74
545.045	33093.75
545.41	33237.93
545.774	33244.25
546.138	33417.58
546.503	33576.67
546.867	33718.82
547.231	33917.68
547.595	34167.62
547.959	34195.41
548.324	34352.25
548.688	34340.27
549.052	34640.83
549.416	34521.96
549.779	34602.18
550.143	34516.08
550.507	34797.88
550.871	34767.15
551.235	34587.72
551.599	34907.03
551.962	34836.08
552.326	35022.96
552.689	35026.13
553.053	34913.81
553.417	35140.25
553.78	35500.01
554.143	35378.89
554.507	35651.42
554.87	35775.03
555.234	36265.19
555.597	36141.8
555.96	36297.73
556.323	36619.98
556.686	36699.76
557.05	36960.77
557.413	37052.06
557.776	36886.19
558.139	37118.28
558.502	37146.98
558.865	37114.21
559.228	37233.75
559.59	37211.61
559.953	37306.07
560.316	37500.19
560.679	37617.47
561.041	37810.23
561.404	37812.72
561.767	38101.53
562.129	38064.69
562.492	38640.5
562.854	38477.11
563.217	38602.98
563.579	39014.72
563.941	39195.73
564.304	39285
564.666	39710.07
565.028	39684.99
565.39	39845.89
565.753	40082.94
566.115	40006.56
566.477	40276.61
566.839	40336.95
567.201	40422.82
567.563	40420.34
567.925	40624.85
568.287	40604.51
568.648	40643.61
569.01	40627.56
569.372	40833.66
569.734	40755.69
570.095	41048.57
570.457	41199.3
570.819	41327.88
571.18	41323.36
571.542	41629.34
571.903	41746.4
572.265	42040.18
572.626	42035.43
572.987	42255.54
573.349	42547.29
573.71	42779.14
574.071	42806.04
574.432	42907.5
574.794	43234.27
575.155	43056.2
575.516	42859.59
575.877	43051.23
576.238	42911.12
576.599	43028.63
576.96	43044
577.32	42991.57
577.681	43190.88
578.042	43114.28
578.403	43129.87
578.763	43171
579.124	43308.85
579.485	43507.49
579.845	43660.93
580.206	43729.63
580.566	43832.9
580.927	43954.03
581.287	44090.3
581.648	44098.66
582.008	44267.01
582.368	44278.31
582.728	44481.25
583.089	44425.43
583.449	44428.82
583.809	44587.91
584.169	44527.35
584.529	44573.45
584.889	44624.97
585.249	44232.21
585.609	44132.78
585.969	44357.18
586.329	44199.22
586.688	44253.46
587.048	44030.41
587.408	44137.53
587.768	44203.29
588.127	44129.62
588.487	44162.16
588.846	44377.07
589.206	44194.7
589.565	44243.96
589.925	44665.87
590.284	44329.39
590.643	44479.66
591.003	44830.39
591.362	44948.13
591.721	44893.44
592.08	44912.65
592.44	45136.14
592.799	45189.93
593.158	45201.68
593.517	45036.26
593.876	45094.34
594.235	44991.51
594.593	44989.71
594.952	44955.81
595.311	44656.38
595.67	44741.58
596.029	44830.84
596.387	44724.63
596.746	44760.79
597.104	44581.58
597.463	44582.03
597.822	44779.99
598.18	44759.66
598.538	44588.59
598.897	44987
599.255	44671.52
599.613	45216.82
599.972	45165.97
600.33	45138.86
600.688	45257.27
601.046	45545.4
601.404	45618.84
601.762	45525.06
602.12	45829.46
602.478	45798.73
602.836	45737.94
603.194	45530.03
603.552	45709.24
603.91	45568.45
604.268	45604.38
604.625	45303.14
604.983	45491.16
605.341	45338.4
605.698	45404.84
606.056	45493.65
606.413	45481.67
606.771	45399.19
607.128	45442.58
607.485	45255.91
607.843	45403.71
608.2	45564.61
608.557	45606.41
608.914	45539.52
609.272	45920.76
609.629	45975.67
609.986	45982
610.343	45918.95
610.7	46272.39
611.057	46281.2
611.414	46285.49
611.771	46480.74
612.127	46521.64
612.484	46660.4
612.841	46804.35
613.198	46651.81
613.554	46574.75
613.911	46786.5
614.267	46758.7
614.624	46612.49
614.98	46760.06
615.337	46884.12
615.693	46671.92
616.05	46665.14
616.406	46804.12
616.762	46614.3
617.118	46688.19
617.475	46746.04
617.831	46739.72
618.187	46726.16
618.543	46777
618.899	46964.8
619.255	46789.89
619.611	46862.65
619.967	46920.5
620.323	47136.32
620.678	47071.46
621.034	46976.55
621.39	47105.58
621.746	47125.92
622.101	47539.47
622.457	47329.31
622.812	47275.07
623.168	47487.04
623.523	47448.17
623.879	47656.3
624.234	47388.29
624.589	47666.02
624.945	47504.89
625.3	47658.79
625.655	47544.44
626.01	47510.32
626.365	47477.55
626.72	47240.95
627.075	47158.24
627.43	47246.6
627.785	46965.25
628.14	47045.92
628.495	47163.21
628.85	47047.51
629.205	46796.67
629.559	47073.95
629.914	46873.73
630.269	46772.26
630.623	46882.09
630.978	46693.16
631.332	46998.69
631.687	47068.52
632.041	46951.92
632.396	47075.98
632.75	46917.34
633.104	47061.74
633.459	46880.28
633.813	46948.98
634.167	46920.5
634.521	46706.5
634.875	46855.42
635.229	46759.6
635.583	46691.81
635.937	46638.25
636.291	46531.14
636.645	46657.91
636.999	46601.19
637.352	46499.5
637.706	46265.38
638.06	46524.13
638.413	46322.78
638.767	46132.5
639.121	46132.28
639.474	45862.23
639.828	45773.64
640.181	45765.73
640.534	45741.1
640.888	45561.9
641.241	45398.74
641.594	45643.25
641.947	45495.23
642.301	45569.8
642.654	45702.91
643.007	45865.62
643.36	45845.96
643.713	45583.36
644.066	45779.06
644.419	45583.59
644.771	45596.7
645.124	45575.45
645.477	45627.2
645.83	45237.61
646.182	45104.05
646.535	44782.25
646.888	44498.42
647.24	44058.21
647.593	44147.7
647.945	44111.54
648.298	43816.4
648.65	43685.11
649.002	43625.22
649.355	43989.28
649.707	44055.27
650.059	44280.35
650.411	44749.26
650.763	44594.01
651.115	45094.11
651.467	44783.84
651.819	44561.47
652.171	44479.66
652.523	44473.34
652.875	44438.53
653.227	44300.23
653.578	44612.09
653.93	44587.91
654.282	44394.24
654.633	44240.57
654.985	44287.35
655.337	44488.03
655.688	44365.54
656.039	44614.58
656.391	44377.97
656.742	44486.67
657.094	44666.78
657.445	44837.39
657.796	44768.02
658.147	44774.8
658.498	44803.5
658.849	44797.85
659.2	44662.26
659.551	44662.48
659.902	44682.6
660.253	44707.68
660.604	44614.58
660.955	44254.81
661.306	44380.46
661.656	44183.17
662.007	44172.55
662.358	44067.7
662.708	44163.51
663.059	44021.82
663.409	43701.83
663.76	44073.57
664.11	43834.26
664.461	43719.23
664.811	43899.79
665.161	43833.81
665.511	43680.14
665.862	43722.85
666.212	43828.61
666.562	43882.84
666.912	44027.02
667.262	44003.07
667.612	43998.55
667.962	44112.22
668.312	44061.82
668.662	44344.53
669.011	44325.77
669.361	44397.86
669.711	44260.69
670.06	44297.3
670.41	44227.92
670.76	44205.77
671.109	44329.16
671.459	44220.91
671.808	43948.38
672.157	44022.73
672.507	43799.91
672.856	43697.99
673.205	43834.26
673.554	43762.85
673.904	43698.22
674.253	43702.74
674.602	43541.16
674.951	42875.41
675.3	42570.79
675.649	43198.34
675.998	43041.74
676.346	43036.09
676.695	43056.88
677.044	42952.47
677.393	42842.64
677.741	42751.12
678.09	42817.11
678.438	42710.22
678.787	42769.43
679.135	42862.98
679.484	42488.76
679.832	42903.89
680.181	42665.47
680.529	42913.83
680.877	42766.94
681.225	42770.1
681.573	42937.56
681.922	42724
682.27	42674.51
682.618	42813.72
682.966	42674.51
683.314	42766.71
683.661	42577.11
684.009	42445.82
684.357	42530.56
684.705	42249.21
685.053	42225.03
685.4	42259.16
685.748	42095.55
686.095	41936.23
686.443	41744.82
686.79	41653.07
687.138	41648.78
687.485	41563.13
687.832	41290.82
688.18	41235
688.527	40966.76
688.874	40863.49
689.221	40744.17
689.568	40560.44
689.915	40390.73
690.262	40376.04
690.609	40272.77
690.956	40172.66
691.303	40199.55
691.65	39881.59
691.997	39976.73
692.344	39654.48
692.69	39794.14
693.037	39757.53
693.383	39470.3
693.73	39728.38
694.077	39509.17
694.423	39578.78
694.769	39460.81
695.116	39432.34
695.462	39440.7
695.808	39380.59
696.155	39518.44
696.501	39213.36
696.847	39233.93
697.193	38878.68
697.539	39044.1
697.885	38765.92
698.231	38653.38
698.577	38629.42
698.923	38609.54
699.269	38250.68
699.614	38079.83
699.96	37957.58
700.306	37753.51
700.651	37763.68
700.997	37482.33
701.342	37345.84
701.688	37297.93
702.033	37071.72
702.379	37058.16
702.724	36756.25
703.069	36928.22
703.415	36468.12
703.76	36401.68
704.105	36358.07
704.45	36223.16
704.795	35977.29
705.14	36071.75
705.485	35813.23
705.83	35850.29
706.175	35914.47
706.52	35910.17
706.865	35582.95
707.209	35787.69
707.554	35605.77
707.899	35761.02
708.243	35395.16
708.588	35625.66
708.932	35573.91
709.277	35602.61
709.621	35505.89
709.966	35326.46
710.31	35488.71
710.654	35017.77
710.998	35173.69
711.342	35246.91
711.687	35116.75
712.031	34953.36
712.375	34872.46
712.719	34870.88
713.063	34735.97
713.407	34667.72
713.75	34586.82
714.094	34403.09
714.438	34249.88
714.782	34283.32
715.125	34008.07
715.469	34026.83
715.812	33778.48
716.156	33592.04
716.499	33540.52
716.843	33539.61
717.186	33271.6
717.53	33382.1
717.873	33135.56
718.216	33172.16
718.559	33035.22
718.902	32882.45
719.246	33093.52
719.589	32995.22
719.932	32963.58
720.275	32938.95
720.617	32934.43
720.96	32883.81
721.303	32995.22
721.646	32991.6
721.989	32985.73
722.331	33001.55
722.674	32983.24
723.016	33082.45
723.359	33047.42
723.701	33140.75
724.044	33027.08
724.386	32795.45
724.729	32894.66
725.071	32884.04
725.413	32887.43
725.755	32806.98
726.097	32682.46
726.439	32597.72
726.782	32514.1
727.124	32581.22
727.465	32335.35
727.807	32339.19
728.149	32305.52
728.491	32073.66
728.833	32064.62
729.175	32127.9
729.516	31899.66
729.858	31987.56
730.199	31976.49
730.541	31971.29
730.882	31774.91
731.224	31911.86
731.565	31621.24
731.906	31645.2
732.248	31609.04
732.589	31550.74
732.93	31492.89
733.271	31510.74
733.612	31441.59
733.953	31499.89
734.294	31417.18
734.635	31349.39
734.976	31449.05
735.317	31466.45
735.658	31273.46
735.999	31498.99
736.339	31473.45
736.68	31651.75
737.021	31543.73
737.361	31485.2
737.702	31694.24
738.042	31576.05
738.383	31605.88
738.723	31706.44
739.063	31670.96
739.404	31807.23
739.744	31782.37
740.084	31659.44
740.424	31754.8
740.764	31666.89
741.104	31695.82
741.444	31674.58
741.784	31637.74
742.124	31583.96
742.464	31499.21
742.804	31481.36
743.143	31493.56
743.483	31404.3
743.823	31289.5
744.162	31227.81
744.502	31326.34
744.841	31214.25
745.181	31282.95
745.52	31090.64
745.86	31044.31
746.199	31080.47
746.538	31008.15
746.877	31045.89
747.216	30952.11
747.556	31029.62
747.895	31011.77
748.234	30873.24
748.573	30827.14
748.911	30983.07
749.25	30946.91
749.589	31024.65
749.928	30960.7
750.267	31181.71
750.605	31184.87
750.944	31106.68
751.283	31210.86
751.621	31348.48
751.96	31160.69
752.298	31363.62
752.636	31371.53
752.975	31355.04
753.313	31334.92
753.651	31675.25
