Data from blue_chair_FLMS001491_00019.txt Node
Date: Wed Feb 08 10:29:33 GMT 2017
User: dcchb
Spectrometer: FLMS00149
Trigger mode: 0
Integration Time (sec): 2.000000E-2
Scans to average: 10
Electric dark correction enabled: true
Nonlinearity correction enabled: false
Boxcar width: 0
XAxis mode: Wavelengths
Number of Pixels in Spectrum: 2048
>>>>>Begin Spectral Data<<<<<
341.393	-16.33
341.776	-16.33
342.16	-16.33
342.543	-45.48
342.927	-81.18
343.31	-55.87
343.693	-84.8
344.077	-64.24
344.46	-77.79
344.843	-39.38
345.226	-50.45
345.61	-29.21
345.993	-32.15
346.376	17.12
346.759	13.73
347.142	17.8
347.525	43.33
347.908	48.08
348.291	94.63
348.674	90.34
349.057	108.87
349.44	126.27
349.823	133.27
350.206	159.71
350.588	168.07
350.971	194.06
351.354	185.93
351.737	226.38
352.119	238.13
352.502	229.77
352.884	257.34
353.267	258.69
353.65	285.36
354.032	266.83
354.414	288.3
354.797	278.58
355.179	281.07
355.562	316.09
355.944	319.03
356.326	267.06
356.709	305.02
357.091	303.66
357.473	326.49
357.855	318.58
358.238	342.08
358.62	321.07
359.002	316.09
359.384	322.87
359.766	323.55
360.148	303.21
360.53	298.47
360.912	322.65
361.294	306.6
361.676	299.82
362.057	286.04
362.439	303.66
362.821	305.7
363.203	286.94
363.584	291.24
363.966	306.6
364.348	306.15
364.729	269.77
365.111	283.55
365.493	290.11
365.874	292.59
366.256	295.53
366.637	276.55
367.019	272.03
367.4	301.18
367.781	279.94
368.163	281.29
368.544	290.78
368.925	302.31
369.306	282.42
369.688	274.51
370.069	268.41
370.45	290.11
370.831	269.54
371.212	290.11
371.593	277.9
371.974	286.26
372.355	288.3
372.736	284.46
373.117	264.57
373.498	251.69
373.879	282.2
374.26	272.25
374.641	292.59
375.021	272.48
375.402	312.48
375.783	278.58
376.163	269.99
376.544	310.22
376.925	287.39
377.305	291.24
377.686	288.52
378.066	286.94
378.447	293.27
378.827	293.72
379.208	285.59
379.588	318.58
379.968	283.33
380.349	284.23
380.729	300.5
381.109	299.37
381.489	284.23
381.87	292.37
382.25	291.46
382.63	292.37
383.01	294.85
383.39	291.69
383.77	290.11
384.15	302.31
384.53	317.9
384.91	306.38
385.29	298.92
385.67	296.88
386.049	299.6
386.429	292.82
386.809	302.99
387.189	311.57
387.568	287.39
387.948	284.23
388.328	325.36
388.707	319.48
389.087	317.68
389.466	309.77
389.846	309.99
390.225	312.7
390.605	307.05
390.984	321.29
391.363	317.9
391.743	327.39
392.122	315.42
392.501	333.72
392.881	321.74
393.26	284.23
393.639	323.78
394.018	312.03
394.397	309.54
394.776	326.04
395.155	322.42
395.534	350.44
395.913	319.48
396.292	335.53
396.671	333.27
397.05	332.59
397.429	329.88
397.808	314.74
398.186	335.75
398.565	332.59
398.944	327.62
399.323	339.37
399.701	338.24
400.08	345.25
400.458	349.76
400.837	341.18
401.215	330.1
401.594	356.09
401.972	339.82
402.351	345.47
402.729	313.16
403.107	372.36
403.486	358.35
403.864	354.96
404.242	337.34
404.62	354.28
404.999	357.45
405.377	346.6
405.755	359.48
406.133	353.38
406.511	372.36
406.889	362.87
407.267	360.84
407.645	370.56
408.023	354.96
408.401	367.39
408.779	389.09
409.156	373.04
409.534	397
409.912	385.02
410.29	391.8
410.667	376.88
411.045	371.91
411.422	384.11
411.8	386.6
412.178	403.32
412.555	407.39
412.933	402.64
413.31	382.08
413.687	390.67
414.065	401.51
414.442	397.67
414.819	408.07
415.197	429.08
415.574	418.24
415.951	404.45
416.328	405.13
416.705	409.2
417.082	413.49
417.46	443.77
417.837	413.27
418.214	404.45
418.591	409.2
418.967	433.15
419.344	435.64
419.721	425.7
420.098	427.28
420.475	451.23
420.852	413.27
421.228	435.86
421.605	431.12
421.982	434.28
422.358	444.9
422.735	445.81
423.111	462.08
423.488	446.03
423.864	476.54
424.241	474.96
424.617	465.47
424.994	486.71
425.37	460.5
425.746	472.93
426.123	484
426.499	469.54
426.875	453.49
427.251	479.48
427.627	491.23
428.003	493.72
428.379	482.64
428.756	491.46
429.132	495.98
429.507	491.23
429.883	498.24
430.259	506.37
430.635	494.85
431.011	532.13
431.387	534.84
431.763	506.37
432.138	538.23
432.514	540.27
432.89	522.87
433.265	535.75
433.641	550.44
434.016	542.53
434.392	560.38
434.767	583.88
435.143	560.83
435.518	588.4
435.894	592.92
436.269	592.92
436.644	592.47
437.02	571
437.395	583.88
437.77	612.36
438.145	604.67
438.52	618.23
438.895	606.03
439.271	620.04
439.646	652.58
440.021	657.78
440.395	668.17
440.77	644.9
441.145	662.75
441.52	663.2
441.895	679.47
442.27	669.53
442.645	664.56
443.019	677.89
443.394	679.02
443.769	696.42
444.143	666.59
444.518	726.25
444.892	689.19
445.267	712.47
445.641	708.63
446.016	705.01
446.39	731.9
446.764	710.89
447.139	714.05
447.513	753.82
447.887	728.51
448.262	762.64
448.636	735.97
449.01	737.55
449.384	751.56
449.758	775.06
450.132	764.9
450.506	800.37
450.88	779.58
451.254	751.79
451.628	804.44
452.002	804.22
452.376	794.5
452.75	805.57
453.123	832.01
453.497	824.1
453.871	805.8
454.244	817.55
454.618	838.79
454.992	839.24
455.365	846.02
455.739	834.05
456.112	861.84
456.486	863.42
456.859	886.47
457.232	888.51
457.606	873.82
457.979	907.26
458.352	891.45
458.725	897.55
459.099	915.63
459.472	932.35
459.845	916.53
460.218	914.95
460.591	910.88
460.964	934.38
461.337	934.38
461.71	968.28
462.083	971.9
462.456	938.22
462.829	954.27
463.201	972.12
463.574	995.62
463.947	994.04
464.32	987.94
464.692	1010.31
465.065	1045.79
465.438	1023.65
465.81	1020.03
466.183	1072.91
466.555	1071.78
466.928	1035.17
467.3	1066.36
467.672	1048.28
468.045	1084.66
468.417	1074.49
468.789	1073.14
469.161	1096.64
469.534	1135.73
469.906	1117.65
470.278	1121.27
470.65	1154.94
471.022	1139.35
471.394	1151.78
471.766	1164.66
472.138	1171.44
472.51	1212.12
472.882	1212.34
473.253	1230.42
473.625	1223.41
473.997	1245.79
474.369	1217.09
474.74	1277.88
475.112	1261.61
475.484	1287.37
475.855	1297.99
476.227	1308.16
476.598	1316.07
476.97	1323.3
477.341	1345.22
477.713	1351.09
478.084	1340.7
478.455	1374.14
478.827	1415.73
479.198	1392.45
479.569	1392.68
479.94	1442.39
480.311	1426.8
480.682	1461.83
481.053	1484.42
481.424	1521.03
481.795	1468.38
482.166	1512.22
482.537	1543.18
482.908	1542.28
483.279	1561.48
483.65	1563.97
484.021	1575.72
484.391	1617.53
484.762	1595.16
485.133	1594.03
485.503	1592.67
485.874	1613.69
486.244	1618.21
486.615	1647.36
486.985	1648.26
487.356	1658.88
487.726	1669.05
488.097	1708.37
488.467	1703.4
488.837	1703.85
489.207	1739.11
489.578	1719.9
489.948	1725.77
490.318	1762.84
490.688	1757.19
491.058	1738.88
491.428	1748.6
491.798	1777.07
492.168	1790.18
492.538	1784.76
492.908	1811.87
493.278	1804.87
493.648	1792.44
494.017	1828.14
494.387	1814.81
494.757	1818.65
495.126	1837.86
495.496	1838.09
495.866	1847.13
496.235	1848.03
496.605	1832.44
496.974	1830.86
497.344	1872.89
497.713	1841.93
498.082	1857.3
498.452	1859.56
498.821	1844.64
499.19	1863.85
499.559	1859.56
499.928	1860.23
500.298	1858.2
500.667	1897.29
501.036	1829.05
501.405	1859.56
501.774	1828.6
502.143	1843.96
502.512	1854.81
502.88	1858.43
503.249	1831.08
503.618	1860.91
503.987	1862.95
504.356	1859.1
504.724	1849.16
505.093	1858.88
505.462	1859.33
505.83	1836.28
506.199	1850.52
506.567	1851.87
506.936	1848.93
507.304	1823.85
507.672	1867.01
508.041	1849.61
508.409	1871.76
508.777	1887.13
509.145	1875.6
509.514	1852.55
509.882	1832.21
510.25	1850.29
510.618	1868.14
510.986	1825.43
511.354	1828.37
511.722	1831.08
512.09	1833.57
512.458	1818.2
512.826	1829.5
513.193	1827.24
513.561	1813
513.929	1822.95
514.297	1835.15
514.664	1813.91
515.032	1840.8
515.4	1782.04
515.767	1813.91
516.135	1817.07
516.502	1831.76
516.869	1827.92
517.237	1810.74
517.604	1813
517.972	1826.11
518.339	1813.23
518.706	1816.17
519.073	1779.33
519.44	1780.91
519.808	1818.65
520.175	1763.96
520.542	1777.75
520.909	1779.56
521.276	1748.6
521.643	1742.95
522.009	1769.16
522.376	1772.78
522.743	1788.82
523.11	1783.63
523.477	1799.9
523.843	1820.91
524.21	1775.04
524.577	1799.22
524.943	1796.05
525.31	1770.29
525.676	1775.94
526.043	1754.02
526.409	1764.19
526.776	1778.88
527.142	1758.77
527.508	1775.49
527.874	1753.34
528.241	1773.46
528.607	1777.98
528.973	1769.61
529.339	1749.95
529.705	1774.36
530.071	1770.29
530.437	1765.55
530.803	1795.83
531.169	1791.53
531.535	1741.82
531.901	1776.62
532.267	1747.69
532.632	1785.43
532.998	1745.43
533.364	1784.53
533.73	1741.14
534.095	1743.63
534.461	1750.63
534.826	1751.08
535.192	1753.34
535.557	1726
535.923	1775.04
536.288	1726.23
536.653	1758.32
537.019	1726.45
537.384	1751.31
537.749	1736.4
538.114	1754.25
538.479	1710.41
538.845	1726.23
539.21	1736.85
539.575	1747.92
539.94	1718.09
540.305	1718.77
540.67	1729.84
541.034	1696.17
541.399	1728.49
541.764	1710.63
542.129	1692.55
542.494	1700.24
542.858	1690.75
543.223	1668.83
543.587	1686.9
543.952	1682.61
544.316	1667.7
544.681	1675.61
545.045	1669.28
545.41	1680.13
545.774	1714.47
546.138	1666.57
546.503	1682.84
546.867	1652.56
547.231	1662.5
547.595	1693.91
547.959	1636.96
548.324	1682.16
548.688	1654.14
549.052	1628.15
549.416	1672.44
549.779	1672.44
550.143	1622.5
550.507	1636.28
550.871	1630.64
551.235	1660.69
551.599	1658.88
551.962	1613.91
552.326	1602.39
552.689	1639.67
553.053	1602.84
553.417	1624.53
553.78	1616.62
554.143	1620.24
554.507	1615.27
554.87	1619.79
555.234	1618.43
555.597	1590.64
555.96	1624.99
556.323	1620.47
556.686	1603.52
557.05	1610.97
557.413	1604.65
557.776	1621.37
558.139	1629.96
558.502	1605.78
558.865	1638.54
559.228	1598.77
559.59	1588.15
559.953	1605.33
560.316	1602.61
560.679	1631.31
561.041	1574.37
561.404	1643.29
561.767	1646
562.129	1645.78
562.492	1629.05
562.854	1584.08
563.217	1638.32
563.579	1607.81
563.941	1622.27
564.304	1635.83
564.666	1614.59
565.028	1620.24
565.39	1636.51
565.753	1647.58
566.115	1647.81
566.477	1612.78
566.839	1628.83
567.201	1655.95
567.563	1639.67
567.925	1653.46
568.287	1646.23
568.648	1639.45
569.01	1646.68
569.372	1673.57
569.734	1660.24
570.095	1664.53
570.457	1673.8
570.819	1679
571.18	1667.47
571.542	1666.34
571.903	1676.51
572.265	1693.68
572.626	1698.43
572.987	1668.37
573.349	1714.93
573.71	1695.27
574.071	1693.91
574.432	1688.26
574.794	1708.6
575.155	1708.83
575.516	1718.09
575.877	1711.76
576.238	1738.43
576.599	1720.8
576.96	1715.6
577.32	1717.19
577.681	1732.33
578.042	1728.94
578.403	1762.38
578.763	1704.08
579.124	1745.21
579.485	1747.47
579.845	1742.95
580.206	1754.02
580.566	1780.24
580.927	1760.8
581.287	1752.67
581.648	1712.44
582.008	1766
582.368	1760.35
582.728	1759.67
583.089	1754.47
583.449	1757.19
583.809	1767.13
584.169	1769.16
584.529	1752.21
584.889	1781.37
585.249	1757.19
585.609	1764.19
585.969	1758.77
586.329	1772.55
586.688	1791.31
587.048	1766.68
587.408	1793.34
587.768	1774.81
588.127	1792.66
588.487	1772.78
588.846	1780.01
589.206	1774.81
589.565	1753.12
589.925	1811.65
590.284	1794.25
590.643	1789.95
591.003	1786.34
591.362	1795.6
591.721	1789.5
592.08	1801.7
592.44	1797.41
592.799	1758.77
593.158	1774.13
593.517	1802.16
593.876	1759.45
594.235	1777.07
594.593	1786.11
594.952	1762.84
595.311	1776.17
595.67	1776.85
596.029	1805.32
596.387	1780.46
596.746	1785.89
597.104	1791.31
597.463	1800.35
597.822	1781.14
598.18	1766.22
598.538	1769.16
598.897	1811.87
599.255	1760.8
599.613	1777.52
599.972	1770.74
600.33	1774.36
600.688	1782.5
601.046	1791.99
601.404	1778.65
601.762	1760.12
602.12	1766
602.478	1794.02
602.836	1794.02
603.194	1792.89
603.552	1791.31
603.91	1772.55
604.268	1754.25
604.625	1772.55
604.983	1777.07
605.341	1780.69
605.698	1773.68
606.056	1782.27
606.413	1798.77
606.771	1791.53
607.128	1774.36
607.485	1770.97
607.843	1749.05
608.2	1776.62
608.557	1762.16
608.914	1771.65
609.272	1794.02
609.629	1775.04
609.986	1804.42
610.343	1781.59
610.7	1793.34
611.057	1797.64
611.414	1808.26
611.771	1804.87
612.127	1786.79
612.484	1776.39
612.841	1820.01
613.198	1805.77
613.554	1799.9
613.911	1797.18
614.267	1802.83
614.624	1775.04
614.98	1787.69
615.337	1803.51
615.693	1816.39
616.05	1825.88
616.406	1817.52
616.762	1794.7
617.118	1801.25
617.475	1822.49
617.831	1820.23
618.187	1825.21
618.543	1804.87
618.899	1833.57
619.255	1826.79
619.611	1800.35
619.967	1859.78
620.323	1805.77
620.678	1813
621.034	1825.43
621.39	1795.6
621.746	1803.06
622.101	1814.36
622.457	1861.14
622.812	1827.24
623.168	1809.84
623.523	1833.79
623.879	1840.12
624.234	1819.1
624.589	1810.07
624.945	1809.39
625.3	1830.4
625.655	1802.61
626.01	1819.1
626.365	1852.55
626.72	1845.54
627.075	1858.2
627.43	1826.34
627.785	1815.49
628.14	1857.3
628.495	1819.56
628.85	1817.75
629.205	1831.53
629.559	1880.12
629.914	1865.88
630.269	1843.51
630.623	1828.82
630.978	1818.2
631.332	1839.67
631.687	1824.3
632.041	1841.93
632.396	1838.31
632.75	1824.08
633.104	1839.9
633.459	1780.01
633.813	1850.52
634.167	1850.29
634.521	1811.42
634.875	1848.71
635.229	1824.08
635.583	1812.1
635.937	1807.35
636.291	1812.33
636.645	1818.65
636.999	1828.6
637.352	1808.26
637.706	1827.92
638.06	1814.36
638.413	1821.14
638.767	1832.89
639.121	1842.83
639.474	1798.31
639.828	1822.04
640.181	1834.47
640.534	1825.66
640.888	1816.17
641.241	1807.35
641.594	1834.7
641.947	1830.4
642.301	1804.42
642.654	1824.53
643.007	1829.5
643.36	1846.45
643.713	1834.25
644.066	1817.75
644.419	1808.94
644.771	1808.26
645.124	1791.08
645.477	1785.43
645.83	1823.85
646.182	1783.17
646.535	1776.17
646.888	1800.12
647.24	1802.16
647.593	1788.82
647.945	1803.51
648.298	1756.06
648.65	1788.82
649.002	1766.22
649.355	1800.57
649.707	1802.61
650.059	1773.68
650.411	1829.73
650.763	1830.86
651.115	1831.31
651.467	1821.59
651.819	1802.38
652.171	1876.05
652.523	1866.79
652.875	1853.45
653.227	1840.35
653.578	1863.62
653.93	1845.54
654.282	1849.61
654.633	1837.41
654.985	1866.56
655.337	1852.55
655.688	1799.9
656.039	1852.1
656.391	1853.45
656.742	1869.5
657.094	1824.3
657.445	1850.06
657.796	1850.97
658.147	1842.83
658.498	1844.64
658.849	1835.6
659.2	1864.3
659.551	1837.18
659.902	1872.44
660.253	1836.28
660.604	1885.54
660.955	1879.67
661.306	1867.01
661.656	1872.66
662.007	1873.57
662.358	1873.34
662.708	1864.98
663.059	1827.01
663.409	1886.9
663.76	1848.48
664.11	1879.22
664.461	1845.32
664.811	1889.39
665.161	1852.78
665.511	1867.92
665.862	1866.56
666.212	1888.26
666.562	1863.85
666.912	1897.07
667.262	1885.77
667.612	1874.47
667.962	1888.26
668.312	1863.4
668.662	1866.11
669.011	1891.87
669.361	1892.1
669.711	1877.18
670.06	1843.51
670.41	1871.08
670.76	1866.56
671.109	1863.4
671.459	1865.88
671.808	1882.15
672.157	1853.91
672.507	1845.54
672.856	1844.64
673.205	1820.01
673.554	1865.88
673.904	1842.38
674.253	1859.78
674.602	1845.54
674.951	1798.54
675.3	1815.26
675.649	1822.49
675.998	1837.86
676.346	1809.84
676.695	1834.02
677.044	1836.96
677.393	1826.11
677.741	1821.36
678.09	1838.77
678.438	1820.23
678.787	1830.86
679.135	1801.7
679.484	1785.43
679.832	1822.72
680.181	1787.92
680.529	1797.86
680.877	1767.13
681.225	1754.93
681.573	1804.64
681.922	1776.17
682.27	1815.49
682.618	1793.34
682.966	1784.53
683.314	1762.16
683.661	1769.39
684.009	1768.94
684.357	1784.53
684.705	1771.65
685.053	1742.27
685.4	1751.76
685.748	1751.76
686.095	1735.94
686.443	1771.65
686.79	1704.31
687.138	1777.98
687.485	1763.06
687.832	1703.18
688.18	1758.77
688.527	1735.04
688.874	1717.41
689.221	1699.33
689.568	1699.33
689.915	1711.54
690.262	1704.76
690.609	1704.08
690.956	1678.09
691.303	1681.26
691.65	1688.71
691.997	1672.89
692.344	1681.26
692.69	1680.35
693.037	1674.25
693.383	1681.71
693.73	1683.97
694.077	1664.98
694.423	1633.8
694.769	1663.18
695.116	1631.99
695.462	1653.01
695.808	1614.59
696.155	1644.65
696.501	1640.8
696.847	1634.93
697.193	1619.34
697.539	1622.05
697.885	1630.18
698.231	1600.58
698.577	1646.91
698.923	1613.01
699.269	1632.44
699.614	1608.26
699.96	1600.35
700.306	1606.45
700.651	1588.15
700.997	1579.56
701.342	1616.17
701.688	1602.39
702.033	1607.13
702.379	1590.41
702.724	1592.22
703.069	1594.25
703.415	1554.03
703.76	1550.19
704.105	1575.04
704.45	1577.3
704.795	1547.93
705.14	1549.06
705.485	1541.82
705.83	1549.06
706.175	1569.62
706.52	1559.68
706.865	1547.25
707.209	1552.67
707.554	1572.78
707.899	1597.87
708.243	1590.64
708.588	1547.93
708.932	1540.47
709.277	1554.93
709.621	1544.76
709.966	1546.12
710.31	1547.7
710.654	1550.86
710.998	1541.37
711.342	1539.34
711.687	1549.06
712.031	1563.07
712.375	1548.83
712.719	1554.93
713.063	1541.37
713.407	1561.71
713.75	1568.94
714.094	1526.91
714.438	1537.53
714.782	1569.85
715.125	1562.84
715.469	1559.22
715.812	1561.03
716.156	1573.24
716.499	1532.11
716.843	1550.19
717.186	1574.14
717.53	1576.17
717.873	1584.99
718.216	1584.31
718.559	1561.26
718.902	1569.85
719.246	1574.14
719.589	1597.64
719.932	1581.37
720.275	1589.51
720.617	1566
720.96	1563.07
721.303	1605.33
721.646	1594.03
721.989	1602.84
722.331	1611.65
722.674	1608.26
723.016	1586.34
723.359	1602.39
723.701	1622.05
724.044	1599.9
724.386	1598.09
724.729	1591.77
725.071	1623.18
725.413	1599
725.755	1645.78
726.097	1623.4
726.439	1620.47
726.782	1651.2
727.124	1633.12
727.465	1664.31
727.807	1662.27
728.149	1705.21
728.491	1669.28
728.833	1704.31
729.175	1687.58
729.516	1677.19
729.858	1667.24
730.199	1714.93
730.541	1694.59
730.882	1694.59
731.224	1706.79
731.565	1682.61
731.906	1716.28
732.248	1740.46
732.589	1756.06
732.93	1735.94
733.271	1764.19
733.612	1741.59
733.953	1742.95
734.294	1772.1
734.635	1766
734.976	1802.38
735.317	1787.69
735.658	1816.62
735.999	1792.89
736.339	1811.42
736.68	1842.61
737.021	1802.61
737.361	1834.47
737.702	1870.4
738.042	1880.35
738.383	1901.14
738.723	1882.83
739.063	1916.5
739.404	1899.1
739.744	1940.91
740.084	1930.06
740.424	1941.36
740.764	1963.06
741.104	1977.74
741.444	1983.39
741.784	1998.31
742.124	2016.61
742.464	2017.74
742.804	2051.64
743.143	2057.29
743.483	2084.86
743.823	2128.02
744.162	2128.02
744.502	2148.36
744.841	2181.58
745.181	2213.44
745.52	2238.53
745.86	2248.25
746.199	2248.7
746.538	2259.32
746.877	2279.43
747.216	2339.09
747.556	2375.47
747.895	2379.32
748.234	2427.9
748.573	2445.3
748.911	2490.73
749.25	2500.67
749.589	2523.27
749.928	2567.11
750.267	2630.38
750.605	2642.59
750.944	2697.05
751.283	2721.68
751.621	2759.42
751.96	2801
752.298	2876.48
752.636	2848.68
752.975	2906.31
753.313	2942.92
753.651	3038.06
753.989	3064.72
754.327	3143.82
754.666	3191.27
755.004	3228.79
755.342	3240.54
755.679	3292.29
756.017	3396.69
756.355	3393.98
756.693	3459.74
757.031	3557.14
757.368	3612.96
757.706	3640.07
758.044	3672.62
758.381	3781.31
758.719	3800.97
759.056	3850.46
759.394	3950.57
759.731	3983.79
760.068	4033.06
760.405	4095.66
760.743	4122.32
761.08	4247.52
761.417	4275.31
761.754	4351.24
762.091	4364.57
762.428	4456.78
762.765	4531.35
763.102	4563.67
763.438	4631.46
763.775	4681.63
764.112	4727.28
764.449	4779.03
764.785	4823.55
765.122	4873.04
765.458	4930.21
765.795	4936.54
766.131	5026.25
766.467	5098.34
766.804	5135.4
767.14	5148.06
767.476	5175.4
767.812	5230.09
768.148	5319.35
768.485	5393.47
768.821	5396.64
769.157	5456.3
769.492	5460.14
769.828	5531.78
770.164	5536.3
770.5	5615.84
770.836	5672.34
771.171	5602.73
771.507	5687.03
