Data from blue_surface_keyboard_FLMS001491_062.txt Node
Date: Tue Feb 07 11:13:29 GMT 2017
User: dcchb
Spectrometer: FLMS00149
Trigger mode: 0
Integration Time (sec): 2.000000E-2
Scans to average: 10
Electric dark correction enabled: true
Nonlinearity correction enabled: false
Boxcar width: 0
XAxis mode: Wavelengths
Number of Pixels in Spectrum: 2048
>>>>>Begin Spectral Data<<<<<
341.393	-5.07
341.776	-5.07
342.16	-5.07
342.543	-66.31
342.927	-73.32
343.31	-44.39
343.693	-73.09
344.077	-67.44
344.46	-69.93
344.843	-59.08
345.226	-51.4
345.61	-24.05
345.993	-16.14
346.376	-14.11
346.759	17.3
347.142	8.26
347.525	47.36
347.908	62.27
348.291	89.16
348.674	86.23
349.057	109.05
349.44	133
349.823	154.02
350.206	159.9
350.588	161.48
350.971	185.66
351.354	195.15
351.737	219.78
352.119	220.69
352.502	235.15
352.884	217.75
353.267	242.38
353.65	254.36
354.032	261.14
354.414	287.58
354.797	296.39
355.179	286
355.562	308.82
355.944	296.16
356.326	312.66
356.709	312.44
357.091	310.63
357.473	314.92
357.855	334.13
358.238	330.06
358.62	303.62
359.002	330.51
359.384	303.4
359.766	300.23
360.148	299.78
360.53	308.14
360.912	312.66
361.294	324.86
361.676	291.19
362.057	315.37
362.439	315.15
362.821	316.05
363.203	282.61
363.584	293.45
363.966	299.33
364.348	319.89
364.729	297.52
365.111	288.03
365.493	301.59
365.874	301.14
366.256	294.81
366.637	294.36
367.019	306.56
367.4	286.67
367.781	288.03
368.163	286.45
368.544	280.8
368.925	263.4
369.306	290.97
369.688	284.64
370.069	286.9
370.45	287.13
370.831	293.68
371.212	299.78
371.593	282.83
371.974	278.99
372.355	287.58
372.736	302.27
373.117	281.25
373.498	291.19
373.879	295.03
374.26	281.25
374.641	293
375.021	306.56
375.402	263.17
375.783	306.56
376.163	276.28
376.544	270.18
376.925	288.93
377.305	300.46
377.686	287.58
378.066	270.63
378.447	316.95
378.827	297.29
379.208	301.59
379.588	276.96
379.968	303.62
380.349	308.59
380.729	293.45
381.109	311.08
381.489	315.6
381.87	283.96
382.25	303.85
382.63	306.56
383.01	305.66
383.39	302.27
383.77	297.07
384.15	307.01
384.53	316.95
384.91	316.28
385.29	309.72
385.67	312.66
386.049	322.15
386.429	322.15
386.809	300.01
387.189	330.74
387.568	322.15
387.948	309.5
388.328	314.7
388.707	297.75
389.087	327.58
389.466	301.81
389.846	315.83
390.225	310.18
390.605	305.66
390.984	313.34
391.363	311.98
391.743	327.58
392.122	329.61
392.501	334.13
392.881	329.38
393.26	337.07
393.639	333.23
394.018	326.67
394.397	307.01
394.776	317.18
395.155	298.88
395.534	327.35
395.913	335.03
396.292	329.16
396.671	328.03
397.05	308.37
397.429	323.73
397.808	335.26
398.186	321.93
398.565	321.25
398.944	344.75
399.323	371.87
399.701	325.54
400.08	327.58
400.458	326.9
400.837	348.14
401.215	341.81
401.594	325.77
401.972	353.11
402.351	329.16
402.729	322.15
403.107	352.89
403.486	345.2
403.864	339.1
404.242	348.82
404.62	353.56
404.999	346.56
405.377	373.9
405.755	360.8
406.133	349.95
406.511	369.38
406.889	345.65
407.267	365.77
407.645	361.02
408.023	341.14
408.401	351.76
408.779	363.28
409.156	360.34
409.534	357.41
409.912	366.9
410.29	375.71
410.667	367.58
411.045	373.45
411.422	371.87
411.8	368.7
412.178	384.52
412.555	366.22
412.933	352.89
413.31	369.16
413.687	405.77
414.065	402.38
414.442	373.68
414.819	391.98
415.197	385.43
415.574	394.69
415.951	378.2
416.328	385.2
416.705	396.5
417.082	394.24
417.46	387.69
417.837	379.1
418.214	387.46
418.591	415.03
418.967	391.76
419.344	386.33
419.721	391.3
420.098	406.22
420.475	405.31
420.852	397.18
421.228	402.38
421.605	415.94
421.982	390.85
422.358	422.04
422.735	389.72
423.111	401.25
423.488	422.49
423.864	411.19
424.241	416.16
424.617	411.64
424.994	410.96
425.37	424.3
425.746	419.33
426.123	406.22
426.499	424.07
426.875	439.21
427.251	424.52
427.627	437.4
428.003	465.43
428.379	437.18
428.756	431.75
429.132	433.56
429.507	434.24
429.883	446.44
430.259	446.22
430.635	465.43
431.011	454.8
431.387	464.3
431.763	449.38
432.138	451.41
432.514	451.64
432.89	457.52
433.265	466.33
433.641	476.5
434.016	476.95
434.392	475.82
434.767	474.92
435.143	475.59
435.518	474.92
435.894	472.21
436.269	477.85
436.644	474.69
437.02	484.86
437.395	488.48
437.77	507.46
438.145	506.1
438.52	493.22
438.895	510.4
439.271	502.03
439.646	516.27
440.021	521.47
440.395	493.45
440.77	501.81
441.145	521.24
441.52	527.12
441.895	536.61
442.27	501.81
442.645	533.9
443.019	518.76
443.394	517.18
443.769	536.61
444.143	536.16
444.518	540.23
444.892	535.48
445.267	534.8
445.641	542.26
446.016	521.92
446.39	549.72
446.764	540
447.139	554.46
447.513	540.68
447.887	525.31
448.262	532.77
448.636	560.11
449.01	552.43
449.384	558.53
449.758	561.69
450.132	551.98
450.506	584.97
450.88	592.65
451.254	560.34
451.628	554.69
452.002	590.39
452.376	575.25
452.75	592.65
453.123	577.51
453.497	605.31
453.871	587.46
454.244	595.82
454.618	565.99
454.992	614.35
455.365	594.01
455.739	607.12
456.112	613.67
456.486	608.02
456.859	618.42
457.232	624.29
457.606	616.16
457.979	615.93
458.352	659.09
458.725	662.03
459.099	634.01
459.472	664.29
459.845	662.26
460.218	636.95
460.591	650.96
460.964	650.96
461.337	652.54
461.71	681.01
462.083	662.93
462.456	689.6
462.829	685.31
463.201	681.92
463.574	640.56
463.947	665.87
464.32	700.9
464.692	688.02
465.065	706.1
465.438	736.15
465.81	726.44
466.183	708.58
466.555	733.67
466.928	726.66
467.3	737.28
467.672	717.17
468.045	752.88
468.417	708.13
468.789	738.41
469.161	745.42
469.534	747
469.906	752.88
470.278	768.69
470.65	777.06
471.022	785.87
471.394	787.9
471.766	808.02
472.138	825.42
472.51	800.56
472.882	812.76
473.253	814.57
473.625	835.36
473.997	853.44
474.369	845.98
474.74	849.14
475.112	872.65
475.484	876.71
475.855	885.75
476.227	898.18
476.598	903.38
476.97	907.67
477.341	927.79
477.713	926.2
478.084	892.31
478.455	937.73
478.827	934.57
479.198	974.11
479.569	951.29
479.94	964.4
480.311	966.66
480.682	989.93
481.053	979.76
481.424	1001.23
481.795	1002.59
482.166	1019.31
482.537	1038.52
482.908	1050.27
483.279	1073.77
483.65	1072.19
484.021	1071.74
484.391	1055.69
484.762	1110.61
485.133	1071.96
485.503	1098.18
485.874	1114.9
486.244	1134.11
486.615	1140.44
486.985	1120.32
487.356	1145.86
487.726	1151.28
488.097	1154.9
488.467	1147.44
488.837	1165.52
489.207	1175.69
489.578	1214.33
489.948	1214.56
490.318	1190.38
490.688	1221.11
491.058	1246.87
491.428	1239.19
491.798	1246.87
492.168	1256.37
492.538	1267.44
492.908	1271.96
493.278	1266.76
493.648	1271.05
494.017	1276.25
494.387	1294.78
494.757	1316.48
495.126	1298.62
495.496	1286.42
495.866	1314.44
496.235	1324.16
496.605	1283.48
496.974	1319.64
497.344	1325.74
497.713	1342.46
498.082	1336.36
498.452	1330.49
498.821	1360.09
499.19	1318.74
499.559	1354.67
499.928	1348.34
500.298	1364.16
500.667	1386.08
501.036	1366.64
501.405	1365.06
501.774	1373.65
502.143	1376.14
502.512	1377.27
502.88	1372.97
503.249	1389.7
503.618	1388.34
503.987	1389.7
504.356	1385.63
504.724	1409.58
505.093	1392.86
505.462	1383.82
505.83	1413.2
506.199	1445.96
506.567	1402.35
506.936	1415.23
507.304	1431.05
507.672	1427.21
508.041	1434.21
508.409	1424.95
508.777	1400.99
509.145	1432.63
509.514	1437.83
509.882	1463.82
510.25	1451.84
510.618	1445.06
510.986	1439.41
511.354	1442.35
511.722	1461.56
512.09	1456.36
512.458	1459.98
512.826	1478.05
513.193	1480.77
513.561	1474.44
513.929	1472.18
514.297	1494.55
514.664	1476.7
515.032	1476.47
515.4	1484.83
515.767	1487.55
516.135	1468.11
516.502	1515.79
516.869	1511.95
517.237	1529.35
517.604	1482.8
517.972	1535
518.339	1506.75
518.706	1505.62
519.073	1488.9
519.44	1497.04
519.808	1519.86
520.175	1525.74
520.542	1503.36
520.909	1537.04
521.276	1502.91
521.643	1549.46
522.009	1527.32
522.376	1535.68
522.743	1542.23
523.11	1554.66
523.477	1560.99
523.843	1537.26
524.21	1543.82
524.577	1579.07
524.943	1568.9
525.31	1534.32
525.676	1575.23
526.043	1586.07
526.409	1577.03
526.776	1608.45
527.142	1592.85
527.508	1594.44
527.874	1587.2
528.241	1593.98
528.607	1619.07
528.973	1627.2
529.339	1598.96
529.705	1604.15
530.071	1603.93
530.437	1613.42
530.803	1599.63
531.169	1603.47
531.535	1623.59
531.901	1616.36
532.267	1628.11
532.632	1613.19
532.998	1636.24
533.364	1647.09
533.73	1648.67
534.095	1666.98
534.461	1619.75
534.826	1646.86
535.192	1651.61
535.557	1658.61
535.923	1641.67
536.288	1667.65
536.653	1645.06
537.019	1664.49
537.384	1632.63
537.749	1639.86
538.114	1617.49
538.479	1610.03
538.845	1652.51
539.21	1633.53
539.575	1637.82
539.94	1658.39
540.305	1650.48
540.67	1664.72
541.034	1667.88
541.399	1649.8
541.764	1648.67
542.129	1655.22
542.494	1667.65
542.858	1656.58
543.223	1646.19
543.587	1654.32
543.952	1673.98
544.316	1681.21
544.681	1656.13
545.045	1658.61
545.41	1656.81
545.774	1657.26
546.138	1648.9
546.503	1646.64
546.867	1703.13
547.231	1697.48
547.595	1682.57
547.959	1696.81
548.324	1661.33
548.688	1650.48
549.052	1667.43
549.416	1673.98
549.779	1663.13
550.143	1695.45
550.507	1669.01
550.871	1679.86
551.235	1659.74
551.599	1680.31
551.962	1669.46
552.326	1697.94
552.689	1707.65
553.053	1677.82
553.417	1670.59
553.78	1679.4
554.143	1710.14
554.507	1727.77
554.87	1692.06
555.234	1699.74
555.597	1716.01
555.96	1693.19
556.323	1682.34
556.686	1688.67
557.05	1721.66
557.413	1690.48
557.776	1718.5
558.139	1694.55
558.502	1704.49
558.865	1712.17
559.228	1736.58
559.59	1741.1
559.953	1710.82
560.316	1744.49
560.679	1721.44
561.041	1729.57
561.404	1736.35
561.767	1706.52
562.129	1714.21
562.492	1776.58
562.854	1724.83
563.217	1742
563.579	1738.84
563.941	1769.8
564.304	1758.5
564.666	1788.33
565.028	1768.67
565.39	1757.37
565.753	1767.31
566.115	1757.37
566.477	1790.36
566.839	1727.99
567.201	1753.3
567.563	1798.5
567.925	1764.15
568.287	1787.42
568.648	1768.44
569.01	1786.52
569.372	1774.09
569.734	1769.12
570.095	1807.99
570.457	1818.84
570.819	1762.11
571.18	1780.19
571.542	1804.15
571.903	1801.44
572.265	1811.38
572.626	1824.94
572.987	1809.57
573.349	1817.71
573.71	1815.45
574.071	1812.06
574.432	1820.19
574.794	1818.84
575.155	1821.1
575.516	1798.05
575.877	1836.01
576.238	1795.11
576.599	1816.8
576.96	1816.35
577.32	1847.99
577.681	1850.25
578.042	1851.15
578.403	1837.82
578.763	1828.1
579.124	1880.53
579.485	1860.64
579.845	1838.27
580.206	1869.91
580.566	1863.58
580.927	1859.51
581.287	1825.16
581.648	1845.95
582.008	1848.44
582.368	1868.78
582.728	1869.23
583.089	1840.98
583.449	1866.74
583.809	1854.54
584.169	1867.42
584.529	1865.16
584.889	1855.22
585.249	1870.81
585.609	1856.35
585.969	1878.95
586.329	1873.3
586.688	1864.94
587.048	1873.98
587.408	1892.28
587.768	1888.67
588.127	1890.92
588.487	1890.92
588.846	1871.72
589.206	1883.02
589.565	1878.95
589.925	1852.51
590.284	1862
590.643	1882.79
591.003	1890.02
591.362	1878.27
591.721	1904.94
592.08	1857.93
592.44	1901.77
592.799	1915.78
593.158	1899.96
593.517	1885.05
593.876	1899.96
594.235	1879.17
594.593	1916.46
594.952	1932.73
595.311	1897.93
595.67	1900.42
596.029	1914.43
596.387	1931.83
596.746	1933.86
597.104	1896.35
597.463	1904.94
597.822	1919.4
598.18	1887.31
598.538	1891.38
598.897	1924.14
599.255	1845.05
599.613	1898.83
599.972	1934.09
600.33	1921.43
600.688	1937.25
601.046	1897.48
601.404	1941.32
601.762	1934.99
602.12	1939.96
602.478	1943.8
602.836	2001.66
603.194	1936.57
603.552	1924.82
603.91	1948.32
604.268	1948.55
604.625	1935.44
604.983	1956.69
605.341	1942.9
605.698	1964.82
606.056	1974.31
606.413	1931.83
606.771	1955.56
607.128	1971.37
607.485	1971.37
607.843	1970.24
608.2	1977.93
608.557	1949.45
608.914	1945.84
609.272	1981.09
609.629	1975.22
609.986	2008.66
610.343	1961.88
610.7	1993.07
611.057	1963.24
611.414	1996.91
611.771	2001.88
612.127	2035.1
612.484	2019.28
612.841	2021.99
613.198	2002.11
613.554	2004.59
613.911	2025.38
614.267	2021.54
614.624	2022.9
614.98	2022.45
615.337	2034.65
615.693	2000.75
616.05	2014.31
616.406	2017.93
616.762	2037.14
617.118	2024.03
617.475	2047.08
617.831	2053.86
618.187	2067.19
618.543	2059.06
618.899	2045.95
619.255	2058.6
619.611	2056.8
619.967	2055.21
620.323	2080.3
620.678	2064.93
621.034	2062.45
621.39	2074.87
621.746	2007.53
622.101	2066.51
622.457	2074.87
622.812	2083.01
623.168	2084.14
623.523	2076.91
623.879	2085.95
624.234	2079.17
624.589	2117.36
624.945	2098.38
625.3	2112.84
625.655	2145.16
626.01	2115.1
626.365	2098.38
626.72	2127.75
627.075	2105.83
627.43	2103.12
627.785	2084.82
628.14	2129.34
628.495	2116.23
628.85	2112.16
629.205	2136.57
629.559	2146.96
629.914	2127.08
630.269	2161.88
630.623	2137.02
630.978	2157.81
631.332	2174.31
631.687	2134.99
632.041	2175.89
632.396	2165.27
632.75	2184.7
633.104	2130.01
633.459	2178.37
633.813	2170.92
634.167	2172.73
634.521	2187.87
634.875	2180.18
635.229	2184.25
635.583	2201.2
635.937	2196.68
636.291	2207.07
636.645	2189.67
636.999	2220.63
637.352	2187.64
637.706	2207.98
638.06	2219.28
638.413	2232.84
638.767	2242.33
639.121	2218.6
639.474	2205.49
639.828	2237.36
640.181	2231.03
640.534	2228.77
640.888	2265.6
641.241	2250.92
641.594	2221.31
641.947	2288.65
642.301	2281.65
642.654	2245.72
643.007	2276.45
643.36	2298.15
643.713	2285.94
644.066	2308.09
644.419	2309.44
644.771	2283
645.124	2297.47
645.477	2285.04
645.83	2281.2
646.182	2290.69
646.535	2310.12
646.888	2296.34
647.24	2332.95
647.593	2323.23
647.945	2307.19
648.298	2295.43
648.65	2323.91
649.002	2338.6
649.355	2324.36
649.707	2335.88
650.059	2370.23
650.411	2424.92
650.763	2433.96
651.115	2435.54
651.467	2448.88
651.819	2451.59
652.171	2513.96
652.523	2454.07
652.875	2485.71
653.227	2478.71
653.578	2511.25
653.93	2538.82
654.282	2528.2
654.633	2520.51
654.985	2521.87
655.337	2563.68
655.688	2560.96
656.039	2563.22
656.391	2559.83
656.742	2591.47
657.094	2611.58
657.445	2614.97
657.796	2639.61
658.147	2644.35
658.498	2647.29
658.849	2640.28
659.2	2629.66
659.551	2685.71
659.902	2718.47
660.253	2666.05
660.604	2707.17
660.955	2710.11
661.306	2751.92
661.656	2727.96
662.007	2747.85
662.358	2755.53
662.708	2737.46
663.059	2787.62
663.409	2825.14
663.76	2799.38
664.11	2859.94
664.461	2890.67
664.811	2875.53
665.161	2878.7
665.511	2892.03
665.862	2929.09
666.212	2939.03
666.562	2915.53
666.912	2934.06
667.262	2959.6
667.612	2996.66
667.962	2991.91
668.312	2999.14
668.662	3020.39
669.011	3039.6
669.361	3013.83
669.711	3023.1
670.06	3045.47
670.41	3070.78
670.76	3093.83
671.109	3096.09
671.459	3086.6
671.808	3139.03
672.157	3131.34
672.507	3102.19
672.856	3127.5
673.205	3197.78
673.554	3216.09
673.904	3176.77
674.253	3219.48
674.602	3218.12
674.951	3179.93
675.3	3195.3
675.649	3279.59
675.998	3274.84
676.346	3258.12
676.695	3324.56
677.044	3325.01
677.393	3341.51
677.741	3358.23
678.09	3308.06
678.438	3345.8
678.787	3364.11
679.135	3368.63
679.484	3396.2
679.832	3394.84
680.181	3400.04
680.529	3409.98
680.877	3449.53
681.225	3455.86
681.573	3482.97
681.922	3429.19
682.27	3500.37
682.618	3456.31
682.966	3465.12
683.314	3522.75
683.661	3487.49
684.009	3526.36
684.357	3494.5
684.705	3537.66
685.053	3547.83
685.4	3543.76
685.748	3527.49
686.095	3560.94
686.443	3562.07
686.79	3592.35
687.138	3612.46
687.485	3621.73
687.832	3615.17
688.18	3629.18
688.527	3617.21
688.874	3636.87
689.221	3604.78
689.568	3660.14
689.915	3664.89
690.262	3634.38
690.609	3636.42
690.956	3644.55
691.303	3661.95
691.65	3639.13
691.997	3662.63
692.344	3651.1
692.69	3647.26
693.037	3651.1
693.383	3676.64
693.73	3685.45
694.077	3644.1
694.423	3666.7
694.769	3670.09
695.116	3653.36
695.462	3722.74
695.808	3665.57
696.155	3694.95
696.501	3690.88
696.847	3659.69
697.193	3658.79
697.539	3701.27
697.885	3660.37
698.231	3649.97
698.577	3620.37
698.923	3654.72
699.269	3619.02
699.614	3609.07
699.96	3667.83
700.306	3677.32
700.651	3646.81
700.997	3679.8
701.342	3649.97
701.688	3591.67
702.033	3687.71
702.379	3661.95
702.724	3620.6
703.069	3619.92
703.415	3572.46
703.76	3643.87
704.105	3618.79
704.45	3617.66
704.795	3595.51
705.14	3595.06
705.485	3582.18
705.83	3570.43
706.175	3622.63
706.52	3591.67
706.865	3607.49
707.209	3593.25
707.554	3590.54
707.899	3569.75
708.243	3639.58
708.588	3542.86
708.932	3550.09
709.277	3560.71
709.621	3567.26
709.966	3555.97
710.31	3579.69
710.654	3540.37
710.998	3555.74
711.342	3548.28
711.687	3536.08
712.031	3551.67
712.375	3528.17
712.719	3529.75
713.063	3547.38
713.407	3529.75
713.75	3548.06
714.094	3549.41
714.438	3528.62
714.782	3566.59
715.125	3524.33
715.469	3526.59
715.812	3553.25
716.156	3502.63
716.499	3546.93
716.843	3567.72
717.186	3508.74
717.53	3561.62
717.873	3511.45
718.216	3503.54
718.559	3549.19
718.902	3535.18
719.246	3502.63
719.589	3512.35
719.932	3511.67
720.275	3487.95
720.617	3509.41
720.96	3506.25
721.303	3513.03
721.646	3524.33
721.989	3529.3
722.331	3538.11
722.674	3491.33
723.016	3518.45
723.359	3531.56
723.701	3527.27
724.044	3497.89
724.386	3525.46
724.729	3540.6
725.071	3526.59
725.413	3531.11
725.755	3541.5
726.097	3516.19
726.439	3503.99
726.782	3492.46
727.124	3561.39
727.465	3551.67
727.807	3541.5
728.149	3532.46
728.491	3516.87
728.833	3503.54
729.175	3511
729.516	3565.68
729.858	3504.89
730.199	3544.89
730.541	3536.31
730.882	3526.14
731.224	3514.84
731.565	3550.54
731.906	3536.53
732.248	3564.55
732.589	3533.82
732.93	3542.41
733.271	3554.38
733.612	3575.63
733.953	3551.67
734.294	3563.65
734.635	3598.22
734.976	3574.5
735.317	3557.77
735.658	3567.94
735.999	3563.88
736.339	3569.75
736.68	3625.12
737.021	3575.63
737.361	3611.33
737.702	3625.79
738.042	3616.3
738.383	3595.06
738.723	3663.53
739.063	3611.56
739.404	3610.43
739.744	3626.7
740.084	3623.53
740.424	3642.07
740.764	3663.99
741.104	3628.73
741.444	3665.79
741.784	3726.36
742.124	3711.22
742.464	3680.26
742.804	3712.57
743.143	3701.27
743.483	3696.98
743.823	3712.8
744.162	3707.37
744.502	3777.2
744.841	3769.52
745.181	3800.03
745.52	3779.91
745.86	3791.21
746.199	3823.53
746.538	3797.32
746.877	3850.42
747.216	3844.77
747.556	3866.92
747.895	3901.49
748.234	3906.24
748.573	3891.32
748.911	3948.27
749.25	3947.59
749.589	3951.89
749.928	3983.3
750.267	3961.38
750.605	3995.05
750.944	4040.25
751.283	3980.36
751.621	4039.12
751.96	4065.78
752.298	4082.96
752.636	4094.03
752.975	4096.74
753.313	4115.27
753.651	4177.19
753.989	4208.15
754.327	4233.69
754.666	4228.26
755.004	4251.77
755.342	4242.73
755.679	4317.3
756.017	4262.16
756.355	4322.05
756.693	4327.02
757.031	4354.36
757.368	4361.37
757.706	4314.82
758.044	4429.16
758.381	4428.49
758.719	4452.89
759.056	4435.49
759.394	4434.59
759.731	4459.22
760.068	4498.77
760.405	4504.64
760.743	4459.44
761.08	4552.32
761.417	4522.27
761.754	4536.96
762.091	4564.98
762.428	4591.87
762.765	4524.3
763.102	4609.27
763.438	4584.87
763.775	4561.59
764.112	4623.06
764.449	4606.11
764.785	4605.66
765.122	4630.06
765.458	4574.24
765.795	4612.21
766.131	4657.86
766.467	4642.72
766.804	4618.99
767.14	4631.42
767.476	4650.85
767.812	4653.56
768.148	4670.51
768.485	4647.91
768.821	4628.25
769.157	4608.59
769.492	4625.99
769.828	4663.06
770.164	4593.45
770.5	4655.82
770.836	4638.42
771.171	4577.41
771.507	4587.35
771.842	4560.01
