Data from blue_clamp_base_FLMS001491_00001.txt Node
Date: Wed Feb 08 15:15:27 GMT 2017
User: dcchb
Spectrometer: FLMS00149
Trigger mode: 0
Integration Time (sec): 2.000000E-2
Scans to average: 10
Electric dark correction enabled: true
Nonlinearity correction enabled: false
Boxcar width: 0
XAxis mode: Wavelengths
Number of Pixels in Spectrum: 2048
>>>>>Begin Spectral Data<<<<<
341.393	-11.71
341.776	-11.71
342.16	-11.71
342.543	-46.06
342.927	-62.55
343.31	-73.4
343.693	-56.68
344.077	-56.68
344.46	-57.81
344.843	-51.03
345.226	-34.31
345.61	-43.57
345.993	-28.88
346.376	-5.38
346.759	8.18
347.142	42.08
347.525	44.11
347.908	50.89
348.291	71.23
348.674	88.4
349.057	102.86
349.44	136.54
349.823	125.69
350.206	167.95
350.588	178.12
350.971	198.23
351.354	214.5
351.737	238
352.119	258.57
352.502	249.75
352.884	268.96
353.267	285.68
353.65	294.27
354.032	287.94
354.414	301.73
354.797	319.36
355.179	313.71
355.562	313.03
355.944	318.68
356.326	317.77
356.709	322.75
357.091	315.74
357.473	322.07
357.855	336.3
358.238	340.37
358.62	329.75
359.002	319.81
359.384	319.13
359.766	332.91
360.148	347.6
360.53	343.99
360.912	321.62
361.294	335.4
361.676	335.63
362.057	324.1
362.439	328.85
362.821	329.53
363.203	320.03
363.584	330.66
363.966	303.54
364.348	320.03
364.729	327.94
365.111	320.03
365.493	313.25
365.874	301.5
366.256	323.42
366.637	316.87
367.019	308.96
367.4	300.6
367.781	312.58
368.163	297.21
368.544	308.73
368.925	299.47
369.306	299.02
369.688	307.6
370.069	315.51
370.45	311.45
370.831	335.4
371.212	326.81
371.593	293.14
371.974	299.47
372.355	292.01
372.736	319.81
373.117	315.29
373.498	306.02
373.879	294.05
374.26	332.69
374.641	306.02
375.021	312.12
375.402	314.16
375.783	302.86
376.163	310.09
376.544	333.82
376.925	321.16
377.305	338.34
377.686	321.16
378.066	311.9
378.447	314.16
378.827	348.96
379.208	306.47
379.588	328.4
379.968	326.81
380.349	316.42
380.729	325.23
381.109	332.91
381.489	334.72
381.87	345.57
382.25	350.54
382.63	338.56
383.01	343.31
383.39	346.93
383.77	360.94
384.15	345.57
384.53	352.58
384.91	352.58
385.29	335.85
385.67	336.76
386.049	337.89
386.429	359.35
386.809	343.99
387.189	360.71
387.568	359.13
387.948	344.89
388.328	357.32
388.707	394.38
389.087	364.1
389.466	360.71
389.846	373.82
390.225	368.17
390.605	355.51
390.984	389.18
391.363	376.76
391.743	389.86
392.122	403.65
392.501	410.2
392.881	396.42
393.26	398.22
393.639	393.25
394.018	388.05
394.397	395.51
394.776	386.25
395.155	389.86
395.534	400.03
395.913	393.7
396.292	424.66
396.671	423.99
397.05	445
397.429	434.83
397.808	425.79
398.186	449.75
398.565	423.31
398.944	433.03
399.323	436.87
399.701	441.39
400.08	454.49
400.458	452.69
400.837	474.83
401.215	447.04
401.594	430.99
401.972	470.99
402.351	481.84
402.729	454.95
403.107	472.35
403.486	501.95
403.864	495.17
404.242	501.72
404.62	493.81
404.999	532.68
405.377	523.87
405.755	517.09
406.133	524.55
406.511	542.4
406.889	540.59
407.267	548.95
407.645	549.18
408.023	548.5
408.401	539.24
408.779	561.16
409.156	577.88
409.534	582.63
409.912	575.62
410.29	582.63
410.667	599.12
411.045	606.81
411.422	613.13
411.8	626.01
412.178	614.94
412.555	640.25
412.933	620.82
413.31	637.54
413.687	636.18
414.065	650.87
414.442	665.11
414.819	679.57
415.197	675.05
415.574	690.87
415.951	673.7
416.328	687.48
416.705	689.74
417.082	723.64
417.46	689.97
417.837	722.51
418.214	718.44
418.591	719.12
418.967	743.07
419.344	725.67
419.721	761.15
420.098	749.85
420.475	774.03
420.852	775.39
421.228	767.93
421.605	765.45
421.982	815.61
422.358	796.86
422.735	802.96
423.111	804.32
423.488	833.92
423.864	816.52
424.241	832.79
424.617	840.7
424.994	838.44
425.37	862.39
425.746	863.3
426.123	890.41
426.499	889.06
426.875	870.98
427.251	922.05
427.627	932.22
428.003	918.66
428.379	939
428.756	950.3
429.132	951.88
429.507	1009.51
429.883	990.98
430.259	1004.08
430.635	1014.48
431.011	1012.22
431.387	1020.35
431.763	1065.55
432.138	1046.57
432.514	1074.59
432.89	1071.43
433.265	1072.1
433.641	1112.78
434.016	1116.17
434.392	1144.19
434.767	1166.34
435.143	1155.94
435.518	1172.21
435.894	1194.59
436.269	1223.06
436.644	1227.58
437.02	1237.3
437.395	1223.06
437.77	1265.32
438.145	1258.54
438.52	1291.31
438.895	1288.82
439.271	1308.26
439.646	1324.53
440.021	1338.99
440.395	1347.58
440.77	1336.73
441.145	1368.82
441.52	1407.91
441.895	1375.37
442.27	1395.49
442.645	1421.47
443.019	1435.94
443.394	1459.21
443.769	1446.56
444.143	1423.28
444.518	1487.46
444.892	1475.26
445.267	1504.18
445.641	1509.38
446.016	1499.21
446.39	1550.51
446.764	1561.81
447.139	1542.37
447.513	1541.02
447.887	1571.07
448.262	1596.61
448.636	1590.28
449.01	1611.98
449.384	1612.43
449.758	1651.98
450.132	1686.78
450.506	1672.99
450.88	1679.32
451.254	1682.94
451.628	1682.48
452.002	1726.55
452.376	1730.84
452.75	1748.7
453.123	1742.37
453.497	1742.6
453.871	1804.74
454.244	1838.41
454.618	1842.71
454.992	1870.95
455.365	1860.33
455.739	1927.9
456.112	1934.91
456.486	1922.93
456.859	1970.84
457.232	1964.74
457.606	2026.88
457.979	2015.36
458.352	2079.54
458.725	2103.72
459.099	2061.46
459.472	2134.68
459.845	2152.98
460.218	2150.49
460.591	2183.71
460.964	2179.42
461.337	2237.05
461.71	2289.47
462.083	2301.68
462.456	2290.15
462.829	2304.16
463.201	2297.38
463.574	2347.55
463.947	2375.12
464.32	2413.99
464.692	2404.05
465.065	2449.47
465.438	2475.68
465.81	2510.48
466.183	2525.17
466.555	2566.98
466.928	2589.13
467.3	2580.99
467.672	2637.94
468.045	2685.85
468.417	2668.67
468.789	2719.52
469.161	2729.46
469.534	2763.36
469.906	2813.3
470.278	2849.68
470.65	2856.01
471.022	2899.4
471.394	2926.97
471.766	3000.87
472.138	3009.91
472.51	3051.04
472.882	3093.97
473.253	3138.49
473.625	3128.55
473.997	3192.27
474.369	3223.46
474.74	3263.01
475.112	3329.9
475.484	3396.11
475.855	3378.71
476.227	3419.39
476.598	3498.03
476.97	3502.32
477.341	3611.7
477.713	3639.27
478.084	3615.77
478.455	3695.99
478.827	3780.51
479.198	3825.93
479.569	3842.43
479.94	3900.96
480.311	3967.4
480.682	4016.66
481.053	4078.35
481.424	4128.75
481.795	4171.23
482.166	4164.45
482.537	4274.05
482.908	4313.6
483.279	4339.36
483.65	4374.84
484.021	4457.1
484.391	4546.14
484.762	4509.75
485.133	4533.71
485.503	4614.61
485.874	4660.26
486.244	4730.09
486.615	4812.12
486.985	4804.89
487.356	4911.78
487.726	4920.36
488.097	4951.32
488.467	4949.74
488.837	5000.14
489.207	5073.36
489.578	5158.1
489.948	5175.73
490.318	5213.01
490.688	5211.2
491.058	5255.72
491.428	5280.58
491.798	5337.53
492.168	5413.23
492.538	5449.84
492.908	5443.97
493.278	5521.25
493.648	5526.68
494.017	5543.17
494.387	5556.51
494.757	5611.87
495.126	5679.67
495.496	5650.74
495.866	5672.66
496.235	5719.89
496.605	5732.1
496.974	5763.51
497.344	5799.89
497.713	5781.81
498.082	5802.83
498.452	5853.22
498.821	5892.77
499.19	5878.98
499.559	5948.81
499.928	5892.32
500.298	5949.26
500.667	5975.48
501.036	5932.99
501.405	5983.84
501.774	5990.17
502.143	6016.16
502.512	6044.4
502.88	6036.04
503.249	6033.56
503.618	6024.74
503.987	6078.98
504.356	6071.52
504.724	6106.77
505.093	6140.22
505.462	6144.74
505.83	6195.36
506.199	6207.56
506.567	6277.17
506.936	6260.22
507.304	6321.68
507.672	6275.13
508.041	6350.38
508.409	6345.19
508.777	6339.54
509.145	6353.55
509.514	6341.12
509.882	6404.39
510.25	6440.78
510.618	6476.48
510.986	6424.73
511.354	6530.04
511.722	6558.06
512.09	6501.34
512.458	6499.98
512.826	6572.98
513.193	6539.98
513.561	6647.78
513.929	6570.49
514.297	6716.48
514.664	6618.85
515.032	6674.22
515.4	6679.64
515.767	6708.57
516.135	6724.84
516.502	6712.41
516.869	6721.22
517.237	6739.98
517.604	6753.54
517.972	6810.26
518.339	6882.8
518.706	6849.58
519.073	6916.24
519.44	6880.31
519.808	6897.04
520.175	6849.13
520.542	6960.31
520.909	6985.4
521.276	6948.56
521.643	6998.5
522.009	7057.94
522.376	7094.09
522.743	7047.77
523.11	7109.46
523.477	7140.65
523.843	7193.53
524.21	7190.59
524.577	7256.8
524.943	7300.42
525.31	7341.77
525.676	7368.21
526.043	7331.6
526.409	7389.45
526.776	7410.92
527.142	7433.52
527.508	7448.43
527.874	7452.73
528.241	7490.47
528.607	7538.6
528.973	7563.69
529.339	7561.2
529.705	7653.63
530.071	7659.95
530.437	7717.13
530.803	7743.79
531.169	7739.73
531.535	7721.2
531.901	7787.41
532.267	7819.05
532.632	7834.64
532.998	7865.6
533.364	7878.71
533.73	7904.02
534.095	7887.07
534.461	7990.79
534.826	7977.69
535.192	7975.43
535.557	7933.85
535.923	7974.52
536.288	8027.18
536.653	8065.82
537.019	8014.29
537.384	8125.48
537.749	8066.27
538.114	8148.75
538.479	8124.35
538.845	8219.94
539.21	8211.35
539.575	8180.84
539.94	8175.65
540.305	8230.79
540.67	8246.38
541.034	8251.8
541.399	8298.36
541.764	8293.61
542.129	8314.85
542.494	8300.62
542.858	8359.82
543.223	8334.74
543.587	8353.95
543.952	8357.56
544.316	8421.52
544.681	8381.06
545.045	8437.11
545.41	8533.6
545.774	8489.08
546.138	8555.75
546.503	8496.54
546.867	8507.62
547.231	8575.64
547.595	8605.69
547.959	8658.57
548.324	8649.98
548.688	8599.82
549.052	8581.96
549.416	8673.26
549.779	8624
550.143	8642.53
550.507	8724.56
550.871	8718.46
551.235	8705.12
551.599	8720.49
551.962	8721.85
552.326	8762.52
552.689	8836.19
553.053	8800.04
553.417	8819.02
553.78	8835.74
554.143	8839.13
554.507	8879.13
554.87	8838.45
555.234	8889.98
555.597	8888.85
555.96	8847.04
556.323	8996.42
556.686	8933.82
557.05	9032.12
557.413	8996.42
557.776	9035.74
558.139	9068.05
558.502	9116.19
558.865	9022.86
559.228	9101.27
559.59	9162.97
559.953	9169.52
560.316	9199.12
560.679	9176.07
561.041	9244.77
561.404	9204.09
561.767	9248.84
562.129	9259.46
562.492	9355.95
562.854	9337.88
563.217	9302.85
563.579	9331.77
563.941	9367.25
564.304	9375.16
564.666	9443.86
565.028	9457.87
565.39	9498.32
565.753	9504.88
566.115	9556.85
566.477	9574.71
566.839	9597.98
567.201	9633.24
567.563	9664.87
567.925	9675.72
568.287	9739.9
568.648	9716.17
569.01	9804.08
569.372	9805.66
569.734	9785.32
570.095	9894.02
570.457	9879.78
570.819	9908.26
571.18	9950.29
571.542	9977.63
571.903	9952.55
572.265	9968.82
572.626	10005.88
572.987	10092.43
573.349	10101.02
573.71	10114.8
574.071	10198.42
574.432	10177.63
574.794	10205.2
575.155	10259.43
575.516	10257.4
575.877	10162.71
576.238	10299.66
576.599	10359.54
576.96	10336.72
577.32	10343.73
577.681	10341.24
578.042	10434.34
578.403	10394.57
578.763	10483.61
579.124	10428.69
579.485	10473.44
579.845	10479.54
580.206	10488.13
580.566	10454
580.927	10450.39
581.287	10490.16
581.648	10553.21
582.008	10631.63
582.368	10531.29
582.728	10604.28
583.089	10606.09
583.449	10567.9
583.809	10550.95
584.169	10616.49
584.529	10630.05
584.889	10693.32
585.249	10593.21
585.609	10572.42
585.969	10683.83
586.329	10613.1
586.688	10698.29
587.048	10642.02
587.408	10627.56
587.768	10711.85
588.127	10676.82
588.487	10685.64
588.846	10736.48
589.206	10744.62
589.565	10690.83
589.925	10737.16
590.284	10716.37
590.643	10702.81
591.003	10765.86
591.362	10828.46
591.721	10772.87
592.08	10791.4
592.44	10855.8
592.799	10840.21
593.158	10803.83
593.517	10784.39
593.876	10796.82
594.235	10851.51
594.593	10784.39
594.952	10851.28
595.311	10737.16
595.67	10835.24
596.029	10928.34
596.387	10848.57
596.746	10895.12
597.104	10869.14
597.463	10772.64
597.822	10915.91
598.18	10794.79
598.538	10824.16
598.897	10915.01
599.255	10794.56
599.613	11006.53
599.972	10918.17
600.33	10919.08
600.688	10949.58
601.046	10906.87
601.404	10963.14
601.762	11046.76
602.12	10983.26
602.478	11068.9
602.836	10974.22
603.194	11004.72
603.552	10996.36
603.91	10956.14
604.268	11005.4
604.625	10929.47
604.983	11053.54
605.341	11010.15
605.698	11036.81
606.056	11069.13
606.413	10991.17
606.771	11084.72
607.128	11040.66
607.485	11010.37
607.843	11111.84
608.2	11145.51
608.557	11155.68
608.914	11115
609.272	11150.94
609.629	11158.39
609.986	11187.32
610.343	11105.97
610.7	11201.56
611.057	11177.6
611.414	11195.68
611.771	11171.95
612.127	11202.46
612.484	11191.84
612.841	11260.76
613.198	11206.53
613.554	11235.45
613.911	11306.86
614.267	11290.37
614.624	11340.99
614.98	11252.85
615.337	11348.44
615.693	11363.59
616.05	11265.51
616.406	11421.21
616.762	11439.06
617.118	11416.92
617.475	11394.32
617.831	11510.02
618.187	11469.57
618.543	11480.42
618.899	11448.33
619.255	11517.48
619.611	11482.23
619.967	11519.51
620.323	11543.24
620.678	11549.12
621.034	11482.45
621.39	11438.84
621.746	11534.88
622.101	11597.48
622.457	11498.05
622.812	11563.58
623.168	11599.74
623.523	11592.28
623.879	11707.08
624.234	11522.23
624.589	11604.93
624.945	11587.31
625.3	11591.6
625.655	11663.69
626.01	11669.34
626.365	11649.91
626.72	11631.37
627.075	11676.35
627.43	11655.1
627.785	11656.23
628.14	11638.38
628.495	11741.43
628.85	11793.86
629.205	11666.85
629.559	11755.67
629.914	11708.21
630.269	11718.83
630.623	11751.6
630.978	11660.53
631.332	11767.42
631.687	11896.23
632.041	11760.19
632.396	11854.87
632.75	11795.21
633.104	11906.62
633.459	11763.12
633.813	11808.09
634.167	11812.84
634.521	11824.36
634.875	11841.99
635.229	11848.32
635.583	11831.37
635.937	11924.02
636.291	11858.04
636.645	11846.51
636.999	11858.94
637.352	11982.1
637.706	11915.66
638.06	11946.17
638.413	11952.04
638.767	11860.97
639.121	11857.81
639.474	11836.34
639.828	11875.44
640.181	11908.88
640.534	11928.77
640.888	11980.52
641.241	11881.09
641.594	11867.75
641.947	12014.64
642.301	11960.86
642.654	12094.41
643.007	12012.38
643.36	12013.74
643.713	11944.59
644.066	12091.48
644.419	12067.52
644.771	12102.1
645.124	11936
645.477	11947.07
645.83	11781.65
646.182	11812.61
646.535	11775.78
646.888	11827.08
647.24	11743.24
647.593	11901.42
647.945	11827.75
648.298	11818.04
648.65	11844.25
649.002	11790.92
649.355	11874.31
649.707	11888.54
650.059	11957.24
650.411	12115.43
650.763	12164.02
651.115	12220.51
651.467	12262.77
651.819	12207.86
652.171	12264.8
652.523	12285.37
652.875	12286.05
653.227	12195.88
653.578	12337.12
653.93	12366.95
654.282	12272.94
654.633	12279.04
654.985	12381.19
655.337	12445.59
655.688	12403.78
656.039	12438.59
656.391	12380.28
656.742	12357.23
657.094	12364.01
657.445	12422.54
657.796	12423.44
658.147	12393.39
658.498	12349.1
658.849	12458.92
659.2	12390
659.551	12430.22
659.902	12462.77
660.253	12522.42
660.604	12531.92
660.955	12426.83
661.306	12482.88
661.656	12443.78
662.007	12548.41
662.358	12540.28
662.708	12553.84
663.059	12579.82
663.409	12416.67
663.76	12616.43
664.11	12598.13
664.461	12581.63
664.811	12512.03
665.161	12524.91
665.511	12512.26
665.862	12573.05
666.212	12605.81
666.562	12492.82
666.912	12554.74
667.262	12493.27
667.612	12538.02
667.962	12577.56
668.312	12500.28
668.662	12512.71
669.011	12463.9
669.361	12543.22
669.711	12505.7
670.06	12406.72
670.41	12452.6
670.76	12336.89
671.109	12403.33
671.459	12378.47
671.808	12314.29
672.157	12417.57
672.507	12236.78
672.856	12248.08
673.205	12298.48
673.554	12292.37
673.904	12207.86
674.253	12279.27
674.602	12218.48
674.951	11992.72
675.3	11914.08
675.649	12286.27
675.998	12157.46
676.346	12127.41
676.695	12151.59
677.044	12039.73
677.393	12091.93
677.741	12105.03
678.09	11991.59
678.438	11983
678.787	12034.08
679.135	11987.75
679.484	11891.93
679.832	11994.3
680.181	11886.28
680.529	11896.68
680.877	11893.51
681.225	11842.22
681.573	11869.33
681.922	11799.51
682.27	11759.28
682.618	11765.38
682.966	11755.89
683.314	11786.63
683.661	11639.06
684.009	11585.95
684.357	11550.25
684.705	11533.75
685.053	11564.03
685.4	11571.94
685.748	11576.69
686.095	11579.17
686.443	11434.54
686.79	11478.16
687.138	11492.17
687.485	11498.27
687.832	11399.97
688.18	11377.37
688.527	11322.46
688.874	11284.72
689.221	11253.53
689.568	11329.24
689.915	11253.98
690.262	11277.71
690.609	11258.96
690.956	11265.28
691.303	11277.94
691.65	11183.25
691.997	11223.02
692.344	11154.33
692.69	11111.16
693.037	11144.83
693.383	11095.12
693.73	11074.55
694.077	11102.8
694.423	11023.26
694.769	10999.98
695.116	11009.7
695.462	10996.59
695.808	10975.35
696.155	11035.91
696.501	10913.88
696.847	10907.55
697.193	10836.14
697.539	10925.18
697.885	10829.14
698.231	10817.84
698.577	10910.72
698.923	10899.64
699.269	10737.84
699.614	10722.92
699.96	10780.78
700.306	10804.73
700.651	10735.35
700.997	10694.68
701.342	10746.2
701.688	10661.68
702.033	10725.41
702.379	10607.9
702.724	10667.11
703.069	10639.54
703.415	10637.95
703.76	10631.85
704.105	10605.19
704.45	10672.53
704.795	10622.36
705.14	10545.53
705.485	10562.48
705.83	10510.5
706.175	10550.5
706.52	10561.8
706.865	10469.15
707.209	10533.1
707.554	10519.77
707.899	10484.96
708.243	10449.49
708.588	10487
708.932	10379.43
709.277	10442.93
709.621	10408.58
709.966	10315.48
710.31	10407.23
710.654	10326.78
710.998	10302.6
711.342	10357.06
711.687	10405.42
712.031	10363.16
712.375	10301.92
712.719	10355.25
713.063	10304.86
713.407	10363.61
713.75	10264.86
714.094	10350.5
714.438	10273.67
714.782	10355.93
715.125	10245.87
715.469	10277.51
715.812	10196.61
716.156	10241.13
716.499	10214.46
716.843	10277.29
717.186	10256.95
717.53	10295.36
717.873	10328.13
718.216	10241.36
718.559	10252.88
718.902	10126.56
719.246	10187.57
719.589	10131.98
719.932	10111.64
720.275	10165.88
720.617	10187.12
720.96	10177.85
721.303	10228.7
721.646	10183.96
721.989	10152.32
722.331	10176.95
722.674	10176.95
723.016	10194.58
723.359	10172.88
723.701	10106.44
724.044	10104.64
724.386	10063.05
724.729	10109.38
725.071	10098.99
725.413	10083.39
725.755	10118.65
726.097	10076.84
726.439	10070.06
726.782	10125.65
727.124	10165.65
727.465	10123.39
727.807	10114.35
728.149	10016.28
728.491	10125.88
728.833	10155.03
729.175	10089.95
729.516	10108.7
729.858	10169.72
730.199	10163.39
730.541	10129.49
730.882	10157.29
731.224	10118.87
731.565	10126.1
731.906	10185.31
732.248	10154.8
732.589	10152.54
732.93	10100.34
733.271	10134.47
733.612	10205.65
733.953	10220.79
734.294	10212.2
734.635	10149.83
734.976	10161.36
735.317	10223.28
735.658	10289.94
735.999	10204.97
736.339	10248.59
736.68	10291.98
737.021	10315.03
737.361	10251.52
737.702	10329.26
738.042	10342.6
738.383	10320.67
738.723	10358.19
739.063	10351.86
739.404	10403.61
739.744	10363.61
740.084	10371.3
740.424	10457.39
740.764	10377.85
741.104	10502.37
741.444	10469.82
741.784	10531.06
742.124	10509.14
742.464	10510.95
742.804	10565.19
743.143	10544.17
743.483	10548.47
743.823	10527.45
744.162	10624.4
744.502	10604.96
744.841	10616.26
745.181	10755.01
745.52	10672.53
745.86	10742.58
746.199	10754.79
746.538	10800.66
746.877	10858.06
747.216	10841.57
747.556	10936.93
747.895	10949.58
748.234	10868.01
748.573	10913.43
748.911	10922.24
749.25	11011.05
749.589	11086.53
749.928	11011.05
750.267	11131.5
750.605	11140.09
750.944	11072.97
751.283	11030.26
751.621	11185.28
751.96	11159.3
752.298	11262.12
752.636	11217.6
752.975	11202.91
753.313	11267.09
753.651	11362
753.989	11314.1
754.327	11309.58
754.666	11318.39
755.004	11400.87
755.342	11473.64
755.679	11448.78
756.017	11471.15
756.355	11501.66
756.693	11498.05
757.031	11513.64
757.368	11464.15
757.706	11571.72
758.044	11532.39
758.381	11527.65
