Data from blue_surface_keyboard_FLMS001491_032.txt Node
Date: Tue Feb 07 11:12:59 GMT 2017
User: dcchb
Spectrometer: FLMS00149
Trigger mode: 0
Integration Time (sec): 2.000000E-2
Scans to average: 10
Electric dark correction enabled: true
Nonlinearity correction enabled: false
Boxcar width: 0
XAxis mode: Wavelengths
Number of Pixels in Spectrum: 2048
>>>>>Begin Spectral Data<<<<<
341.393	2.03
341.776	2.03
342.16	2.03
342.543	-44.97
342.927	-56.27
343.31	-90.17
343.693	-79.32
344.077	-65.08
344.46	-66.66
344.843	-64.41
345.226	-41.35
345.61	-33.67
345.993	-8.59
346.376	-10.62
346.759	25.08
347.142	27.8
347.525	49.49
347.908	67.12
348.291	77.51
348.674	89.04
349.057	123.84
349.44	88.81
349.823	151.86
350.206	149.15
350.588	167.45
350.971	178.07
351.354	196.6
351.737	210.39
352.119	220.56
352.502	233.44
352.884	247.68
353.267	256.26
353.65	274.12
354.032	259.43
354.414	285.42
354.797	296.94
355.179	296.04
355.562	306.66
355.944	289.71
356.326	296.49
356.709	298.3
357.091	311.18
357.473	312.53
357.855	311.86
358.238	311.86
358.62	309.14
359.002	309.6
359.384	310.5
359.766	302.36
360.148	301.46
360.53	296.94
360.912	322.48
361.294	334.23
361.676	311.4
362.057	309.14
362.439	320.9
362.821	306.66
363.203	294.91
363.584	296.49
363.966	290.61
364.348	287.45
364.729	308.69
365.111	274.57
365.493	299.88
365.874	289.48
366.256	291.97
366.637	289.94
367.019	285.42
367.4	296.49
367.781	283.38
368.163	283.38
368.544	276.15
368.925	273.44
369.306	285.87
369.688	277.73
370.069	283.38
370.45	289.48
370.831	282.7
371.212	286.32
371.593	287.68
371.974	282.03
372.355	298.52
372.736	259.65
373.117	287
373.498	284.96
373.879	296.72
374.26	267.79
374.641	292.2
375.021	277.96
375.402	295.13
375.783	288.35
376.163	278.18
376.544	286.32
376.925	280.22
377.305	287.45
377.686	276.38
378.066	301.24
378.447	311.86
378.827	294.23
379.208	285.19
379.588	286.77
379.968	312.31
380.349	308.01
380.729	291.97
381.109	311.86
381.489	299.65
381.87	289.26
382.25	306.43
382.63	276.38
383.01	304.17
383.39	308.92
383.77	313.44
384.15	300.33
384.53	299.88
384.91	302.14
385.29	295.13
385.67	272.76
386.049	309.6
386.429	297.62
386.809	292.87
387.189	296.26
387.568	324.29
387.948	295.81
388.328	303.27
388.707	310.73
389.087	297.62
389.466	298.3
389.846	302.14
390.225	323.16
390.605	314.57
390.984	317.51
391.363	326.77
391.743	289.48
392.122	300.56
392.501	331.52
392.881	319.54
393.26	321.8
393.639	324.74
394.018	310.5
394.397	315.25
394.776	314.34
395.155	313.89
395.534	350.05
395.913	313.66
396.292	323.83
396.671	335.13
397.05	335.81
397.429	359.76
397.808	326.32
398.186	318.18
398.565	308.01
398.944	317.73
399.323	335.81
399.701	331.74
400.08	339.65
400.458	326.55
400.837	334.23
401.215	345.08
401.594	353.89
401.972	323.16
402.351	342.59
402.729	336.49
403.107	344.4
403.486	350.95
403.864	325.42
404.242	344.17
404.62	340.78
404.999	355.24
405.377	345.75
405.755	345.08
406.133	347.79
406.511	338.07
406.889	360.89
407.267	349.82
407.645	358.41
408.023	362.7
408.401	349.14
408.779	347.79
409.156	349.6
409.534	398.18
409.912	383.94
410.29	369.03
410.667	353.21
411.045	364.96
411.422	370.61
411.8	384.85
412.178	369.48
412.555	337.84
412.933	357.28
413.31	363.38
413.687	355.92
414.065	383.49
414.442	383.94
414.819	379.2
415.197	396.37
415.574	397.5
415.951	390.05
416.328	391.4
416.705	366.32
417.082	384.85
417.46	394.57
417.837	378.07
418.214	398.18
418.591	388.69
418.967	391.18
419.344	377.84
419.721	395.24
420.098	392.76
420.475	389.59
420.852	383.04
421.228	404.96
421.605	431.4
421.982	424.85
422.358	421.23
422.735	396.15
423.111	408.8
423.488	398.41
423.864	387.79
424.241	414.45
424.617	409.48
424.994	407.67
425.37	426.88
425.746	422.14
426.123	440.67
426.499	406.99
426.875	426.2
427.251	439.31
427.627	416.26
428.003	444.06
428.379	437.28
428.756	450.61
429.132	432.98
429.507	435.69
429.883	421.91
430.259	440.44
430.635	439.76
431.011	447.45
431.387	434.11
431.763	457.16
432.138	425.98
432.514	446.32
432.89	454.45
433.265	467.78
433.641	475.69
434.016	471.4
434.392	480.44
434.767	471.85
435.143	465.52
435.518	451.51
435.894	458.97
436.269	464.85
436.644	486.54
437.02	472.3
437.395	469.37
437.77	482.47
438.145	478.41
438.52	499.65
438.895	483.6
439.271	501.46
439.646	535.58
440.021	504.17
440.395	485.18
440.77	496.26
441.145	508.01
441.52	522.7
441.895	509.82
442.27	528.57
442.645	526.09
443.019	517.73
443.394	508.01
443.769	517.95
444.143	498.74
444.518	503.26
444.892	533.09
445.267	511.4
445.641	531.96
446.016	530.61
446.39	527.67
446.764	511.17
447.139	522.25
447.513	522.92
447.887	554.79
448.262	560.21
448.636	550.95
449.01	564.05
449.384	550.27
449.758	548.69
450.132	568.57
450.506	544.84
450.88	558.86
451.254	559.31
451.628	551.62
452.002	554.56
452.376	546.88
452.75	567.44
453.123	576.93
453.497	564.96
453.871	581.45
454.244	581.45
454.618	591.17
454.992	588.01
455.365	613.09
455.739	600.89
456.112	599.08
456.486	612.41
456.859	625.97
457.232	615.8
457.606	624.16
457.979	611.96
458.352	606.54
458.725	633.2
459.099	627.55
459.472	655.58
459.845	635.01
460.218	626.65
460.591	650.15
460.964	675.24
461.337	653.77
461.71	630.04
462.083	655.8
462.456	683.82
462.829	649.47
463.201	680.89
463.574	681.11
463.947	697.61
464.32	687.21
464.692	716.14
465.065	709.81
465.438	687.44
465.81	711.85
466.183	712.75
466.555	714.33
466.928	705.52
467.3	729.25
467.672	714.78
468.045	733.09
468.417	736.7
468.789	727.21
469.161	720.88
469.534	735.8
469.906	756.36
470.278	788.68
470.65	758.17
471.022	773.76
471.394	756.36
471.766	788.23
472.138	769.02
472.51	783.26
472.882	807.89
473.253	816.25
473.625	815.57
473.997	814.67
474.369	831.84
474.74	844.05
475.112	844.27
475.484	844.5
475.855	838.85
476.227	843.82
476.598	860.32
476.97	870.26
477.341	903.48
477.713	889.92
478.084	905.51
478.455	912.97
478.827	930.37
479.198	927.21
479.569	937.6
479.94	965.62
480.311	941.22
480.682	975.57
481.053	982.8
481.424	990.48
481.795	1003.59
482.166	986.19
482.537	1001.78
482.908	1016.92
483.279	1051.5
483.65	1056.24
484.021	1036.58
484.391	1052.63
484.762	1072.97
485.133	1051.5
485.503	1081.55
485.874	1072.29
486.244	1102.34
486.615	1116.35
486.985	1106.64
487.356	1108.67
487.726	1143.7
488.097	1150.25
488.467	1137.6
488.837	1157.94
489.207	1188.67
489.578	1188.22
489.948	1205.84
490.318	1180.76
490.688	1205.84
491.058	1202
491.428	1208.78
491.798	1211.49
492.168	1250.81
492.538	1226.86
492.908	1252.85
493.278	1248.33
493.648	1245.62
494.017	1272.51
494.387	1245.84
494.757	1283.13
495.126	1271.83
495.496	1279.06
495.866	1293.3
496.235	1286.07
496.605	1297.14
496.974	1290.14
497.344	1281.32
497.713	1309.8
498.082	1332.85
498.452	1319.97
498.821	1301.66
499.19	1319.51
499.559	1340.08
499.928	1316.8
500.298	1322
500.667	1340.08
501.036	1346.63
501.405	1324.48
501.774	1350.7
502.143	1381.88
502.512	1342.56
502.88	1358.61
503.249	1335.33
503.618	1371.94
503.987	1393.18
504.356	1349.34
504.724	1349.12
505.093	1358.61
505.462	1359.74
505.83	1382.11
506.199	1395.44
506.567	1396.35
506.936	1398.83
507.304	1397.25
507.672	1402.67
508.041	1418.04
508.409	1407.19
508.777	1391.15
509.145	1435.89
509.514	1413.97
509.882	1413.97
510.25	1419.62
510.618	1420.98
510.986	1418.04
511.354	1436.8
511.722	1450.36
512.09	1459.17
512.458	1443.58
512.826	1447.87
513.193	1419.85
513.561	1427.76
513.929	1412.84
514.297	1419.85
514.664	1449
515.032	1454.43
515.4	1457.59
515.767	1447.19
516.135	1477.7
516.502	1420.53
516.869	1457.36
517.237	1490.81
517.604	1462.56
517.972	1455.55
518.339	1479.74
518.706	1498.04
519.073	1462.56
519.44	1473.41
519.808	1503.24
520.175	1492.39
520.542	1492.84
520.909	1507.98
521.276	1503.69
521.643	1501.43
522.009	1539.17
522.376	1507.3
522.743	1509.11
523.11	1526.29
523.477	1553.63
523.843	1550.24
524.21	1545.04
524.577	1531.26
524.943	1530.13
525.31	1560.18
525.676	1548.89
526.043	1571.48
526.409	1602.44
526.776	1560.86
527.142	1550.92
527.508	1572.39
527.874	1567.64
528.241	1577.36
528.607	1587.3
528.973	1598.38
529.339	1594.08
529.705	1593.63
530.071	1610.81
530.437	1624.82
530.803	1605.83
531.169	1624.59
531.535	1584.82
531.901	1615.32
532.267	1606.96
532.632	1599.73
532.998	1614.19
533.364	1628.21
533.73	1619.39
534.095	1610.58
534.461	1644.48
534.826	1622.33
535.192	1625.95
535.557	1629.11
535.923	1598.6
536.288	1626.4
536.653	1640.18
537.019	1626.17
537.384	1629.34
537.749	1649.22
538.114	1651.26
538.479	1626.62
538.845	1648.77
539.21	1641.31
539.575	1639.96
539.94	1655.1
540.305	1666.85
540.67	1634.31
541.034	1663.91
541.399	1637.47
541.764	1636.79
542.129	1634.76
542.494	1640.63
542.858	1691.48
543.223	1655.55
543.587	1696.23
543.952	1650.8
544.316	1677.7
544.681	1673.85
545.045	1686.74
545.41	1666.62
545.774	1670.46
546.138	1655.32
546.503	1654.65
546.867	1665.49
547.231	1653.29
547.595	1661.2
547.959	1670.92
548.324	1641.31
548.688	1689.67
549.052	1710.46
549.416	1674.53
549.779	1665.27
550.143	1710.92
550.507	1692.16
550.871	1670.01
551.235	1679.05
551.599	1698.49
551.962	1704.36
552.326	1684.02
552.689	1725.83
553.053	1648.09
553.417	1688.77
553.78	1681.99
554.143	1704.59
554.507	1705.04
554.87	1717.47
555.234	1722.67
555.597	1668.88
555.96	1720.63
556.323	1704.59
556.686	1721.54
557.05	1662.1
557.413	1710.01
557.776	1703.91
558.139	1681.31
558.502	1709.79
558.865	1730.35
559.228	1734.42
559.59	1705.72
559.953	1717.92
560.316	1733.29
560.679	1752.95
561.041	1719.5
561.404	1735.77
561.767	1759.05
562.129	1753.63
562.492	1769.9
562.854	1735.77
563.217	1765.38
563.579	1738.26
563.941	1779.84
564.304	1757.24
564.666	1761.54
565.028	1776.9
565.39	1756.79
565.753	1769.9
566.115	1790.91
566.477	1793.63
566.839	1789.11
567.201	1806.73
567.563	1783.91
567.925	1824.81
568.287	1778.26
568.648	1774.19
569.01	1813.51
569.372	1813.51
569.734	1794.08
570.095	1804.02
570.457	1799.05
570.819	1807.18
571.18	1825.49
571.542	1825.49
571.903	1842.44
572.265	1828.65
572.626	1851.02
572.987	1830.23
573.349	1816
573.71	1822.1
574.071	1830.91
574.432	1840.18
574.794	1865.49
575.155	1841.76
575.516	1837.92
575.877	1869.33
576.238	1866.62
576.599	1865.49
576.96	1857.58
577.32	1850.35
577.681	1865.26
578.042	1878.82
578.403	1873.85
578.763	1878.82
579.124	1864.58
579.485	1874.98
579.845	1900.06
580.206	1853.96
580.566	1872.72
580.927	1898.71
581.287	1884.7
581.648	1874.3
582.008	1883.11
582.368	1865.94
582.728	1884.24
583.089	1886.96
583.449	1893.74
583.809	1890.35
584.169	1887.41
584.529	1863.91
584.889	1900.52
585.249	1890.12
585.609	1901.19
585.969	1902.77
586.329	1889.22
586.688	1880.18
587.048	1894.41
587.408	1866.84
587.768	1920.85
588.127	1892.61
588.487	1867.52
588.846	1882.44
589.206	1868.88
589.565	1896.22
589.925	1909.33
590.284	1919.27
590.643	1883.34
591.003	1896.67
591.362	1919.72
591.721	1903.9
592.08	1921.31
592.44	1928.54
592.799	1922.44
593.158	1928.54
593.517	1949.1
593.876	1924.47
594.235	1913.62
594.593	1923.79
594.952	1913.85
595.311	1927.41
595.67	1917.24
596.029	1914.53
596.387	1911.14
596.746	1931.7
597.104	1988.87
597.463	1945.03
597.822	1953.62
598.18	1915.2
598.538	1942.32
598.897	1978.25
599.255	1924.47
599.613	1956.33
599.972	1941.42
600.33	1936.45
600.688	1952.04
601.046	1967.86
601.404	1969.89
601.762	1945.49
602.12	1979.16
602.478	1943.45
602.836	1957.24
603.194	1968.54
603.552	1978.48
603.91	1968.99
604.268	1943.9
604.625	1961.98
604.983	1972.6
605.341	1972.38
605.698	1978.03
606.056	1968.76
606.413	1961.08
606.771	1965.37
607.128	2005.15
607.485	1971.93
607.843	1956.33
608.2	1996.11
608.557	2018.7
608.914	1968.54
609.272	2011.25
609.629	2009.66
609.986	1997.24
610.343	1995.2
610.7	2011.25
611.057	2023.68
611.414	2038.14
611.771	2003.56
612.127	1979.38
612.484	1990.23
612.841	2021.64
613.198	2012.6
613.554	2031.36
613.911	2016.44
614.267	2030.68
614.624	2028.87
614.98	2031.36
615.337	2065.93
615.693	2045.6
616.05	2043.34
616.406	2033.17
616.762	2046.95
617.118	2027.29
617.475	2021.64
617.831	2077.46
618.187	2032.71
618.543	2039.49
618.899	2058.93
619.255	2074.52
619.611	2051.92
619.967	2055.54
620.323	2072.71
620.678	2059.61
621.034	2041.75
621.39	2094.41
621.746	2103.22
622.101	2104.8
622.457	2067.06
622.812	2059.61
623.168	2070
623.523	2073.62
623.879	2099.61
624.234	2100.51
624.589	2126.05
624.945	2121.75
625.3	2085.14
625.655	2092.37
626.01	2096.67
626.365	2095.54
626.72	2128.76
627.075	2137.57
627.43	2117.23
627.785	2109.1
628.14	2108.42
628.495	2155.88
628.85	2105.48
629.205	2143.22
629.559	2127.63
629.914	2122.2
630.269	2138.02
630.623	2137.12
630.978	2139.6
631.332	2134.41
631.687	2136.67
632.041	2170.11
632.396	2173.5
632.75	2172.15
633.104	2137.34
633.459	2155.2
633.813	2172.82
634.167	2154.97
634.521	2180.51
634.875	2162.43
635.229	2183.45
635.583	2187.29
635.937	2180.51
636.291	2201.3
636.645	2172.15
636.999	2173.5
637.352	2195.42
637.706	2193.84
638.06	2201.3
638.413	2186.16
638.767	2225.7
639.121	2238.59
639.474	2212.82
639.828	2224.8
640.181	2255.53
640.534	2222.99
640.888	2210.34
641.241	2228.87
641.594	2207.17
641.947	2232.71
642.301	2210.56
642.654	2259.83
643.007	2275.19
643.36	2252.14
643.713	2270.67
644.066	2260.05
644.419	2272.26
644.771	2272.26
645.124	2261.18
645.477	2246.27
645.83	2215.31
646.182	2252.37
646.535	2264.12
646.888	2259.6
647.24	2262.54
647.593	2273.84
647.945	2287.62
648.298	2268.19
648.65	2268.87
649.002	2302.31
649.355	2331.24
649.707	2315.19
650.059	2309.32
650.411	2332.82
650.763	2369.66
651.115	2391.35
651.467	2434.74
651.819	2409.2
652.171	2419.15
652.523	2418.24
652.875	2424.12
653.227	2422.76
653.578	2475.42
653.93	2459.82
654.282	2446.72
654.633	2465.02
654.985	2470.22
655.337	2520.84
655.688	2467.73
656.039	2471.12
656.391	2527.39
656.742	2519.93
657.094	2552.02
657.445	2538.92
657.796	2545.7
658.147	2547.96
658.498	2555.64
658.849	2591.34
659.2	2584.11
659.551	2592.7
659.902	2609.87
660.253	2622.98
660.604	2615.98
660.955	2656.65
661.306	2627.05
661.656	2652.59
662.007	2682.42
662.358	2678.35
662.708	2689.19
663.059	2712.7
663.409	2689.19
663.76	2726.71
664.11	2716.99
664.461	2734.62
664.811	2747.05
665.161	2722.87
665.511	2777.33
665.862	2823.43
666.212	2805.35
666.562	2789.53
666.912	2841.96
667.262	2801.28
667.612	2848.29
667.962	2836.54
668.312	2864.78
668.662	2902.3
669.011	2888.06
669.361	2901.62
669.711	2912.92
670.06	2933.93
670.41	2919.7
670.76	2969.41
671.109	2946.36
671.459	2968.51
671.808	2975.51
672.157	3012.58
672.507	2968.06
672.856	3013.25
673.205	3019.36
673.554	3040.82
673.904	3036.53
674.253	3058
674.602	3056.64
674.951	3028.17
675.3	3069.3
675.649	3055.74
675.998	3076.3
676.346	3073.59
676.695	3141.61
677.044	3145.91
677.393	3143.65
677.741	3140.93
678.09	3151.1
678.438	3195.85
678.787	3166.7
679.135	3195.85
679.484	3185.68
679.832	3189.75
680.181	3204.44
680.529	3213.7
680.877	3234.72
681.225	3227.49
681.573	3254.38
681.922	3216.86
682.27	3248.73
682.618	3295.51
682.966	3251.89
683.314	3315.17
683.661	3288.73
684.009	3273.36
684.357	3279.91
684.705	3283.53
685.053	3330.53
685.4	3298.67
685.748	3320.82
686.095	3276.07
686.443	3316.97
686.79	3349.52
687.138	3333.92
687.485	3375.73
687.832	3356.75
688.18	3375.28
688.527	3350.19
688.874	3362.17
689.221	3333.7
689.568	3344.32
689.915	3326.47
690.262	3327.82
690.609	3347.93
690.956	3356.3
691.303	3379.8
691.65	3367.82
691.997	3343.64
692.344	3337.99
692.69	3331.21
693.037	3368.27
693.383	3352.91
693.73	3394.49
694.077	3360.59
694.423	3389.06
694.769	3344.09
695.116	3355.84
695.462	3347.71
695.808	3385
696.155	3417.99
696.501	3305.22
696.847	3352.68
697.193	3365.79
697.539	3332.79
697.885	3324.21
698.231	3325.56
698.577	3346.8
698.923	3340.03
699.269	3307.03
699.614	3357.65
699.96	3303.19
700.306	3307.48
700.651	3319.91
700.997	3301.61
701.342	3346.8
701.688	3306.58
702.033	3256.41
702.379	3292.34
702.724	3306.81
703.069	3337.54
703.415	3287.37
703.76	3283.76
704.105	3284.43
704.45	3295.51
704.795	3276.52
705.14	3286.69
705.485	3293.92
705.83	3301.61
706.175	3245.56
706.52	3256.86
706.865	3253.7
707.209	3237.88
707.554	3227.71
707.899	3218.45
708.243	3242.17
708.588	3243.98
708.932	3224.77
709.277	3228.62
709.621	3239.69
709.966	3218.67
710.31	3220.93
710.654	3184.32
710.998	3237.88
711.342	3223.87
711.687	3215.51
712.031	3213.93
712.375	3226.13
712.719	3225.23
713.063	3184.78
713.407	3208.28
713.75	3201.27
714.094	3210.76
714.438	3199.01
714.782	3177.32
715.125	3187.03
715.469	3209.41
715.812	3173.93
716.156	3146.58
716.499	3151.56
716.843	3217.54
717.186	3158.11
717.53	3170.76
717.873	3170.99
718.216	3162.63
718.559	3167.15
718.902	3133.7
719.246	3203.08
719.589	3184.1
719.932	3138
720.275	3179.8
720.617	3198.79
720.96	3169.41
721.303	3182.29
721.646	3178
721.989	3155.85
722.331	3192.68
722.674	3189.75
723.016	3208.05
723.359	3164.44
723.701	3145.91
724.044	3196.75
724.386	3184.78
724.729	3186.58
725.071	3166.24
725.413	3231.55
725.755	3148.84
726.097	3198.56
726.439	3142.74
726.782	3161.72
727.124	3176.19
727.465	3157.66
727.807	3187.49
728.149	3152.69
728.491	3191.1
728.833	3219.12
729.175	3138
729.516	3150.2
729.858	3166.92
730.199	3203.08
730.541	3193.81
730.882	3219.12
731.224	3212.12
731.565	3201.72
731.906	3201.27
732.248	3189.97
732.589	3176.19
732.93	3210.09
733.271	3219.12
733.612	3192.01
733.953	3164.44
734.294	3205.57
734.635	3167.6
734.976	3240.14
735.317	3215.73
735.658	3245.56
735.999	3201.72
736.339	3201.72
736.68	3262.97
737.021	3237.2
737.361	3261.61
737.702	3283.98
738.042	3253.47
738.383	3281.04
738.723	3294.38
739.063	3264.32
739.404	3297.77
739.744	3273.59
740.084	3261.16
740.424	3314.04
740.764	3307.71
741.104	3307.03
741.444	3330.99
741.784	3341.83
742.124	3354.04
742.464	3327.14
742.804	3319.91
743.143	3360.59
743.483	3341.83
743.823	3377.54
744.162	3324.43
744.502	3427.48
744.841	3380.93
745.181	3429.74
745.52	3427.71
745.86	3415.5
746.199	3428.16
746.538	3439.01
746.877	3474.26
747.216	3498.21
747.556	3511.77
747.895	3501.38
748.234	3519.68
748.573	3575.27
748.911	3554.93
749.25	3588.38
749.589	3578.21
749.928	3571.66
750.267	3606.46
750.605	3656.18
750.944	3669.28
751.283	3662.5
751.621	3694.37
751.96	3709.96
752.298	3751.54
752.636	3725.1
752.975	3745.66
753.313	3736.62
753.651	3780.47
753.989	3834.93
754.327	3802.39
754.666	3871.54
755.004	3862.05
755.342	3886
755.679	3918.77
756.017	3899.33
756.355	3947.24
756.693	3998.09
757.031	3982.04
757.368	3975.04
757.706	4003.51
758.044	4015.49
758.381	4045.54
758.719	4071.76
759.056	4075.6
759.394	4078.99
759.731	4083.06
760.068	4130.06
760.405	4098.88
760.743	4122.38
761.08	4124.41
761.417	4166.9
761.754	4179.55
762.091	4172.77
762.428	4166.67
762.765	4232.66
763.102	4206.22
763.438	4208.93
763.775	4243.73
764.112	4244.63
764.449	4208.25
764.785	4219.32
765.122	4245.31
765.458	4257.97
765.795	4271.53
766.131	4272.43
766.467	4260.23
766.804	4249.83
767.14	4236.72
767.476	4292.54
767.812	4236.27
768.148	4285.09
768.485	4261.81
768.821	4291.19
769.157	4284.86
769.492	4319.89
769.828	4278.08
770.164	4254.13
770.5	4269.27
770.836	4241.47
771.171	4251.41
771.507	4232.21
771.842	4211.19
772.178	4213.22
772.513	4247.8
