Data from blue_shiny_book_FLMS001491_00018.txt Node
Date: Wed Feb 08 15:26:37 GMT 2017
User: dcchb
Spectrometer: FLMS00149
Trigger mode: 0
Integration Time (sec): 2.000000E-2
Scans to average: 10
Electric dark correction enabled: true
Nonlinearity correction enabled: false
Boxcar width: 0
XAxis mode: Wavelengths
Number of Pixels in Spectrum: 2048
>>>>>Begin Spectral Data<<<<<
341.393	-36.27
341.776	-36.27
342.16	-36.27
342.543	-64.97
342.927	-58.87
343.31	-78.75
343.693	-65.2
344.077	-63.61
344.46	-67
344.843	-50.96
345.226	-57.29
345.61	-28.13
345.993	-18.42
346.376	-3.05
346.759	17.74
347.142	17.51
347.525	66.55
347.908	58.19
348.291	62.48
348.674	95.7
349.057	114.23
349.44	132.31
349.823	128.02
350.206	148.58
350.588	194.68
350.971	222.71
351.354	246.43
351.737	236.26
352.119	262.03
352.502	279.2
352.884	286.21
353.267	302.7
353.65	314.23
354.032	302.03
354.414	312.42
354.797	328.24
355.179	336.6
355.562	330.27
355.944	346.32
356.326	346.54
356.709	339.77
357.091	359.2
357.473	354.91
357.855	331.18
358.238	347
358.62	347.67
359.002	368.92
359.384	365.98
359.766	367.79
360.148	348.58
360.53	344.96
360.912	356.94
361.294	365.53
361.676	347.67
362.057	364.62
362.439	359.43
362.821	356.04
363.203	347.22
363.584	351.97
363.966	357.84
364.348	364.85
364.729	357.17
365.111	353.55
365.493	326.21
365.874	322.14
366.256	346.32
366.637	351.74
367.019	339.54
367.4	357.84
367.781	358.97
368.163	358.3
368.544	347.67
368.925	361.46
369.306	358.97
369.688	351.52
370.069	349.48
370.45	342.7
370.831	340.22
371.212	341.12
371.593	343.38
371.974	362.82
372.355	344.06
372.736	385.19
373.117	337.51
373.498	371.4
373.879	370.5
374.26	355.58
374.641	364.4
375.021	342.93
375.402	356.49
375.783	370.95
376.163	410.5
376.544	398.52
376.925	393.55
377.305	383.61
377.686	380.44
378.066	374.57
378.447	403.04
378.827	409.59
379.208	396.03
379.588	403.04
379.968	435.13
380.349	404.62
380.729	436.49
381.109	409.82
381.489	429.03
381.87	426.09
382.25	427.9
382.63	415.47
383.01	432.87
383.39	414.11
383.77	427.67
384.15	442.81
384.53	445.07
384.91	449.37
385.29	437.62
385.67	449.59
386.049	448.91
386.429	470.61
386.809	466.09
387.189	481.68
387.568	488.91
387.948	501.79
388.328	515.58
388.707	526.2
389.087	506.77
389.466	505.86
389.846	493.21
390.225	509.93
390.605	498.63
390.984	510.83
391.363	509.03
391.743	515.58
392.122	543.83
392.501	539.31
392.881	563.94
393.26	561
393.639	576.6
394.018	591.28
394.397	589.93
394.776	574.11
395.155	583.83
395.534	596.03
395.913	585.63
396.292	584.96
396.671	631.06
397.05	592.87
397.429	622.92
397.808	633.09
398.186	626.54
398.565	631.96
398.944	642.81
399.323	670.83
399.701	654.11
400.08	651.62
400.458	678.97
400.837	681.68
401.215	715.57
401.594	710.15
401.972	708.12
402.351	704.05
402.729	712.41
403.107	755.57
403.486	744.27
403.864	742.92
404.242	739.75
404.62	749.7
404.999	766.87
405.377	768
405.755	823.14
406.133	826.08
406.511	822.92
406.889	819.07
407.267	839.19
407.645	836.7
408.023	853.42
408.401	870.82
408.779	885.06
409.156	906.76
409.534	913.76
409.912	917.15
410.29	947.66
410.667	943.59
411.045	946.98
411.422	988.56
411.8	1000.31
412.178	997.83
412.555	1025.62
412.933	1021.1
413.31	1057.71
413.687	1087.32
414.065	1063.36
414.442	1092.06
414.819	1092.29
415.197	1111.04
415.574	1151.72
415.951	1140.2
416.328	1163.47
416.705	1168.44
417.082	1166.64
417.46	1200.08
417.837	1212.74
418.214	1222.23
418.591	1243.24
418.967	1245.73
419.344	1286.41
419.721	1298.84
420.098	1292.51
420.475	1318.27
420.852	1334.77
421.228	1365.05
421.605	1331.38
421.982	1390.13
422.358	1414.99
422.735	1416.12
423.111	1421.09
423.488	1466.97
423.864	1487.53
424.241	1494.31
424.617	1511.03
424.994	1513.75
425.37	1528.89
425.746	1528.66
426.123	1593.29
426.499	1584.25
426.875	1632.84
427.251	1657.92
427.627	1690.01
428.003	1726.62
428.379	1729.56
428.756	1736.34
429.132	1768.43
429.507	1800.52
429.883	1812.49
430.259	1855.21
430.635	1836.67
431.011	1875.09
431.387	1947.41
431.763	1954.41
432.138	1980.17
432.514	1986.05
432.89	2057.69
433.265	2111.24
433.641	2134.97
434.016	2121.19
434.392	2160.51
434.767	2265.59
435.143	2188.3
435.518	2213.84
435.894	2268.53
436.269	2313.5
436.644	2344.68
437.02	2384.46
437.395	2414.29
437.77	2424.91
438.145	2465.81
438.52	2487.73
438.895	2512.59
439.271	2549.42
439.646	2591.23
440.021	2577.9
440.395	2608.18
440.77	2618.58
441.145	2640.27
441.52	2694.28
441.895	2744.67
442.27	2729.31
442.645	2758.46
443.019	2808.63
443.394	2783.54
443.769	2870.55
444.143	2845.91
444.518	2893.14
444.892	2855.41
445.267	2926.82
445.641	2918.91
446.016	2971.11
446.39	2968.17
446.764	3037.1
447.139	3035.06
447.513	3067.15
447.887	3101.5
448.262	3132.01
448.636	3159.8
449.01	3192.57
449.384	3246.58
449.758	3227.37
450.132	3265.56
450.506	3272.34
450.88	3317.99
451.254	3365.22
451.628	3378.56
452.002	3397.99
452.376	3477.76
452.75	3533.35
453.123	3546.01
453.497	3649.73
453.871	3663.29
454.244	3706.23
454.618	3780.13
454.992	3776.96
455.365	3828.94
455.739	3920.46
456.112	3892.21
456.486	3966.34
456.859	4032.55
457.232	4086.56
457.606	4125.88
457.979	4161.13
458.352	4277.74
458.725	4315.93
459.099	4350.51
459.472	4440
459.845	4499.88
460.218	4545.53
460.591	4573.55
460.964	4632.99
461.337	4732.87
461.71	4765.86
462.083	4896.03
462.456	4907.78
462.829	4988.68
463.201	5052.41
463.574	5060.09
463.947	5128.79
464.32	5276.36
464.692	5290.37
465.065	5336.92
465.438	5477.48
465.81	5530.82
466.183	5546.41
466.555	5735.56
466.928	5733.52
467.3	5716.57
467.672	5804.25
468.045	6003.12
468.417	5983.01
468.789	6078.82
469.161	6181.87
469.534	6289.44
469.906	6414.18
470.278	6430.23
470.65	6521.07
471.022	6649.88
471.394	6801.29
471.766	6852.36
472.138	6904.34
472.51	7071.34
472.882	7171.68
473.253	7298.68
473.625	7416.42
473.997	7548.39
474.369	7631.32
474.74	7720.59
475.112	7920.58
475.484	8067.47
475.855	8184.76
476.227	8295.26
476.598	8429.5
476.97	8561.47
477.341	8735.48
477.713	8827.45
478.084	8897.96
478.455	9213.66
478.827	9291.39
479.198	9538.17
479.569	9603.02
479.94	9912.62
480.311	9960.53
480.682	10246.85
481.053	10452.95
481.424	10629.21
481.795	10662.21
482.166	10856.55
482.537	10961.18
482.908	11264.9
483.279	11341.06
483.65	11519.36
484.021	11799.12
484.391	11925.68
484.762	12040.93
485.133	12207.93
485.503	12461.25
485.874	12745.77
486.244	12857.85
486.615	13041.58
486.985	13240.22
487.356	13535.8
487.726	13619.42
488.097	13962.01
488.467	13928.56
488.837	14288.78
489.207	14334.43
489.578	14551.37
489.948	14687.64
490.318	14933.05
490.688	15099.15
491.058	15365.81
491.428	15542.3
491.798	15766.48
492.168	16096.86
492.538	16176.64
492.908	16301.61
493.278	16621.37
493.648	16665.44
494.017	16903.4
494.387	16929.84
494.757	17140.91
495.126	17347.91
495.496	17458.64
495.866	17543.38
496.235	17682.81
496.605	18002.35
496.974	18121.22
497.344	18325.96
497.713	18369.35
498.082	18668.77
498.452	18915.55
498.821	18905.38
499.19	19103.57
499.559	19282.32
499.928	19406.38
500.298	19452.03
500.667	19676.66
501.036	19721.18
501.405	19946.93
501.774	19819.03
502.143	20130.43
502.512	20352.35
502.88	20590.31
503.249	20615.39
503.618	20663.07
503.987	20785.33
504.356	20947.81
504.724	21120.91
505.093	21340.79
505.462	21513.67
505.83	21708.47
506.199	21714.57
506.567	22151.17
506.936	22024.84
507.304	22290.15
507.672	22270.49
508.041	22413.76
508.409	22559.52
508.777	22717.03
509.145	22984.59
509.514	23034.08
509.882	23137.13
510.25	23252.61
510.618	23453.51
510.986	23647.63
511.354	23906.83
511.722	24148.4
512.09	24479.7
512.458	24433.59
512.826	24649.41
513.193	24792.68
513.561	24810.31
513.929	24992
514.297	25135.72
514.664	25306.34
515.032	25332.33
515.4	25615.03
515.767	25695.71
516.135	25865.42
516.502	25722.37
516.869	26403.03
517.237	26523.71
517.604	26604.61
517.972	26945.17
518.339	27214.31
518.706	27349
519.073	27443.69
519.44	27744.24
519.808	28066.49
520.175	27993.95
520.542	28480.95
520.909	28533.83
521.276	28425.81
521.643	28654.05
522.009	28843.65
522.376	29079.57
522.743	29165.67
523.11	29487.7
523.477	29656.06
523.843	29837.29
524.21	30339.88
524.577	30674.33
524.943	30833.65
525.31	31062.57
525.676	31378.27
526.043	31753.63
526.409	31744.82
526.776	32312.94
527.142	32338.7
527.508	32621.85
527.874	32747.95
528.241	32809.42
528.607	32866.14
528.973	33113.37
529.339	33147.04
529.705	33288.28
530.071	33495.96
530.437	33731.88
530.803	33889.84
531.169	34307.01
531.535	34345.2
531.901	34533.89
532.267	34774.57
532.632	35009.36
532.998	35384.27
533.364	35607.31
533.73	35871.94
534.095	36092.05
534.461	36135.43
534.826	36399.16
535.192	36418.36
535.557	36591.92
535.923	36515.54
536.288	36548.08
536.653	36777.23
537.019	36505.14
537.384	36779.26
537.749	36900.84
538.114	37069.19
538.479	37074.39
538.845	37478.9
539.21	37418.11
539.575	37699.01
539.94	37773.58
540.305	38184.65
540.67	38273.68
541.034	38586.44
541.399	38854.01
541.764	38778.08
542.129	38957.28
542.494	39068.24
542.858	39040.22
543.223	39136.71
543.587	39339.64
543.952	39168.57
544.316	39231.62
544.681	39202.25
545.045	39284.96
545.41	39492.18
545.774	39406.76
546.138	39568.34
546.503	39650.14
546.867	39760.42
547.231	40229.56
547.595	40283.8
547.959	40378.26
548.324	40703.22
548.688	40948.87
549.052	41126.94
549.416	41396.99
549.779	41190.44
550.143	41380.04
550.507	41570.55
550.871	41610.77
551.235	41434.5
551.599	41764.21
551.962	41654.61
552.326	41702.07
552.689	41723.76
553.053	41642.18
553.417	41789.52
553.78	42204.88
554.143	42019.8
554.507	42128.04
554.87	42438.09
555.234	43011.41
555.597	42747.92
555.96	43032.65
556.323	43374.34
556.686	43382.25
557.05	43893.42
557.413	43954.21
557.776	44175
558.139	44446.85
558.502	44478.94
558.865	44337.93
559.228	44687.07
559.59	44667.19
559.953	44630.35
560.316	44877.58
560.679	44736.79
561.041	44889.1
561.404	45085.71
561.767	45389.88
562.129	45212.26
562.492	45616.09
562.854	45593.04
563.217	45659.48
563.579	46029.86
563.941	46246.81
564.304	46454.48
564.666	46746.68
565.028	46984.41
565.39	47222.37
565.753	47570.84
566.115	47571.97
566.477	47888.57
566.839	47928.57
567.201	48082.24
567.563	47994.56
567.925	48226.19
568.287	48135.57
568.648	48110.03
569.01	48277.94
569.372	48308.22
569.734	48131.73
570.095	48345.96
570.457	48394.09
570.819	48462.34
571.18	48519.29
571.542	48701.88
571.903	48795.44
572.265	49028.43
572.626	49241.3
572.987	49283.34
573.349	49572.59
573.71	49903.66
574.071	50017.78
574.432	50110.89
574.794	50490.76
575.155	50376.19
575.516	50312.24
575.877	50457.77
576.238	50506.81
576.599	50637.65
576.96	50482.18
577.32	50361.27
577.681	50616.18
578.042	50648.95
578.403	50509.07
578.763	50548.61
579.124	50489.86
579.485	50673.13
579.845	50810.08
580.206	50575.28
580.566	50660.25
580.927	50752
581.287	51070.41
581.648	51021.82
582.008	51201.93
582.368	51249.84
582.728	51446.44
583.089	51362.38
583.449	51419.55
583.809	51575.71
584.169	51667.46
584.529	51564.41
584.889	51803.5
585.249	51563.05
585.609	51394.24
585.969	51644.4
586.329	51422.04
586.688	51462.04
587.048	51446.9
587.408	51455.94
587.768	51274.92
588.127	51221.37
588.487	51140.69
588.846	51432.66
589.206	51115.38
589.565	51121.93
589.925	51306.56
590.284	51207.81
590.643	51352.21
591.003	51496.61
591.362	51601.24
591.721	51626.78
592.08	51608.25
592.44	51875.59
592.799	51911.52
593.158	51838.3
593.517	51881.91
593.876	52020.44
594.235	51934.11
594.593	51976.6
594.952	52011.4
595.311	51823.38
595.67	51995.13
596.029	52009.59
596.387	52010.27
596.746	52029.93
597.104	51735.48
597.463	51748.58
597.822	51786.77
598.18	51697.96
598.538	51639.66
598.897	51742.26
599.255	51556.5
599.613	52004.4
599.972	51811.18
600.33	51986.99
600.688	51885.75
601.046	52031.29
601.404	52277.61
601.762	52172.3
602.12	52396.02
602.478	52486.64
602.836	52606.64
603.194	52497.72
603.552	52584.95
603.91	52428.56
604.268	52619.07
604.625	52417.72
604.983	52580.2
605.341	52345.4
605.698	52477.38
606.056	52606.64
606.413	52442.58
606.771	52535.45
607.128	52481.9
607.485	52316.03
607.843	52339.75
608.2	52546.3
608.557	52684.6
608.914	52503.14
609.272	52676.24
609.629	52605.74
609.986	52682.57
610.343	52488.45
610.7	52791.04
611.057	52816.35
611.414	52850.02
611.771	52864.71
612.127	53180.41
612.484	53131.37
612.841	53303.8
613.198	53219.73
613.554	53274.64
613.911	53406.39
614.267	53449.1
614.624	53423.57
614.98	53473.51
615.337	53621.3
615.693	53468.54
616.05	53454.75
616.406	53535.65
616.762	53402.32
617.118	53459.72
617.475	53369.33
617.831	53465.37
618.187	53428.09
618.543	53448.2
618.899	53606.84
619.255	53449.1
619.611	53520.51
619.967	53532.94
620.323	53527.52
620.678	53493.62
621.034	53455.43
621.39	53509.21
621.746	53361.42
622.101	53765.25
622.457	53634.63
622.812	53721.86
623.168	53827.4
623.523	53834.4
623.879	53986.26
624.234	53748.53
624.589	53919.83
624.945	53973.84
625.3	53963.89
625.655	54011.12
626.01	54047.96
626.365	53932.03
626.72	53906.94
627.075	53863.78
627.43	53793.5
627.785	53749.89
628.14	53732.71
628.495	53696.55
628.85	53696.55
629.205	53596.22
629.559	53671.7
629.914	53417.69
630.269	53513.96
630.623	53437.58
630.978	53321.87
631.332	53429.22
631.687	53604.58
632.041	53383.34
632.396	53532.72
632.75	53278.49
633.104	53488.65
633.459	53296.79
633.813	53362.33
634.167	53460.18
634.521	53371.59
634.875	53448.88
635.229	53348.54
635.583	53384.25
635.937	53378.14
636.291	53385.15
636.645	53487.52
636.999	53370.91
637.352	53355.55
637.706	53290.92
638.06	53290.92
638.413	53141.31
638.767	52999.4
639.121	53106.29
639.474	52770.48
639.828	52817.71
640.181	52679.86
640.534	52728.44
640.888	52424.95
641.241	52416.36
641.594	52467.21
641.947	52531.16
642.301	52306.76
642.654	52378.17
643.007	52363.48
643.36	52256.37
643.713	52236.71
644.066	52358.96
644.419	52385.85
644.771	52327.32
645.124	52201.45
645.477	52164.62
645.83	52051.63
646.182	51819.77
646.535	51461.81
646.888	51499.1
647.24	51268.6
647.593	51410.29
647.945	51335.94
648.298	51266.11
648.65	51212.33
649.002	51130.52
649.355	51272.89
649.707	51207.81
650.059	51424.52
650.411	51747
650.763	51909.71
651.115	51950.61
651.467	51737.51
651.819	51786.32
652.171	51658.19
652.523	51507.69
652.875	51608.02
653.227	51376.62
653.578	51662.48
653.93	51497.29
654.282	51276.96
654.633	51196.28
654.985	51265.88
655.337	51297.75
655.688	51352.44
656.039	51471.08
656.391	51196.96
656.742	51307.46
657.094	51443.28
657.445	51553.11
657.796	51574.12
658.147	51662.48
658.498	51588.81
658.849	51637.17
659.2	51612.77
659.551	51466.78
659.902	51739.77
660.253	51696.15
660.604	51627
660.955	51616.38
661.306	51606.67
661.656	51552.2
662.007	51446.67
662.358	51315.6
662.708	51334.36
663.059	51319.89
663.409	51090.97
663.76	51299.1
664.11	51130.52
664.461	51081.03
664.811	50972.11
665.161	50926.23
665.511	50878.78
665.862	50862.96
666.212	50848.04
666.562	50956.29
666.912	50901.37
667.262	50840.36
667.612	50902.73
667.962	51030.86
668.312	50942.73
668.662	51099.79
669.011	51079.45
669.361	51103.63
669.711	51030.86
670.06	51073.57
670.41	51056.85
670.76	51078.32
671.109	51192.89
671.459	51122.38
671.808	51066.79
672.157	51272.89
672.507	51137.07
672.856	50983.18
673.205	51107.24
673.554	51075.61
673.904	50912.22
674.253	51121.25
674.602	50854.37
674.951	50365.34
675.3	50160.83
675.649	50625.45
675.998	50287.38
676.346	50342.29
676.695	50258.45
677.044	49918.8
677.393	50146.82
677.741	50061.17
678.09	49943.43
678.438	49879.93
678.787	49754.28
679.135	49777.34
679.484	49585.48
679.832	49862.3
680.181	49669.54
680.529	49812.59
680.877	49734.62
681.225	49674.74
681.573	49938.23
681.922	49683.78
682.27	49758.58
682.618	49867.28
682.966	49762.42
683.314	49910.89
683.661	49781.18
684.009	49641.07
684.357	49584.8
684.705	49604.91
685.053	49592.71
685.4	49550.22
685.748	49460.28
686.095	49419.6
686.443	49253.06
686.79	49178.71
687.138	49222.55
687.485	49169.89
687.832	48842.44
688.18	48889
688.527	48594.77
688.874	48330.37
689.221	48270.48
689.568	48109.81
689.915	48056.93
690.262	47941
690.609	47687.45
690.956	47536.94
691.303	47418.3
691.65	47247.01
691.997	47189.15
692.344	46933.57
692.69	46942.61
693.037	46939.22
693.383	46703.07
693.73	46696.74
694.077	46611.54
694.423	46710.3
694.769	46612.67
695.116	46568.83
695.462	46575.16
695.808	46433.24
696.155	46628.27
696.501	46400.25
696.847	46572.67
697.193	46159.8
697.539	46375.39
697.885	46089.75
698.231	45990.54
698.577	46131.56
698.923	46033.48
699.269	45791.68
699.614	45596.88
699.96	45407.05
700.306	45370.45
700.651	45106.27
700.997	44826.5
701.342	44721.65
701.688	44530.47
702.033	44176.13
702.379	44309.91
702.724	43984.27
703.069	44136.35
703.415	43591.28
703.76	43489.36
704.105	43468.8
704.45	43194.23
704.795	43031.98
705.14	42808.48
705.485	42727.35
705.83	42584.98
706.175	42595.83
706.52	42569.62
706.865	42455.95
707.209	42380.47
707.554	42425.21
707.899	42452.33
708.243	42313.8
708.588	42338.66
708.932	42178.21
709.277	42223.64
709.621	42286.46
709.966	42046.01
710.31	42311.54
710.654	41984.09
710.998	42153.58
711.342	42208.27
711.687	42130.08
712.031	41947.71
712.375	41779.35
712.719	41836.3
713.063	41578.68
713.407	41644.67
713.75	41310.89
714.094	41386.6
714.438	41390.89
714.782	41359.25
715.125	41042.88
715.469	41026.83
715.812	40747.74
716.156	40688.08
716.499	40458.94
716.843	40286.74
717.186	40032.73
717.53	40184.14
717.873	39967.65
718.216	39600.43
718.559	39549.36
718.902	39387.78
719.246	39755.9
719.589	39440.66
719.932	39414.22
720.275	39326.08
720.617	39218.74
720.96	39216.26
721.303	39220.1
721.646	39315.24
721.989	39047
722.331	39352.3
722.674	39229.59
723.016	39364.73
723.359	39351.39
723.701	39572.41
724.044	39345.75
724.386	39151.17
724.729	39401.56
725.071	39193.21
725.413	39318.4
725.755	39283.83
726.097	39260.78
726.439	39088.8
726.782	39155.69
727.124	39133.32
727.465	38930.84
727.807	39067.56
728.149	38828.92
728.491	38724.52
728.833	38716.16
729.175	38610.4
729.516	38444.98
729.858	38393
730.199	38350.07
730.541	38157.3
730.882	38000.47
731.224	38193.69
731.565	38004.09
731.906	37793.02
732.248	37826.46
732.589	37556.41
732.93	37484.33
733.271	37581.72
733.612	37607.03
733.953	37652
734.294	37419.47
734.635	37458.11
734.976	37481.84
735.317	37393.03
735.658	37487.26
735.999	37540.14
736.339	37420.37
736.68	37565.45
737.021	37493.14
737.361	37436.42
737.702	37694.49
738.042	37296.99
738.383	37489.07
738.723	37612.68
739.063	37621.27
739.404	37597.77
739.744	37713.25
740.084	37657.2
740.424	37797.54
740.764	37790.53
741.104	37851.32
741.444	37571.1
741.784	37595.06
742.124	37717.77
742.464	37683.42
742.804	37628.73
743.143	37590.31
743.483	37470.31
743.823	37276.65
744.162	37358.23
744.502	37315.29
744.841	37263.54
745.181	37263.54
745.52	37061.74
745.86	37208.4
746.199	37090.66
746.538	37088.18
746.877	37160.94
747.216	37090.44
747.556	36999.59
747.895	36984.9
748.234	36955.98
748.573	36737.45
748.911	36734.06
749.25	36767.28
749.589	36705.36
749.928	36683.67
750.267	36859.03
750.605	36685.25
750.944	36708.98
751.283	36535.2
751.621	36772.71
751.96	36607.51
752.298	36714.18
752.636	36803.89
752.975	36742.2
753.313	36859.26
