Data from blue_clamp_base_FLMS001491_00020.txt Node
Date: Wed Feb 08 15:15:38 GMT 2017
User: dcchb
Spectrometer: FLMS00149
Trigger mode: 0
Integration Time (sec): 2.000000E-2
Scans to average: 10
Electric dark correction enabled: true
Nonlinearity correction enabled: false
Boxcar width: 0
XAxis mode: Wavelengths
Number of Pixels in Spectrum: 2048
>>>>>Begin Spectral Data<<<<<
341.393	-13.04
341.776	-13.04
342.16	-13.04
342.543	-44.45
342.927	-68.4
343.31	-64.79
343.693	-78.35
344.077	-90.55
344.46	-68.18
344.843	-55.97
345.226	-32.02
345.61	-38.12
345.993	-5.8
346.376	-6.93
346.759	10.69
347.142	27.87
347.525	26.51
347.908	82.78
348.291	91.14
348.674	85.49
349.057	116.23
349.44	109.67
349.823	135.89
350.206	154.19
350.588	197.35
350.971	200.97
351.354	224.7
351.737	212.49
352.119	253.17
352.502	279.39
352.884	284.58
353.267	274.19
353.65	300.85
354.032	305.83
354.414	316.9
354.797	303.57
355.179	314.64
355.562	318.93
355.944	315.99
356.326	334.75
356.709	345.37
357.091	327.07
357.473	347.18
357.855	345.82
358.238	355.99
358.62	339.95
359.002	331.36
359.384	344.02
359.766	354.86
360.148	353.28
360.53	329.33
360.912	334.98
361.294	335.2
361.676	338.82
362.057	336.56
362.439	337.24
362.821	329.33
363.203	306.5
363.584	332.94
363.966	341.53
364.348	319.38
364.729	331.59
365.111	317.58
365.493	333.4
365.874	312.15
366.256	308.31
366.637	320.51
367.019	321.87
367.4	322.32
367.781	336.11
368.163	316.9
368.544	305.37
368.925	327.97
369.306	317.8
369.688	306.5
370.069	324.13
370.45	325.71
370.831	323.45
371.212	326.84
371.593	321.19
371.974	337.01
372.355	320.51
372.736	335.66
373.117	315.54
373.498	301.08
373.879	329.1
374.26	328.2
374.641	316.67
375.021	337.46
375.402	330.68
375.783	332.72
376.163	350.12
376.544	326.84
376.925	351.02
377.305	347.63
377.686	320.51
378.066	341.98
378.447	357.8
378.827	350.12
379.208	353.73
379.588	317.35
379.968	353.96
380.349	360.29
380.729	352.6
381.109	334.07
381.489	345.15
381.87	343.11
382.25	354.64
382.63	377.01
383.01	367.74
383.39	340.17
383.77	352.38
384.15	355.09
384.53	376.11
384.91	369.55
385.29	376.33
385.67	374.07
386.049	395.99
386.429	349.89
386.809	370
387.189	384.02
387.568	373.85
387.948	400.74
388.328	385.37
388.707	399.83
389.087	397.35
389.466	393.73
389.846	412.04
390.225	410.91
390.605	429.66
390.984	409.33
391.363	415.65
391.743	442.09
392.122	414.75
392.501	427.18
392.881	426.05
393.26	430.79
393.639	453.39
394.018	420.17
394.397	423.34
394.776	429.66
395.155	442.09
395.534	440.96
395.913	452.94
396.292	452.94
396.671	463.34
397.05	474.41
397.429	471.24
397.808	473.05
398.186	460.62
398.565	476.89
398.944	489.78
399.323	495.88
399.701	489.32
400.08	468.08
400.458	502.2
400.837	506.95
401.215	501.07
401.594	506.05
401.972	534.29
402.351	517.57
402.729	539.04
403.107	566.61
403.486	552.6
403.864	551.47
404.242	568.87
404.62	570
404.999	587.85
405.377	595.54
405.755	571.58
406.133	585.59
406.511	591.92
406.889	622.2
407.267	613.84
407.645	604.8
408.023	626.27
408.401	629.66
408.779	632.37
409.156	626.49
409.534	633.27
409.912	670.56
410.29	673.73
410.667	676.89
411.045	697.45
411.422	683.22
411.8	687.28
412.178	726.15
412.555	704.68
412.933	718.47
413.31	735.19
413.687	753.05
414.065	770.45
414.442	745.81
414.819	736.77
415.197	772.03
415.574	771.8
415.951	788.07
416.328	801.41
416.705	767.51
417.082	795.08
417.46	825.59
417.837	816.32
418.214	840.5
418.591	828.3
418.967	828.3
419.344	861.74
419.721	872.82
420.098	855.19
420.475	882.08
420.852	881.18
421.228	863.32
421.605	908.52
421.982	947.84
422.358	917.11
422.735	943.1
423.111	937
423.488	948.52
423.864	964.79
424.241	977.9
424.617	1012.47
424.994	982.87
425.37	1002.3
425.746	1024.9
426.123	1026.03
426.499	1042.98
426.875	1033.72
427.251	1047.05
427.627	1079.36
428.003	1091.79
428.379	1095.86
428.756	1086.6
429.132	1111.23
429.507	1144.9
429.883	1137.89
430.259	1166.37
430.635	1174.73
431.011	1187.16
431.387	1221.73
431.763	1241.39
432.138	1247.95
432.514	1238.68
432.89	1272.58
433.265	1307.15
433.641	1337.44
434.016	1339.92
434.392	1346.7
434.767	1382.18
435.143	1360.71
435.518	1399.13
435.894	1423.99
436.269	1430.32
436.644	1443.2
437.02	1426.93
437.395	1429.64
437.77	1452.91
438.145	1513.03
438.52	1497.88
438.895	1504.21
439.271	1530.88
439.646	1581.72
440.021	1581.72
440.395	1573.59
440.77	1572.68
441.145	1624.43
441.52	1636.19
441.895	1639.58
442.27	1667.37
442.645	1648.61
443.019	1670.08
443.394	1683.19
443.769	1714.38
444.143	1734.04
444.518	1747.37
444.892	1712.34
445.267	1785.56
445.641	1750.76
446.016	1778.33
446.39	1817.65
446.764	1816.52
447.139	1792.79
447.513	1861.49
447.887	1840.25
448.262	1828.5
448.636	1886.8
449.01	1934.03
449.384	1946.01
449.758	1896.29
450.132	1935.84
450.506	1962.5
450.88	1962.28
451.254	1973.13
451.628	2004.09
452.002	2051.77
452.376	2038.66
452.75	2069.17
453.123	2096.96
453.497	2120.69
453.871	2143.52
454.244	2199.79
454.618	2213.8
454.992	2214.02
455.365	2211.99
455.739	2282.04
456.112	2313.46
456.486	2297.41
456.859	2326.79
457.232	2361.82
457.606	2386.45
457.979	2372.44
458.352	2443.4
458.725	2494.69
459.099	2489.04
459.472	2523.62
459.845	2553.22
460.218	2586.67
460.591	2616.95
460.964	2613.79
461.337	2644.52
461.71	2718.42
462.083	2713.9
462.456	2763.16
462.829	2748.47
463.201	2773.78
463.574	2798.19
463.947	2833.44
464.32	2895.81
464.692	2921.58
465.065	2951.86
465.438	2983.95
465.81	3008.81
466.183	3039.99
466.555	3096.71
466.928	3080.44
467.3	3101.01
467.672	3216.03
468.045	3227.33
468.417	3266.43
468.789	3282.47
469.161	3315.24
469.534	3361.79
469.906	3415.35
470.278	3427.1
470.65	3525.18
471.022	3566.3
471.394	3595.23
471.766	3647.21
472.138	3634.78
472.51	3690.37
472.882	3761.33
473.253	3793.87
473.625	3844.04
473.997	3945.28
474.369	3919.52
474.74	3983.92
475.112	4056.24
475.484	4090.36
475.855	4165.84
476.227	4148.66
476.598	4301.43
476.97	4287.87
477.341	4400.63
477.713	4471.82
478.084	4454.19
478.455	4580.06
478.827	4581.87
479.198	4695.09
479.569	4735.31
479.94	4836.1
480.311	4862.09
480.682	4953.84
481.053	5041.07
481.424	5133.04
481.795	5185.47
482.166	5184.12
482.537	5271.8
482.908	5350.66
483.279	5395.86
483.65	5458.01
484.021	5581.17
484.391	5634.95
484.762	5594.95
485.133	5672.24
485.503	5728.96
485.874	5806.47
486.244	5899.12
486.615	6002.17
486.985	5999.69
487.356	6095.73
487.726	6150.19
488.097	6195.84
488.467	6228.83
488.837	6309.74
489.207	6366.23
489.578	6467.47
489.948	6519.45
490.318	6539.79
490.688	6539.56
491.058	6609.39
491.428	6697.97
491.798	6744.3
492.168	6828.37
492.538	6878.08
492.908	6894.8
493.278	6992.66
493.648	6945.88
494.017	7043.95
494.387	7038.98
494.757	7137.28
495.126	7163.95
495.496	7145.19
495.866	7232.2
496.235	7252.31
496.605	7237.17
496.974	7340.89
497.344	7344.96
497.713	7436.26
498.082	7415.92
498.452	7497.27
498.821	7527.33
499.19	7564.17
499.559	7552.87
499.928	7574.11
500.298	7591.51
500.667	7680.09
501.036	7689.81
501.405	7717.61
501.774	7725.52
502.143	7721.45
502.512	7784.5
502.88	7835.12
503.249	7862.69
503.618	7890.94
503.987	7953.31
504.356	7912.86
504.724	7969.35
505.093	7986.08
505.462	7969.58
505.83	8034.44
506.199	8049.12
506.567	8180.65
506.936	8121.66
507.304	8205.5
507.672	8205.5
508.041	8219.29
508.409	8272.17
508.777	8359.4
509.145	8465.38
509.514	8347.87
509.882	8376.57
510.25	8423.8
510.618	8470.36
510.986	8476.46
511.354	8531.6
511.722	8648.2
512.09	8641.43
512.458	8551.71
512.826	8629.67
513.193	8688.43
513.561	8692.95
513.929	8741.99
514.297	8772.04
514.664	8851.36
515.032	8839.16
515.4	8871.7
515.767	8899.27
516.135	8903.79
516.502	8916.67
516.869	8966.84
517.237	9081.19
517.604	9036.44
517.972	9075.99
518.339	9098.59
518.706	9122.09
519.073	9078.7
519.44	9198.25
519.808	9252.03
520.175	9206.61
520.542	9338.36
520.909	9431.69
521.276	9311.46
521.643	9417.9
522.009	9537.22
522.376	9555.07
522.743	9500.61
523.11	9588.07
523.477	9701.74
523.843	9694.73
524.21	9767.05
524.577	9853.14
524.943	9818.34
525.31	9927.27
525.676	9957.32
526.043	10006.81
526.409	9969.75
526.776	10169.97
527.142	10138.56
527.508	10140.59
527.874	10223.76
528.241	10216.75
528.607	10296.3
528.973	10296.52
529.339	10332.91
529.705	10424.2
530.071	10559.57
530.437	10510.98
530.803	10606.8
531.169	10575.84
531.535	10601.6
531.901	10653.58
532.267	10656.97
532.632	10712.11
532.998	10756.17
533.364	10828.94
533.73	10842.05
534.095	10900.57
534.461	10899.22
534.826	10996.62
535.192	11044.07
535.557	11140.12
535.923	11047.92
536.288	11055.6
536.653	11119.55
537.019	11068.25
537.384	11169.49
537.749	11225.09
538.114	11188.03
538.479	11273.9
538.845	11340.34
539.21	11301.02
539.575	11367.68
539.94	11413.78
540.305	11460.33
540.67	11438.19
541.034	11456.49
541.399	11496.94
541.764	11543.04
542.129	11559.31
542.494	11593.66
542.858	11706.43
543.223	11670.05
543.587	11736.26
543.952	11716.6
544.316	11754.56
544.681	11685.41
545.045	11759.31
545.41	11825.75
545.774	11883.83
546.138	11877.72
546.503	11909.81
546.867	11926.08
547.231	12017.38
547.595	11969.7
547.959	12010.38
548.324	12030.71
548.688	12073.43
549.052	12116.59
549.416	12101.9
549.779	12114.1
550.143	12173.99
550.507	12188.22
550.871	12158.62
551.235	12252.4
551.599	12365.17
551.962	12320.88
552.326	12260.09
552.689	12326.3
553.053	12351.61
553.417	12378.73
553.78	12480.65
554.143	12403.36
554.507	12518.61
554.87	12536.01
555.234	12676.8
555.597	12597.93
555.96	12574.88
556.323	12639.51
556.686	12770.58
557.05	12735.55
557.413	12823.46
557.776	12811.94
558.139	12872.05
558.502	12843.57
558.865	12821.2
559.228	12887.19
559.59	13017.36
559.953	13050.57
560.316	13176.22
560.679	13134.64
561.041	13137.8
561.404	13269.1
561.767	13338.25
562.129	13297.12
562.492	13334.18
562.854	13282.66
563.217	13382.77
563.579	13384.35
563.941	13468.19
564.304	13572.37
564.666	13592.03
565.028	13606.72
565.39	13567.62
565.753	13695.3
566.115	13771.01
566.477	13803.78
566.839	13787.96
567.201	13914.96
567.563	13967.84
567.925	13988.18
568.287	14033.37
568.648	14023.43
569.01	14164.22
569.372	14273.82
569.734	14243.09
570.095	14265.23
570.457	14334.61
570.819	14391.56
571.18	14346.13
571.542	14486.92
571.903	14547.26
572.265	14547.26
572.626	14542.29
572.987	14602.85
573.349	14651.66
573.71	14710.42
574.071	14792.22
574.432	14817.99
574.794	14902.28
575.155	14909.74
575.516	14841.71
575.877	14912.22
576.238	15054.59
576.599	15053.69
576.96	15007.36
577.32	15036.96
577.681	15203.29
578.042	15171.88
578.403	15146.57
578.763	15198.54
579.124	15213.23
579.485	15312.66
579.845	15396.5
580.206	15305.88
580.566	15394.24
580.927	15323.96
581.287	15350.63
581.648	15312.21
582.008	15410.74
582.368	15415.26
582.728	15464.3
583.089	15484.86
583.449	15429.04
583.809	15462.26
584.169	15547.01
584.529	15466.78
584.889	15532.54
585.249	15566.67
585.609	15474.01
585.969	15646.21
586.329	15616.61
586.688	15581.36
587.048	15541.13
587.408	15599.89
587.768	15626.33
588.127	15608.7
588.487	15582.26
588.846	15753.55
589.206	15702.26
589.565	15664.97
589.925	15760.11
590.284	15723.05
590.643	15666.33
591.003	15815.7
591.362	15806.89
591.721	15828.58
592.08	15848.92
592.44	15904.06
592.799	15779.77
593.158	15747.23
593.517	15857.73
593.876	15864.74
594.235	15780.67
594.593	15932.08
594.952	15856.15
595.311	15856.83
595.67	15865.64
596.029	15950.16
596.387	16048.91
596.746	15991.29
597.104	15930.05
597.463	15886.21
597.822	15983.15
598.18	15953.1
598.538	15906.55
598.897	16080.1
599.255	15909.03
599.613	16212.53
599.972	16020.67
600.33	16139.31
600.688	16061.57
601.046	16143.83
601.404	16199.64
601.762	16091.85
602.12	16076.03
602.478	16298.63
602.836	16150.15
603.194	16171.62
603.552	16139.76
603.91	16095.01
604.268	16236.48
604.625	16173.66
604.983	16188.8
605.341	16221.56
605.698	16288.46
606.056	16292.52
606.413	16235.12
606.771	16244.84
607.128	16396.7
607.485	16278.96
607.843	16408.9
608.2	16451.84
608.557	16521.67
608.914	16328
609.272	16512.4
609.629	16523.03
609.986	16515.34
610.343	16519.86
610.7	16447.1
611.057	16538.62
611.414	16526.42
611.771	16661.33
612.127	16711.72
612.484	16662.23
612.841	16613.19
613.198	16606.19
613.554	16539.3
613.911	16740.2
614.267	16749.46
614.624	16693.19
614.98	16749.69
615.337	16848.89
615.693	16837.14
616.05	16714.66
616.406	16897.71
616.762	16828.55
617.118	16849.35
617.475	16952.39
617.831	16867.65
618.187	16958.49
618.543	16991.71
618.899	17028.1
619.255	17054.76
619.611	17001.66
619.967	17113.29
620.323	17229.22
620.678	17017.7
621.034	17059.74
621.39	17070.36
621.746	16994.88
622.101	17240.75
622.457	17091.37
622.812	17193.29
623.168	17209.11
623.523	17225.15
623.879	17300.63
624.234	17227.64
624.589	17302.21
624.945	17214.99
625.3	17219.5
625.655	17240.07
626.01	17301.08
626.365	17412.04
626.72	17303.12
627.075	17401.19
627.43	17398.94
627.785	17254.53
628.14	17406.17
628.495	17381.53
628.85	17373.85
629.205	17377.47
629.559	17471.93
629.914	17386.51
630.269	17418.14
630.623	17401.19
630.978	17419.27
631.332	17536.33
631.687	17632.83
632.041	17457.69
632.396	17493.62
632.75	17400.52
633.104	17550.34
633.459	17552.38
633.813	17502.66
634.167	17508.31
634.521	17509.89
634.875	17599.38
635.229	17446.39
635.583	17421.31
635.937	17543.11
636.291	17581.76
636.645	17479.39
636.999	17505.83
637.352	17527.29
637.706	17531.81
638.06	17595.99
638.413	17508.99
638.767	17464.7
639.121	17558.25
639.474	17443.91
639.828	17543.11
640.181	17507.18
640.534	17631.25
640.888	17638.93
641.241	17413.4
641.594	17639.83
641.947	17614.52
642.301	17563.45
642.654	17667.85
643.007	17595.99
643.36	17638.02
643.713	17544.69
644.066	17794.63
644.419	17621.98
644.771	17512.6
645.124	17376.56
645.477	17406.17
645.83	17332.72
646.182	17264.48
646.535	17217.02
646.888	17265.38
647.24	17159.39
647.593	17269
647.945	17280.97
648.298	17227.87
648.65	17188.32
649.002	17149.68
649.355	17299.05
649.707	17318.49
650.059	17384.02
650.411	17614.07
650.763	17595.09
651.115	17973.84
651.467	17863.78
651.819	17801.86
652.171	17848.87
652.523	17874.85
652.875	17888.41
653.227	17814.97
653.578	17843.67
653.93	17874.85
654.282	17781.52
654.633	17822.43
654.985	17897.23
655.337	17807.06
655.688	17883.22
656.039	17978.58
656.391	17735.42
656.742	17968.64
657.094	17905.81
657.445	17963.89
657.796	18022.42
658.147	17893.39
658.498	17935.87
658.849	18005.47
659.2	17893.16
659.551	17870.11
659.902	17971.8
660.253	17972.71
660.604	17951.01
660.955	17843.67
661.306	17987.39
661.656	17986.49
662.007	18046.15
662.358	17961.18
662.708	17998.47
663.059	18071.69
663.409	17919.37
663.76	17972.93
664.11	17969.54
664.461	17992.37
664.811	18052.03
665.161	17972.25
665.511	17942.65
665.862	17941.52
666.212	17961.63
666.562	18035.08
666.912	17905.36
667.262	18020.61
667.612	17955.53
667.962	17982.42
668.312	17924.12
668.662	18061.74
669.011	18005.7
669.361	17891.8
669.711	17902.88
670.06	17934.97
670.41	17875.53
670.76	17902.2
671.109	17868.3
671.459	17787.4
671.808	17791.69
672.157	17725.48
672.507	17700.85
672.856	17722.99
673.205	17688.19
673.554	17708.76
673.904	17627.4
674.253	17727.74
674.602	17685.48
674.951	17352.16
675.3	17285.04
675.649	17593.96
675.998	17591.25
676.346	17452.72
676.695	17513.06
677.044	17364.81
677.393	17443
677.741	17377.01
678.09	17393.51
678.438	17347.19
678.787	17312.84
679.135	17348.32
679.484	17260.86
679.832	17275.55
680.181	17169.56
680.529	17192.84
680.877	17183.57
681.225	17031.26
681.573	17176.79
681.922	17097.7
682.27	17016.8
682.618	17066.29
682.966	16981.09
683.314	16939.51
683.661	16922.56
684.009	16766.18
684.357	16778.84
684.705	16747.2
685.053	16780.87
685.4	16779.29
685.748	16629.92
686.095	16658.16
686.443	16574.1
686.79	16587.21
687.138	16610.71
687.485	16613.19
687.832	16492.07
688.18	16537.26
688.527	16436.02
688.874	16431.28
689.221	16498.39
689.568	16356.25
689.915	16283.94
690.262	16364.16
690.609	16250.94
690.956	16252.75
691.303	16264.05
691.65	16196.03
691.997	16250.26
692.344	16114.45
692.69	16188.35
693.037	16146.99
693.383	15989.03
693.73	16020.67
694.077	15939.09
694.423	15929.37
694.769	15963.04
695.116	15901.8
695.462	15873.78
695.808	15895.47
696.155	15958.52
696.501	15794.68
696.847	15813.44
697.193	15736.38
697.539	15767.79
697.885	15726.21
698.231	15672.43
698.577	15736.61
698.923	15674.01
699.269	15634.69
699.614	15514.92
699.96	15595.59
700.306	15561.24
700.651	15589.49
700.997	15414.58
701.342	15470.4
701.688	15476.27
702.033	15404.86
702.379	15444.41
702.724	15376.16
703.069	15469.95
703.415	15316.05
703.76	15284.41
704.105	15310.4
704.45	15230.18
704.795	15163.29
705.14	15157.41
705.485	15203.29
705.83	15119
706.175	15181.59
706.52	15165.1
706.865	15045.78
707.209	15075.15
707.554	15120.35
707.899	15069.73
708.243	15116.51
708.588	14995.61
708.932	14927.59
709.277	14984.76
709.621	14944.54
709.966	14833.35
710.31	14928.27
710.654	14829.96
710.998	14846.69
711.342	14853.92
711.687	14912.67
712.031	14789.29
712.375	14714.71
712.719	14802.17
713.063	14778.21
713.407	14835.84
713.75	14710.42
714.094	14822.05
714.438	14768.95
714.782	14716.75
715.125	14647.37
715.469	14721.04
715.812	14638.56
716.156	14608.95
716.499	14641.27
716.843	14664.32
717.186	14586.35
717.53	14597.43
717.873	14573.7
718.216	14643.98
718.559	14538.22
718.902	14454.61
719.246	14601.27
719.589	14458
719.932	14386.58
720.275	14486.24
720.617	14463.19
720.96	14440.82
721.303	14528.95
721.646	14410.99
721.989	14370.31
722.331	14400.14
722.674	14484.89
723.016	14442.18
723.359	14408.28
723.701	14325.12
724.044	14375.96
724.386	14304.78
724.729	14328.28
725.071	14316.53
725.413	14283.76
725.755	14387.71
726.097	14299.36
726.439	14194.73
726.782	14201.05
727.124	14371.44
727.465	14233.14
727.807	14312.24
728.149	14198.34
728.491	14215.29
728.833	14276.08
729.175	14236.76
729.516	14275.85
729.858	14279.92
730.199	14245.8
730.541	14252.8
730.882	14194.5
731.224	14272.46
731.565	14189.3
731.906	14245.12
732.248	14270.88
732.589	14234.5
732.93	14254.39
733.271	14241.28
733.612	14286.25
733.953	14309.75
734.294	14338.68
734.635	14202.86
734.976	14341.39
735.317	14279.92
735.658	14246.48
735.999	14272.46
736.339	14213.93
736.68	14356.3
737.021	14286.7
737.361	14349.3
737.702	14378.9
738.042	14372.12
738.383	14473.81
738.723	14396.53
739.063	14380.03
739.404	14493.7
739.744	14437.88
740.084	14373.48
740.424	14476.75
740.764	14483.98
741.104	14556.3
741.444	14528.73
741.784	14488.5
742.124	14555.39
742.464	14509.07
742.804	14603.08
743.143	14519.69
743.483	14618.67
743.823	14536.64
744.162	14649.63
744.502	14602.85
744.841	14643.98
745.181	14657.76
745.52	14666.35
745.86	14709.06
746.199	14744.99
746.538	14794.48
746.877	14840.81
747.216	14914.71
747.556	14981.6
747.895	14931.43
748.234	14914.03
748.573	14931.88
748.911	14833.58
749.25	14914.48
749.589	14974.59
749.928	15004.65
750.267	14980.24
750.605	15076.74
750.944	15125.77
751.283	14997.64
751.621	15146.57
751.96	15121.48
752.298	15129.84
752.636	15147.69
752.975	15100.46
753.313	15143.18
753.651	15192.44
753.989	15186.79
754.327	15236.51
754.666	15112.22
755.004	15246.68
755.342	15360.8
755.679	15279.44
756.017	15368.71
756.355	15384.75
