Data from blue_clamp_base_FLMS001491_00097.txt Node
Date: Wed Feb 08 15:16:48 GMT 2017
User: dcchb
Spectrometer: FLMS00149
Trigger mode: 0
Integration Time (sec): 2.000000E-2
Scans to average: 10
Electric dark correction enabled: true
Nonlinearity correction enabled: false
Boxcar width: 0
XAxis mode: Wavelengths
Number of Pixels in Spectrum: 2048
>>>>>Begin Spectral Data<<<<<
341.393	6.24
341.776	6.24
342.16	6.24
342.543	-42.12
342.927	-62.68
343.31	-61.55
343.693	-65.39
344.077	-59.07
344.46	-60.2
344.843	-51.16
345.226	-27.88
345.61	-50.93
345.993	-0.54
346.376	-26.75
346.759	16.41
347.142	27.26
347.525	57.31
347.908	44.43
348.291	66.35
348.674	91.66
349.057	100.03
349.44	114.49
349.823	155.39
350.206	161.49
350.588	220.93
350.971	232.9
351.354	228.61
351.737	249.85
352.119	257.08
352.502	268.16
352.884	286.69
353.267	297.31
353.65	295.73
354.032	324.43
354.414	340.92
354.797	311.32
355.179	321.04
355.562	337.99
355.944	340.02
356.326	332.79
356.709	357.42
357.091	343.64
357.473	353.58
357.855	364.65
358.238	353.13
358.62	356.74
359.002	358.78
359.384	353.35
359.766	352.45
360.148	342.73
360.53	330.75
360.912	339.79
361.294	353.35
361.676	346.35
362.057	335.05
362.439	335.73
362.821	342.96
363.203	344.76
363.584	334.82
363.966	340.7
364.348	341.6
364.729	344.54
365.111	325.56
365.493	344.99
365.874	333.69
366.256	341.83
366.637	325.1
367.019	336.4
367.4	339.57
367.781	332.56
368.163	318.1
368.544	314.03
368.925	326.91
369.306	324.2
369.688	316.29
370.069	356.06
370.45	334.82
370.831	311.55
371.212	341.15
371.593	327.14
371.974	323.75
372.355	305.22
372.736	336.86
373.117	319.91
373.498	339.79
373.879	334.82
374.26	324.2
374.641	323.75
375.021	333.69
375.402	339.57
375.783	351.77
376.163	338.89
376.544	352.45
376.925	358.32
377.305	367.82
377.686	369.17
378.066	351.32
378.447	355.61
378.827	355.16
379.208	354.71
379.588	360.81
379.968	356.74
380.349	360.36
380.729	374.59
381.109	352.9
381.489	383.18
381.87	351.54
382.25	371.88
382.63	372.33
383.01	380.47
383.39	396.74
383.77	357.19
384.15	359
384.53	371.88
384.91	372.79
385.29	393.13
385.67	387.93
386.049	399.23
386.429	400.36
386.809	395.61
387.189	400.58
387.568	417.08
387.948	407.59
388.328	387.7
388.707	422.95
389.087	369.62
389.466	415.72
389.846	417.08
390.225	414.14
390.605	439
390.984	415.95
391.363	434.03
391.743	428.6
392.122	448.27
392.501	442.84
392.881	448.49
393.26	423.86
393.639	439.68
394.018	443.75
394.397	455.04
394.776	457.08
395.155	478.77
395.534	451.65
395.913	500.47
396.292	480.35
396.671	494.82
397.05	473.8
397.429	490.07
397.808	511.77
398.186	492.78
398.565	514.7
398.944	507.92
399.323	504.76
399.701	538.88
400.08	513.57
400.458	522.39
400.837	532.78
401.215	554.25
401.594	530.3
401.972	532.56
402.351	559.9
402.729	515.83
403.107	575.27
403.486	566.68
403.864	565.32
404.242	567.36
404.62	593.35
404.999	579.34
405.377	601.71
405.755	617.75
406.133	609.62
406.511	591.76
406.889	624.08
407.267	631.31
407.645	634.47
408.023	669.28
408.401	648.94
408.779	668.6
409.156	672.89
409.534	692.1
409.912	676.06
410.29	697.3
410.667	709.95
411.045	697.07
411.422	709.95
411.8	729.61
412.178	720.35
412.555	756.96
412.933	749.05
413.31	761.25
413.687	771.19
414.065	766.67
414.442	805.09
414.819	819.55
415.197	804.64
415.574	809.16
415.951	837.41
416.328	814.58
416.705	831.76
417.082	833.34
417.46	860.23
417.837	859.55
418.214	886.67
418.591	860.68
418.967	884.41
419.344	892.55
419.721	903.17
420.098	911.98
420.475	947.69
420.852	899.1
421.228	924.86
421.605	937.29
421.982	956.73
422.358	956.05
422.735	973.22
423.111	961.02
423.488	976.84
423.864	1006.22
424.241	1026.33
424.617	1027.01
424.994	1017.52
425.37	1033.79
425.746	1014.35
426.123	1069.72
426.499	1063.62
426.875	1068.14
427.251	1112.88
427.627	1106.55
428.003	1118.3
428.379	1127.34
428.756	1161.24
429.132	1171.64
429.507	1184.06
429.883	1192.88
430.259	1212.99
430.635	1230.39
431.011	1250.96
431.387	1290.28
431.763	1256.15
432.138	1281.46
432.514	1302.93
432.89	1314
433.265	1341.57
433.641	1366.66
434.016	1372.31
434.392	1398.3
434.767	1436.04
435.143	1419.76
435.518	1424.51
435.894	1469.03
436.269	1461.8
436.644	1479.42
437.02	1503.38
437.395	1501.12
437.77	1558.29
438.145	1577.95
438.52	1573.66
438.895	1589.93
439.271	1587.22
439.646	1644.39
440.021	1646.65
440.395	1654.11
440.77	1638.97
441.145	1635.35
441.52	1686.42
441.895	1709.47
442.27	1710.83
442.645	1719.19
443.019	1749.02
443.394	1748.8
443.769	1738.4
444.143	1747.44
444.518	1806.65
444.892	1791.05
445.267	1810.72
445.641	1845.97
446.016	1838.51
446.39	1849.13
446.764	1836.7
447.139	1875.35
447.513	1915.35
447.887	1915.35
448.262	1924.38
448.636	1926.42
449.01	1926.87
449.384	1958.06
449.758	1983.14
450.132	1981.56
450.506	2038.96
450.88	2007.09
451.254	2025.17
451.628	2090.03
452.002	2090.71
452.376	2100.2
452.75	2095
453.123	2132.29
453.497	2163.7
453.871	2158.28
454.244	2258.61
454.618	2239.18
454.992	2262.91
455.365	2280.99
455.739	2319.4
456.112	2304.26
456.486	2341.55
456.859	2400.3
457.232	2404.37
457.606	2422.9
457.979	2456.35
458.352	2480.53
458.725	2514.88
459.099	2520.3
459.472	2561.2
459.845	2616.57
460.218	2621.09
460.591	2642.33
460.964	2681.65
461.337	2741.31
461.71	2746.96
462.083	2767.53
462.456	2753.74
462.829	2795.1
463.201	2836
463.574	2858.6
463.947	2866.73
464.32	2915.54
464.692	2912.61
465.065	2973.62
465.438	3017.69
465.81	3081.64
466.183	3061.76
466.555	3163.67
466.928	3165.48
467.3	3125.71
467.672	3179.49
468.045	3235.31
468.417	3294.07
468.789	3299.26
469.161	3351.47
469.534	3336.55
469.906	3388.75
470.278	3438.69
470.65	3504
471.022	3567.73
471.394	3592.14
471.766	3625.81
472.138	3643.21
472.51	3717.11
472.882	3800.95
473.253	3803.66
473.625	3817.89
473.997	3895.18
474.369	3925.46
474.74	3954.84
475.112	4018.34
475.484	4073.48
475.855	4153.7
476.227	4188.28
476.598	4263.31
476.97	4292.46
477.341	4376.07
477.713	4442.51
478.084	4438.89
478.455	4608.83
478.827	4538.1
479.198	4666.23
479.569	4675.05
479.94	4823.29
480.311	4837.08
480.682	4903.74
481.053	4986.9
481.424	5052.21
481.795	5116.84
482.166	5172.66
482.537	5184.41
482.908	5296.73
483.279	5349.83
483.65	5399.1
484.021	5439.55
484.391	5539.88
484.762	5541.24
485.133	5561.12
485.503	5631.41
485.874	5785.53
486.244	5770.38
486.615	5859.87
486.985	5914.79
487.356	5979.65
487.726	6028.68
488.097	6102.58
488.467	6105.29
488.837	6167.66
489.207	6219.64
489.578	6318.62
489.948	6350.93
490.318	6452.85
490.688	6379.41
491.058	6498.05
491.428	6546.41
491.798	6618.72
492.168	6667.08
492.538	6717.93
492.908	6766.29
493.278	6806.74
493.648	6744.14
494.017	6779.85
494.387	6879.06
494.757	6917.7
495.126	6968.55
495.496	6956.79
495.866	7018.49
496.235	7072.72
496.605	7014.65
496.974	7126.06
497.344	7133.06
497.713	7193.17
498.082	7184.36
498.452	7205.83
498.821	7261.65
499.19	7219.16
499.559	7315.66
499.928	7399.49
500.298	7345.03
500.667	7391.81
501.036	7411.25
501.405	7440.4
501.774	7343.22
502.143	7448.53
502.512	7439.04
502.88	7530.79
503.249	7476.78
503.618	7520.85
503.987	7563.33
504.356	7622.77
504.724	7587.29
505.093	7586.38
505.462	7643.1
505.83	7646.95
506.199	7697.11
506.567	7779.82
506.936	7735.31
507.304	7843.55
507.672	7832.25
508.041	7895.07
508.409	7868.63
508.777	8001.51
509.145	7973.72
509.514	7912.25
509.882	8003.32
510.25	8011.91
510.618	8047.39
510.986	8132.81
511.354	8085.13
511.722	8204.22
512.09	8206.93
512.458	8179.81
512.826	8227.27
513.193	8218.68
513.561	8260.26
513.929	8268.85
514.297	8352.01
514.664	8400.6
515.032	8419.13
515.4	8444.21
515.767	8446.92
516.135	8500.93
516.502	8438.11
516.869	8616.19
517.237	8488.51
517.604	8454.83
517.972	8577.09
518.339	8645.56
518.706	8594.72
519.073	8599.92
519.44	8717.2
519.808	8822.51
520.175	8772.79
520.542	8790.19
520.909	8873.13
521.276	8832.45
521.643	8914.71
522.009	8930.53
522.376	8960.81
522.743	8953.8
523.11	9062.28
523.477	9170.97
523.843	9143.18
524.21	9179.11
524.577	9187.92
524.943	9265.21
525.31	9237.64
525.676	9373.91
526.043	9406.22
526.409	9352.89
526.776	9493
527.142	9520.12
527.508	9488.93
527.874	9627.01
528.241	9663.84
528.607	9636.27
528.973	9729.6
529.339	9667.68
529.705	9781.35
530.071	9833.1
530.437	9860.67
530.803	9858.19
531.169	9924.17
531.535	9885.53
531.901	9908.13
532.267	9945.87
532.632	10037.62
532.998	10104.73
533.364	10115.36
533.73	10140.67
534.095	10168.46
534.461	10221.79
534.826	10253.66
535.192	10299.08
535.557	10292.75
535.923	10318.74
536.288	10353.77
536.653	10375.01
537.019	10365.97
537.384	10476.02
537.749	10512.41
538.114	10500.2
538.479	10551.28
538.845	10515.12
539.21	10456.59
539.575	10586.53
539.94	10655.91
540.305	10591.95
540.67	10572.74
541.034	10685.96
541.399	10696.36
541.764	10841.89
542.129	10789.46
542.494	10875.56
542.858	10814.32
543.223	10829.24
543.587	10928.67
543.952	10912.4
544.316	10949.91
544.681	10985.16
545.045	10991.72
545.41	11085.27
545.774	11070.13
546.138	11122.11
546.503	11119.62
546.867	11097.7
547.231	11188.32
547.595	11219.28
547.959	11240.3
548.324	11246.17
548.688	11284.14
549.052	11270.13
549.416	11314.65
549.779	11328.43
550.143	11414.08
550.507	11436.9
550.871	11472.83
551.235	11390.58
551.599	11568.42
551.962	11559.61
552.326	11489.1
552.689	11624.69
553.053	11504.7
553.417	11585.15
553.78	11721.41
554.143	11580.18
554.507	11695.65
554.87	11681.64
555.234	11873.95
555.597	11657.46
555.96	11865.37
556.323	11812.71
556.686	11848.19
557.05	11911.24
557.413	11899.72
557.776	11970.9
558.139	11996.44
558.502	12001.86
558.865	12034.4
559.228	12119.14
559.59	12183.78
559.953	12043.21
560.316	12258.8
560.679	12263.55
561.041	12334.05
561.404	12378.8
561.767	12446.37
562.129	12349.2
562.492	12551.45
562.854	12369.53
563.217	12457.67
563.579	12570.88
563.941	12626.48
564.304	12659.02
564.666	12693.14
565.028	12715.06
565.39	12707.83
565.753	12790.09
566.115	12930.65
566.477	12926.36
566.839	12989.4
567.201	13056.75
567.563	13035.05
567.925	13123.19
568.287	13200.25
568.648	13187.37
569.01	13263.3
569.372	13349.17
569.734	13303.07
570.095	13388.04
570.457	13413.57
570.819	13484.08
571.18	13518.43
571.542	13489.5
571.903	13520.92
572.265	13603.63
572.626	13661.93
572.987	13723.17
573.349	13741.7
573.71	13769.04
574.071	13790.51
574.432	13896.05
574.794	13992.99
575.155	13960.9
575.516	13940.79
575.877	14077.06
576.238	13993.67
576.599	14081.13
576.96	14088.81
577.32	14116.61
577.681	14157.51
578.042	14230.73
578.403	14202.93
578.763	14266.66
579.124	14243.61
579.485	14395.24
579.845	14442.47
580.206	14364.28
580.566	14389.59
580.927	14398.63
581.287	14518.4
581.648	14383.49
582.008	14494.68
582.368	14392.76
582.728	14497.16
583.089	14490.16
583.449	14504.62
583.809	14501.45
584.169	14591.62
584.529	14534.22
584.889	14667.33
585.249	14505.52
585.609	14578.29
585.969	14674.56
586.329	14715.23
586.688	14592.07
587.048	14706.42
587.408	14588.91
587.768	14595.92
588.127	14647.44
588.487	14587.1
588.846	14763.59
589.206	14669.59
589.565	14702.81
589.925	14755.69
590.284	14665.07
590.643	14748.91
591.003	14732.86
591.362	14809.92
591.721	14756.59
592.08	14737.61
592.44	14709.13
592.799	14779.87
593.158	14818.96
593.517	14774.67
593.876	14844.95
594.235	14804.72
594.593	14748.91
594.952	14892.18
595.311	14811.28
595.67	14943.7
596.029	14957.26
596.387	14850.37
596.746	15023.93
597.104	14966.53
597.463	14900.09
597.822	14925.17
598.18	14989.13
598.538	14946.19
598.897	14975.34
599.255	14884.04
599.613	15113.87
599.972	15013.76
600.33	15086.75
600.688	14995.68
601.046	15022.57
601.404	15137.82
601.762	15056.92
602.12	15241.1
602.478	15106.64
602.836	15155.22
603.194	15044.94
603.552	15025.28
603.91	15041.55
604.268	15148.44
604.625	15160.65
604.983	15208.55
605.341	15120.2
605.698	15155.22
606.056	15181.66
606.413	15237.71
606.771	15193.87
607.128	15349.12
607.485	15197.03
607.843	15264.82
608.2	15303.02
608.557	15355.44
608.914	15237.03
609.272	15372.39
609.629	15393.86
609.986	15406.52
610.343	15372.84
610.7	15487.87
611.057	15442.45
611.414	15430.7
611.771	15485.16
612.127	15464.14
612.484	15511.82
612.841	15622.1
613.198	15604.93
613.554	15587.98
613.911	15699.39
614.267	15608.77
614.624	15563.35
614.98	15576.91
615.337	15715.89
615.693	15709.56
616.05	15651.71
616.406	15787.52
616.762	15632.95
617.118	15634.76
617.475	15682.44
617.831	15800.86
618.187	15757.47
618.543	15771.93
618.899	15879.72
619.255	15838.37
619.611	15913.4
619.967	15907.52
620.323	15854.41
620.678	15974.86
621.034	15900.06
621.39	15893.28
621.746	15874.98
622.101	15996.33
622.457	15889.21
622.812	15917.01
623.168	15931.02
623.523	15972.38
623.879	16088.98
624.234	15973.28
624.589	16070.91
624.945	16115.65
625.3	16076.78
625.655	16111.58
626.01	16097.12
626.365	16161.07
626.72	16079.04
627.075	16067.97
627.43	16148.87
627.785	16030.68
628.14	16095.31
628.495	16169.66
628.85	16164.01
629.205	16185.48
629.559	16218.02
629.914	16192.26
630.269	16202.2
630.623	16135.76
630.978	16154.97
631.332	16266.38
631.687	16193.84
632.041	16208.75
632.396	16327.85
632.75	16188.64
633.104	16239.71
633.459	16280.84
633.813	16216.66
634.167	16179.38
634.521	16283.55
634.875	16291.92
635.229	16315.19
635.583	16243.33
635.937	16268.41
636.291	16284.01
636.645	16287.17
636.999	16272.03
637.352	16313.84
637.706	16283.78
638.06	16390.22
638.413	16319.71
638.767	16276.55
639.121	16346.38
639.474	16245.82
639.828	16351.35
640.181	16311.58
640.534	16357.45
640.888	16294.63
641.241	16298.92
641.594	16302.54
641.947	16338.02
642.301	16278.58
642.654	16373.27
643.007	16327.62
643.36	16406.04
643.713	16434.96
644.066	16411.91
644.419	16403.33
644.771	16245.14
645.124	16058.02
645.477	16106.61
645.83	16031.13
646.182	15988.42
646.535	15990.23
646.888	16113.62
647.24	16042.43
647.593	16164.01
647.945	16213.95
648.298	16236.1
648.65	16014.86
649.002	15983
649.355	16229.09
649.707	16133.95
650.059	16177.79
650.411	16328.07
650.763	16463.44
651.115	16693.04
651.467	16667.05
651.819	16625.47
652.171	16544.34
652.523	16525.36
652.875	16519.03
653.227	16587.95
653.578	16720.38
653.93	16617.11
654.282	16660.27
654.633	16688.29
654.985	16750.21
655.337	16717.22
655.688	16730.55
656.039	16731.23
656.391	16657.33
656.742	16701.17
657.094	16671.12
657.445	16799.47
657.796	16738.68
658.147	16777.55
658.498	16772.13
658.849	16767.16
659.2	16747.27
659.551	16696.88
659.902	16850.32
660.253	16675.18
660.604	16812.13
660.955	16673.83
661.306	16726.26
661.656	16874.27
662.007	16823.65
662.358	16856.2
662.708	16852.35
663.059	16913.59
663.409	16838.34
663.76	16940.26
664.11	16915.63
664.461	17021.16
664.811	16856.2
665.161	16823.43
665.511	16819.13
665.862	16842.41
666.212	16863.65
666.562	16868.4
666.912	16808.74
667.262	16849.19
667.612	16804.67
667.962	16825.69
668.312	16777.1
668.662	16879.92
669.011	16778.01
669.361	16832.92
669.711	16840.15
670.06	16763.77
670.41	16625.92
670.76	16668.63
671.109	16700.04
671.459	16665.69
671.808	16665.69
672.157	16681.96
672.507	16556.99
672.856	16636.54
673.205	16563.77
673.554	16560.38
673.904	16480.61
674.253	16528.97
674.602	16452.82
674.951	16161.07
675.3	16197.23
675.649	16483.1
675.998	16347.51
676.346	16355.64
676.695	16358.81
677.044	16239.49
677.393	16263.22
677.741	16286.94
678.09	16223.9
678.438	16126.95
678.787	16211.69
679.135	16223.44
679.484	16065.03
679.832	16221.18
680.181	16046.05
680.529	16070.45
680.877	16011.7
681.225	15872.49
681.573	15960.4
681.922	15873.17
682.27	15903
682.618	15866.84
682.966	15799.5
683.314	15820.74
683.661	15783
684.009	15741.87
684.357	15672.05
684.705	15621.88
685.053	15669.56
685.4	15618.71
685.748	15576.91
686.095	15586.85
686.443	15545.27
686.79	15565.38
687.138	15597.47
687.485	15476.34
687.832	15472.95
688.18	15397.7
688.527	15371.71
688.874	15334.43
689.221	15305.28
689.568	15278.61
689.915	15288.55
690.262	15248.1
690.609	15178.95
690.956	15127.88
691.303	15193.19
691.65	15033.64
691.997	15100.76
692.344	15014.21
692.69	15084.04
693.037	15054.66
693.383	14938.28
693.73	15065.06
694.077	14943.25
694.423	14988.9
694.769	14947.32
695.116	14912.97
695.462	14915.23
695.808	14870.26
696.155	14865.06
696.501	14775.57
696.847	14737.61
697.193	14671.85
697.539	14793.2
697.885	14669.36
698.231	14673.88
698.577	14761.56
698.923	14653.99
699.269	14593.43
699.614	14571.96
699.96	14558.4
700.306	14580.32
700.651	14405.19
700.997	14409.25
701.342	14352.76
701.688	14428.46
702.033	14418.29
702.379	14392.76
702.724	14327.45
703.069	14345.98
703.415	14185.3
703.76	14279.09
704.105	14368.13
704.45	14345.75
704.795	14127.91
705.14	14203.16
705.485	14198.64
705.83	14149.6
706.175	14150.28
706.52	14132.2
706.865	14050.39
707.209	14095.36
707.554	14087.68
707.899	14104.18
708.243	14122.71
708.588	14087.91
708.932	13995.93
709.277	14049.26
709.621	13989.38
709.966	13902.83
710.31	14050.17
710.654	13822.15
710.998	13874.13
711.342	13975.37
711.687	13832.55
712.031	13895.82
712.375	13811.98
712.719	13810.4
713.063	13818.31
713.407	13896.72
713.75	13817.63
714.094	13833.45
714.438	13854.01
714.782	13730.18
715.125	13830.06
715.469	13874.58
715.812	13771.76
716.156	13684.08
716.499	13747.35
716.843	13733.79
717.186	13724.53
717.53	13812.66
717.873	13772.89
718.216	13709.16
718.559	13709.39
718.902	13741.02
719.246	13635.04
719.589	13661.7
719.932	13613.57
720.275	13573.12
720.617	13557.98
720.96	13570.63
721.303	13642.72
721.646	13537.64
721.989	13543.06
722.331	13602.27
722.674	13531.31
723.016	13571.54
723.359	13585.32
723.701	13511.65
724.044	13469.84
724.386	13408.6
724.729	13502.39
725.071	13514.59
725.413	13544.87
725.755	13524.76
726.097	13497.87
726.439	13364.54
726.782	13437.98
727.124	13542.61
727.465	13359.34
727.807	13495.38
728.149	13419.68
728.491	13376.51
728.833	13480.92
729.175	13396.4
729.516	13441.14
729.858	13338.32
730.199	13446.12
730.541	13499
730.882	13381.26
731.224	13459.45
731.565	13441.6
731.906	13506.68
732.248	13506.45
732.589	13422.61
732.93	13426
733.271	13418.77
733.612	13472.33
733.953	13468.71
734.294	13459.22
734.635	13440.24
734.976	13468.94
735.317	13492.67
735.658	13461.93
735.999	13497.64
736.339	13486.34
736.68	13505.55
737.021	13523.85
737.361	13517.75
737.702	13590.29
738.042	13569.05
738.383	13598.43
738.723	13702.61
739.063	13664.41
739.404	13644.3
739.744	13675.26
740.084	13697.41
740.424	13755.94
740.764	13734.92
741.104	13778.31
741.444	13705.32
741.784	13720.68
742.124	13817.63
742.464	13804.75
742.804	13815.37
743.143	13923.84
743.483	13838.2
743.823	13806.33
744.162	13917.74
744.502	13961.81
744.841	13899.66
745.181	14089.49
745.52	13939.21
745.86	14089.04
746.199	13994.58
746.538	14046.33
746.877	14120.22
747.216	14072.77
747.556	14173.78
747.895	14148.02
748.234	14275.47
748.573	14166.55
748.911	14281.35
749.25	14198.41
749.589	14305.75
749.928	14336.04
750.267	14414.45
750.605	14411.51
750.944	14382.14
751.283	14445.86
751.621	14410.84
751.96	14421.68
752.298	14486.31
752.636	14499.65
752.975	14495.13
753.313	14480.66
753.651	14542.58
753.989	14568.8
754.327	14521.79
754.666	14515.92
755.004	14726.08
755.342	14762.92
755.679	14728.12
756.017	14654.67
756.355	14824.16
