Data from blue_chair_FLMS001491_00046.txt Node
Date: Wed Feb 08 10:30:54 GMT 2017
User: dcchb
Spectrometer: FLMS00149
Trigger mode: 0
Integration Time (sec): 2.000000E-2
Scans to average: 10
Electric dark correction enabled: true
Nonlinearity correction enabled: false
Boxcar width: 0
XAxis mode: Wavelengths
Number of Pixels in Spectrum: 2048
>>>>>Begin Spectral Data<<<<<
341.393	-9.93
341.776	-9.93
342.16	-9.93
342.543	-44.73
342.927	-84.73
343.31	-49.48
343.693	-62.81
344.077	-63.26
344.46	-38.63
344.843	-67.1
345.226	-50.83
345.61	-54.9
345.993	-14.9
346.376	-1.34
346.759	13.57
347.142	54.48
347.525	39.56
347.908	56.06
348.291	58.32
348.674	68.49
349.057	112.78
349.44	122.04
349.823	162.27
350.206	165.66
350.588	158.88
350.971	183.06
351.354	222.38
351.737	218.54
352.119	245.88
352.502	244.3
352.884	258.09
353.267	249.27
353.65	271.87
354.032	260.35
354.414	284.53
354.797	294.47
355.179	302.61
355.562	304.86
355.944	309.84
356.326	320.01
356.709	303.96
357.091	324.98
357.473	340.57
357.855	320.91
358.238	320.68
358.62	327.24
359.002	315.26
359.384	332.21
359.766	327.92
360.148	324.53
360.53	324.07
360.912	324.3
361.294	321.14
361.676	327.01
362.057	318.65
362.439	302.38
362.821	319.55
363.203	280.23
363.584	313.45
363.966	290.63
364.348	291.98
364.729	304.86
365.111	313.23
365.493	291.31
365.874	290.4
366.256	311.64
366.637	293.11
367.019	288.59
367.4	298.09
367.781	286.33
368.163	290.4
368.544	294.47
368.925	269.84
369.306	277.97
369.688	269.16
370.069	279.1
370.45	307.12
370.831	317.97
371.212	281.81
371.593	292.44
371.974	273.23
372.355	292.89
372.736	285.2
373.117	313.23
373.498	274.81
373.879	300.35
374.26	304.64
374.641	271.42
375.021	306.9
375.402	300.12
375.783	288.82
376.163	290.63
376.544	289.72
376.925	279.78
377.305	297.63
377.686	285.43
378.066	292.89
378.447	289.95
378.827	284.07
379.208	296.05
379.588	289.72
379.968	291.31
380.349	280.68
380.729	314.36
381.109	308.25
381.489	310.29
381.87	308.25
382.25	291.31
382.63	325.88
383.01	309.84
383.39	315.71
383.77	307.35
384.15	302.61
384.53	321.36
384.91	296.05
385.29	299.22
385.67	326.11
386.049	313.9
386.429	318.65
386.809	322.72
387.189	322.27
387.568	324.98
387.948	310.74
388.328	314.58
388.707	327.69
389.087	307.58
389.466	336.05
389.846	326.56
390.225	325.66
390.605	343.28
390.984	318.42
391.363	339.67
391.743	342.15
392.122	353.9
392.501	329.95
392.881	312.1
393.26	327.24
393.639	337.86
394.018	333.34
394.397	348.71
394.776	346.67
395.155	338.76
395.534	342.83
395.913	352.55
396.292	360.46
396.671	375.15
397.05	354.81
397.429	342.15
397.808	330.17
398.186	366.33
398.565	360.68
398.944	366.11
399.323	344.86
399.701	374.69
400.08	373.56
400.458	376.28
400.837	368.59
401.215	373.11
401.594	385.99
401.972	366.78
402.351	395.94
402.729	388.03
403.107	404.3
403.486	382.38
403.864	376.95
404.242	372.89
404.62	396.84
404.999	383.51
405.377	395.03
405.755	400.68
406.133	402.94
406.511	396.61
406.889	371.98
407.267	407.91
407.645	411.98
408.023	409.49
408.401	411.08
408.779	395.26
409.156	412.88
409.534	421.25
409.912	401.13
410.29	433.9
410.667	430.96
411.045	425.09
411.422	441.13
411.8	437.06
412.178	445.43
412.555	462.15
412.933	441.13
413.31	448.14
413.687	461.92
414.065	453.56
414.442	468.25
414.819	458.99
415.197	465.76
415.574	499.44
415.951	467.8
416.328	476.39
416.705	488.14
417.082	469.61
417.46	482.04
417.837	485.65
418.214	484.52
418.591	490.62
418.967	506.89
419.344	483.62
419.721	479.55
420.098	480.23
420.475	513.9
420.852	499.66
421.228	512.54
421.605	503.5
421.982	531.75
422.358	521.81
422.735	523.16
423.111	506.89
423.488	521.13
423.864	560
424.241	543.05
424.617	576.04
424.994	540.11
425.37	568.13
425.746	575.14
426.123	583.28
426.499	588.02
426.875	587.57
427.251	577.17
427.627	588.02
428.003	594.12
428.379	571.75
428.756	630.96
429.132	622.6
429.507	627.12
429.883	622.82
430.259	641.35
430.635	649.71
431.011	632.09
431.387	654.01
431.763	656.95
432.138	665.08
432.514	655.82
432.89	679.09
433.265	695.59
433.641	689.49
434.016	689.71
434.392	721.58
434.767	716.38
435.143	728.81
435.518	771.75
435.894	728.13
436.269	747.34
436.644	759.32
437.02	798.19
437.395	793.21
437.77	817.85
438.145	800.45
438.52	816.94
438.895	837.96
439.271	828.24
439.646	848.35
440.021	867.34
440.395	837.05
440.77	847.9
441.145	874.57
441.52	912.31
441.895	904.62
442.27	893.32
442.645	927.22
443.019	938.97
443.394	917.73
443.769	943.27
444.143	919.31
444.518	922.02
444.892	973.32
445.267	971.29
445.641	982.81
446.016	981.46
446.39	975.36
446.764	983.72
447.139	985.52
447.513	997.73
447.887	1015.81
448.262	1012.87
448.636	1032.98
449.01	1028.24
449.384	1034.56
449.758	1043.38
450.132	1048.35
450.506	1038.86
450.88	1076.14
451.254	1086.09
451.628	1096.03
452.002	1098.52
452.376	1113.88
452.75	1114.79
453.123	1121.11
453.497	1120.44
453.871	1137.84
454.244	1152.98
454.618	1184.62
454.992	1187.33
455.365	1193.66
455.739	1178.06
456.112	1231.62
456.486	1218.74
456.859	1267.78
457.232	1268
457.606	1234.33
457.979	1247.89
458.352	1288.34
458.725	1294.22
459.099	1324.95
459.472	1333.54
459.845	1340.32
460.218	1337.15
460.591	1348
460.964	1355.23
461.337	1394.78
461.71	1403.59
462.083	1434.1
462.456	1405.4
462.829	1417.38
463.201	1432.07
463.574	1464.38
463.947	1473.65
464.32	1479.75
464.692	1513.42
465.065	1491.73
465.438	1531.5
465.81	1543.7
466.183	1569.69
466.555	1581.89
466.928	1605.17
467.3	1579.86
467.672	1645.62
468.045	1680.42
468.417	1654.66
468.789	1674.09
469.161	1686.75
469.534	1681.1
469.906	1736.92
470.278	1728.1
470.65	1757.48
471.022	1781.89
471.394	1782.79
471.766	1835.22
472.138	1850.13
472.51	1842.9
472.882	1879.51
473.253	1899.63
473.625	1893.07
473.997	1930.36
474.369	1941.43
474.74	1989.34
475.112	2002.22
475.484	1972.62
475.855	2051.03
476.227	2077.02
476.598	2087.42
476.97	2143.23
477.341	2171.71
477.713	2176.45
478.084	2164.03
478.455	2224.36
478.827	2210.13
479.198	2270.01
479.569	2277.47
479.94	2336.68
480.311	2334.87
480.682	2392.72
481.053	2410.8
481.424	2439.5
481.795	2439.27
482.166	2481.98
482.537	2477.46
482.908	2567.63
483.279	2550.46
483.65	2574.41
484.021	2613.5
484.391	2653.28
484.762	2653.96
485.133	2705.93
485.503	2671.36
485.874	2775.99
486.244	2764.24
486.615	2786.61
486.985	2792.03
487.356	2844.91
487.726	2853.95
488.097	2909.32
488.467	2937.11
488.837	2964.91
489.207	2961.29
489.578	3007.17
489.948	3040.84
490.318	2997.22
490.688	3095.07
491.058	3028.18
491.428	3115.64
491.798	3135.98
492.168	3166.26
492.538	3159.03
492.908	3207.61
493.278	3192.02
493.648	3212.59
494.017	3211.68
494.387	3273.15
494.757	3234.73
495.126	3273.37
495.496	3267.95
495.866	3260.49
496.235	3301.4
496.605	3296.2
496.974	3306.37
497.344	3352.69
497.713	3373.03
498.082	3334.16
498.452	3386.82
498.821	3421.62
499.19	3352.69
499.559	3383.88
499.928	3377.78
500.298	3401.73
500.667	3394.28
501.036	3432.01
501.405	3391.11
501.774	3391.34
502.143	3378.46
502.512	3426.14
502.88	3401.05
503.249	3407.16
503.618	3432.01
503.987	3457.55
504.356	3446.7
504.724	3433.37
505.093	3448.29
505.462	3450.09
505.83	3433.14
506.199	3452.8
506.567	3470.43
506.936	3470.88
507.304	3429.08
507.672	3485.8
508.041	3446.25
508.409	3485.35
508.777	3486.02
509.145	3513.14
509.514	3433.37
509.882	3460.49
510.25	3489.41
510.618	3453.26
510.986	3452.8
511.354	3479.02
511.722	3449.87
512.09	3481.05
512.458	3451.45
512.826	3421.85
513.193	3450.54
513.561	3465.91
513.929	3457.32
514.297	3494.16
514.664	3458.45
515.032	3468.17
515.4	3399.02
515.767	3425.01
516.135	3435.63
516.502	3415.29
516.869	3434.73
517.237	3478.34
517.604	3402.86
517.972	3431.11
518.339	3406.7
518.706	3391.11
519.073	3405.12
519.44	3393.82
519.808	3394.5
520.175	3439.7
520.542	3401.51
520.909	3364.45
521.276	3348.4
521.643	3367.61
522.009	3403.54
522.376	3360.15
522.743	3398.12
523.11	3386.59
523.477	3380.94
523.843	3380.72
524.21	3385.69
524.577	3382.07
524.943	3332.58
525.31	3361.06
525.676	3396.76
526.043	3353.15
526.409	3347.95
526.776	3407.83
527.142	3366.93
527.508	3393.6
527.874	3354.73
528.241	3343.43
528.607	3398.34
528.973	3352.02
529.339	3336.88
529.705	3331.9
530.071	3369.19
530.437	3346.82
530.803	3321.28
531.169	3329.87
531.535	3326.03
531.901	3325.35
532.267	3295.75
532.632	3308.18
532.998	3300.94
533.364	3315.86
533.73	3278.35
534.095	3274.73
534.461	3287.16
534.826	3284.22
535.192	3295.97
535.557	3227.05
535.923	3239.48
536.288	3177.78
536.653	3271.57
537.019	3194.05
537.384	3169.87
537.749	3202.64
538.114	3202.19
538.479	3167.39
538.845	3132.36
539.21	3133.94
539.575	3135.75
539.94	3171.91
540.305	3168.07
540.67	3115.64
541.034	3153.38
541.399	3108.86
541.764	3063.44
542.129	3060.72
542.494	3069.54
542.858	3083.32
543.223	3055.75
543.587	3071.57
543.952	3039.93
544.316	3032.93
544.681	3002.65
545.045	3006.71
545.41	2992.25
545.774	2972.37
546.138	2954.96
546.503	2926.26
546.867	2961.07
547.231	2927.85
547.595	2917.9
547.959	2941.18
548.324	2886.94
548.688	2861.63
549.052	2851.46
549.416	2859.6
549.779	2841.75
550.143	2883.1
550.507	2848.75
550.871	2812.14
551.235	2845.59
551.599	2799.26
551.962	2811.24
552.326	2786.16
552.689	2783.9
553.053	2823.67
553.417	2765.14
553.78	2767.85
554.143	2719.72
554.507	2771.47
554.87	2740.28
555.234	2728.98
555.597	2686.27
555.96	2742.54
556.323	2714.29
556.686	2757.23
557.05	2715.2
557.413	2702.54
557.776	2733.5
558.139	2660.74
558.502	2706.38
558.865	2684.01
559.228	2683.79
559.59	2666.38
559.953	2710.9
560.316	2677.23
560.679	2700.96
561.041	2670.45
561.404	2639.27
561.767	2713.39
562.129	2649.44
562.492	2692.82
562.854	2669.32
563.217	2676.78
563.579	2677.23
563.941	2704.58
564.304	2689.43
564.666	2684.24
565.028	2688.53
565.39	2676.1
565.753	2675.42
566.115	2640.17
566.477	2690.79
566.839	2696.21
567.201	2663.9
567.563	2686.27
567.925	2754.07
568.287	2709.32
568.648	2670.9
569.01	2717.91
569.372	2733.5
569.734	2734.63
570.095	2751.81
570.457	2746.38
570.819	2756.33
571.18	2687.18
571.542	2773.05
571.903	2787.74
572.265	2734.86
572.626	2796.55
572.987	2787.06
573.349	2784.8
573.71	2792.94
574.071	2773.27
574.432	2778.02
574.794	2820.73
575.155	2837.68
575.516	2799.49
575.877	2822.99
576.238	2814.18
576.599	2807.62
576.96	2827.96
577.32	2815.53
577.681	2846.49
578.042	2892.14
578.403	2860.28
578.763	2822.54
579.124	2890.79
579.485	2905.25
579.845	2879.26
580.206	2892.82
580.566	2892.59
580.927	2893.72
581.287	2881.07
581.648	2926.49
582.008	2909.09
582.368	2919.71
582.728	2943.44
583.089	2946.15
583.449	2941.63
583.809	2928.3
584.169	2943.21
584.529	2917.9
584.889	2965.81
585.249	2947.28
585.609	2961.74
585.969	2957.22
586.329	2980.27
586.688	2965.81
587.048	2980.27
587.408	2965.59
587.768	2969.2
588.127	2976.89
588.487	2956.32
588.846	2972.59
589.206	2980.27
589.565	2959.48
589.925	2950.45
590.284	2981.86
590.643	2980.95
591.003	3012.36
591.362	2997.68
591.721	2971.46
592.08	2975.98
592.44	2961.52
592.799	3013.27
593.158	2993.38
593.517	2964.91
593.876	2978.01
594.235	2963.1
594.593	2983.89
594.952	2982.08
595.311	2946.15
595.67	2971.91
596.029	2966.49
596.387	2992.7
596.746	2945.7
597.104	2966.04
597.463	2998.81
597.822	2967.62
598.18	2939.82
598.538	2968.3
598.897	2987.05
599.255	2928.3
599.613	2977.56
599.972	2947.96
600.33	2973.95
600.688	2995.87
601.046	2952.03
601.404	2971.46
601.762	2972.14
602.12	2954.96
602.478	2954.06
602.836	2986.6
603.194	2980.5
603.552	2967.85
603.91	2972.37
604.268	2984.79
604.625	2993.38
604.983	2995.64
605.341	2966.04
605.698	2960.61
606.056	2964
606.413	2957.45
606.771	2998.81
607.128	2965.13
607.485	2972.37
607.843	2975.08
608.2	3015.08
608.557	2943.89
608.914	2977.56
609.272	3000.39
609.629	2959.71
609.986	2985.92
610.343	2980.5
610.7	3013.27
611.057	3035.19
611.414	2990.9
611.771	2984.12
612.127	3010.33
612.484	3014.4
612.841	3014.4
613.198	2969.2
613.554	2978.24
613.911	3000.61
614.267	3025.92
614.624	3017.11
614.98	3006.26
615.337	3015.98
615.693	3044.23
616.05	2992.25
616.406	3046.71
616.762	3008.07
617.118	2985.92
617.475	3020.05
617.831	3044.68
618.187	3082.42
618.543	3014.85
618.899	3015.08
619.255	3040.39
619.611	3040.16
619.967	3034.96
620.323	3061.18
620.678	3046.26
621.034	3044
621.39	3032.25
621.746	3037.45
622.101	3034.74
622.457	3032.25
622.812	2975.53
623.168	3041.74
623.523	3084.68
623.879	3051.69
624.234	3064.34
624.589	3040.84
624.945	2998.35
625.3	3023.66
625.655	3020.05
626.01	3070.89
626.365	3040.61
626.72	3025.7
627.075	3044.45
627.43	3025.92
627.785	3047.17
628.14	3000.61
628.495	3019.37
628.85	3033.61
629.205	3007.84
629.559	3069.99
629.914	3037.45
630.269	2986.6
630.623	3044.45
630.978	3020.73
631.332	3047.17
631.687	3031.12
632.041	3025.47
632.396	2995.64
632.75	2989.77
633.104	3067.96
633.459	3019.6
633.813	3018.47
634.167	3008.97
634.521	3015.3
634.875	2999.03
635.229	2965.13
635.583	2996.77
635.937	2991.12
636.291	2971.46
636.645	2997.45
636.999	2972.59
637.352	2999.71
637.706	2988.64
638.06	2981.63
638.413	2969.2
638.767	2973.04
639.121	3000.16
639.474	2961.97
639.828	2954.74
640.181	2977.11
640.534	2935.76
640.888	2969.43
641.241	2920.62
641.594	2936.21
641.947	2977.79
642.301	2966.04
642.654	2950.9
643.007	2971.69
643.36	2946.83
643.713	2956.09
644.066	2970.33
644.419	2978.69
644.771	2940.5
645.124	2945.25
645.477	2949.32
645.83	2949.09
646.182	2863.44
646.535	2910.45
646.888	2919.26
647.24	2866.38
647.593	2904.57
647.945	2902.08
648.298	2869.09
648.65	2888.75
649.002	2898.92
649.355	2902.99
649.707	2886.94
650.059	2889.2
650.411	2914.51
650.763	2931.24
651.115	2957.45
651.467	2965.59
651.819	2955.87
652.171	2980.95
652.523	2942.54
652.875	2953.38
653.227	2947.28
653.578	2954.96
653.93	2931.01
654.282	2928.3
654.633	2933.27
654.985	2948.41
655.337	2954.06
655.688	2949.54
656.039	2967.17
656.391	2934.63
656.742	2924.68
657.094	2964.91
657.445	2949.99
657.796	2953.83
658.147	2951.57
658.498	2922.88
658.849	2952.7
659.2	2967.17
659.551	2967.39
659.902	2955.42
660.253	3011.01
660.604	2947.06
660.955	2957.9
661.306	2949.77
661.656	2969.65
662.007	2961.29
662.358	2945.02
662.708	2963.33
663.059	2997.45
663.409	2937.79
663.76	2931.69
664.11	3008.75
664.461	2987.96
664.811	2941.41
665.161	2986.15
665.511	2969.65
665.862	2953.83
666.212	2993.83
666.562	2938.02
666.912	2911.35
667.262	2983.21
667.612	2979.37
667.962	2949.99
668.312	2973.04
668.662	2958.81
669.011	2971.01
669.361	2902.99
669.711	2915.87
670.06	2939.37
670.41	2938.69
670.76	2920.62
671.109	2924.68
671.459	2966.26
671.808	2889.88
672.157	2936.43
672.507	2899.15
672.856	2912.03
673.205	2941.63
673.554	2919.49
673.904	2898.47
674.253	2924.23
674.602	2919.71
674.951	2876.1
675.3	2903.67
675.649	2880.16
675.998	2914.51
676.346	2870.22
676.695	2919.03
677.044	2885.36
677.393	2888.53
677.741	2893.5
678.09	2895.76
678.438	2852.14
678.787	2878.36
679.135	2856.89
679.484	2836.55
679.832	2862.31
680.181	2853.5
680.529	2839.71
680.877	2837.23
681.225	2832.93
681.573	2834.29
681.922	2836.32
682.27	2820.96
682.618	2809.21
682.966	2803.33
683.314	2814.18
683.661	2792.71
684.009	2776.89
684.357	2817.57
684.705	2790.68
685.053	2792.03
685.4	2765.37
685.748	2749.77
686.095	2776.21
686.443	2751.35
686.79	2754.74
687.138	2749.09
687.485	2738.7
687.832	2773.05
688.18	2714.97
688.527	2726.95
688.874	2722.43
689.221	2709.1
689.568	2678.36
689.915	2663.67
690.262	2711.13
690.609	2677.91
690.956	2678.36
691.303	2679.94
691.65	2675.42
691.997	2614.41
692.344	2608.08
692.69	2644.69
693.037	2652.83
693.383	2595.88
693.73	2595.2
694.077	2575.31
694.423	2583.45
694.769	2569.44
695.116	2564.47
695.462	2553.85
695.808	2540.74
696.155	2565.37
696.501	2547.74
696.847	2568.99
697.193	2565.6
697.539	2551.36
697.885	2505.03
698.231	2540.06
698.577	2503.68
698.923	2488.08
699.269	2516.78
699.614	2468.88
699.96	2480.85
700.306	2459.16
700.651	2435.2
700.997	2483.11
701.342	2464.36
701.688	2481.53
702.033	2447.18
702.379	2453.73
702.724	2453.28
703.069	2474.75
703.415	2426.39
703.76	2445.15
704.105	2451.7
704.45	2460.29
704.795	2437.69
705.14	2429.33
705.485	2401.98
705.83	2439.05
706.175	2418.71
706.52	2405.6
706.865	2418.26
707.209	2425.26
707.554	2405.37
707.899	2385.71
708.243	2411.02
708.588	2409.44
708.932	2410.57
709.277	2388.88
709.621	2407.86
709.966	2393.85
710.31	2425.49
710.654	2396.79
710.998	2431.36
711.342	2405.37
711.687	2430.23
712.031	2370.57
712.375	2410.57
712.719	2402.89
713.063	2382.78
713.407	2425.71
713.75	2429.55
714.094	2425.71
714.438	2402.21
714.782	2439.95
715.125	2424.13
715.469	2419.84
715.812	2445.37
716.156	2413.06
716.499	2406.28
716.843	2408.09
717.186	2453.51
717.53	2434.75
717.873	2463.23
718.216	2477.46
718.559	2432.49
718.902	2430.91
719.246	2460.51
719.589	2474.3
719.932	2468.88
720.275	2444.47
720.617	2470.46
720.96	2473.85
721.303	2437.46
721.646	2492.6
721.989	2477.69
722.331	2473.17
722.674	2500.06
723.016	2488.99
723.359	2497.12
723.701	2490.12
724.044	2470.91
724.386	2510.46
724.729	2546.16
725.071	2509.33
725.413	2493.06
725.755	2543.68
726.097	2509.33
726.439	2561.98
726.782	2505.48
727.124	2554.3
727.465	2583.45
727.807	2575.09
728.149	2558.36
728.491	2554.07
728.833	2594.52
729.175	2544.13
729.516	2608.08
729.858	2579.38
730.199	2594.97
730.541	2614.63
730.882	2632.26
731.224	2648.53
731.565	2638.59
731.906	2682.2
732.248	2658.93
732.589	2629.55
732.93	2665.48
733.271	2679.04
733.612	2663.45
733.953	2707.06
734.294	2650.11
734.635	2710.68
734.976	2724.24
735.317	2725.82
735.658	2738.47
735.999	2734.41
736.339	2758.81
736.68	2733.28
737.021	2786.16
737.361	2765.37
737.702	2853.5
738.042	2803.78
738.383	2812.14
738.723	2872.93
739.063	2865.02
739.404	2847.17
739.744	2898.47
740.084	2931.91
740.424	2956.77
740.764	2955.64
741.104	3000.16
741.444	2992.93
741.784	3015.08
742.124	3072.25
742.464	3044
742.804	3095.3
743.143	3126.49
743.483	3156.77
743.823	3140.72
744.162	3212.81
744.502	3272.92
744.841	3252.58
745.181	3246.48
745.52	3322.41
745.86	3367.38
746.199	3425.91
746.538	3436.99
746.877	3483.09
747.216	3535.51
747.556	3537.1
747.895	3616.42
748.234	3630.43
748.573	3708.84
748.911	3741.38
749.25	3776.86
749.589	3836.98
749.928	3839.01
750.267	3936.41
750.605	4015.73
750.944	4096.4
751.283	4096.86
751.621	4183.41
751.96	4214.59
752.298	4303.86
752.636	4366.23
752.975	4426.79
753.313	4476.28
753.651	4592.89
753.989	4596.73
754.327	4751.53
754.666	4713.34
755.004	4832.66
755.342	4896.16
755.679	5015.02
756.017	5085.98
756.355	5152.2
756.693	5271.29
757.031	5389.93
757.368	5427.22
757.706	5519.87
758.044	5603.26
758.381	5705.85
758.719	5816.36
759.056	5871.05
759.394	5939.52
759.731	6025.62
760.068	6111.72
760.405	6207.53
760.743	6307.42
761.08	6372.05
761.417	6456.79
761.754	6558.03
762.091	6617.02
762.428	6727.52
762.765	6777.69
763.102	6891.36
763.438	6958.7
763.775	6985.82
764.112	7090.9
764.449	7214.06
764.785	7257
765.122	7325.92
765.458	7387.39
765.795	7506.03
766.131	7528.4
766.467	7614.05
766.804	7639.14
767.14	7691.56
767.476	7802.52
767.812	7802.75
768.148	7915.51
768.485	7972.23
768.821	8067.37
769.157	8085
769.492	8153.92
769.828	8174.71
770.164	8193.7
