Data from blue_chair_FLMS001491_00051.txt Node
Date: Wed Feb 08 10:31:17 GMT 2017
User: dcchb
Spectrometer: FLMS00149
Trigger mode: 0
Integration Time (sec): 2.000000E-2
Scans to average: 10
Electric dark correction enabled: true
Nonlinearity correction enabled: false
Boxcar width: 0
XAxis mode: Wavelengths
Number of Pixels in Spectrum: 2048
>>>>>Begin Spectral Data<<<<<
341.393	-15.13
341.776	-15.13
342.16	-15.13
342.543	-56.71
342.927	-44.5
343.31	-62.58
343.693	-72.3
344.077	-86.09
344.46	-55.8
344.843	-41.34
345.226	-59.87
345.61	-37.27
345.993	-9.25
346.376	4.31
346.759	16.96
347.142	31.88
347.525	48.15
347.908	56.06
348.291	60.35
348.674	99.22
349.057	107.58
349.44	139.67
349.823	121.59
350.206	168.6
350.588	165.66
350.971	185.09
351.354	209.5
351.737	210.4
352.119	221.93
352.502	246.11
352.884	239.33
353.267	238.65
353.65	264.19
354.032	246.11
354.414	271.87
354.797	290.4
355.179	261.02
355.562	289.05
355.944	309.84
356.326	301.02
356.709	275.49
357.091	307.12
357.473	321.14
357.855	312.32
358.238	309.61
358.62	318.42
359.002	315.94
359.384	320.91
359.766	296.05
360.148	304.86
360.53	304.19
360.912	308.03
361.294	308.93
361.676	288.14
362.057	309.38
362.439	315.71
362.821	318.2
363.203	301.7
363.584	281.36
363.966	294.47
364.348	305.77
364.729	295.6
365.111	301.7
365.493	296.73
365.874	301.93
366.256	280.68
366.637	268.03
367.019	288.14
367.4	293.57
367.781	293.57
368.163	282.49
368.544	285.66
368.925	279.55
369.306	282.94
369.688	293.57
370.069	291.08
370.45	286.79
370.831	283.62
371.212	277.52
371.593	268.26
371.974	275.94
372.355	298.76
372.736	269.16
373.117	275.26
373.498	297.63
373.879	280.01
374.26	292.66
374.641	301.93
375.021	296.05
375.402	278.42
375.783	294.7
376.163	296.05
376.544	291.98
376.925	293.79
377.305	280.46
377.686	275.94
378.066	295.15
378.447	286.11
378.827	298.31
379.208	286.33
379.588	305.32
379.968	289.05
380.349	287.69
380.729	297.18
381.109	308.48
381.489	273.91
381.87	279.78
382.25	293.57
382.63	306.45
383.01	292.44
383.39	297.86
383.77	273.45
384.15	294.92
384.53	292.66
384.91	306.22
385.29	322.94
385.67	297.86
386.049	337.18
386.429	335.6
386.809	320.91
387.189	305.09
387.568	307.35
387.948	305.99
388.328	316.84
388.707	312.1
389.087	295.83
389.466	326.56
389.846	309.16
390.225	322.72
390.605	308.93
390.984	327.01
391.363	308.93
391.743	323.62
392.122	315.26
392.501	339.44
392.881	310.51
393.26	323.62
393.639	320.68
394.018	334.92
394.397	329.5
394.776	315.26
395.155	326.11
395.534	318.42
395.913	315.49
396.292	344.64
396.671	342.38
397.05	332.66
397.429	329.05
397.808	346.22
398.186	321.36
398.565	315.94
398.944	341.93
399.323	342.6
399.701	326.33
400.08	324.07
400.458	338.76
400.837	346.67
401.215	341.02
401.594	352.1
401.972	338.99
402.351	369.04
402.729	359.1
403.107	331.98
403.486	357.52
403.864	327.69
404.242	374.69
404.62	345.09
404.999	356.84
405.377	357.74
405.755	371.53
406.133	357.52
406.511	360.91
406.889	370.85
407.267	378.76
407.645	371.3
408.023	372.21
408.401	354.36
408.779	392.32
409.156	376.28
409.534	379.21
409.912	389.61
410.29	393.45
410.667	402.94
411.045	380.57
411.422	384.18
411.8	406.33
412.178	389.16
412.555	402.26
412.933	398.65
413.31	397.74
413.687	417.18
414.065	428.93
414.442	396.84
414.819	421.92
415.197	414.47
415.574	407.01
415.951	405.2
416.328	417.86
416.705	412.43
417.082	430.74
417.46	418.31
417.837	423.73
418.214	440.91
418.591	436.84
418.967	427.12
419.344	416.05
419.721	417.63
420.098	454.24
420.475	458.53
420.852	443.62
421.228	451.75
421.605	454.92
421.982	440
422.358	461.24
422.735	443.62
423.111	454.24
423.488	434.13
423.864	464.63
424.241	487.01
424.617	481.81
424.994	496.95
425.37	498.53
425.746	485.65
426.123	478.87
426.499	488.14
426.875	491.07
427.251	499.44
427.627	526.78
428.003	494.92
428.379	497.85
428.756	515.03
429.132	515.25
429.507	511.64
429.883	519.55
430.259	533.56
430.635	542.6
431.011	529.49
431.387	542.37
431.763	543.05
432.138	558.19
432.514	559.55
432.89	564.07
433.265	560
433.641	576.27
434.016	572.2
434.392	578.76
434.767	576.95
435.143	581.02
435.518	607
435.894	625.53
436.269	633.67
436.644	639.09
437.02	623.95
437.395	623.95
437.77	649.04
438.145	652.43
438.52	648.58
438.895	667.57
439.271	671.86
439.646	691.52
440.021	700.33
440.395	679.32
440.77	723.84
441.145	707.79
441.52	726.1
441.895	729.71
442.27	724.29
442.645	759.32
443.019	749.37
443.394	731.75
443.769	782.37
444.143	762.03
444.518	750.73
444.892	774.91
445.267	776.04
445.641	783.27
446.016	777.17
446.39	788.47
446.764	803.16
447.139	788.92
447.513	783.95
447.887	797.96
448.262	776.94
448.636	800.9
449.01	827.56
449.384	815.36
449.758	827.56
450.132	819.65
450.506	802.7
450.88	820.78
451.254	830.73
451.628	837.05
452.002	858.52
452.376	865.3
452.75	900.1
453.123	857.84
453.497	894.23
453.871	881.57
454.244	921.35
454.618	906.66
454.992	915.02
455.365	894.68
455.739	944.4
456.112	957.73
456.486	950.95
456.859	929.71
457.232	942.81
457.606	962.02
457.979	953.89
458.352	985.3
458.725	962.47
459.099	979.2
459.472	1012.42
459.845	1021.68
460.218	1024.17
460.591	1020.55
460.964	1011.51
461.337	1052.19
461.71	1036.15
462.083	1063.26
462.456	1047.22
462.829	1043.6
463.201	1064.62
463.574	1053.77
463.947	1093.77
464.32	1107.78
464.692	1106.43
465.065	1116.37
465.438	1135.58
465.81	1130.38
466.183	1162.92
466.555	1152.3
466.928	1162.24
467.3	1169.47
467.672	1162.24
468.045	1187.55
468.417	1211.73
468.789	1182.13
469.161	1199.53
469.534	1200.21
469.906	1217.61
470.278	1242.92
470.65	1239.53
471.022	1289.47
471.394	1303.26
471.766	1280.43
472.138	1277.49
472.51	1304.39
472.882	1295.8
473.253	1312.3
473.625	1336.02
473.997	1336.25
474.369	1370.15
474.74	1363.37
475.112	1395.23
475.484	1370.37
475.855	1403.59
476.227	1429.36
476.598	1430.03
476.97	1460.09
477.341	1470.71
477.713	1473.87
478.084	1494.21
478.455	1492.63
478.827	1542.8
479.198	1550.03
479.569	1525.4
479.94	1555.23
480.311	1577.83
480.682	1580.54
481.053	1630.48
481.424	1639.52
481.795	1639.97
482.166	1655.56
482.537	1644.49
482.908	1660.08
483.279	1667.77
483.65	1696.69
484.021	1680.65
484.391	1739.18
484.762	1704.6
485.133	1696.92
485.503	1752.74
485.874	1759.29
486.244	1754.09
486.615	1789.35
486.985	1820.98
487.356	1829.57
487.726	1830.47
488.097	1849.91
488.467	1839.51
488.837	1873.64
489.207	1891.04
489.578	1865.73
489.948	1896.91
490.318	1877.03
490.688	1884.48
491.058	1888.78
491.428	1884.03
491.798	1912.73
492.168	1905.5
492.538	1915.22
492.908	1938.04
493.278	1973.07
493.648	1923.81
494.017	1933.3
494.387	1977.36
494.757	1983.01
495.126	1966.06
495.496	1953.18
495.866	1993.41
496.235	1987.53
496.605	1972.62
496.974	1944.82
497.344	1969
497.713	1984.82
498.082	1942.56
498.452	1969
498.821	1984.14
499.19	1968.1
499.559	1966.97
499.928	1963.8
500.298	1973.97
500.667	1970.81
501.036	1974.88
501.405	1970.13
501.774	1972.17
502.143	1968.78
502.512	1963.8
502.88	1982.11
503.249	1981.88
503.618	1934.43
503.987	1963.58
504.356	1992.28
504.724	1955.89
505.093	1953.41
505.462	1940.98
505.83	1949.57
506.199	1924.71
506.567	1945.5
506.936	1916.8
507.304	1941.66
507.672	1944.82
508.041	1935.1
508.409	1932.39
508.777	1933.07
509.145	1928.55
509.514	1918.16
509.882	1906.63
510.25	1905.95
510.618	1913.86
510.986	1886.74
511.354	1895.78
511.722	1934.65
512.09	1908.89
512.458	1874.09
512.826	1919.96
513.193	1891.49
513.561	1876.12
513.929	1905.27
514.297	1867.99
514.664	1877.25
515.032	1867.54
515.4	1881.09
515.767	1848.1
516.135	1836.35
516.502	1823.24
516.869	1867.31
517.237	1877.48
517.604	1802
517.972	1836.35
518.339	1820.31
518.706	1858.5
519.073	1810.36
519.44	1799.74
519.808	1804.49
520.175	1782.79
520.542	1794.54
520.909	1797.48
521.276	1789.35
521.643	1792.96
522.009	1776.69
522.376	1813.98
522.743	1769.01
523.11	1771.72
523.477	1783.24
523.843	1778.5
524.21	1789.57
524.577	1774.2
524.943	1763.13
525.31	1752.96
525.676	1765.62
526.043	1767.2
526.409	1780.76
526.776	1781.89
527.142	1750.02
527.508	1722.45
527.874	1740.08
528.241	1729.46
528.607	1751.83
528.973	1724.26
529.339	1722.91
529.705	1760.42
530.071	1744.83
530.437	1767.65
530.803	1725.39
531.169	1738.5
531.535	1719.06
531.901	1682.46
532.267	1701.21
532.632	1723.13
532.998	1708.22
533.364	1700.08
533.73	1679.74
534.095	1680.65
534.461	1693.98
534.826	1687.43
535.192	1683.36
535.557	1678.84
535.923	1655.56
536.288	1669.12
536.653	1653.53
537.019	1645.85
537.384	1642
537.749	1647.65
538.114	1635.68
538.479	1610.59
538.845	1628.45
539.21	1621.44
539.575	1634.77
539.94	1624.6
540.305	1637.94
540.67	1607.43
541.034	1592.97
541.399	1597.26
541.764	1597.49
542.129	1600.65
542.494	1579.18
542.858	1609.24
543.223	1578.05
543.587	1590.93
543.952	1528.56
544.316	1587.32
544.681	1540.99
545.045	1524.49
545.41	1525.17
545.774	1516.13
546.138	1559.3
546.503	1533.99
546.867	1528.56
547.231	1529.47
547.595	1523.14
547.959	1489.24
548.324	1525.85
548.688	1520.88
549.052	1505.29
549.416	1483.14
549.779	1477.26
550.143	1495.79
550.507	1461.44
550.871	1468.22
551.235	1454.21
551.599	1478.17
551.962	1489.69
552.326	1460.31
552.689	1482.91
553.053	1469.58
553.417	1468
553.78	1457.83
554.143	1443.37
554.507	1435
554.87	1452.18
555.234	1412.63
555.597	1449.69
555.96	1431.16
556.323	1443.82
556.686	1442.46
557.05	1448.11
557.413	1420.09
557.776	1417.83
558.139	1410.37
558.502	1426.19
558.865	1406.3
559.228	1427.55
559.59	1430.26
559.953	1407.43
560.316	1407.43
560.679	1420.54
561.041	1429.13
561.404	1426.64
561.767	1426.42
562.129	1385.97
562.492	1424.84
562.854	1392.97
563.217	1407.21
563.579	1397.04
563.941	1407.89
564.304	1410.37
564.666	1414.89
565.028	1394.33
565.39	1428.68
565.753	1395.23
566.115	1415.57
566.477	1413.31
566.839	1425.06
567.201	1427.1
567.563	1417.15
567.925	1453.54
568.287	1431.39
568.648	1426.42
569.01	1414.44
569.372	1445.4
569.734	1420.77
570.095	1433.2
570.457	1441.11
570.819	1430.71
571.18	1450.15
571.542	1442.24
571.903	1450.6
572.265	1460.09
572.626	1443.14
572.987	1435.68
573.349	1451.28
573.71	1487.88
574.071	1456.92
574.432	1450.15
574.794	1451.05
575.155	1480.65
575.516	1462.57
575.877	1476.36
576.238	1473.87
576.599	1463.48
576.96	1485.17
577.32	1499.41
577.681	1490.14
578.042	1484.27
578.403	1486.53
578.763	1487.66
579.124	1509.13
579.485	1475.23
579.845	1488.56
580.206	1498.96
580.566	1509.35
580.927	1471.39
581.287	1485.62
581.648	1500.31
582.008	1498.96
582.368	1515.45
582.728	1491.95
583.089	1477.04
583.449	1486.08
583.809	1460.54
584.169	1508.45
584.529	1514.32
584.889	1491.05
585.249	1482.46
585.609	1522.91
585.969	1531.05
586.329	1497.38
586.688	1491.5
587.048	1500.77
587.408	1501.67
587.768	1530.6
588.127	1520.43
588.487	1525.85
588.846	1494.89
589.206	1482.91
589.565	1487.66
589.925	1527.88
590.284	1499.41
590.643	1482.91
591.003	1509.13
591.362	1528.79
591.721	1510.48
592.08	1504.61
592.44	1492.86
592.799	1505.51
593.158	1505.06
593.517	1505.29
593.876	1490.14
594.235	1508
594.593	1482.46
594.952	1514.32
595.311	1492.86
595.67	1482.01
596.029	1500.54
596.387	1476.59
596.746	1508.9
597.104	1517.94
597.463	1489.69
597.822	1498.96
598.18	1511.84
598.538	1498.73
598.897	1536.24
599.255	1501.67
599.613	1497.15
599.972	1495.34
600.33	1495.57
600.688	1482.69
601.046	1496.25
601.404	1482.46
601.762	1490.82
602.12	1485.62
602.478	1518.62
602.836	1499.64
603.194	1502.8
603.552	1482.69
603.91	1455.34
604.268	1495.79
604.625	1496.02
604.983	1497.38
605.341	1498.05
605.698	1505.29
606.056	1512.29
606.413	1510.26
606.771	1536.24
607.128	1510.03
607.485	1517.71
607.843	1502.35
608.2	1488.79
608.557	1504.38
608.914	1517.04
609.272	1497.15
609.629	1490.82
609.986	1514.55
610.343	1512.52
610.7	1532.63
611.057	1537.83
611.414	1553.42
611.771	1497.15
612.127	1537.6
612.484	1522.23
612.841	1529.69
613.198	1553.65
613.554	1552.97
613.911	1541.44
614.267	1543.7
614.624	1544.38
614.98	1493.08
615.337	1536.7
615.693	1517.94
616.05	1525.62
616.406	1549.8
616.762	1532.18
617.118	1550.26
617.475	1536.47
617.831	1531.27
618.187	1562.23
618.543	1532.63
618.899	1560.2
619.255	1538.05
619.611	1546.64
619.967	1544.83
620.323	1550.48
620.678	1527.43
621.034	1529.47
621.39	1544.15
621.746	1540.54
622.101	1546.87
622.457	1555.45
622.812	1528.79
623.168	1532.63
623.523	1535.79
623.879	1538.73
624.234	1567.2
624.589	1557.94
624.945	1557.94
625.3	1555.68
625.655	1583.48
626.01	1580.09
626.365	1561.55
626.72	1579.86
627.075	1533.53
627.43	1567.2
627.785	1527.88
628.14	1540.31
628.495	1590.03
628.85	1561.78
629.205	1549.58
629.559	1552.29
629.914	1557.49
630.269	1552.29
630.623	1572.18
630.978	1560.2
631.332	1556.13
631.687	1571.72
632.041	1553.87
632.396	1566.75
632.75	1579.63
633.104	1578.28
633.459	1582.8
633.813	1560.43
634.167	1555.45
634.521	1555.91
634.875	1565.85
635.229	1533.53
635.583	1533.76
635.937	1545.51
636.291	1576.92
636.645	1535.57
636.999	1554.78
637.352	1544.83
637.706	1551.16
638.06	1508.9
638.413	1521.56
638.767	1551.84
639.121	1563.81
639.474	1562.23
639.828	1551.39
640.181	1552.97
640.534	1557.94
640.888	1555
641.241	1569.24
641.594	1571.5
641.947	1557.04
642.301	1556.58
642.654	1516.13
643.007	1519.97
643.36	1551.39
643.713	1558.62
644.066	1571.27
644.419	1561.78
644.771	1518.62
645.124	1513.42
645.477	1550.71
645.83	1547.54
646.182	1540.76
646.535	1515.45
646.888	1548.9
647.24	1522.46
647.593	1548.67
647.945	1555.45
648.298	1531.27
648.65	1550.93
649.002	1542.8
649.355	1525.17
649.707	1497.38
650.059	1537.37
650.411	1522.23
650.763	1551.39
651.115	1576.47
651.467	1555.45
651.819	1568.33
652.171	1586.64
652.523	1565.17
652.875	1572.63
653.227	1561.1
653.578	1569.92
653.93	1555.68
654.282	1553.65
654.633	1548.67
654.985	1559.75
655.337	1561.1
655.688	1577.83
656.039	1609.01
656.391	1569.46
656.742	1561.33
657.094	1565.62
657.445	1584.61
657.796	1568.56
658.147	1578.28
658.498	1571.95
658.849	1576.92
659.2	1578.73
659.551	1598.62
659.902	1569.24
660.253	1566.07
660.604	1581.89
660.955	1579.18
661.306	1586.41
661.656	1580.54
662.007	1591.84
662.358	1592.06
662.708	1568.11
663.059	1595.45
663.409	1577.37
663.76	1578.05
664.11	1554.78
664.461	1592.74
664.811	1578.96
665.161	1574.66
665.511	1584.38
665.862	1579.41
666.212	1585.28
666.562	1580.99
666.912	1588.45
667.262	1579.86
667.612	1620.08
667.962	1592.51
668.312	1581.67
668.662	1611.95
669.011	1576.7
669.361	1595.23
669.711	1597.03
670.06	1575.57
670.41	1591.38
670.76	1578.5
671.109	1576.02
671.459	1589.35
671.808	1550.48
672.157	1572.18
672.507	1563.59
672.856	1562.23
673.205	1542.57
673.554	1573.98
673.904	1545.28
674.253	1570.14
674.602	1548.67
674.951	1543.25
675.3	1545.28
675.649	1539.63
675.998	1538.28
676.346	1538.73
676.695	1532.86
677.044	1550.93
677.393	1553.65
677.741	1541.67
678.09	1519.07
678.438	1531.95
678.787	1525.62
679.135	1534.89
679.484	1509.8
679.832	1500.99
680.181	1519.75
680.529	1525.17
680.877	1527.66
681.225	1500.31
681.573	1499.18
681.922	1499.41
682.27	1502.12
682.618	1508.68
682.966	1495.79
683.314	1522.46
683.661	1508
684.009	1466.64
684.357	1475.91
684.705	1472.74
685.053	1485.4
685.4	1493.76
685.748	1476.13
686.095	1477.72
686.443	1472.97
686.79	1476.36
687.138	1490.37
687.485	1487.88
687.832	1461.67
688.18	1459.64
688.527	1458.28
688.874	1460.09
689.221	1459.41
689.568	1425.51
689.915	1430.71
690.262	1444.27
690.609	1429.36
690.956	1435.23
691.303	1431.84
691.65	1424.61
691.997	1428
692.344	1448.79
692.69	1468.9
693.037	1415.57
693.383	1435.91
693.73	1427.1
694.077	1401.79
694.423	1400.66
694.769	1426.19
695.116	1398.62
695.462	1397.94
695.808	1424.84
696.155	1412.86
696.501	1395.68
696.847	1411.05
697.193	1382.58
697.539	1404.95
697.885	1390.71
698.231	1381.22
698.577	1383.25
698.923	1371.28
699.269	1374.89
699.614	1362.01
699.96	1377.61
700.306	1378.73
700.651	1364.95
700.997	1373.99
701.342	1369.02
701.688	1361.79
702.033	1367.89
702.379	1340.32
702.724	1328.11
703.069	1349.36
703.415	1356.59
703.76	1340.54
704.105	1348.91
704.45	1346.87
704.795	1324.5
705.14	1348.68
705.485	1342.58
705.83	1348.45
706.175	1357.49
706.52	1355.68
706.865	1344.84
707.209	1335.35
707.554	1367.44
707.899	1347.32
708.243	1336.02
708.588	1375.12
708.932	1359.98
709.277	1341.22
709.621	1356.36
709.966	1373.09
710.31	1334.67
710.654	1342.13
710.998	1316.82
711.342	1359.98
711.687	1343.03
712.031	1318.85
712.375	1350.49
712.719	1388.9
713.063	1357.72
713.407	1361.56
713.75	1371.73
714.094	1367.89
714.438	1361.11
714.782	1356.59
715.125	1365.18
715.469	1392.52
715.812	1384.38
716.156	1393.65
716.499	1376.48
716.843	1364.95
717.186	1385.74
717.53	1371.5
717.873	1393.88
718.216	1394.78
718.559	1373.99
718.902	1377.38
719.246	1404.5
719.589	1369.92
719.932	1389.58
720.275	1393.42
720.617	1403.59
720.96	1397.04
721.303	1423.93
721.646	1417.83
721.989	1405.85
722.331	1429.58
722.674	1417.6
723.016	1443.59
723.359	1431.84
723.701	1435.23
724.044	1444.95
724.386	1418.96
724.729	1439.52
725.071	1444.72
725.413	1443.37
725.755	1437.04
726.097	1431.39
726.439	1454.89
726.782	1469.81
727.124	1482.69
727.465	1487.66
727.807	1469.35
728.149	1488.79
728.491	1507.32
728.833	1504.16
729.175	1505.06
729.516	1513.19
729.858	1495.12
730.199	1519.52
730.541	1509.58
730.882	1541.89
731.224	1545.06
731.565	1534.21
731.906	1533.99
732.248	1541.67
732.589	1571.5
732.93	1552.74
733.271	1564.72
733.612	1579.63
733.953	1604.94
734.294	1583.25
734.635	1577.83
734.976	1626.19
735.317	1614.66
735.658	1625.73
735.999	1650.14
736.339	1649.46
736.68	1672.96
737.021	1682.91
737.361	1677.48
737.702	1687.88
738.042	1677.48
738.383	1669.12
738.723	1721.55
739.063	1739.63
739.404	1747.76
739.744	1761.78
740.084	1782.11
740.424	1814.66
740.764	1808.55
741.104	1834.77
741.444	1825.95
741.784	1857.82
742.124	1887.2
742.464	1891.72
742.804	1900.98
743.143	1913.86
743.483	1946.4
743.823	1985.27
744.162	1997.25
744.502	1993.63
744.841	2044.48
745.181	2064.37
745.52	2110.47
745.86	2099.39
746.199	2100.3
746.538	2125.61
746.877	2169.22
747.216	2240.18
747.556	2242.44
747.895	2295.32
748.234	2263.01
748.573	2329.9
748.911	2355.88
749.25	2400.63
749.589	2462.55
749.928	2443.34
750.267	2510.68
750.605	2585.03
750.944	2618.93
751.283	2647.18
751.621	2717.68
751.96	2701.86
752.298	2813.27
752.636	2853.27
752.975	2881.75
753.313	2954.96
753.651	2991.57
753.989	3041.29
754.327	3063.44
754.666	3145.24
755.004	3204
755.342	3296.88
755.679	3352.24
756.017	3389.3
756.355	3462.3
756.693	3513.59
757.031	3642.4
757.368	3682.63
757.706	3751.33
758.044	3787.26
758.381	3921.27
758.719	3940.93
759.056	4050.53
759.394	4117.87
759.731	4166.68
760.068	4227.47
760.405	4311.54
760.743	4398.99
761.08	4483.74
761.417	4525.77
761.754	4593.57
762.091	4663.62
762.428	4781.58
762.765	4785.43
763.102	4915.37
763.438	4963.73
763.775	5054.57
764.112	5164.4
764.449	5226.77
764.785	5278.97
765.122	5320.33
765.458	5424.05
765.795	5519.19
766.131	5565.97
766.467	5607.1
766.804	5695.46
767.14	5717.38
767.476	5816.36
767.812	5885.51
768.148	5936.36
768.485	5990.59
768.821	6085.5
769.157	6129.12
769.492	6212.96
769.828	6270.81
770.164	6267.87
770.5	6378.38
770.836	6428.55
771.171	6417.47
