Data from blue_clamp_base_FLMS001491_00037.txt Node
Date: Wed Feb 08 15:15:55 GMT 2017
User: dcchb
Spectrometer: FLMS00149
Trigger mode: 0
Integration Time (sec): 2.000000E-2
Scans to average: 10
Electric dark correction enabled: true
Nonlinearity correction enabled: false
Boxcar width: 0
XAxis mode: Wavelengths
Number of Pixels in Spectrum: 2048
>>>>>Begin Spectral Data<<<<<
341.393	-20.25
341.776	-20.25
342.16	-20.25
342.543	-65.9
342.927	-70.2
343.31	-86.24
343.693	-61.83
344.077	-82.4
344.46	-57.31
344.843	-46.02
345.226	-51.89
345.61	-39.46
345.993	-32.23
346.376	3.93
346.759	27.88
347.142	30.14
347.525	46.64
347.908	55.22
348.291	97.03
348.674	91.61
349.057	104.94
349.44	124.83
349.823	139.52
350.206	155.56
350.588	200.53
350.971	218.84
351.354	245.05
351.737	243.69
352.119	246.86
352.502	265.84
352.884	263.58
353.267	273.07
353.65	287.76
354.032	303.13
354.414	334.31
354.797	330.7
355.179	314.2
355.562	329.12
355.944	336.12
356.326	330.25
356.709	328.66
357.091	347.42
357.473	321.43
357.855	335.22
358.238	349.45
358.62	340.41
359.002	357.36
359.384	352.39
359.766	363.47
360.148	358.72
360.53	329.57
360.912	349.91
361.294	346.29
361.676	336.8
362.057	337.03
362.439	333.41
362.821	349.23
363.203	334.54
363.584	329.79
363.966	311.26
364.348	319.62
364.729	323.47
365.111	332.73
365.493	333.18
365.874	336.57
366.256	312.17
366.637	322.56
367.019	333.18
367.4	297.93
367.781	317.59
368.163	318.72
368.544	330.92
368.925	336.57
369.306	334.99
369.688	312.17
370.069	313.75
370.45	323.47
370.831	321.21
371.212	329.34
371.593	316.69
371.974	330.02
372.355	334.99
372.736	321.43
373.117	342.22
373.498	318.04
373.879	349
374.26	338.15
374.641	362.34
375.021	322.11
375.402	332.05
375.783	335.22
376.163	343.13
376.544	338.61
376.925	358.95
377.305	318.27
377.686	337.25
378.066	323.47
378.447	337.93
378.827	337.03
379.208	349
379.588	327.08
379.968	345.39
380.349	347.42
380.729	365.95
381.109	347.42
381.489	364.37
381.87	376.35
382.25	353.52
382.63	368.89
383.01	367.98
383.39	367.76
383.77	356.91
384.15	369.34
384.53	351.04
384.91	378.15
385.29	401.66
385.67	386.52
386.049	387.42
386.429	386.74
386.809	362.79
387.189	366.4
387.568	389.91
387.948	390.58
388.328	396.23
388.707	393.07
389.087	410.47
389.466	400.3
389.846	384.93
390.225	404.59
390.605	402.56
390.984	403.24
391.363	420.64
391.743	395.78
392.122	398.94
392.501	424.03
392.881	459.28
393.26	439.85
393.639	427.87
394.018	459.06
394.397	442.78
394.776	442.56
395.155	471.26
395.534	448.21
395.913	450.69
396.292	453.18
396.671	465.61
397.05	466.97
397.429	486.85
397.808	466.06
398.186	503.12
398.565	512.61
398.944	480.52
399.323	487.98
399.701	514.2
400.08	494.08
400.458	508.77
400.837	525.04
401.215	493.86
401.594	525.49
401.972	532.27
402.351	534.53
402.729	538.15
403.107	539.05
403.486	551.93
403.864	548.32
404.242	532.05
404.62	587.64
404.999	557.13
405.377	553.29
405.755	581.09
406.133	593.52
406.511	606.62
406.889	591.71
407.267	601.2
407.645	603.23
408.023	628.54
408.401	638.71
408.779	650.01
409.156	636.45
409.534	637.13
409.912	649.11
410.29	681.2
410.667	671.25
411.045	671.25
411.422	691.14
411.8	683.23
412.178	688.2
412.555	727.52
412.933	723.23
413.31	704.92
413.687	736.79
414.065	751.48
414.442	738.82
414.819	781.08
415.197	784.02
415.574	763.45
415.951	769.1
416.328	784.02
416.705	782.89
417.082	791.7
417.46	794.87
417.837	807.07
418.214	818.59
418.591	830.35
418.967	847.29
419.344	835.77
419.721	843.45
420.098	846.39
420.475	860.4
420.852	868.08
421.228	873.96
421.605	896.78
421.982	913.28
422.358	900.63
422.735	900.4
423.111	909.44
423.488	926.61
423.864	944.47
424.241	951.25
424.617	961.42
424.994	981.75
425.37	965.94
425.746	975.88
426.123	995.54
426.499	1036.67
426.875	1009.1
427.251	1023.79
427.627	1045.93
428.003	1068.53
428.379	1063.11
428.756	1087.74
429.132	1108.98
429.507	1099.72
429.883	1115.76
430.259	1128.64
430.635	1138.13
431.011	1173.84
431.387	1193.5
431.763	1180.39
432.138	1217.91
432.514	1221.97
432.89	1234.85
433.265	1272.14
433.641	1265.81
434.016	1298.58
434.392	1314.17
434.767	1323.21
435.143	1345.36
435.518	1340.39
435.894	1353.5
436.269	1377
436.644	1407.51
437.02	1428.52
437.395	1427.17
437.77	1452.7
438.145	1464
438.52	1494.96
438.895	1495.19
439.271	1478.69
439.646	1519.37
440.021	1516.66
440.395	1546.03
440.77	1528.18
441.145	1570.89
441.52	1595.97
441.895	1582.87
442.27	1613.6
442.645	1622.19
443.019	1673.26
443.394	1652.24
443.769	1661.96
444.143	1648.4
444.518	1702.19
444.892	1700.61
445.267	1717.1
445.641	1700.83
446.016	1725.69
446.39	1711
446.764	1732.47
447.139	1742.41
447.513	1756.2
447.887	1773.6
448.262	1779.7
448.636	1798.91
449.01	1854.73
449.384	1859.02
449.758	1838
450.132	1892.46
450.506	1874.16
450.88	1904.67
451.254	1886.14
451.628	1959.58
452.002	1966.59
452.376	1991.44
452.75	2016.53
453.123	2010.2
453.497	2035.74
453.871	2062.86
454.244	2077.09
454.618	2159.8
454.992	2103.08
455.365	2131.1
455.739	2181.72
456.112	2175.39
456.486	2208.16
456.859	2269.63
457.232	2291.32
457.606	2280.48
457.979	2296.3
458.352	2324.77
458.725	2355.96
459.099	2378.1
459.472	2442.96
459.845	2466.46
460.218	2480.47
460.591	2519.79
460.964	2484.99
461.337	2546.23
461.71	2577.64
462.083	2642.5
462.456	2630.98
462.829	2617.64
463.201	2682.5
463.574	2679.56
463.947	2731.99
464.32	2776.06
464.692	2810.63
465.065	2828.71
465.438	2826
465.81	2875.04
466.183	2918.88
466.555	2968.14
466.928	2981.25
467.3	2988.03
467.672	3067.35
468.045	3072.77
468.417	3061.02
468.789	3110.06
469.161	3144.86
469.534	3242.26
469.906	3246.55
470.278	3266.21
470.65	3315.03
471.022	3375.59
471.394	3422.59
471.766	3446.1
472.138	3454.01
472.51	3553.89
472.882	3583.27
473.253	3611.29
473.625	3655.81
473.997	3749.36
474.369	3732.64
474.74	3736.71
475.112	3809.25
475.484	3878.4
475.855	3941
476.227	3950.49
476.598	4078.85
476.97	4082.46
477.341	4197.71
477.713	4160.43
478.084	4201.1
478.455	4310.71
478.827	4385.05
479.198	4444.49
479.569	4449.69
479.94	4532.85
480.311	4623.47
480.682	4647.87
481.053	4810.13
481.424	4841.09
481.795	4898.71
482.166	4952.04
482.537	4952.5
482.908	5092.83
483.279	5094.87
483.65	5132.83
484.021	5227.07
484.391	5237.24
484.762	5307.74
485.133	5349.1
485.503	5427.74
485.874	5521.07
486.244	5502.09
486.615	5631.58
486.985	5676.32
487.356	5695.08
487.726	5728.97
488.097	5859.82
488.467	5868.86
488.837	5949.98
489.207	5950.44
489.578	6060.26
489.948	6129.19
490.318	6168.51
490.688	6170.54
491.058	6291.67
491.428	6325.34
491.798	6383.65
492.168	6410.31
492.538	6408.96
492.908	6449.63
493.278	6545.9
493.648	6563.75
494.017	6612.34
494.387	6644.2
494.757	6720.36
495.126	6737.76
495.496	6755.16
495.866	6806.91
496.235	6839.68
496.605	6878.32
496.974	6896.63
497.344	6920.35
497.713	6942.5
498.082	6970.07
498.452	7073.57
498.821	7054.81
499.19	7029.28
499.559	7094.59
499.928	7137.75
500.298	7147.69
500.667	7218.43
501.036	7186.34
501.405	7236.05
501.774	7244.87
502.143	7308.37
502.512	7208.26
502.88	7320.8
503.249	7355.6
503.618	7312.21
503.987	7415.71
504.356	7420.68
504.724	7424.3
505.093	7460.91
505.462	7446.44
505.83	7505.42
506.199	7505.2
506.567	7601.69
506.936	7572.99
507.304	7663.61
507.672	7681.46
508.041	7680.56
508.409	7699.32
508.777	7778.86
509.145	7815.7
509.514	7779.09
509.882	7817.51
510.25	7831.74
510.618	7858.64
510.986	7892.31
511.354	7940.44
511.722	7961.46
512.09	8062.7
512.458	7982.7
512.826	8034.22
513.193	8112.41
513.561	8088.91
513.929	8176.37
514.297	8197.38
514.664	8225.63
515.032	8255.01
515.4	8309.24
515.767	8333.2
516.135	8392.63
516.502	8281
516.869	8413.65
517.237	8398.51
517.604	8364.38
517.972	8487.32
518.339	8487.32
518.706	8475.79
519.073	8484.61
519.44	8548.33
519.808	8632.4
520.175	8624.94
520.542	8680.76
520.909	8731.15
521.276	8699.97
521.643	8752.85
522.009	8833.52
522.376	8829.68
522.743	8863.81
523.11	8967.98
523.477	8999.4
523.843	9014.99
524.21	9121.43
524.577	9122.78
524.943	9132.95
525.31	9177.24
525.676	9277.35
526.043	9304.25
526.409	9375.88
526.776	9410.23
527.142	9407.3
527.508	9470.57
527.874	9541.75
528.241	9580.62
528.607	9589.89
528.973	9686.38
529.339	9627.4
529.705	9740.62
530.071	9748.75
530.437	9758.92
530.803	9839.6
531.169	9876.66
531.535	9898.81
531.901	9878.92
532.267	9924.12
532.632	10037.33
532.998	10043.66
533.364	10155.07
533.73	10098.8
534.095	10129.99
534.461	10186.26
534.826	10264.22
535.192	10307.61
535.557	10298.35
535.923	10314.39
536.288	10321.4
536.653	10396.2
537.019	10345.12
537.384	10427.61
537.749	10507.61
538.114	10462.63
538.479	10506.48
538.845	10547.6
539.21	10506.02
539.575	10511.67
539.94	10560.26
540.305	10609.52
540.67	10612.01
541.034	10671.22
541.399	10727.03
541.764	10712.12
542.129	10722.51
542.494	10786.69
542.858	10857.2
543.223	10859.46
543.587	10879.8
543.952	10897.88
544.316	10926.58
544.681	10933.36
545.045	11004.99
545.41	11030.3
545.774	11073.92
546.138	11080.92
546.503	11130.41
546.867	11121.83
547.231	11191.65
547.595	11181.94
547.959	11207.93
548.324	11278.43
548.688	11235.5
549.052	11280.01
549.416	11230.52
549.779	11296.74
550.143	11390.29
550.507	11328.6
550.871	11431.65
551.235	11502.16
551.599	11490.4
551.962	11523.4
552.326	11593.23
552.689	11568.37
553.053	11461.03
553.417	11609.95
553.78	11635.49
554.143	11700.57
554.507	11774.01
554.87	11713.22
555.234	11851.07
555.597	11767.91
555.96	11826.44
556.323	11868.7
556.686	11787.57
557.05	11916.38
557.413	11988.02
557.776	11930.39
558.139	12091.07
558.502	12039.54
558.865	12009.94
559.228	12145.08
559.59	12202.25
559.953	12220.78
560.316	12301
560.679	12299.65
561.041	12337.84
561.404	12421
561.767	12451.06
562.129	12433.66
562.492	12532.64
562.854	12578.29
563.217	12585.52
563.579	12653.99
563.941	12671.16
564.304	12774.44
564.666	12770.14
565.028	12815.12
565.39	12872.06
565.753	12913.64
566.115	12901.67
566.477	12965.17
566.839	13036.13
567.201	13077.48
567.563	13110.25
567.925	13140.3
568.287	13155.9
568.648	13145.28
569.01	13323.58
569.372	13368.09
569.734	13297.81
570.095	13395.89
570.457	13475.89
570.819	13387.98
571.18	13576.68
571.542	13594.08
571.903	13583.68
572.265	13597.47
572.626	13699.16
572.987	13712.04
573.349	13776.9
573.71	13771.7
574.071	13824.58
574.432	13892.6
574.794	13999.72
575.155	13955.42
575.516	13978.93
575.877	13993.62
576.238	14036.55
576.599	14100.73
576.96	14168.07
577.32	14176.21
577.681	14118.36
578.042	14135.31
578.403	14224.12
578.763	14215.08
579.124	14273.61
579.485	14304.57
579.845	14347.28
580.206	14250.56
580.566	14388.18
580.927	14373.49
581.287	14426.82
581.648	14417.11
582.008	14472.47
582.368	14457.56
582.728	14500.27
583.089	14520.15
583.449	14449.42
583.809	14502.08
584.169	14579.36
584.529	14476.31
584.889	14672.24
585.249	14487.39
585.609	14495.97
585.969	14575.75
586.329	14660.94
586.688	14636.54
587.048	14612.58
587.408	14520.38
587.768	14648.51
588.127	14563.77
588.487	14543.43
588.846	14729.19
589.206	14589.98
589.565	14678.12
589.925	14666.82
590.284	14696.65
590.643	14640.6
591.003	14704.56
591.362	14721.51
591.721	14723.31
592.08	14698.46
592.44	14724.9
592.799	14755.63
593.158	14694.16
593.517	14849.64
593.876	14825.68
594.235	14738.23
594.593	14841.28
594.952	14759.24
595.311	14693.48
595.67	14830.66
596.029	14872.01
596.387	14872.91
596.746	14899.81
597.104	14762.63
597.463	14827.72
597.822	14838.11
598.18	14909.52
598.538	14862.07
598.897	14863.2
599.255	14782.07
599.613	14949.3
599.972	14907.04
600.33	14961.73
600.688	14855.97
601.046	14939.58
601.404	14903.2
601.762	14921.73
602.12	14961.27
602.478	15096.86
602.836	14981.39
603.194	14919.47
603.552	15005.11
603.91	14928.73
604.268	15036.53
604.625	14975.96
604.983	15084.89
605.341	14989.07
605.698	15085.56
606.056	15094.38
606.413	15121.04
606.771	15092.8
607.128	15215.5
607.485	15101.16
607.843	15113.81
608.2	15182.28
608.557	15326.46
608.914	15174.83
609.272	15284.43
609.629	15304.77
609.986	15323.98
610.343	15260.93
610.7	15282.85
611.057	15378.44
611.414	15341.15
611.771	15397.87
612.127	15417.08
612.484	15440.36
612.841	15461.6
613.198	15414.82
613.554	15395.61
613.911	15549.05
614.267	15554.48
614.624	15430.19
614.98	15549.51
615.337	15469.06
615.693	15519.9
616.05	15597.19
616.406	15567.36
616.762	15596.06
617.118	15654.36
617.475	15586.12
617.831	15625.89
618.187	15611.88
618.543	15706.56
618.899	15768.48
619.255	15757.64
619.611	15698.88
619.967	15827.24
620.323	15833.57
620.678	15749.73
621.034	15708.15
621.39	15720.35
621.746	15730.52
622.101	15808.48
622.457	15848.03
622.812	15846
623.168	15941.81
623.523	15884.64
623.879	16011.64
624.234	15786.11
624.589	16000.79
624.945	15942.04
625.3	16012.09
625.655	15932.32
626.01	15900.23
626.365	16004.86
626.72	15926.22
627.075	15978.65
627.43	15942.26
627.785	15926.9
628.14	16106.33
628.495	16069.04
628.85	16022.04
629.205	16001.25
629.559	16043.73
629.914	16064.75
630.269	16082.15
630.623	16045.09
630.978	16065.2
631.332	16080.11
631.687	16157.17
632.041	16087.57
632.396	16055.26
632.75	16114.01
633.104	16137.51
633.459	16113.79
633.813	16099.32
634.167	16118.98
634.521	16041.47
634.875	16215.93
635.229	16166.21
635.583	16067.68
635.937	16108.36
636.291	16132.77
636.645	16156.72
636.999	16154.91
637.352	16237.4
637.706	16054.13
638.06	16124.86
638.413	16234.69
638.767	16024.97
639.121	16161.24
639.474	16062.94
639.828	16043.73
640.181	16107.23
640.534	16184.74
640.888	16211.41
641.241	16162.15
641.594	16140.9
641.947	16212.54
642.301	16057.06
642.654	16233.78
643.007	16148.13
643.36	16185.42
643.713	16128.02
644.066	16309.71
644.419	16208.02
644.771	16104.97
645.124	15974.13
645.477	15889.38
645.83	15821.82
646.182	15777.3
646.535	15750.86
646.888	15890.97
647.24	15760.57
647.593	15972.32
647.945	15888.71
648.298	15832.21
648.65	15792.66
649.002	15798.77
649.355	15822.04
649.707	15794.7
650.059	15890.06
650.411	16158.08
650.763	16156.72
651.115	16368.92
651.467	16342.71
651.819	16390.84
652.171	16359.43
652.523	16264.97
652.875	16464.51
653.227	16295.7
653.578	16465.87
653.93	16399.43
654.282	16339.32
654.633	16323.27
654.985	16451.18
655.337	16413.66
655.688	16345.87
656.039	16473.55
656.391	16345.64
656.742	16444.4
657.094	16430.16
657.445	16554
657.796	16541.12
658.147	16472.65
658.498	16459.31
658.849	16544.06
659.2	16557.16
659.551	16429.48
659.902	16577.73
660.253	16551.51
660.604	16549.25
660.955	16522.14
661.306	16516.03
661.656	16565.07
662.007	16528.24
662.358	16522.81
662.708	16521.01
663.059	16525.53
663.409	16372.54
663.76	16551.29
664.11	16543.15
664.461	16552.42
664.811	16568.24
665.161	16542.47
665.511	16578.18
665.862	16546.54
666.212	16677.39
666.562	16601.91
666.912	16543.83
667.262	16478.75
667.612	16525.98
667.962	16551.29
668.312	16400.56
668.662	16609.82
669.011	16510.16
669.361	16428.13
669.711	16513.32
670.06	16464.28
670.41	16382.7
670.76	16352.2
671.109	16368.24
671.459	16374.8
671.808	16318.3
672.157	16387.45
672.507	16183.39
672.856	16193.33
673.205	16293.44
673.554	16381.57
673.904	16118.76
674.253	16284.18
674.602	16190.85
674.951	15964.18
675.3	15849.61
675.649	16059.1
675.998	16100.9
676.346	16008.03
676.695	16071.98
677.044	15939.1
677.393	16010.74
677.741	15974.58
678.09	15986.78
678.438	15949.72
678.787	15953.34
679.135	15956.5
679.484	15796.28
679.832	15811.42
680.181	15639.67
680.529	15780.23
680.877	15746.56
681.225	15721.48
681.573	15753.79
681.922	15640.58
682.27	15681.03
682.618	15637.19
682.966	15513.58
683.314	15651.42
683.661	15459.34
684.009	15385.67
684.357	15405.56
684.705	15396.74
685.053	15394.48
685.4	15431.32
685.748	15267.71
686.095	15273.81
686.443	15252.57
686.79	15280.59
687.138	15333.24
687.485	15125.11
687.832	15226.35
688.18	15130.76
688.527	15067.03
688.874	15100.25
689.221	15071.1
689.568	15048.95
689.915	15026.36
690.262	15067.71
690.609	14874.27
690.956	14892.12
691.303	14958.56
691.65	14833.59
691.997	14916.3
692.344	14757.44
692.69	14845.57
693.037	14866.13
693.383	14679.7
693.73	14798.79
694.077	14620.49
694.423	14709.53
694.769	14695.52
695.116	14634.73
695.462	14636.08
695.808	14586.82
696.155	14589.76
696.501	14535.3
696.847	14546.59
697.193	14483.77
697.539	14527.84
697.885	14402.64
698.231	14352.93
698.577	14398.8
698.923	14482.19
699.269	14356.77
699.614	14313.15
699.96	14300.73
700.306	14304.12
700.651	14223.44
700.997	14152.03
701.342	14206.04
701.688	14267.05
702.033	14093.73
702.379	14150.9
702.724	14063.67
703.069	14185.7
703.415	13958.81
703.76	14061.86
704.105	13986.61
704.45	13983.9
704.795	13993.62
705.14	13945.25
705.485	13961.07
705.83	13927.18
706.175	13942.09
706.52	13912.94
706.865	13841.3
707.209	13828.2
707.554	13779.38
707.899	13933.96
708.243	13834.07
708.588	13770.57
708.932	13801.3
709.277	13804.69
709.621	13778.71
709.966	13688.76
710.31	13711.36
710.654	13763.11
710.998	13687.86
711.342	13771.93
711.687	13701.19
712.031	13638.82
712.375	13690.57
712.719	13587.75
713.063	13594.08
713.407	13691.93
713.75	13605.6
714.094	13659.16
714.438	13579.84
714.782	13577.58
715.125	13606.73
715.469	13562.67
715.812	13480.41
716.156	13455.78
716.499	13529.45
716.843	13515.21
717.186	13334.88
717.53	13565.38
717.873	13523.12
718.216	13534.87
718.559	13481.76
718.902	13355.21
719.246	13419.39
719.589	13357.7
719.932	13342.11
720.275	13321.77
720.617	13249.45
720.96	13372.84
721.303	13338.27
721.646	13324.03
721.989	13294.2
722.331	13288.32
722.674	13279.28
723.016	13310.02
723.359	13216.91
723.701	13271.15
724.044	13197.7
724.386	13241.32
724.729	13273.63
725.071	13257.36
725.413	13208.55
725.755	13229.79
726.097	13138.27
726.439	13152.51
726.782	13157.93
727.124	13251.04
727.465	13197.03
727.807	13163.58
728.149	13190.47
728.491	13070.93
728.833	13139.85
729.175	13111.15
729.516	13151.38
729.858	13129.01
730.199	13184.82
730.541	13098.95
730.882	13145.05
731.224	13215.1
731.565	13044.94
731.906	13118.84
732.248	13197.7
732.589	13061.44
732.93	13060.31
733.271	13107.54
733.612	13252.39
733.953	13154.99
734.294	13041.55
734.635	13112.28
734.976	13213.07
735.317	13196.8
735.658	13137.82
735.999	13229.57
736.339	13071.15
736.68	13180.08
737.021	13155.9
737.361	13156.35
737.702	13250.81
738.042	13277.02
738.383	13249.68
738.723	13290.58
739.063	13301.2
739.404	13357.93
739.744	13362.22
740.084	13379.39
740.424	13342.78
740.764	13290.36
741.104	13410.13
741.444	13378.04
741.784	13349.79
742.124	13410.81
742.464	13422.33
742.804	13421.43
743.143	13492.39
743.483	13600.41
743.823	13383.69
744.162	13514.98
744.502	13563.12
744.841	13545.27
745.181	13605.83
745.52	13576.22
745.86	13613.96
746.199	13635.43
746.538	13624.81
746.877	13698.93
747.216	13711.59
747.556	13641.76
747.895	13735.99
748.234	13648.09
748.573	13742.55
748.911	13762.89
749.25	13781.19
749.589	13744.13
749.928	13831.59
750.267	13840.85
750.605	13860.74
750.944	13823.9
751.283	13867.52
751.621	13933.28
751.96	13878.82
752.298	13848.99
752.636	13988.87
752.975	13903.45
753.313	13950.45
753.651	14085.36
753.989	14073.16
754.327	14003.78
754.666	14068.64
755.004	14072.26
755.342	14154.29
755.679	14148.19
756.017	14166.04
756.355	14180.73
756.693	14077.23
