Data from blue_shiny_book_FLMS001491_00012.txt Node
Date: Wed Feb 08 15:26:36 GMT 2017
User: dcchb
Spectrometer: FLMS00149
Trigger mode: 0
Integration Time (sec): 2.000000E-2
Scans to average: 10
Electric dark correction enabled: true
Nonlinearity correction enabled: false
Boxcar width: 0
XAxis mode: Wavelengths
Number of Pixels in Spectrum: 2048
>>>>>Begin Spectral Data<<<<<
341.393	-2.02
341.776	-2.02
342.16	-2.02
342.543	-50.15
342.927	-66.65
343.31	-77.72
343.693	-72.3
344.077	-47.67
344.46	-79.98
344.843	-44.5
345.226	-47.44
345.61	-27.33
345.993	-21
346.376	8.15
346.759	11.77
347.142	23.29
347.525	28.71
347.908	51.76
348.291	94.02
348.674	89.73
349.057	110.52
349.44	120.24
349.823	154.59
350.206	177.41
350.588	200.69
350.971	198.88
351.354	259.67
351.737	241.59
352.119	252.89
352.502	293.11
352.884	278.65
353.267	327.69
353.65	311.42
354.032	309.61
354.414	335.6
354.797	341.02
355.179	340.8
355.562	356.39
355.944	343.51
356.326	358.87
356.709	361.13
357.091	342.38
357.473	374.02
357.855	352.77
358.238	365.2
358.62	355.49
359.002	360
359.384	364.07
359.766	362.26
360.148	354.81
360.53	353
360.912	365.43
361.294	364.52
361.676	373.34
362.057	358.42
362.439	348.03
362.821	334.02
363.203	337.18
363.584	355.03
363.966	378.54
364.348	337.18
364.729	348.71
365.111	357.52
365.493	367.46
365.874	387.35
366.256	343.51
366.637	362.49
367.019	345.54
367.4	352.77
367.781	327.24
368.163	356.39
368.544	329.05
368.925	334.92
369.306	374.47
369.688	365.65
370.069	375.37
370.45	362.04
370.831	368.37
371.212	356.39
371.593	384.86
371.974	362.49
372.355	381.02
372.736	347.35
373.117	357.74
373.498	347.12
373.879	378.54
374.26	380.57
374.641	364.07
375.021	379.89
375.402	354.36
375.783	364.3
376.163	413.79
376.544	412.43
376.925	388.25
377.305	399.78
377.686	410.62
378.066	379.89
378.447	400
378.827	402.26
379.208	416.05
379.588	409.27
379.968	419.44
380.349	418.31
380.729	420.34
381.109	424.18
381.489	419.44
381.87	407.01
382.25	436.39
382.63	424.41
383.01	408.14
383.39	441.81
383.77	437.29
384.15	440.23
384.53	452.66
384.91	459.66
385.29	468.93
385.67	467.12
386.049	469.38
386.429	458.31
386.809	467.8
387.189	461.92
387.568	471.64
387.948	485.43
388.328	505.54
388.707	480.23
389.087	505.31
389.466	518.87
389.846	483.17
390.225	508.93
390.605	532.2
390.984	527.68
391.363	532.88
391.743	541.24
392.122	536.95
392.501	537.18
392.881	577.4
393.26	555.03
393.639	567.68
394.018	585.08
394.397	594.35
394.776	588.47
395.155	602.03
395.534	593.9
395.913	591.64
396.292	619.88
396.671	628.25
397.05	621.69
397.429	634.8
397.808	628.7
398.186	627.34
398.565	634.35
398.944	647.23
399.323	653.1
399.701	669.15
400.08	675.48
400.458	686.1
400.837	702.37
401.215	675.48
401.594	694.01
401.972	713.22
402.351	737.4
402.729	708.02
403.107	714.8
403.486	710.05
403.864	723.38
404.242	740.56
404.62	756.15
404.999	745.98
405.377	801.8
405.755	805.64
406.133	812.42
406.511	829.37
406.889	821.46
407.267	829.14
407.645	853.1
408.023	869.37
408.401	869.14
408.779	858.97
409.156	933.32
409.534	919.54
409.912	955.92
410.29	959.31
410.667	935.36
411.045	960.21
411.422	976.26
411.8	1007.9
412.178	1022.13
412.555	1041.57
412.933	1020.33
413.31	1067.78
413.687	1065.75
414.065	1091.51
414.442	1111.62
414.819	1109.36
415.197	1105.3
415.574	1136.03
415.951	1160.21
416.328	1168.57
416.705	1169.25
417.082	1181.23
417.46	1195.91
417.837	1199.53
418.214	1223.94
418.591	1250.6
418.967	1263.48
419.344	1288.12
419.721	1302.13
420.098	1309.36
420.475	1314.1
420.852	1349.58
421.228	1337.38
421.605	1366.53
421.982	1400.2
422.358	1402.01
422.735	1439.3
423.111	1472.07
423.488	1492.4
423.864	1461.9
424.241	1510.03
424.617	1533.76
424.994	1534.89
425.37	1528.56
425.746	1564.72
426.123	1547.32
426.499	1591.84
426.875	1601.55
427.251	1661.44
427.627	1700.53
428.003	1709.57
428.379	1740.08
428.756	1758.61
429.132	1758.39
429.507	1807.65
429.883	1848.33
430.259	1841.1
430.635	1888.1
431.011	1895.33
431.387	1904.37
431.763	1947.31
432.138	1969
432.514	2027.76
432.89	2029.79
433.265	2124.7
433.641	2136.68
434.016	2131.94
434.392	2166.28
434.767	2186.85
435.143	2178.49
435.518	2263.01
435.894	2264.81
436.269	2257.36
436.644	2360.86
437.02	2357.92
437.395	2408.76
437.77	2439.72
438.145	2513.39
438.52	2487.41
438.895	2534.86
439.271	2542.55
439.646	2626.61
440.021	2605.37
440.395	2615.31
440.77	2609.89
441.145	2662.54
441.52	2681.98
441.895	2696.67
442.27	2738.25
442.645	2788.42
443.019	2814.18
443.394	2840.84
443.769	2887.85
444.143	2838.81
444.518	2907.06
444.892	2897.57
445.267	2878.81
445.641	2948.41
446.016	2970.33
446.39	2962.87
446.764	3032.48
447.139	3043.55
447.513	3095.53
447.887	3101.63
448.262	3121.06
448.636	3131.46
449.01	3192.47
449.384	3222.53
449.758	3246.48
450.132	3287.39
450.506	3273.15
450.88	3320.6
451.254	3338.46
451.628	3398.57
452.002	3436.99
452.376	3474.27
452.75	3518.11
453.123	3546.59
453.497	3632.46
453.871	3674.04
454.244	3709.07
454.618	3752.46
454.992	3777.77
455.365	3826.58
455.739	3930.31
456.112	3916.52
456.486	3951.1
456.859	4032.9
457.232	4106.35
457.606	4121.04
457.979	4179.34
458.352	4336.4
458.725	4356.74
459.099	4364.42
459.472	4419.11
459.845	4463.17
460.218	4536.84
460.591	4605.09
460.964	4604.64
461.337	4747.91
461.71	4753.11
462.083	4882.82
462.456	4905.65
462.829	4892.99
463.201	5077.85
463.574	5053.67
463.947	5143.38
464.32	5306.77
464.692	5332.76
465.065	5369.59
465.438	5408.91
465.81	5549.92
466.183	5541.79
466.555	5730.71
466.928	5690.71
467.3	5721.45
467.672	5851.39
468.045	6008.44
468.417	6056.8
468.789	6071.72
469.161	6221.09
469.534	6305.16
469.906	6452.73
470.278	6520.97
470.65	6547.86
471.022	6655.21
471.394	6756.9
471.766	6880.29
472.138	6960.96
472.51	7127.96
472.882	7221.52
473.253	7316.88
473.625	7456.32
473.997	7600.27
474.369	7629.42
474.74	7732.47
475.112	7907.15
475.484	8095.17
475.855	8165.9
476.227	8264.43
476.598	8472.79
476.97	8547.59
477.341	8757.75
477.713	8844.08
478.084	8915.26
478.455	9199.77
478.827	9327.45
479.198	9534.9
479.569	9636.14
479.94	9871.39
480.311	9976.25
480.682	10241.33
481.053	10485.84
481.424	10580.98
481.795	10750.01
482.166	10918.82
482.537	11018.03
482.908	11205.82
483.279	11360.85
483.65	11561.74
484.021	11822.3
484.391	11935.97
484.762	12058.91
485.133	12213.93
485.503	12439.46
485.874	12761.71
486.244	12842.61
486.615	13129.39
486.985	13310.4
487.356	13518.08
487.726	13689.6
488.097	13966.65
488.467	13978.86
488.837	14247.55
489.207	14420.43
489.578	14624.49
489.948	14812.73
490.318	15049.34
490.688	15039.39
491.058	15370.01
491.428	15594.86
491.798	15819.49
492.168	16073.94
492.538	16179.02
492.908	16400.26
493.278	16644.55
493.648	16617.66
494.017	16854.03
494.387	17072.33
494.757	17172.9
495.126	17419.44
495.496	17375.83
495.866	17520.91
496.235	17804.07
496.605	17976.04
496.974	18097.62
497.344	18316.59
497.713	18543.71
498.082	18638.17
498.452	18867.77
498.821	19040.19
499.19	19100.75
499.559	19286.51
499.928	19390.92
500.298	19499.61
500.667	19743.22
501.036	19760.62
501.405	19912.26
501.774	19908.64
502.143	20188.64
502.512	20290.1
502.88	20400.38
503.249	20587.72
503.618	20695.52
503.987	20782.97
504.356	21098.44
504.724	21232.22
505.093	21309.96
505.462	21433.35
505.83	21671.53
506.199	21711.31
506.567	22079.43
506.936	22029.27
507.304	22247.56
507.672	22287.34
508.041	22520.33
508.409	22553.55
508.777	22643.03
509.145	22968.22
509.514	22885.06
509.882	23111.04
510.25	23308.55
510.618	23490.24
510.986	23647.08
511.354	23981.53
511.722	24296.1
512.09	24502.87
512.458	24505.81
512.826	24599.14
513.193	24768.85
513.561	24899.02
513.929	25092.91
514.297	25216.3
514.664	25326.35
515.032	25359.8
515.4	25593.47
515.767	25708.49
516.135	25884.08
516.502	25849.96
516.869	26305.99
517.237	26464.18
517.604	26581.46
517.972	26947.55
518.339	27204.04
518.706	27396.13
519.073	27480.2
519.44	27844.93
519.808	28121.08
520.175	28049.9
520.542	28459.15
520.909	28569.21
521.276	28393.84
521.643	28781.86
522.009	28897.79
522.376	29055.75
522.743	29134.16
523.11	29567.6
523.477	29727.14
523.843	29848.27
524.21	30365.54
524.577	30605.76
524.943	30829.71
525.31	31158.06
525.676	31392.64
526.043	31683.7
526.409	31856.58
526.776	32255.44
527.142	32377.92
527.508	32454.98
527.874	32717.12
528.241	32770.68
528.607	32877.12
528.973	33199.59
529.339	33049.31
529.705	33320.95
530.071	33559.13
530.437	33772.69
530.803	33887.03
531.169	34296.29
531.535	34306.46
531.901	34603.62
532.267	34740.34
532.632	35133.78
532.998	35374.45
533.364	35659.19
533.73	35728.11
534.095	35993.64
534.461	36285.61
534.826	36278.61
535.192	36516.34
535.557	36651.03
535.923	36392.73
536.288	36613.97
536.653	36708.88
537.019	36648.54
537.384	36651.25
537.749	37053.73
538.114	37108.64
538.479	37183.22
538.845	37419.14
539.21	37389.09
539.575	37738
539.94	38012.12
540.305	38319.46
540.67	38332.57
541.034	38623.63
541.399	38806
541.764	38883.74
542.129	39046.9
542.494	39041.93
542.858	39294.57
543.223	39194.01
543.587	39282.6
543.952	39320.11
544.316	39241.24
544.681	39219.55
545.045	39264.29
545.41	39577.28
545.774	39438.3
546.138	39638.97
546.503	39546.32
546.867	39860.66
547.231	40318.95
547.595	40285.51
547.959	40509.46
548.324	40805.72
548.688	40956.68
549.052	41126.39
549.416	41361.19
549.779	41254.07
550.143	41340.4
550.507	41637.56
550.871	41709.43
551.235	41565.47
551.599	41839.37
551.962	41626.49
552.326	41782.42
552.689	41834.85
553.053	41613.84
553.417	41892.25
553.78	42270.32
554.143	42014.5
554.507	42220.82
554.87	42496.52
555.234	42977.42
555.597	42769.51
555.96	43002.73
556.323	43336.95
556.686	43580.56
557.05	43891.06
557.413	43908.24
557.776	44185.29
558.139	44479.75
558.502	44329.7
558.865	44461.22
559.228	44834.77
559.59	44706.18
559.953	44711.61
560.316	44958.61
560.679	44851.49
561.041	45003.35
561.404	45046.29
561.767	45334.42
562.129	45233.18
562.492	45568.76
562.854	45646.72
563.217	45762.43
563.579	45969.65
563.941	46244
564.304	46592.69
564.666	46949.29
565.028	46958.78
565.39	47154.25
565.753	47460.69
566.115	47615.49
566.477	47803.05
566.839	47939.54
567.201	48063.84
567.563	48071.74
567.925	48286.43
568.287	48195.58
568.648	48138.41
569.01	48202.59
569.372	48411.62
569.734	48199.42
570.095	48459.3
570.457	48441
570.819	48457.72
571.18	48615.91
571.542	48714.44
571.903	48923.47
572.265	49175.44
572.626	49267.87
572.987	49418.83
573.349	49707.63
573.71	49843.22
574.071	50071.24
574.432	50102.65
574.794	50478.69
575.155	50434.17
575.516	50333.61
575.877	50569.98
576.238	50599.36
576.599	50605.24
576.96	50638.68
577.32	50579.25
577.681	50512.36
578.042	50642.52
578.403	50667.38
578.763	50473.72
579.124	50544.22
579.485	50645.69
579.845	50670.77
580.206	50746.48
580.566	50804.1
580.927	50870.77
581.287	50992.57
581.648	50990.09
582.008	51267.37
582.368	51281.6
582.728	51423.52
583.089	51480.92
583.449	51494.03
583.809	51616.96
584.169	51654.7
584.529	51676.62
584.889	51765.21
585.249	51627.13
585.609	51511.43
585.969	51653.8
586.329	51523.41
586.688	51474.82
587.048	51338.33
587.408	51357.08
587.768	51300.13
588.127	51259.23
588.487	51208.61
588.846	51489.73
589.206	51134.49
589.565	51179.23
589.925	51345.1
590.284	51195.05
590.643	51397.31
591.003	51540.81
591.362	51618.77
591.721	51674.36
592.08	51836.84
592.44	51896.73
592.799	51987.57
593.158	51875.49
593.517	51919.55
593.876	52066.89
594.235	51971.98
594.593	52013.34
594.952	52056.27
595.311	51936.05
595.67	51905.99
596.029	52038.65
596.387	52028.02
596.746	52006.33
597.104	51797.75
597.463	51765.66
597.822	51770.18
598.18	51707.36
598.538	51681.82
598.897	51845.66
599.255	51620.8
599.613	52095.14
599.972	51851.53
600.33	52011.08
600.688	51978.53
601.046	52134.69
601.404	52366.09
601.762	52223.73
602.12	52462.82
602.478	52563.6
602.836	52557.73
603.194	52522.02
603.552	52593.89
603.91	52392.08
604.268	52617.84
604.625	52496.49
604.983	52517.73
605.341	52367
605.698	52486.77
606.056	52613.09
606.413	52615.13
606.771	52524.51
607.128	52395.47
607.485	52348.47
607.843	52443.61
608.2	52550.5
608.557	52664.17
608.914	52509.37
609.272	52738.51
609.629	52668.91
609.986	52731.51
610.343	52609.03
610.7	52806.08
611.057	52852.64
611.414	52902.35
611.771	52976.25
612.127	53198.39
612.484	53104.61
612.841	53281.1
613.198	53211.04
613.554	53320.19
613.911	53491.71
614.267	53394.09
614.624	53416.01
614.98	53466.18
615.337	53589.79
615.693	53474.09
616.05	53457.37
616.406	53639.28
616.762	53450.36
617.118	53363.81
617.475	53343.24
617.831	53436.8
618.187	53408.78
618.543	53376.69
618.899	53555.44
619.255	53413.52
619.611	53440.87
619.967	53552.73
620.323	53556.12
620.678	53498.27
621.034	53489.91
621.39	53503.47
621.746	53458.27
622.101	53691.48
622.457	53670.24
622.812	53767.64
623.168	53872.72
623.523	53839.05
623.879	53997.24
624.234	53845.83
624.589	53888.77
624.945	53953.17
625.3	53986.62
625.655	53974.41
626.01	54001.31
626.365	54012.83
626.72	53941.65
627.075	53909.11
627.43	53958.6
627.785	53796.34
628.14	53727.87
628.495	53688.32
628.85	53630.47
629.205	53537.14
629.559	53697.13
629.914	53478.61
630.269	53486.74
630.623	53448.55
630.978	53359.74
631.332	53473.41
631.687	53591.6
632.041	53491.49
632.396	53576.23
632.75	53488.33
633.104	53585.05
633.459	53417.82
633.813	53508.21
634.167	53424.82
634.521	53500.08
634.875	53447.87
635.229	53476.35
635.583	53305.73
635.937	53330.82
636.291	53398.61
636.645	53479.51
636.999	53340.31
637.352	53423.24
637.706	53248.11
638.06	53302.57
638.413	53238.16
638.767	53026.64
639.121	53004.27
639.474	52776.48
639.828	52836.14
640.181	52731.28
640.534	52640.44
640.888	52516.83
641.241	52349.82
641.594	52431.4
641.947	52523.38
642.301	52401.57
642.654	52473.21
643.007	52425.98
643.36	52360.9
643.713	52327
644.066	52440.44
644.419	52286.1
644.771	52339.65
645.124	52134.24
645.477	52331.97
645.83	52145.54
646.182	51757.75
646.535	51554.14
646.888	51460.58
647.24	51170.65
647.593	51467.59
647.945	51294.71
648.298	51242.73
648.65	51127.71
649.002	51065.56
649.355	51264.65
649.707	51261.49
650.059	51517.3
650.411	51795.26
650.763	51848.14
651.115	52008.36
651.467	51877.52
651.819	51724.98
652.171	51750.52
652.523	51544.65
652.875	51534.93
653.227	51312.11
653.578	51567.47
653.93	51510.75
654.282	51414.48
654.633	51211.32
654.985	51314.6
655.337	51349.62
655.688	51327.7
656.039	51520.47
656.391	51231.89
656.742	51372.9
657.094	51467.14
657.445	51631.42
657.796	51575.16
658.147	51606.11
658.498	51547.36
658.849	51685.89
659.2	51695.15
659.551	51559.79
659.902	51756.39
660.253	51659.22
660.604	51855.83
660.955	51612.44
661.306	51696.73
661.656	51508.72
662.007	51564.31
662.358	51436.63
662.708	51324.09
663.059	51355.5
663.409	51045
663.76	51275.95
664.11	50968.17
664.461	50972.46
664.811	50986.47
665.161	50898.34
665.511	50827.6
665.862	50884.1
666.212	50960.71
666.562	51021.72
666.912	50877.55
667.262	50851.11
667.612	50907.38
667.962	51080.25
668.312	50988.28
668.662	51129.97
669.011	51132.45
669.361	51141.04
669.711	51077.99
670.06	51019.69
670.41	51042.29
670.76	51063.3
671.109	51252.9
671.459	51153.47
671.808	51183.98
672.157	51293.13
672.507	51004.77
672.856	51090.2
673.205	51071.67
673.554	51026.47
673.904	51069.18
674.253	51112.34
674.602	50946.02
674.951	50320.5
675.3	50089.32
675.649	50614.73
675.998	50348.97
676.346	50383.32
676.695	50327.28
677.044	50040.96
677.393	50089.32
677.741	50086.83
678.09	49967.97
678.438	49843.68
678.787	49826.27
679.135	49794.64
679.484	49601.65
679.832	49800.96
680.181	49673.96
680.529	49769.55
680.877	49781.08
681.225	49720.06
681.573	49962.54
681.922	49763.45
682.27	49733.62
682.618	49818.82
682.966	49814.75
683.314	49912.15
683.661	49843.45
684.009	49789.44
684.357	49558.26
684.705	49655.21
685.053	49591.93
685.4	49617.47
685.748	49455.44
686.095	49350.13
686.443	49286.85
686.79	49106.52
687.138	49139.51
687.485	49039.85
687.832	48957.14
688.18	48803.25
688.527	48576.59
688.874	48441.9
689.221	48254.34
689.568	48083.04
689.915	47882.37
690.262	47843.05
690.609	47836.95
690.956	47582.27
691.303	47389.05
691.65	47177.76
691.997	47136.18
692.344	46976.86
692.69	46963.98
693.037	47073.8
693.383	46627.71
693.73	46836.07
694.077	46754.94
694.423	46723.08
694.769	46737.99
695.116	46627.94
695.462	46586.36
695.808	46581.16
696.155	46689.18
696.501	46468.17
696.847	46556.98
697.193	46200.16
697.539	46368.74
697.885	46163.09
698.231	46081.51
698.577	45961.07
698.923	45937.34
699.269	45787.74
699.614	45621.64
699.96	45382.1
700.306	45368.09
700.651	44993.86
700.997	44946.18
701.342	44754.77
701.688	44622.12
702.033	44403.14
702.379	44241.34
702.724	44105.3
703.069	44058.97
703.415	43656.95
703.76	43500.34
704.105	43404.07
704.45	43276.62
704.795	43054.93
705.14	42853.8
705.485	42729.74
705.83	42586.01
706.175	42718.21
706.52	42534.49
706.865	42539.69
707.209	42429.86
707.554	42412.01
707.899	42451.78
708.243	42327.26
708.588	42442.29
708.932	42207.94
709.277	42287.26
709.621	42326.58
709.966	42094.05
710.31	42369.52
710.654	42035.97
710.998	42240.49
711.342	42212.24
711.687	42196.64
712.031	41946.93
712.375	41778.8
712.719	41838.46
713.063	41685.02
713.407	41756.66
713.75	41481.18
714.094	41421.07
714.438	41241.87
714.782	41203.22
715.125	41022.44
715.469	40999.16
715.812	40763.91
716.156	40511.27
716.499	40393.98
716.843	40403.02
717.186	40080.54
717.53	40083.71
717.873	40044.84
718.216	39927.33
718.559	39648.01
718.902	39484.4
719.246	39593.55
719.589	39626.99
719.932	39380.45
720.275	39306.1
720.617	39316.95
720.96	39223.16
721.303	39310.17
721.646	39286.44
721.989	39073.11
722.331	39339.32
722.674	39304.07
723.016	39474
723.359	39483.5
723.701	39477.62
724.044	39251.64
724.386	39280.34
724.729	39442.37
725.071	39352.2
725.413	39380.67
725.755	39349.26
726.097	39403.5
726.439	39168.48
726.782	39202.15
727.124	39167.8
727.465	39030.63
727.807	39009.84
728.149	38872.89
728.491	38649.17
728.833	38801.93
729.175	38602.84
729.516	38584.08
729.858	38367.82
730.199	38483.75
730.541	38248.73
730.882	38104.1
731.224	38353.13
731.565	37916.98
731.906	37825.91
732.248	37874.05
732.589	37755.41
732.93	37547.28
733.271	37475.86
733.612	37567.84
733.953	37747.27
734.294	37549.76
734.635	37231.13
734.976	37564.9
735.317	37516.32
735.658	37378.92
735.999	37578.91
736.339	37401.74
736.68	37528.52
737.021	37501.17
737.361	37385.7
737.702	37552.93
738.042	37573.04
738.383	37574.62
738.723	37698.23
739.063	37546.37
739.404	37743.65
739.744	37802.64
740.084	37585.92
740.424	37874.72
740.764	37723.99
741.104	37902.07
741.444	37522.19
741.784	37728.74
742.124	37616.43
742.464	37618.46
742.804	37565.81
743.143	37537.78
743.483	37557.67
743.823	37315.64
744.162	37316.32
744.502	37446.04
744.841	37147.96
745.181	37280.62
745.52	37090.34
745.86	37253.05
746.199	36945.03
746.538	36997.23
746.877	37139.15
747.216	37091.69
747.556	37005.59
747.895	36904.13
748.234	36782.1
748.573	36652.16
748.911	36690.35
749.25	36743.91
749.589	36655.55
749.928	36629.79
750.267	36832.94
750.605	36640.63
750.944	36665.72
751.283	36629.56
751.621	36911.81
751.96	36725.6
752.298	36932.6
752.636	36901.87
752.975	36813.28
753.313	37009.66
