Data from blue_chair_FLMS001491_00027.txt Node
Date: Wed Feb 08 10:30:04 GMT 2017
User: dcchb
Spectrometer: FLMS00149
Trigger mode: 0
Integration Time (sec): 2.000000E-2
Scans to average: 10
Electric dark correction enabled: true
Nonlinearity correction enabled: false
Boxcar width: 0
XAxis mode: Wavelengths
Number of Pixels in Spectrum: 2048
>>>>>Begin Spectral Data<<<<<
341.393	-19.39
341.776	-19.39
342.16	-19.39
342.543	-57.58
342.927	-72.05
343.31	-60.3
343.693	-60.75
344.077	-66.62
344.46	-86.28
344.843	-31.37
345.226	-35.89
345.61	-19.84
345.993	-30.69
346.376	-15.32
346.759	13.38
347.142	38.91
347.525	40.27
347.908	60.38
348.291	72.13
348.674	87.05
349.057	94.96
349.44	130.21
349.823	152.35
350.206	147.84
350.588	170.66
350.971	201.62
351.354	185.12
351.737	239.58
352.119	231.67
352.502	241.17
352.884	257.21
353.267	256.98
353.65	289.53
354.032	261.96
354.414	283.88
354.797	288.4
355.179	301.96
355.562	304.44
355.944	301.73
356.326	321.16
356.709	320.94
357.091	310.09
357.473	315.97
357.855	316.42
358.238	334.04
358.62	313.48
359.002	329.98
359.384	331.56
359.766	333.59
360.148	313.25
360.53	315.97
360.912	310.32
361.294	336.98
361.676	295.4
362.057	306.7
362.439	303.31
362.821	294.72
363.203	320.94
363.584	312.8
363.966	287.94
364.348	310.99
364.729	287.04
365.111	296.53
365.493	289.3
365.874	294.27
366.256	292.69
366.637	299.02
367.019	299.24
367.4	302.18
367.781	285.68
368.163	282.07
368.544	295.4
368.925	272.58
369.306	272.13
369.688	278
370.069	268.96
370.45	284.1
370.831	271.67
371.212	291.11
371.593	307.38
371.974	296.31
372.355	285.91
372.736	292.24
373.117	285.46
373.498	275.06
373.879	294.5
374.26	288.17
374.641	278
375.021	306.93
375.402	271.9
375.783	309.41
376.163	309.64
376.544	296.31
376.925	301.28
377.305	298.57
377.686	314.38
378.066	309.19
378.447	278.68
378.827	296.53
379.208	283.65
379.588	280.04
379.968	304.22
380.349	301.96
380.729	292.01
381.109	317.32
381.489	315.74
381.87	338.34
382.25	298.11
382.63	289.53
383.01	309.19
383.39	329.98
383.77	318
384.15	312.8
384.53	322.07
384.91	294.05
385.29	326.59
385.67	307.38
386.049	321.62
386.429	306.47
386.809	318.45
387.189	315.06
387.568	315.97
387.948	320.71
388.328	344.67
388.707	331.79
389.087	332.24
389.466	327.94
389.846	329.98
390.225	320.94
390.605	327.27
390.984	344.67
391.363	325.91
391.743	352.12
392.122	346.02
392.501	333.82
392.881	344.89
393.26	316.64
393.639	344.89
394.018	344.44
394.397	330.66
394.776	344.44
395.155	370.2
395.534	317.32
395.913	366.81
396.292	349.19
396.671	381.5
397.05	354.16
397.429	340.37
397.808	329.3
398.186	344.67
398.565	380.37
398.944	364.78
399.323	393.25
399.701	371.33
400.08	364.1
400.458	380.82
400.837	374.27
401.215	378.11
401.594	371.78
401.972	378.34
402.351	376.3
402.729	370.88
403.107	367.72
403.486	418.34
403.864	386.92
404.242	406.36
404.62	383.76
404.999	389.41
405.377	401.61
405.755	381.05
406.133	400.94
406.511	420.6
406.889	420.37
407.267	409.98
407.645	424.89
408.023	409.75
408.401	422.63
408.779	422.18
409.156	443.42
409.534	415.62
409.912	437.32
410.29	453.59
410.667	449.07
411.045	428.73
411.422	441.61
411.8	463.08
412.178	453.82
412.555	458.79
412.933	457.43
413.31	459.24
413.687	466.92
414.065	468.5
414.442	471.44
414.819	469.41
415.197	478.45
415.574	488.39
415.951	488.62
416.328	505.79
416.705	508.73
417.082	526.81
417.46	485.91
417.837	494.49
418.214	513.48
418.591	494.49
418.967	507.37
419.344	521.84
419.721	531.1
420.098	518.67
420.475	513.93
420.852	536.75
421.228	554.15
421.605	524.55
421.982	522.29
422.358	554.15
422.735	548.5
423.111	555.96
423.488	569.74
423.864	574.94
424.241	599.35
424.617	581.27
424.994	573.81
425.37	586.24
425.746	593.25
426.123	599.35
426.499	603.87
426.875	607.71
427.251	622.4
427.627	626.01
428.003	623.08
428.379	636.64
428.756	649.06
429.132	641.38
429.507	640.93
429.883	656.3
430.259	661.49
430.635	658.78
431.011	669.63
431.387	684.32
431.763	684.77
432.138	696.97
432.514	673.7
432.89	698.33
433.265	729.51
433.641	720.7
434.016	740.81
434.392	731.32
434.767	763.64
435.143	751.89
435.518	756.86
435.894	785.33
436.269	788.04
436.644	762.96
437.02	778.55
437.395	807.25
437.77	821.26
438.145	831.43
438.52	837.53
438.895	854.26
439.271	844.31
439.646	862.39
440.021	875.5
440.395	879.12
440.77	891.32
441.145	895.16
441.52	905.56
441.895	896.06
442.27	934.48
442.645	935.39
443.019	937.64
443.394	936.06
443.769	940.58
444.143	948.04
444.518	962.05
444.892	957.31
445.267	976.51
445.641	974.48
446.016	986.01
446.39	988.72
446.764	1000.92
447.139	1004.08
447.513	1032.78
447.887	1035.27
448.262	1002.28
448.636	1029.39
449.01	1045.66
449.384	1056.74
449.758	1077.53
450.132	1078.88
450.506	1075.04
450.88	1069.17
451.254	1103.52
451.628	1077.08
452.002	1102.39
452.376	1111.2
452.75	1112.78
453.123	1142.39
453.497	1147.36
453.871	1159.33
454.244	1167.47
454.618	1199.33
454.992	1195.94
455.365	1218.32
455.739	1222.61
456.112	1224.64
456.486	1214.25
456.859	1231.65
457.232	1258.99
457.606	1255.15
457.979	1272.78
458.352	1296.73
458.725	1307.58
459.099	1307.13
459.472	1322.04
459.845	1337.86
460.218	1333.34
460.591	1330.85
460.964	1396.39
461.337	1372.66
461.71	1389.61
462.083	1405.88
462.456	1424.64
462.829	1397.29
463.201	1437.07
463.574	1465.31
463.947	1432.32
464.32	1484.75
464.692	1504.41
465.065	1494.01
465.438	1487.23
465.81	1529.49
466.183	1524.75
466.555	1564.3
466.928	1564.97
467.3	1573.56
467.672	1612.88
468.045	1603.84
468.417	1625.08
468.789	1628.47
469.161	1621.24
469.534	1645.42
469.906	1702.82
470.278	1663.05
470.65	1724.52
471.022	1733.1
471.394	1758.41
471.766	1790.05
472.138	1788.92
472.51	1787.11
472.882	1814.23
473.253	1834.12
473.625	1841.8
473.997	1889.71
474.369	1858.75
474.74	1893.33
475.112	1928.58
475.484	1969.93
475.855	1980.1
476.227	1982.14
476.598	2010.16
476.97	1994.11
477.341	2059.65
477.713	2068.01
478.084	2077.73
478.455	2136.94
478.827	2154.79
479.198	2172.87
479.569	2160.66
479.94	2198.63
480.311	2221
480.682	2270.72
481.053	2300.09
481.424	2336.93
481.795	2331.51
482.166	2336.03
482.537	2360.66
482.908	2392.07
483.279	2396.14
483.65	2453.99
484.021	2474.78
484.391	2509.81
484.762	2470.71
485.133	2467.55
485.503	2494.89
485.874	2582.35
486.244	2560.65
486.615	2626.19
486.985	2607.66
487.356	2651.72
487.726	2649.46
488.097	2684.94
488.467	2672.97
488.837	2659.41
489.207	2714.55
489.578	2761.55
489.948	2792.29
490.318	2833.87
490.688	2768.33
491.058	2761.78
491.428	2803.81
491.798	2813.08
492.168	2877.48
492.538	2840.65
492.908	2876.58
493.278	2867.99
493.648	2884.71
494.017	2871.15
494.387	2879.29
494.757	2890.81
495.126	2898.27
495.496	2910.25
495.866	2909.8
496.235	2906.41
496.605	2941.66
496.974	2883.36
497.344	2922.45
497.713	2903.24
498.082	2896.92
498.452	2947.54
498.821	2938.04
499.19	2936.46
499.559	2888.1
499.928	2968.33
500.298	2944.37
500.667	2938.27
501.036	2947.76
501.405	2955.22
501.774	2962.22
502.143	2883.81
502.512	2958.38
502.88	2919.29
503.249	2957.93
503.618	2930.13
503.987	2929.91
504.356	2929.91
504.724	2908.44
505.093	2918.84
505.462	2899.4
505.83	2914.54
506.199	2922.68
506.567	2942.79
506.936	2896.92
507.304	2943.24
507.672	2949.12
508.041	2896.92
508.409	2919.29
508.777	2914.99
509.145	2926.52
509.514	2917.71
509.882	2915.9
510.25	2894.88
510.618	2922.23
510.986	2858.05
511.354	2900.08
511.722	2897.59
512.09	2906.63
512.458	2897.82
512.826	2839.52
513.193	2909.8
513.561	2902.56
513.929	2899.85
514.297	2945.95
514.664	2900.08
515.032	2896.46
515.4	2907.08
515.767	2873.87
516.135	2871.61
516.502	2858.95
516.869	2880.87
517.237	2921.55
517.604	2875.45
517.972	2862.11
518.339	2859.85
518.706	2829.12
519.073	2817.37
519.44	2861.44
519.808	2849.68
520.175	2801.78
520.542	2838.61
520.909	2851.94
521.276	2820.99
521.643	2814.43
522.009	2823.92
522.376	2821.89
522.743	2807.65
523.11	2799.06
523.477	2845.84
523.843	2823.24
524.21	2845.84
524.577	2865.96
524.943	2836.13
525.31	2804.94
525.676	2854.2
526.043	2821.66
526.409	2847.43
526.776	2826.18
527.142	2876.12
527.508	2852.4
527.874	2843.81
528.241	2821.21
528.607	2847.43
528.973	2871.15
529.339	2828.44
529.705	2874.54
530.071	2853.98
530.437	2831.38
530.803	2883.36
531.169	2830.93
531.535	2843.13
531.901	2870.02
532.267	2871.38
532.632	2856.46
532.998	2873.64
533.364	2872.28
533.73	2861.66
534.095	2864.83
534.461	2879.29
534.826	2890.59
535.192	2875
535.557	2863.47
535.923	2869.8
536.288	2857.37
536.653	2874.32
537.019	2853.75
537.384	2858.5
537.749	2885.16
538.114	2865.28
538.479	2850.14
538.845	2903.02
539.21	2845.84
539.575	2844.49
539.94	2849.68
540.305	2875.45
540.67	2856.92
541.034	2870.25
541.399	2881.55
541.764	2859.18
542.129	2861.44
542.494	2865.05
542.858	2872.06
543.223	2823.02
543.587	2863.92
543.952	2836.35
544.316	2852.62
544.681	2849.46
545.045	2825.73
545.41	2893.98
545.774	2849.01
546.138	2864.15
546.503	2845.17
546.867	2824.83
547.231	2851.27
547.595	2829.35
547.959	2834.09
548.324	2847.88
548.688	2842.91
549.052	2813.98
549.416	2836.58
549.779	2807.43
550.143	2850.59
550.507	2820.31
550.871	2818.05
551.235	2797.48
551.599	2833.41
551.962	2830.48
552.326	2847.43
552.689	2849.91
553.053	2856.46
553.417	2798.61
553.78	2790.7
554.143	2812.4
554.507	2820.53
554.87	2846.07
555.234	2851.94
555.597	2770.37
555.96	2809.91
556.323	2812.17
556.686	2802.45
557.05	2815.34
557.413	2793.42
557.776	2785.51
558.139	2800.19
558.502	2828.22
558.865	2797.71
559.228	2825.73
559.59	2839.97
559.953	2842.45
560.316	2857.82
560.679	2837.03
561.041	2827.54
561.404	2866.63
561.767	2844.94
562.129	2845.62
562.492	2845.62
562.854	2826.18
563.217	2832.96
563.579	2861.66
563.941	2854.88
564.304	2885.16
564.666	2871.61
565.028	2891.49
565.39	2866.41
565.753	2875.45
566.115	2912.06
566.477	2889.68
566.839	2913.64
567.201	2897.59
567.563	2925.84
567.925	2915.45
568.287	2913.19
568.648	2929.23
569.01	2935.33
569.372	2933.3
569.734	2947.31
570.095	2974.2
570.457	2959.51
570.819	2970.81
571.18	2978.72
571.542	2989.79
571.903	2983.01
572.265	2976.69
572.626	3011.26
572.987	2991.38
573.349	3032.28
573.71	3026.86
574.071	3021.43
574.432	3072.05
574.794	3078.83
575.155	3076.35
575.516	3094.42
575.877	3090.81
576.238	3079.28
576.599	3089.68
576.96	3089.45
577.32	3101.43
577.681	3079.96
578.042	3137.81
578.403	3121.99
578.763	3089
579.124	3169.45
579.485	3116.57
579.845	3189.79
580.206	3178.72
580.566	3133.97
580.927	3159.28
581.287	3150.92
581.648	3157.47
582.008	3193.18
582.368	3172.16
582.728	3153.63
583.089	3188.66
583.449	3221.2
583.809	3206.74
584.169	3197.7
584.529	3216.23
584.889	3204.25
585.249	3230.01
585.609	3211.71
585.969	3214.2
586.329	3201.31
586.688	3237.7
587.048	3192.5
587.408	3213.74
587.768	3246.74
588.127	3221.65
588.487	3218.49
588.846	3231.14
589.206	3239.28
589.565	3206.06
589.925	3246.74
590.284	3250.8
590.643	3255.1
591.003	3279.28
591.362	3277.24
591.721	3256.45
592.08	3223.23
592.44	3259.39
592.799	3228.88
593.158	3236.12
593.517	3237.7
593.876	3229.11
594.235	3191.82
594.593	3200.86
594.952	3258.49
595.311	3250.58
595.67	3230.01
596.029	3246.06
596.387	3268.66
596.746	3253.29
597.104	3219.62
597.463	3258.71
597.822	3269.11
598.18	3244.25
598.538	3232.95
598.897	3231.37
599.255	3254.65
599.613	3297.36
599.972	3243.12
600.33	3270.46
600.688	3201.54
601.046	3245.61
601.404	3256.23
601.762	3231.6
602.12	3282.44
602.478	3284.02
602.836	3241.77
603.194	3262.56
603.552	3238.83
603.91	3276.34
604.268	3244.48
604.625	3218.04
604.983	3272.27
605.341	3292.84
605.698	3272.05
606.056	3279.05
606.413	3260.3
606.771	3232.95
607.128	3285.15
607.485	3240.18
607.843	3234.08
608.2	3293.29
608.557	3275.66
608.914	3263.23
609.272	3298.49
609.629	3311.59
609.986	3296.23
610.343	3278.6
610.7	3293.52
611.057	3306.85
611.414	3280.63
611.771	3305.27
612.127	3303.68
612.484	3335.77
612.841	3302.33
613.198	3333.97
613.554	3303.46
613.911	3313.63
614.267	3329.9
614.624	3314.76
614.98	3322.89
615.337	3316.57
615.693	3332.84
616.05	3267.98
616.406	3342.33
616.762	3345.94
617.118	3331.93
617.475	3322.44
617.831	3315.44
618.187	3316.34
618.543	3349.78
618.899	3385.72
619.255	3344.59
619.611	3323.57
619.967	3369.22
620.323	3358.82
620.678	3351.37
621.034	3340.29
621.39	3308.88
621.746	3334.87
622.101	3349.78
622.457	3352.04
622.812	3331.03
623.168	3339.16
623.523	3352.5
623.879	3368.99
624.234	3383.68
624.589	3382.33
624.945	3327.41
625.3	3351.59
625.655	3375.32
626.01	3400.18
626.365	3380.29
626.72	3357.24
627.075	3354.53
627.43	3388.2
627.785	3347.75
628.14	3417.81
628.495	3378.48
628.85	3373.74
629.205	3348.65
629.559	3375.77
629.914	3353.4
630.269	3397.92
630.623	3374.87
630.978	3442.21
631.332	3400.4
631.687	3356.11
632.041	3389.33
632.396	3399.5
632.75	3419.39
633.104	3357.02
633.459	3361.76
633.813	3349.33
634.167	3432.27
634.521	3367.86
634.875	3393.63
635.229	3383.46
635.583	3393.63
635.937	3381.42
636.291	3336
636.645	3369.45
636.999	3346.62
637.352	3388.65
637.706	3355.66
638.06	3371.48
638.413	3356.56
638.767	3404.25
639.121	3397.92
639.474	3358.15
639.828	3364.25
640.181	3354.3
640.534	3385.49
640.888	3373.51
641.241	3367.64
641.594	3358.37
641.947	3362.67
642.301	3376.22
642.654	3359.73
643.007	3365.15
643.36	3336.23
643.713	3366.96
644.066	3380.97
644.419	3366.28
644.771	3323.12
645.124	3342.78
645.477	3319.73
645.83	3303.68
646.182	3348.43
646.535	3338.71
646.888	3316.11
647.24	3318.37
647.593	3307.07
647.945	3306.17
648.298	3315.21
648.65	3284.02
649.002	3284.02
649.355	3320.41
649.707	3337.58
650.059	3331.25
650.411	3381.42
650.763	3414.64
651.115	3434.08
651.467	3413.51
651.819	3439.27
652.171	3424.13
652.523	3432.95
652.875	3449.44
653.227	3438.82
653.578	3428.43
653.93	3450.8
654.282	3471.36
654.633	3423.23
654.985	3427.75
655.337	3444.25
655.688	3412.61
656.039	3485.37
656.391	3446.05
656.742	3487.18
657.094	3497.35
657.445	3494.19
657.796	3464.81
658.147	3524.7
658.498	3472.04
658.849	3505.03
659.2	3478.59
659.551	3486.5
659.902	3525.15
660.253	3517.46
660.604	3571.47
660.955	3433.17
661.306	3492.15
661.656	3498.03
662.007	3485.83
662.358	3508.2
662.708	3540.51
663.059	3515.2
663.409	3500.97
663.76	3567.41
664.11	3546.84
664.461	3521.53
664.811	3529.44
665.161	3533.06
665.511	3504.13
665.862	3527.18
666.212	3526.5
666.562	3551.81
666.912	3542.32
667.262	3517.92
667.612	3566.5
667.962	3535.54
668.312	3555.43
668.662	3546.62
669.011	3566.28
669.361	3569.67
669.711	3559.72
670.06	3582.77
670.41	3537.35
670.76	3543.23
671.109	3495.32
671.459	3499.16
671.808	3535.54
672.157	3498.26
672.507	3458.26
672.856	3513.17
673.205	3481.08
673.554	3475.88
673.904	3480.63
674.253	3561.53
674.602	3434.53
674.951	3421.65
675.3	3420.07
675.649	3462.78
675.998	3431.59
676.346	3449.67
676.695	3475.88
677.044	3414.64
677.393	3399.95
677.741	3400.18
678.09	3421.42
678.438	3418.71
678.787	3421.87
679.135	3437.24
679.484	3406.28
679.832	3411.48
680.181	3347.75
680.529	3366.28
680.877	3376.9
681.225	3321.31
681.573	3373.29
681.922	3331.25
682.27	3333.74
682.618	3354.98
682.966	3333.51
683.314	3348.65
683.661	3324.47
684.009	3275.89
684.357	3311.37
684.705	3265.04
685.053	3308.66
685.4	3282.22
685.748	3256.23
686.095	3238.83
686.443	3254.42
686.79	3242.67
687.138	3262.33
687.485	3231.82
687.832	3176.23
688.18	3207.64
688.527	3176.46
688.874	3194.99
689.221	3166.51
689.568	3161.32
689.915	3171.94
690.262	3147.98
690.609	3141.43
690.956	3147.3
691.303	3106.4
691.65	3093.75
691.997	3103.24
692.344	3057.14
692.69	3033.63
693.037	3107.76
693.383	3076.57
693.73	3051.26
694.077	3027.76
694.423	3023.47
694.769	3024.37
695.116	3033.86
695.462	3016.23
695.808	3009.45
696.155	3011.94
696.501	2986.63
696.847	2976.91
697.193	2950.02
697.539	2947.99
697.885	2937.59
698.231	2976.46
698.577	2968.1
698.923	2898.72
699.269	2949.57
699.614	2897.59
699.96	2885.62
700.306	2886.97
700.651	2891.94
700.997	2911.38
701.342	2888.33
701.688	2887.88
702.033	2875.9
702.379	2889.46
702.724	2842.91
703.069	2879.29
703.415	2838.16
703.76	2811.72
704.105	2843.81
704.45	2814.21
704.795	2830.48
705.14	2828.89
705.485	2788.9
705.83	2799.52
706.175	2805.84
706.52	2788.9
706.865	2766.52
707.209	2818.27
707.554	2845.84
707.899	2825.28
708.243	2795.45
708.588	2765.85
708.932	2750.48
709.277	2791.16
709.621	2789.57
709.966	2788.22
710.31	2790.03
710.654	2804.94
710.998	2785.51
711.342	2764.04
711.687	2779.63
712.031	2777.6
712.375	2775.11
712.719	2776.69
713.063	2775.34
713.407	2813.08
713.75	2768.56
714.094	2797.93
714.438	2784.83
714.782	2764.72
715.125	2781.21
715.469	2806.97
715.812	2769.69
716.156	2783.02
716.499	2824.37
716.843	2820.31
717.186	2773.75
717.53	2841.55
717.873	2837.93
718.216	2805.17
718.559	2819.63
718.902	2776.92
719.246	2821.89
719.589	2823.47
719.932	2806.75
720.275	2827.99
720.617	2798.84
720.96	2804.71
721.303	2840.42
721.646	2823.24
721.989	2819.4
722.331	2878.61
722.674	2871.61
723.016	2847.2
723.359	2884.26
723.701	2873.41
724.044	2867.76
724.386	2907.31
724.729	2944.6
725.071	2908.67
725.413	2925.39
725.755	2941.89
726.097	2925.62
726.439	2920.42
726.782	2943.02
727.124	2946.86
727.465	2989.12
727.807	2905.28
728.149	2980.3
728.491	2988.44
728.833	2964.03
729.175	3007.65
729.516	2987.99
729.858	3051.26
730.199	3033.41
730.541	3045.39
730.882	3116.8
731.224	3125.16
731.565	3088.32
731.906	3142.33
732.248	3129
732.589	3099.17
732.93	3144.59
733.271	3148.66
733.612	3166.06
733.953	3177.13
734.294	3185.5
734.635	3193.4
734.976	3244.48
735.317	3214.42
735.658	3242.67
735.999	3270.01
736.339	3304.14
736.68	3340.97
737.021	3305.04
737.361	3346.17
737.702	3380.07
738.042	3357.02
738.383	3424.81
738.723	3407.18
739.063	3439.73
739.404	3432.72
739.744	3469.33
740.084	3505.71
740.424	3555.88
740.764	3556.11
741.104	3579.38
741.444	3602.89
741.784	3624.35
742.124	3688.53
742.464	3700.06
742.804	3741.19
743.143	3788.64
743.483	3813.28
743.823	3809.66
744.162	3865.7
744.502	3950.22
744.841	3922.43
745.181	3967.85
745.52	3976.21
745.86	4062.99
746.199	4115.87
746.538	4159.71
746.877	4213.26
747.216	4218.24
747.556	4288.07
747.895	4347.95
748.234	4413.26
748.573	4438.12
748.911	4495.07
749.25	4542.97
749.589	4544.56
749.928	4654.16
750.267	4686.47
750.605	4779.13
750.944	4813.93
751.283	4836.07
751.621	4958.56
751.96	5003.07
752.298	5055.73
752.636	5169.4
752.975	5199.91
753.313	5280.13
753.651	5364.42
753.989	5431.99
754.327	5479.22
754.666	5504.98
755.004	5643.06
755.342	5704.98
755.679	5792.43
756.017	5772.32
756.355	5932.99
756.693	5962.15
757.031	6082.59
757.368	6158.3
757.706	6195.13
758.044	6274
758.381	6301.35
758.719	6390.61
759.056	6488.69
759.394	6555.8
759.731	6611.62
760.068	6739.75
760.405	6774.1
760.743	6907.43
761.08	6949.92
761.417	7000.99
761.754	7052.96
762.091	7160.76
762.428	7195.56
762.765	7258.16
763.102	7315.78
763.438	7416.12
763.775	7425.38
764.112	7525.72
764.449	7590.8
764.785	7651.37
765.122	7605.72
765.458	7691.14
765.795	7716.9
766.131	7828.09
766.467	7913.28
766.804	7920.06
767.14	7874.41
767.476	7955.54
767.812	8037.12
768.148	8110.11
768.485	8183.1
768.821	8098.59
769.157	8235.08
769.492	8212.26
769.828	8325.25
