Data from blue_clamp_base_FLMS001491_00093.txt Node
Date: Wed Feb 08 15:16:48 GMT 2017
User: dcchb
Spectrometer: FLMS00149
Trigger mode: 0
Integration Time (sec): 2.000000E-2
Scans to average: 10
Electric dark correction enabled: true
Nonlinearity correction enabled: false
Boxcar width: 0
XAxis mode: Wavelengths
Number of Pixels in Spectrum: 2048
>>>>>Begin Spectral Data<<<<<
341.393	-20.15
341.776	-20.15
342.16	-20.15
342.543	-47.95
342.927	-56.99
343.31	-62.41
343.693	-78.23
344.077	-68.97
344.46	-61.51
344.843	-49.98
345.226	-45.01
345.61	-27.16
345.993	-17.67
346.376	3.57
346.759	30.24
347.142	16
347.525	27.98
347.908	55.32
348.291	80.18
348.674	92.16
349.057	105.49
349.44	107.07
349.823	130.12
350.206	164.93
350.588	214.19
350.971	211.03
351.354	214.87
351.737	249.44
352.119	256.9
352.502	285.6
352.884	285.83
353.267	278.37
353.65	310.23
354.032	291.7
354.414	307.29
354.797	328.99
355.179	324.69
355.562	321.76
355.944	328.31
356.326	347.07
356.709	322.89
357.091	359.95
357.473	343.68
357.855	356.11
358.238	350
358.62	350.68
359.002	339.61
359.384	346.39
359.766	351.13
360.148	358.14
360.53	349.78
360.912	339.84
361.294	352.49
361.676	331.7
362.057	357.46
362.439	316.11
362.821	326.95
363.203	330.34
363.584	333.73
363.966	352.72
364.348	298.25
364.729	307.29
365.111	335.32
365.493	328.31
365.874	340.74
366.256	315.43
366.637	346.84
367.019	343.9
367.4	323.11
367.781	330.57
368.163	324.24
368.544	315.66
368.925	310.91
369.306	327.41
369.688	306.39
370.069	321.08
370.45	319.27
370.831	319.95
371.212	333.51
371.593	321.98
371.974	323.34
372.355	327.86
372.736	347.29
373.117	316.33
373.498	346.16
373.879	310.01
374.26	304.36
374.641	326.5
375.021	335.09
375.402	326.5
375.783	335.99
376.163	341.42
376.544	345.26
376.925	352.94
377.305	343.45
377.686	348.65
378.066	351.13
378.447	344.36
378.827	325.15
379.208	372.6
379.588	347.52
379.968	346.39
380.349	363.79
380.729	356.56
381.109	361.3
381.489	352.49
381.87	345.71
382.25	357.91
382.63	385.94
383.01	380.06
383.39	356.11
383.77	362.66
384.15	376.22
384.53	392.94
384.91	371.47
385.29	375.99
385.67	391.81
386.049	404.47
386.429	379.83
386.809	396.11
387.189	411.02
387.568	395.88
387.948	403.79
388.328	409.66
388.707	418.03
389.087	406.5
389.466	410.12
389.846	399.72
390.225	423.68
390.605	391.36
390.984	412.83
391.363	423.68
391.743	408.31
392.122	429.32
392.501	427.97
392.881	451.02
393.26	443.79
393.639	447.4
394.018	455.54
394.397	444.92
394.776	465.03
395.155	473.17
395.534	454.18
395.913	480.4
396.292	484.69
396.671	472.49
397.05	479.72
397.429	475.65
397.808	511.36
398.186	487.63
398.565	520.85
398.944	502.09
399.323	508.19
399.701	489.66
400.08	501.64
400.458	526.05
400.837	532.82
401.215	526.05
401.594	556.55
401.972	527.18
402.351	535.76
402.729	572.15
403.107	565.14
403.486	559.72
403.864	589.77
404.242	566.5
404.62	560.39
404.999	578.47
405.377	604.24
405.755	583.22
406.133	611.24
406.511	606.04
406.889	651.47
407.267	642.65
407.645	644.46
408.023	640.62
408.401	654.18
408.779	647.62
409.156	668.87
409.534	690.79
409.912	691.46
410.29	681.07
410.667	696.89
411.045	701.86
411.422	732.82
411.8	713.84
412.178	746.38
412.555	771.69
412.933	720.84
413.31	748.64
413.687	763.78
414.065	791.8
414.442	771.01
414.819	799.71
415.197	772.59
415.574	806.72
415.951	821.86
416.328	821.86
416.705	814.4
417.082	829.54
417.46	845.13
417.837	845.81
418.214	856.21
418.591	860.73
418.967	862.76
419.344	881.52
419.721	896.66
420.098	877.22
420.475	915.64
420.852	923.1
421.228	935.53
421.605	935.3
421.982	954.51
422.358	948.86
422.735	977.11
423.111	966.26
423.488	1003.77
423.864	996.32
424.241	994.96
424.617	1022.53
424.994	1021.17
425.37	1037.9
425.746	1011.91
426.123	1046.26
426.499	1078.57
426.875	1063.43
427.251	1101.4
427.627	1109.31
428.003	1124.45
428.379	1115.18
428.756	1153.37
429.132	1180.49
429.507	1193.37
429.883	1189.98
430.259	1213.49
430.635	1232.02
431.011	1223.88
431.387	1258.91
431.763	1283.09
432.138	1286.25
432.514	1307.04
432.89	1279.02
433.265	1325.8
433.641	1362.86
434.016	1381.62
434.392	1381.62
434.767	1390.43
435.143	1411.67
435.518	1435.17
435.894	1444.21
436.269	1471.33
436.644	1437.21
437.02	1484.21
437.395	1497.55
437.77	1537.32
438.145	1527.83
438.52	1541.84
438.895	1593.59
439.271	1559.01
439.646	1599.46
440.021	1633.59
440.395	1616.86
440.77	1630.65
441.145	1660.7
441.52	1720.59
441.895	1687.14
442.27	1706.35
442.645	1711.55
443.019	1751.55
443.394	1734.15
443.769	1756.75
444.143	1748.39
444.518	1796.29
444.892	1797.42
445.267	1799.23
445.641	1824.77
446.016	1817.76
446.39	1841.72
446.764	1849.63
447.139	1852.56
447.513	1893.02
447.887	1908.16
448.262	1885.11
448.636	1897.99
449.01	1948.61
449.384	1933.24
449.758	1980.92
450.132	1994.26
450.506	2037.19
450.88	2041.71
451.254	2010.75
451.628	2055.04
452.002	2074.71
452.376	2089.62
452.75	2103.86
453.123	2161.03
453.497	2135.49
453.871	2184.53
454.244	2195.38
454.618	2248.26
454.992	2250.97
455.365	2275.38
455.739	2319.44
456.112	2325.77
456.486	2374.36
456.859	2354.02
457.232	2418.88
457.606	2413
457.979	2422.04
458.352	2478.76
458.725	2490.51
459.099	2547.69
459.472	2592.43
459.845	2597.4
460.218	2599.44
460.591	2605.09
460.964	2654.58
461.337	2713.33
461.71	2742.03
462.083	2758.76
462.456	2727.8
462.829	2781.35
463.201	2836.72
463.574	2823.16
463.947	2892.99
464.32	2892.99
464.692	2938.86
465.065	2986.55
465.438	3026.54
465.81	3075.13
466.183	3063.83
466.555	3128.01
466.928	3137.5
467.3	3113.32
467.672	3177.73
468.045	3259.53
468.417	3251.4
468.789	3285.97
469.161	3283.49
469.534	3367.78
469.906	3422.01
470.278	3438.06
470.65	3484.84
471.022	3539.53
471.394	3534.78
471.766	3626.3
472.138	3643.03
472.51	3700.65
472.882	3776.36
473.253	3775
473.625	3843.47
473.997	3931.15
474.369	3977.93
474.74	3942.45
475.112	4063.35
475.484	4096.12
475.855	4155.55
476.227	4159.62
476.598	4247.98
476.97	4252.05
477.341	4390.12
477.713	4397.13
478.084	4486.39
478.455	4544.24
478.827	4574.53
479.198	4661.3
479.569	4644.58
479.94	4766.16
480.311	4817.68
480.682	4882.77
481.053	4980.84
481.424	5021.97
481.795	5093.83
482.166	5105.36
482.537	5228.07
482.908	5286.82
483.279	5296.09
483.65	5392.36
484.021	5459.25
484.391	5547.16
484.762	5557.55
485.133	5581.28
485.503	5683.2
485.874	5737.89
486.244	5790.99
486.615	5835.51
486.985	5917.54
487.356	5969.74
487.726	5958.9
488.097	6095.84
488.467	6057.88
488.837	6197.99
489.207	6240.92
489.578	6315.95
489.948	6362.95
490.318	6432.33
490.688	6381.48
491.058	6523.85
491.428	6543.29
491.798	6543.97
492.168	6702.61
492.538	6656.51
492.908	6713
493.278	6757.97
493.648	6749.38
494.017	6823.96
494.387	6831.64
494.757	6908.48
495.126	6955.71
495.496	6967.46
495.866	7037.29
496.235	7008.13
496.605	7035.03
496.974	7050.85
497.344	7099.66
497.713	7169.26
498.082	7131.3
498.452	7277.51
498.821	7279.99
499.19	7210.39
499.559	7335.81
499.928	7318.18
500.298	7315.02
500.667	7359.76
501.036	7353.21
501.405	7395.02
501.774	7440.21
502.143	7480.44
502.512	7452.19
502.88	7506.43
503.249	7491.29
503.618	7493.55
503.987	7623.94
504.356	7615.35
504.724	7666.2
505.093	7597.72
505.462	7714.11
505.83	7646.99
506.199	7714.33
506.567	7827.1
506.936	7695.8
507.304	7780.77
507.672	7813.76
508.041	7893.99
508.409	7950.03
508.777	7910.94
509.145	7990.71
509.514	7957.49
509.882	8005.85
510.25	8004.72
510.618	8027.32
510.986	7986.64
511.354	8074.55
511.722	8122.23
512.09	8195.22
512.458	8154.32
512.826	8250.81
513.193	8188.44
513.561	8247.88
513.929	8303.92
514.297	8375.1
514.664	8358.83
515.032	8388.21
515.4	8455.55
515.767	8406.97
516.135	8454.88
516.502	8483.35
516.869	8498.94
517.237	8561.31
517.604	8520.86
517.972	8565.38
518.339	8606.06
518.706	8643.8
519.073	8671.37
519.44	8714.3
519.808	8727.19
520.175	8674.53
520.542	8754.98
520.909	8840.86
521.276	8758.37
521.643	8887.18
522.009	8881.53
522.376	8985.26
522.743	8973.73
523.11	9030.68
523.477	9063.45
523.843	9124.69
524.21	9199.26
524.577	9218.7
524.943	9192.03
525.31	9298.24
525.676	9313.84
526.043	9430.9
526.409	9391.12
526.776	9448.07
527.142	9448.75
527.508	9505.7
527.874	9555.41
528.241	9663.66
528.607	9568.75
528.973	9744.79
529.339	9607.84
529.705	9756.09
530.071	9814.16
530.437	9923.09
530.803	9905.23
531.169	9942.07
531.535	9882.41
531.901	9942.52
532.267	9929.87
532.632	10077.43
532.998	10070.43
533.364	10124.66
533.73	10173.7
534.095	10139.35
534.461	10241.5
534.826	10192.46
535.192	10257.77
535.557	10265.9
535.923	10282.17
536.288	10402.4
536.653	10444.88
537.019	10373.7
537.384	10462.06
537.749	10498.66
538.114	10520.81
538.479	10526.23
538.845	10544.54
539.21	10496.63
539.575	10553.58
539.94	10589.96
540.305	10630.86
540.67	10713.35
541.034	10626.34
541.399	10707.25
541.764	10765.1
542.129	10697.98
542.494	10863.4
542.858	10819.56
543.223	10884.42
543.587	10907.47
543.952	10904.08
544.316	10950.86
544.681	11015.49
545.045	11030.63
545.41	11069.72
545.774	11084.64
546.138	11066.79
546.503	11176.39
546.867	11141.81
547.231	11178.87
547.595	11226.33
547.959	11301.36
548.324	11193.11
548.688	11239.89
549.052	11352.88
549.416	11384.29
549.779	11361.47
550.143	11316.27
550.507	11398.98
550.871	11464.51
551.235	11380.45
551.599	11528.69
551.962	11576.83
552.326	11534.8
552.689	11521.24
553.053	11524.85
553.417	11594.91
553.78	11623.83
554.143	11611.18
554.507	11703.83
554.87	11717.62
555.234	11774.34
555.597	11715.36
555.96	11868.35
556.323	11893.43
556.686	11803.72
557.05	11963.71
557.413	11842.58
557.776	11918.06
558.139	11946.54
558.502	11989.7
558.865	12046.87
559.228	12083.93
559.59	12134.1
559.953	12151.95
560.316	12250.03
560.679	12258.17
561.041	12290.93
561.404	12398.05
561.767	12435.11
562.129	12374.1
562.492	12469.01
562.854	12484.15
563.217	12490.25
563.579	12513.07
563.941	12601.66
564.304	12617.93
564.666	12682.56
565.028	12661.55
565.39	12846.17
565.753	12844.14
566.115	13005.94
566.477	12991.25
566.839	12923.23
567.201	13030.35
567.563	12997.13
567.925	13085.26
568.287	13114.64
568.648	13194.19
569.01	13238.03
569.372	13304.47
569.734	13313.51
570.095	13384.24
570.457	13381.07
570.819	13452.26
571.18	13543.78
571.542	13527.74
571.903	13577.68
572.265	13603.67
572.626	13604.35
572.987	13787.17
573.349	13760.27
573.71	13807.05
574.071	13853.38
574.432	13877.78
574.794	14049.98
575.155	13894.96
575.516	13889.99
575.877	13959.82
576.238	13976.09
576.599	14049.53
576.96	14069.87
577.32	14065.8
577.681	14105.58
578.042	14204.78
578.403	14197.1
578.763	14234.39
579.124	14264.67
579.485	14387.38
579.845	14442.52
580.206	14313.71
580.566	14280.26
580.927	14429.86
581.287	14448.39
581.648	14365.68
582.008	14419.47
582.368	14407.49
582.728	14476.87
583.089	14472.57
583.449	14437.32
583.809	14571.78
584.169	14564.09
584.529	14501.05
584.889	14709.63
585.249	14570.87
585.609	14487.49
585.969	14626.47
586.329	14658.56
586.688	14633.92
587.048	14650.42
587.408	14606.81
587.768	14684.32
588.127	14572.23
588.487	14661.94
588.846	14731.1
589.206	14644.32
589.565	14686.35
589.925	14750.53
590.284	14678.89
590.643	14659.69
591.003	14725.45
591.362	14745.11
591.721	14796.18
592.08	14754.37
592.44	14735.62
592.799	14814.26
593.158	14807.93
593.517	14818.33
593.876	14802.96
594.235	14769.96
594.593	14861.71
594.952	14852.22
595.311	14783.75
595.67	14850.64
596.029	14911.88
596.387	14970.19
596.746	14950.98
597.104	14899
597.463	14920.02
597.822	14988.26
598.18	15006.12
598.538	14929.06
598.897	14950.07
599.255	14898.55
599.613	15092.67
599.972	14996.4
600.33	15014.48
600.688	14954.37
601.046	15057.19
601.404	15065.1
601.762	15003.63
602.12	15158.2
602.478	15051.54
602.836	15177.19
603.194	15007.47
603.552	15046.34
603.91	14977.87
604.268	15184.19
604.625	15171.31
604.983	15178.77
605.341	15099.9
605.698	15186
606.056	15180.35
606.413	15235.04
606.771	15275.04
607.128	15256.73
607.485	15139.22
607.843	15209.05
608.2	15301.25
608.557	15383.28
608.914	15284.53
609.272	15334.47
609.629	15397.29
609.986	15382.6
610.343	15288.37
610.7	15446.56
611.057	15461.7
611.414	15431.42
611.771	15542.37
612.127	15507.57
612.484	15528.14
612.841	15555.71
613.198	15526.33
613.554	15513.67
613.911	15610.85
614.267	15555.03
614.624	15595.25
614.98	15597.97
615.337	15705.08
615.693	15704.18
616.05	15667.79
616.406	15726.32
616.762	15651.75
617.118	15707.57
617.475	15651.3
617.831	15752.99
618.187	15788.24
618.543	15707.34
618.899	15871.86
619.255	15859.88
619.611	15897.17
619.967	15865.76
620.323	15776.94
620.678	15860.78
621.034	15936.71
621.39	15849.71
621.746	15826.21
622.101	16050.61
622.457	15890.16
622.812	15990.95
623.168	15993.44
623.523	16000.21
623.879	16188.91
624.234	15926.09
624.589	16046.32
624.945	16116.37
625.3	16080.21
625.655	16013.32
626.01	16124.73
626.365	16134.45
626.72	16090.61
627.075	16101.68
627.43	16137.16
627.785	16036.15
628.14	16074.56
628.495	16113.43
628.85	16095.13
629.205	16072.53
629.559	16235.91
629.914	16125.41
630.269	16195.24
630.623	16215.12
630.978	16195.24
631.332	16219.19
631.687	16255.12
632.041	16257.84
632.396	16293.54
632.75	16235.01
633.104	16282.24
633.459	16232.53
633.813	16257.16
634.167	16210.83
634.521	16297.61
634.875	16279.53
635.229	16262.35
635.583	16220.55
635.937	16350.04
636.291	16288.79
636.645	16254.45
636.999	16235.46
637.352	16273.65
637.706	16262.35
638.06	16333.54
638.413	16244.28
638.767	16273.88
639.121	16284.5
639.474	16268.46
639.828	16297.83
640.181	16389.58
640.534	16438.4
640.888	16258.74
641.241	16241.56
641.594	16303.48
641.947	16289.47
642.301	16370.83
642.654	16362.47
643.007	16379.87
643.36	16363.82
643.713	16313.43
644.066	16554.1
644.419	16362.24
644.771	16302.35
645.124	16084.96
645.477	16122.02
645.83	16019.2
646.182	16035.92
646.535	16025.3
646.888	16102.13
647.24	16073.21
647.593	16233.43
647.945	16074.11
648.298	16112.75
648.65	16003.6
649.002	15994.11
649.355	16148.23
649.707	16114.11
650.059	16201.34
650.411	16447.89
650.763	16409.24
651.115	16648.11
651.467	16656.69
651.819	16563.59
652.171	16600.2
652.523	16615.57
652.875	16638.84
653.227	16580.76
653.578	16758.39
653.93	16631.38
654.282	16686.3
654.633	16628.67
654.985	16707.77
655.337	16724.49
655.688	16689.01
656.039	16744.38
656.391	16651.72
656.742	16627.54
657.094	16666.19
657.445	16807.65
657.796	16719.07
658.147	16741.89
658.498	16808.33
658.849	16728.56
659.2	16754.09
659.551	16738.5
659.902	16830.48
660.253	16776.24
660.604	16820.31
660.955	16817.37
661.306	16836.35
661.656	16738.5
662.007	16846.52
662.358	16858.95
662.708	16777.6
663.059	16814.88
663.409	16779.18
663.76	16896.46
664.11	16862.57
664.461	16986.86
664.811	16916.35
665.161	16885.16
665.511	16879.06
665.862	16858.27
666.212	16958.16
666.562	16939.85
666.912	16863.02
667.262	16840.19
667.612	16766.07
667.962	16793.41
668.312	16782.12
668.662	16863.92
669.011	16800.19
669.361	16729.24
669.711	16786.86
670.06	16701.67
670.41	16766.97
670.76	16650.59
671.109	16706.86
671.459	16655.11
671.808	16671.61
672.157	16715.45
672.507	16477.04
672.856	16537.15
673.205	16536.02
673.554	16534.21
673.904	16423.48
674.253	16525.62
674.602	16489.47
674.951	16194.56
675.3	16138.29
675.649	16378.06
675.998	16367.89
676.346	16378.74
676.695	16338.74
677.044	16223.49
677.393	16264.84
677.741	16303.94
678.09	16188.91
678.438	16153.21
678.787	16172.19
679.135	16169.93
679.484	16053.77
679.832	16113.21
680.181	16012.87
680.529	15938.07
680.877	16005.64
681.225	15962.93
681.573	16018.97
681.922	15969.93
682.27	15820.78
682.618	15814.23
682.966	15803.16
683.314	15771.75
683.661	15766.32
684.009	15574.46
684.357	15649.04
684.705	15562.49
685.053	15679.77
685.4	15625.08
685.748	15554.8
686.095	15519.78
686.443	15565.2
686.79	15518.87
687.138	15475.48
687.485	15497.4
687.832	15422.38
688.18	15436.61
688.527	15305.54
688.874	15422.83
689.221	15257.64
689.568	15367.92
689.915	15254.7
690.262	15211.99
690.609	15254.02
690.956	15175.15
691.303	15145.55
691.65	15076.85
691.997	15115.04
692.344	15028.49
692.69	15127.47
693.037	15020.81
693.383	14874.37
693.73	15041.14
694.077	14926.57
694.423	14879.11
694.769	14869.85
695.116	14908.72
695.462	14805.9
695.808	14831.88
696.155	14886.8
696.501	14740.14
696.847	14758.67
697.193	14596.41
697.539	14663.3
697.885	14629.4
698.231	14607.26
698.577	14621.27
698.923	14656.07
699.269	14581.95
699.614	14517.32
699.96	14509.63
700.306	14520.93
700.651	14508.95
700.997	14409.3
701.342	14435.51
701.688	14479.58
702.033	14385.57
702.379	14420.14
702.724	14290.2
703.069	14402.06
703.415	14298.11
703.76	14296.53
704.105	14343.08
704.45	14252.92
704.795	14081.4
705.14	14237.55
705.485	14230.77
705.83	14112.81
706.175	14199.58
706.52	14162.52
706.865	14098.34
707.209	14037.33
707.554	14049.08
707.899	14134.05
708.243	14065.12
708.588	13974.96
708.932	13920.27
709.277	14036.88
709.621	14088.63
709.966	13887.73
710.31	13939.25
710.654	13851.34
710.998	13903.09
711.342	13931.57
711.687	13857.22
712.031	13927.05
712.375	13834.85
712.719	13827.84
713.063	13857.45
713.407	13849.99
713.75	13822.65
714.094	13859.71
714.438	13817.22
714.782	13849.76
715.125	13712.82
715.469	13800.05
715.812	13831.46
716.156	13753.04
716.499	13740.39
716.843	13822.87
717.186	13657
717.53	13660.84
717.873	13804.57
718.216	13758.47
718.559	13707.39
718.902	13669.88
719.246	13665.81
719.589	13633.27
719.932	13586.27
720.275	13576.32
720.617	13554.63
720.96	13552.6
721.303	13601.86
721.646	13677.56
721.989	13530
722.331	13588.98
722.674	13537.45
723.016	13574.97
723.359	13580.17
723.701	13640.05
724.044	13456.55
724.386	13424.92
724.729	13540.39
725.071	13414.07
725.413	13448.19
725.755	13490.68
726.097	13449.77
726.439	13455.2
726.782	13376.56
727.124	13465.59
727.465	13508.08
727.807	13431.69
728.149	13403.67
728.491	13366.39
728.833	13431.92
729.175	13393.73
729.516	13423.56
729.858	13418.36
730.199	13504.01
730.541	13469.89
730.882	13419.27
731.224	13470.56
731.565	13358.93
731.906	13363.22
732.248	13487.96
732.589	13354.86
732.93	13299.49
733.271	13419.49
733.612	13491.35
733.953	13426.05
734.294	13402.54
734.635	13455.65
734.976	13539.71
735.317	13470.56
735.658	13529.77
735.999	13469.89
736.339	13437.34
736.68	13561.41
737.021	13525.03
737.361	13466.5
737.702	13556.89
738.042	13588.75
738.383	13589.88
738.723	13676.21
739.063	13524.57
739.404	13738.13
739.744	13663.78
740.084	13678.47
740.424	13635.53
740.764	13683.67
741.104	13837.11
741.444	13702.87
741.784	13777.67
742.124	13783.32
742.464	13826.49
742.804	13863.55
743.143	13880.04
743.483	13882.53
743.823	13791.69
744.162	13888.18
744.502	13947.39
744.841	13942.19
745.181	14038.68
745.52	14048.63
745.86	14106.48
746.199	14087.5
746.538	14103.77
746.877	14063.54
747.216	14218.79
747.556	14156.87
747.895	14160.72
748.234	14228.06
748.573	14206.36
748.911	14234.84
749.25	14251.56
749.589	14201.39
749.928	14214.27
750.267	14379.47
750.605	14385.34
750.944	14421.5
751.283	14438.22
751.621	14501.05
751.96	14461.95
752.298	14418.79
752.636	14553.02
752.975	14500.14
753.313	14527.03
753.651	14513.7
753.989	14610.42
754.327	14512.8
754.666	14624.66
755.004	14695.62
755.342	14697.2
755.679	14587.14
756.017	14700.14
