Data from blue_clamp_base_FLMS001491_00040.txt Node
Date: Wed Feb 08 15:15:56 GMT 2017
User: dcchb
Spectrometer: FLMS00149
Trigger mode: 0
Integration Time (sec): 2.000000E-2
Scans to average: 10
Electric dark correction enabled: true
Nonlinearity correction enabled: false
Boxcar width: 0
XAxis mode: Wavelengths
Number of Pixels in Spectrum: 2048
>>>>>Begin Spectral Data<<<<<
341.393	-14.22
341.776	-14.22
342.16	-14.22
342.543	-48.8
342.927	-72.98
343.31	-62.81
343.693	-58.06
344.077	-57.84
344.46	-59.65
344.843	-65.75
345.226	-46.09
345.61	-26.65
345.993	-28.46
346.376	9.51
346.759	16.51
347.142	25.55
347.525	49.05
347.908	59
348.291	71.88
348.674	70.52
349.057	103.29
349.44	137.86
349.823	141.48
350.206	192.1
350.588	191.2
350.971	218.54
351.354	209.05
351.737	248.6
352.119	256.05
352.502	254.7
352.884	275.26
353.267	292.44
353.65	297.86
354.032	299.22
354.414	332.89
354.797	302.38
355.179	329.72
355.562	328.82
355.944	325.66
356.326	333.11
356.709	343.73
357.091	322.49
357.473	336.28
357.855	323.62
358.238	353.45
358.62	351.87
359.002	336.73
359.384	357.74
359.766	342.83
360.148	348.03
360.53	341.7
360.912	353.9
361.294	311.87
361.676	339.67
362.057	327.92
362.439	324.07
362.821	355.49
363.203	331.76
363.584	338.76
363.966	323.62
364.348	338.31
364.729	340.57
365.111	316.84
365.493	325.43
365.874	331.3
366.256	332.43
366.637	324.75
367.019	313
367.4	324.98
367.781	324.3
368.163	291.08
368.544	311.87
368.925	313.9
369.306	342.83
369.688	319.1
370.069	317.07
370.45	318.88
370.831	325.88
371.212	329.95
371.593	321.59
371.974	325.2
372.355	318.42
372.736	336.05
373.117	308.25
373.498	322.27
373.879	336.95
374.26	333.34
374.641	336.05
375.021	326.11
375.402	326.11
375.783	336.05
376.163	340.34
376.544	340.57
376.925	343.96
377.305	341.7
377.686	350.51
378.066	325.43
378.447	323.17
378.827	341.7
379.208	351.64
379.588	339.21
379.968	369.27
380.349	348.25
380.729	332.43
381.109	343.96
381.489	355.94
381.87	347.35
382.25	367.01
382.63	364.98
383.01	354.13
383.39	356.61
383.77	364.75
384.15	358.42
384.53	372.66
384.91	394.13
385.29	386.22
385.67	363.85
386.049	373.34
386.429	378.31
386.809	379.21
387.189	375.37
387.568	394.13
387.948	382.15
388.328	403.62
388.707	387.57
389.087	401.81
389.466	384.18
389.846	404.98
390.225	420.79
390.605	412.66
390.984	420.34
391.363	415.37
391.743	424.41
392.122	417.4
392.501	407.01
392.881	426.44
393.26	423.96
393.639	444.97
394.018	441.81
394.397	435.26
394.776	463.05
395.155	463.28
395.534	459.89
395.913	455.14
396.292	474.35
396.671	452.66
397.05	470.74
397.429	468.02
397.808	493.56
398.186	457.63
398.565	494.46
398.944	483.17
399.323	469.61
399.701	491.75
400.08	492.66
400.458	516.84
400.837	495.14
401.215	505.09
401.594	496.95
401.972	522.03
402.351	543.73
402.729	525.2
403.107	536.05
403.486	552.09
403.864	544.86
404.242	530.4
404.62	529.04
404.999	563.16
405.377	584.63
405.755	567.23
406.133	594.57
406.511	593.9
406.889	590.96
407.267	581.24
407.645	625.31
408.023	618.75
408.401	612.88
408.779	622.14
409.156	651.97
409.534	639.32
409.912	656.27
410.29	643.39
410.667	668.7
411.045	696.27
411.422	698.75
411.8	693.1
412.178	680.9
412.555	703.5
412.933	726.32
413.31	720.22
413.687	738.98
414.065	758.64
414.442	748.24
414.819	759.09
415.197	783.5
415.574	758.64
415.951	776.26
416.328	784.4
416.705	781.01
417.082	807.68
417.46	813.33
417.837	830.95
418.214	807.9
418.591	815.81
418.967	837.05
419.344	832.31
419.721	866.66
420.098	862.36
420.475	857.39
420.852	884.74
421.228	893.78
421.605	886.77
421.982	877.05
422.358	914.11
422.735	911.18
423.111	911.4
423.488	897.17
423.864	935.13
424.241	970.84
424.617	961.34
424.994	969.71
425.37	973.32
425.746	1010.61
426.123	998.63
426.499	1008.58
426.875	1018.07
427.251	1031.63
427.627	1052.19
428.003	1066.43
428.379	1047.67
428.756	1081.34
429.132	1079.76
429.507	1095.8
429.883	1145.29
430.259	1129.93
430.635	1144.84
431.011	1185.97
431.387	1188.23
431.763	1197.95
432.138	1236.59
432.514	1248.12
432.89	1239.3
433.265	1248.57
433.641	1267.1
434.016	1320.66
434.392	1305.74
434.767	1306.65
435.143	1318.62
435.518	1324.73
435.894	1359.3
436.269	1396.59
436.644	1375.57
437.02	1417.15
437.395	1408.11
437.77	1422.12
438.145	1441.56
438.52	1455.34
438.895	1484.49
439.271	1489.24
439.646	1521.78
440.021	1517.04
440.395	1529.01
440.77	1559.97
441.145	1565.4
441.52	1569.92
441.895	1576.47
442.27	1608.11
442.645	1592.51
443.019	1649.46
443.394	1625.06
443.769	1685.39
444.143	1654.89
444.518	1703.7
444.892	1680.65
445.267	1693.53
445.641	1718.61
446.016	1724.26
446.39	1766.75
446.764	1771.49
447.139	1722.91
447.513	1795.45
447.887	1805.16
448.262	1778.95
448.636	1815.56
449.01	1818.05
449.384	1856.69
449.758	1860.98
450.132	1872.73
450.506	1892.17
450.88	1909.57
451.254	1924.71
451.628	1953.18
452.002	1975.33
452.376	1985.95
452.75	1985.05
453.123	2027.31
453.497	2022.79
453.871	2060.98
454.244	2088.77
454.618	2106.17
454.992	2141.43
455.365	2136
455.739	2202.22
456.112	2209.9
456.486	2191.14
456.859	2218.03
457.232	2290.35
457.606	2281.54
457.979	2293.97
458.352	2350.69
458.725	2382.1
459.099	2373.06
459.472	2415.32
459.845	2465.94
460.218	2471.14
460.591	2495.09
460.964	2516.78
461.337	2574.86
461.71	2586.84
462.083	2619.61
462.456	2610.57
462.829	2612.6
463.201	2702.32
463.574	2669.55
463.947	2745.48
464.32	2760.85
464.692	2792.71
465.065	2806.72
465.438	2847.85
465.81	2871.8
466.183	2879.03
466.555	2956.55
466.928	2980.5
467.3	2959.48
467.672	3025.47
468.045	3112.47
468.417	3102.76
468.789	3120.61
469.161	3155.86
469.534	3231.79
469.906	3234.73
470.278	3270.66
470.65	3335.97
471.022	3408.74
471.394	3402.86
471.766	3399.47
472.138	3427.27
472.51	3527.83
472.882	3542.75
473.253	3620.03
473.625	3650.31
473.997	3751.33
474.369	3717.88
474.74	3762.4
475.112	3826.13
475.484	3890.53
475.855	3964.88
476.227	4005.33
476.598	4045.11
476.97	4077.42
477.341	4157.64
477.713	4234.71
478.084	4276.29
478.455	4394.47
478.827	4354.93
479.198	4472.21
479.569	4472.89
479.94	4573.23
480.311	4629.04
480.682	4674.92
481.053	4769.15
481.424	4807.35
481.795	4860
482.166	4931.64
482.537	4964.63
482.908	5086.43
483.279	5092.54
483.65	5199.43
484.021	5265.86
484.391	5301.8
484.762	5321.46
485.133	5342.7
485.503	5372.08
485.874	5485.75
486.244	5551.96
486.615	5626.08
486.985	5660.88
487.356	5768.22
487.726	5804.38
488.097	5885.96
488.467	5858.84
488.837	5960.99
489.207	6012.74
489.578	6077.37
489.948	6113.53
490.318	6193.52
490.688	6153.07
491.058	6296.35
491.428	6296.8
491.798	6317.36
492.168	6429.68
492.538	6409.79
492.908	6475.78
493.278	6535.44
493.648	6593.06
494.017	6606.17
494.387	6654.75
494.757	6702.21
495.126	6746.28
495.496	6773.85
495.866	6709.67
496.235	6832.38
496.605	6855.65
496.974	6917.12
497.344	6879.61
497.713	6912.15
498.082	6955.09
498.452	7000.51
498.821	7088.87
499.19	7054.52
499.559	7073.95
499.928	7140.84
500.298	7124.8
500.667	7184.91
501.036	7161.63
501.405	7282.08
501.774	7212.71
502.143	7284.57
502.512	7240.95
502.88	7322.08
503.249	7339.93
503.618	7368.18
503.987	7355.98
504.356	7401.18
504.724	7407.73
505.093	7433.94
505.462	7432.36
505.83	7482.3
506.199	7501.29
506.567	7630.77
506.936	7548.29
507.304	7645.46
507.672	7571.11
508.041	7667.61
508.409	7752.35
508.777	7767.72
509.145	7784.67
509.514	7787.83
509.882	7788.51
510.25	7756.19
510.618	7871.45
510.986	7919.35
511.354	7957.55
511.722	8016.3
512.09	8040.03
512.458	8070.54
512.826	8052.01
513.193	8066.92
513.561	8153.02
513.929	8179.69
514.297	8200.48
514.664	8209.06
515.032	8222.17
515.4	8253.36
515.767	8290.87
516.135	8316.18
516.502	8263.53
516.869	8400.25
517.237	8397.53
517.604	8419
517.972	8431.88
518.339	8423.75
518.706	8533.12
519.073	8511.2
519.44	8545.1
519.808	8621.48
520.175	8602.73
520.542	8718.43
520.909	8724.76
521.276	8681.59
521.643	8785.09
522.009	8775.6
522.376	8854.7
522.743	8909.61
523.11	8910.06
523.477	8953.45
523.843	9020.79
524.21	9092.2
524.577	9082.94
524.943	9202.48
525.31	9178.53
525.676	9247.68
526.043	9276.61
526.409	9302.82
526.776	9413.33
527.142	9367.23
527.508	9477.51
527.874	9473.44
528.241	9464.85
528.607	9530.39
528.973	9625.3
529.339	9574.23
529.705	9698.52
530.071	9773.54
530.437	9737.61
530.803	9830.49
531.169	9882.47
531.535	9871.62
531.901	9857.83
532.267	9995.68
532.632	9990.49
532.998	10138.5
533.364	10115.91
533.73	10112.52
534.095	10125.4
534.461	10205.4
534.826	10251.27
535.192	10254.43
535.557	10300.08
535.923	10297.14
536.288	10394.77
536.653	10355.45
537.019	10327.88
537.384	10317.93
537.749	10513.18
538.114	10524.48
538.479	10447.42
538.845	10522.68
539.21	10501.88
539.575	10605.61
539.94	10586.18
540.305	10582.11
540.67	10676.8
541.034	10705.72
541.399	10704.82
541.764	10752.73
542.129	10823.23
542.494	10787.53
542.858	10894.19
543.223	10870.46
543.587	10994.3
543.952	10850.12
544.316	10875.43
544.681	10952.72
545.045	10988.2
545.41	10932.61
545.774	11017.13
546.138	11019.84
546.503	11114.98
546.867	11071.36
547.231	11176.67
547.595	11148.2
547.959	11244.24
548.324	11233.39
548.688	11250.11
549.052	11310.23
549.416	11297.57
549.779	11329.89
550.143	11315.42
550.507	11372.37
550.871	11427.96
551.235	11364.91
551.599	11522.2
551.962	11508.19
552.326	11540.95
552.689	11588.41
553.053	11516.77
553.417	11637.45
553.78	11743.66
554.143	11616.43
554.507	11722.87
554.87	11790.89
555.234	11841.96
555.597	11763.55
555.96	11865.69
556.323	11879.25
556.686	11848.06
557.05	11946.82
557.413	12035.86
557.776	11905.92
558.139	12106.59
558.502	12060.04
558.865	12143.88
559.228	12139.58
559.59	12080.83
559.953	12159.92
560.316	12297.77
560.679	12451.89
561.041	12406.92
561.404	12401.72
561.767	12456.86
562.129	12423.42
562.492	12507.71
562.854	12512.45
563.217	12560.14
563.579	12627.03
563.941	12693.24
564.304	12686.46
564.666	12798.32
565.028	12761.94
565.39	12846.91
565.753	12895.04
566.115	12952.22
566.477	12912.89
566.839	13028.15
567.201	13016.17
567.563	13120.57
567.925	13197.63
568.287	13119.67
568.648	13128.26
569.01	13300.68
569.372	13287.8
569.734	13283.73
570.095	13403.73
570.457	13387.01
570.819	13464.07
571.18	13518.08
571.542	13509.26
571.903	13615.02
572.265	13674.91
572.626	13697.28
572.987	13656.15
573.349	13713.1
573.71	13803.04
574.071	13859.08
574.432	13899.76
574.794	13998.06
575.155	13925.3
575.516	13903.6
575.877	14027.67
576.238	14022.7
576.599	14078.74
576.96	14122.13
577.32	14095.91
577.681	14137.5
578.042	14171.39
578.403	14227.21
578.763	14276.7
579.124	14142.92
579.485	14295.01
579.845	14470.14
580.206	14349.92
580.566	14385.17
580.927	14354.89
581.287	14421.56
581.648	14433.98
582.008	14489.58
582.368	14511.27
582.728	14450.48
583.089	14478.5
583.449	14481.67
583.809	14534.1
584.169	14589.24
584.529	14525.51
584.889	14598.05
585.249	14475.57
585.609	14551.5
585.969	14589.46
586.329	14540.87
586.688	14521.21
587.048	14628.33
587.408	14583.59
587.768	14594.43
588.127	14551.95
588.487	14554.89
588.846	14739.06
589.206	14666.52
589.565	14693.41
589.925	14696.58
590.284	14692.28
590.643	14671.04
591.003	14752.39
591.362	14740.19
591.721	14674.88
592.08	14699.29
592.44	14741.77
592.799	14876.69
593.158	14730.7
593.517	14805.27
593.876	14798.72
594.235	14748.78
594.593	14744.94
594.952	14834.88
595.311	14665.62
595.67	14803.24
596.029	14883.24
596.387	14919.62
596.746	14898.15
597.104	14863.13
597.463	14744.26
597.822	14843.47
598.18	14796.46
598.538	14781.32
598.897	14918.27
599.255	14752.17
599.613	14980.64
599.972	14902
600.33	14939.06
600.688	14744.71
601.046	14951.71
601.404	14935.44
601.762	14875.33
602.12	15066.74
602.478	14981.99
602.836	15051.37
603.194	14937.47
603.552	14925.72
603.91	14896.35
604.268	14994.42
604.625	14966.85
604.983	14998.72
605.341	14978.6
605.698	15120.07
606.056	15113.52
606.413	15076.23
606.771	15158.26
607.128	15176.11
607.485	15101.54
607.843	15126.4
608.2	15192.16
608.557	15311.7
608.914	15202.78
609.272	15266.96
609.629	15304.92
609.986	15257.69
610.343	15273.28
610.7	15327.29
611.057	15307.63
611.414	15349.89
611.771	15370.01
612.127	15420.17
612.484	15339.27
612.841	15456.1
613.198	15429.66
613.554	15366.84
613.911	15468.99
614.267	15459.04
614.624	15524.35
614.98	15424.47
615.337	15578.81
615.693	15525.71
616.05	15548.31
616.406	15637.12
616.762	15527.29
617.118	15548.31
617.475	15626.27
617.831	15628.76
618.187	15676.89
618.543	15632.37
618.899	15840.28
619.255	15762.09
619.611	15765.25
619.967	15830.11
620.323	15759.37
620.678	15828.52
621.034	15746.49
621.39	15721.18
621.746	15723.22
622.101	15858.13
622.457	15799.15
622.812	15832.14
623.168	15911.91
623.523	15928.63
623.879	15947.17
624.234	15771.8
624.589	15848.41
624.945	15927.28
625.3	16013.6
625.655	16014.28
626.01	16021.06
626.365	15989.88
626.72	16036.65
627.075	15941.97
627.43	15965.7
627.785	15911.69
628.14	16085.01
628.495	16014.51
628.85	16037.11
629.205	15968.18
629.559	16090.44
629.914	16054.28
630.269	15986.26
630.623	16052.02
630.978	15980.61
631.332	16056.32
631.687	16082.98
632.041	16106.26
632.396	16199.14
632.75	16009.54
633.104	16061.06
633.459	16033.94
633.813	16084.79
634.167	16091.57
634.521	16163.43
634.875	16133.38
635.229	15986.26
635.583	16093.83
635.937	16049.08
636.291	16093.15
636.645	16120.49
636.999	16137.22
637.352	16199.81
637.706	16019.03
638.06	16151.91
638.413	16109.87
638.767	16092.25
639.121	16185.35
639.474	16074.39
639.828	16090.44
640.181	16158.23
640.534	16138.57
640.888	16055.19
641.241	16046.37
641.594	16150.78
641.947	16143.54
642.301	16035.07
642.654	16222.19
643.007	16221.96
643.36	16184.9
643.713	16159.82
644.066	16307.16
644.419	16178.57
644.771	16061.51
645.124	15930.89
645.477	15973.15
645.83	15823.55
646.182	15772.71
646.535	15734.74
646.888	15878.47
647.24	15829.88
647.593	15936.77
647.945	15889.77
648.298	15924.12
648.65	15811.58
649.002	15756.66
649.355	15756.44
649.707	15849.31
650.059	15886.6
650.411	16142.41
650.763	16221.73
651.115	16405.23
651.467	16297.89
651.819	16292.69
652.171	16358.45
652.523	16363.65
652.875	16410.2
653.227	16376.76
653.578	16369.98
653.93	16401.39
654.282	16386.25
654.633	16330.66
654.985	16350.54
655.337	16378.34
655.688	16427.6
656.039	16473.03
656.391	16387.83
656.742	16441.84
657.094	16398.23
657.445	16532.23
657.796	16468.51
658.147	16494.04
658.498	16496.76
658.849	16484.33
659.2	16427.15
659.551	16481.39
659.902	16515.51
660.253	16540.82
660.604	16498.56
660.955	16478.9
661.306	16612.91
661.656	16548.05
662.007	16502.18
662.358	16516.19
662.708	16511.9
663.059	16515.51
663.409	16415.63
663.76	16518.45
664.11	16502.63
664.461	16557.09
664.811	16503.76
665.161	16559.8
665.511	16507.15
665.862	16578.56
666.212	16631.22
666.562	16668.05
666.912	16460.6
667.262	16524.78
667.612	16473.71
667.962	16480.26
668.312	16461.05
668.662	16599.35
669.011	16501.5
669.361	16445.01
669.711	16470.32
670.06	16433.93
670.41	16416.76
670.76	16330.66
671.109	16400.26
671.459	16403.88
671.808	16274.16
672.157	16423.99
672.507	16261.96
672.856	16368.17
673.205	16228.06
673.554	16307.61
673.904	16228.29
674.253	16257.21
674.602	16123.88
674.951	15983.55
675.3	15829.65
675.649	16063.09
675.998	16129.31
676.346	16094.51
676.695	16081.85
677.044	15966.83
677.393	15997.11
677.741	15996.2
678.09	15954.62
678.438	15979.25
678.787	15897.22
679.135	15894.51
679.484	15801.18
679.832	15814.97
680.181	15680.96
680.529	15710.34
680.877	15692.93
681.225	15616.78
681.573	15780.16
681.922	15595.76
682.27	15586.72
682.618	15589.43
682.966	15513.73
683.314	15541.07
683.661	15486.39
684.009	15399.84
684.357	15401.87
684.705	15411.36
685.053	15407.74
685.4	15330.46
685.748	15235.77
686.095	15283.45
686.443	15192.38
686.79	15127.75
687.138	15189.67
687.485	15179.28
687.832	15104.02
688.18	15167.98
688.527	15075.32
688.874	15053.63
689.221	15032.61
689.568	15048.21
689.915	15071.48
690.262	14941.54
690.609	14978.38
690.956	14925.27
691.303	14915.78
691.65	14858.83
691.997	14875.56
692.344	14751.26
692.69	14834.65
693.037	14885.95
693.383	14705.39
693.73	14726.86
694.077	14774.09
694.423	14607.54
694.769	14675.11
695.116	14596.24
695.462	14575.68
695.808	14549.24
696.155	14570.48
696.501	14562.57
696.847	14577.48
697.193	14510.37
697.539	14518.73
697.885	14434.21
698.231	14375.91
698.577	14387.66
698.923	14367.55
699.269	14353.76
699.614	14298.85
699.96	14209.36
700.306	14342.91
700.651	14286.19
700.997	14138.63
701.342	14189.25
701.688	14210.94
702.033	14111.51
702.379	14104.73
702.724	14143.6
703.069	14206.87
703.415	14075.8
703.76	14042.58
704.105	14013.66
704.45	14092.98
704.795	13914.22
705.14	13927.33
705.485	14108.12
705.83	13920.78
706.175	13914.22
706.52	13965.07
706.865	13905.64
707.209	13849.82
707.554	13846.43
707.899	13810.27
708.243	13838.29
708.588	13837.62
708.932	13755.58
709.277	13691.18
709.621	13774.12
709.966	13718.98
710.31	13766.43
710.654	13664.29
710.998	13714
711.342	13694.34
711.687	13626.1
712.031	13650.73
712.375	13583.39
712.719	13650.28
713.063	13621.58
713.407	13607.11
713.75	13640.79
714.094	13637.4
714.438	13505.42
714.782	13551.97
715.125	13548.36
715.469	13479.43
715.812	13493.67
716.156	13421.81
716.499	13435.59
716.843	13542.03
717.186	13392.88
717.53	13593.78
717.873	13556.49
718.216	13483.05
718.559	13477.63
718.902	13355.37
719.246	13363.05
719.589	13406.67
719.932	13358.98
720.275	13378.87
720.617	13322.38
720.96	13311.53
721.303	13271.08
721.646	13309.95
721.989	13296.84
722.331	13384.75
722.674	13318.99
723.016	13315.14
723.359	13321.7
723.701	13282.83
724.044	13187.92
724.386	13285.09
724.729	13282.83
725.071	13158.99
725.413	13194.24
725.755	13157.41
726.097	13196.96
726.439	13102.04
726.782	13148.37
727.124	13350.62
727.465	13122.83
727.807	13134.58
728.149	13139.33
728.491	13176.62
728.833	13133
729.175	13081.03
729.516	13105.43
729.858	13113.12
730.199	13135.04
730.541	13099.56
730.882	13120.35
731.224	13202.38
731.565	13099.1
731.906	13075.83
732.248	13191.98
732.589	13070.4
732.93	13036.06
733.271	13133.91
733.612	13101.59
733.953	13106.56
734.294	13093.91
734.635	13115.15
734.976	13190.63
735.317	13162.38
735.658	13116.73
735.999	13182.49
736.339	13119.44
736.68	13243.51
737.021	13132.55
737.361	13135.49
737.702	13247.35
738.042	13230.85
738.383	13215.49
738.723	13355.6
739.063	13228.59
739.404	13311.98
739.744	13340.68
740.084	13297.52
740.424	13377.74
740.764	13443.95
741.104	13411.64
741.444	13442.37
741.784	13367.57
742.124	13380
742.464	13425.2
742.804	13399.21
743.143	13415.03
743.483	13481.24
743.823	13469.04
744.162	13528.02
744.502	13547.45
744.841	13540.22
745.181	13588.13
745.52	13546.1
745.86	13607.34
746.199	13643.27
746.538	13592.88
746.877	13704.29
747.216	13719.88
747.556	13682.14
747.895	13730.95
748.234	13764.85
748.573	13649.6
748.911	13824.28
749.25	13843.72
749.589	13759.65
749.928	13812.08
750.267	13864.06
750.605	13849.82
750.944	13869.03
751.283	13773.44
751.621	13908.8
751.96	13832.64
752.298	13871.51
752.636	13951.29
752.975	13942.25
753.313	13983.6
753.651	14040.77
753.989	14049.59
754.327	13980.44
754.666	14073.99
755.004	14126.87
755.342	14078.29
755.679	14149.47
756.017	14095.01
756.355	14174.33
