Data from blue_surface_keyboard_FLMS001491_053.txt Node
Date: Tue Feb 07 11:13:19 GMT 2017
User: dcchb
Spectrometer: FLMS00149
Trigger mode: 0
Integration Time (sec): 2.000000E-2
Scans to average: 10
Electric dark correction enabled: true
Nonlinearity correction enabled: false
Boxcar width: 0
XAxis mode: Wavelengths
Number of Pixels in Spectrum: 2048
>>>>>Begin Spectral Data<<<<<
341.393	-5.73
341.776	-5.73
342.16	-5.73
342.543	-79.18
342.927	-42.57
343.31	-55.68
343.693	-73.3
344.077	-76.69
344.46	-73.76
344.843	-81.21
345.226	-28.11
345.61	-26.3
345.993	-13.64
346.376	-21.78
346.759	14.83
347.142	30.2
347.525	39.46
347.908	50.76
348.291	86.01
348.674	102.51
349.057	126.69
349.44	121.95
349.823	137.99
350.206	168.95
350.588	163.75
350.971	178.44
351.354	175.5
351.737	216.18
352.119	239.68
352.502	253.02
352.884	236.52
353.267	260.25
353.65	261.15
354.032	272.22
354.414	272.45
354.797	283.98
355.179	289.4
355.562	293.92
355.944	313.58
356.326	319.45
356.709	312.22
357.091	296.86
357.473	315.61
357.855	308.61
358.238	320.81
358.62	319.45
359.002	295.95
359.384	309.06
359.766	311.32
360.148	310.19
360.53	307.7
360.912	314.94
361.294	313.81
361.676	314.94
362.057	307.93
362.439	313.81
362.821	288.04
363.203	311.32
363.584	285.78
363.966	285.56
364.348	294.6
364.729	280.13
365.111	289.17
365.493	296.18
365.874	292.79
366.256	293.47
366.637	291.66
367.019	282.39
367.4	279
367.781	289.4
368.163	293.92
368.544	304.09
368.925	272.68
369.306	284.43
369.688	293.01
370.069	276.29
370.45	273.35
370.831	279.46
371.212	293.69
371.593	288.72
371.974	295.73
372.355	283.3
372.736	268.16
373.117	277.42
373.498	291.66
373.879	286.46
374.26	284.88
374.641	300.47
375.021	288.95
375.402	295.27
375.783	308.38
376.163	294.82
376.544	283.3
376.925	273.35
377.305	306.57
377.686	301.6
378.066	302.73
378.447	294.82
378.827	295.5
379.208	270.42
379.588	310.87
379.968	304.31
380.349	298.44
380.729	303.41
381.109	299.57
381.489	310.87
381.87	292.79
382.25	278.33
382.63	286.46
383.01	302.28
383.39	301.38
383.77	291.21
384.15	306.8
384.53	319.68
384.91	282.39
385.29	308.61
385.67	297.08
386.049	300.92
386.429	311.55
386.809	302.96
387.189	314.48
387.568	326.69
387.948	320.36
388.328	299.57
388.707	326.91
389.087	304.99
389.466	317.2
389.846	338.89
390.225	324.43
390.605	290.76
390.984	316.07
391.363	326.46
391.743	309.29
392.122	316.74
392.501	307.48
392.881	324.88
393.26	321.26
393.639	324.65
394.018	318.78
394.397	325.1
394.776	329.4
395.155	305.67
395.534	324.65
395.913	304.54
396.292	342.51
396.671	316.97
397.05	342.51
397.429	325.1
397.808	317.42
398.186	336.18
398.565	329.17
398.944	341.6
399.323	340.25
399.701	330.75
400.08	344.54
400.458	337.08
400.837	338.66
401.215	321.71
401.594	325.56
401.972	332.79
402.351	338.89
402.729	353.35
403.107	359.68
403.486	363.52
403.864	336.86
404.242	335.05
404.62	357.87
404.999	364.43
405.377	382.96
405.755	345.67
406.133	351.32
406.511	360.36
406.889	365.33
407.267	383.18
407.645	360.36
408.023	359.23
408.401	374.14
408.779	361.71
409.156	373.69
409.534	380.47
409.912	362.39
410.29	377.53
410.667	349.51
411.045	359.23
411.422	370.53
411.8	387.25
412.178	394.48
412.555	376.4
412.933	378.66
413.31	364.88
413.687	368.95
414.065	382.5
414.442	363.97
414.819	384.31
415.197	385.44
415.574	397.19
415.951	392.45
416.328	403.52
416.705	382.05
417.082	406.46
417.46	380.7
417.837	384.31
418.214	387.25
418.591	388.61
418.967	431.09
419.344	403.29
419.721	383.63
420.098	404.42
420.475	414.59
420.852	429.96
421.228	412.79
421.605	385.89
421.982	400.36
422.358	399.45
422.735	434.48
423.111	402.84
423.488	404.42
423.864	413.01
424.241	427.25
424.617	419.57
424.994	412.11
425.37	424.08
425.746	413.92
426.123	422.28
426.499	418.89
426.875	424.31
427.251	418.89
427.627	438.77
428.003	436.74
428.379	429.06
428.756	455.72
429.132	422.5
429.507	445.55
429.883	446.91
430.259	446.91
430.635	429.28
431.011	445.1
431.387	445.1
431.763	466.57
432.138	460.47
432.514	468.83
432.89	464.99
433.265	469.28
433.641	478.77
434.016	483.97
434.392	482.61
434.767	467.7
435.143	464.31
435.518	469.06
435.894	476.51
436.269	479.9
436.644	502.5
437.02	489.85
437.395	520.13
437.77	496.63
438.145	510.64
438.52	502.27
438.895	486.91
439.271	504.08
439.646	481.48
440.021	515.16
440.395	494.59
440.77	516.06
441.145	489.85
441.52	516.96
441.895	513.57
442.27	523.52
442.645	516.96
443.019	503.86
443.394	524.65
443.769	521.26
444.143	543.18
444.518	526.46
444.892	528.94
445.267	540.01
445.641	546.12
446.016	536.17
446.39	564.65
446.764	540.47
447.139	543.18
447.513	540.92
447.887	541.6
448.262	543.18
448.636	576.85
449.01	578.88
449.384	565.55
449.758	561.26
450.132	556.74
450.506	570.75
450.88	595.38
451.254	581.14
451.628	577.08
452.002	568.49
452.376	611.65
452.75	594.02
453.123	570.07
453.497	577.3
453.871	563.06
454.244	608.03
454.618	602.84
454.992	619.56
455.365	590.18
455.739	605.1
456.112	615.94
456.486	641.48
456.859	637.19
457.232	630.41
457.606	624.53
457.979	617.75
458.352	638.77
458.725	647.58
459.099	628.15
459.472	644.64
459.845	650.07
460.218	673.8
460.591	644.42
460.964	666.56
461.337	662.04
461.71	660.46
462.083	682.38
462.456	668.6
462.829	660.69
463.201	680.8
463.574	686.9
463.947	671.76
464.32	695.72
464.692	698.2
465.065	704.3
465.438	708.37
465.81	731.65
466.183	725.55
466.555	721.25
466.928	716.51
467.3	742.27
467.672	757.18
468.045	743.4
468.417	730.07
468.789	749.73
469.161	753.34
469.534	767.58
469.906	766.9
470.278	767.13
470.65	769.16
471.022	791.31
471.394	775.04
471.766	800.8
472.138	777.3
472.51	825.43
472.882	817.75
473.253	840.8
473.625	849.38
473.997	848.93
474.369	825.88
474.74	827.46
475.112	849.16
475.484	861.14
475.855	882.6
476.227	885.77
476.598	909.95
476.97	913.79
477.341	934.35
477.713	914.92
478.084	935.26
478.455	937.74
478.827	949.95
479.198	950.17
479.569	958.99
479.94	984.07
480.311	1001.24
480.682	1018.19
481.053	1025.43
481.424	1008.7
481.795	1032.43
482.166	993.11
482.537	1047.8
482.908	1050.74
483.279	1069.27
483.65	1052.77
484.021	1064.52
484.391	1112.88
484.762	1088.02
485.133	1093.9
485.503	1118.98
485.874	1142.71
486.244	1130.28
486.615	1142.48
486.985	1154.24
487.356	1146.33
487.726	1160.79
488.097	1175.03
488.467	1177.96
488.837	1179.77
489.207	1194.46
489.578	1215.25
489.948	1231.52
490.318	1223.39
490.688	1225.19
491.058	1219.77
491.428	1250.96
491.798	1248.92
492.168	1260
492.538	1273.55
492.908	1263.84
493.278	1281.01
493.648	1316.94
494.017	1268.81
494.387	1288.47
494.757	1301.8
495.126	1319.2
495.496	1329.15
495.866	1333.67
496.235	1342.93
496.605	1332.54
496.974	1326.21
497.344	1325.76
497.713	1342.7
498.082	1354.91
498.452	1344.29
498.821	1336.6
499.19	1357.39
499.559	1359.65
499.928	1368.47
500.298	1359.65
500.667	1391.29
501.036	1393.55
501.405	1407.79
501.774	1366.88
502.143	1390.39
502.512	1406.43
502.88	1418.18
503.249	1381.57
503.618	1389.48
503.987	1392.87
504.356	1422.25
504.724	1436.71
505.093	1431.74
505.462	1426.54
505.83	1435.36
506.199	1398.3
506.567	1443.72
506.936	1430.39
507.304	1464.28
507.672	1445.98
508.041	1449.37
508.409	1453.21
508.777	1432.42
509.145	1443.49
509.514	1446.66
509.882	1445.53
510.25	1467.67
510.618	1466.77
510.986	1463.38
511.354	1450.27
511.722	1493.66
512.09	1498.86
512.458	1484.4
512.826	1475.58
513.193	1478.07
513.561	1485.98
513.929	1474.9
514.297	1512.42
514.664	1508.35
515.032	1503.83
515.4	1523.72
515.767	1486.66
516.135	1510.61
516.502	1533.89
516.869	1518.29
517.237	1531.4
517.604	1520.78
517.972	1514.68
518.339	1527.56
518.706	1549.25
519.073	1514.45
519.44	1526.65
519.808	1546.99
520.175	1548.35
520.542	1532.98
520.909	1527.33
521.276	1577.95
521.643	1568.69
522.009	1561.46
522.376	1557.16
522.743	1557.39
523.11	1580.66
523.477	1576.6
523.843	1622.7
524.21	1579.31
524.577	1588.57
524.943	1601.46
525.31	1596.48
525.676	1610.95
526.043	1599.65
526.409	1609.82
526.776	1643.04
527.142	1612.08
527.508	1621.79
527.874	1638.97
528.241	1630.38
528.607	1627.22
528.973	1608.01
529.339	1651.85
529.705	1628.12
530.071	1666.76
530.437	1646.2
530.803	1634.45
531.169	1650.49
531.535	1657.05
531.901	1655.92
532.267	1688.68
532.632	1695.69
532.998	1666.99
533.364	1658.85
533.73	1680.32
534.095	1679.65
534.461	1677.16
534.826	1718.51
535.192	1651.4
535.557	1712.86
535.923	1673.77
536.288	1691.62
536.653	1681.9
537.019	1690.27
537.384	1649.59
537.749	1666.99
538.114	1687.33
538.479	1692.07
538.845	1674.67
539.21	1669.7
539.575	1699.98
539.94	1664.5
540.305	1695.24
540.67	1689.81
541.034	1723.71
541.399	1682.36
541.764	1693.66
542.129	1691.85
542.494	1671.74
542.858	1678.06
543.223	1683.94
543.587	1727.1
543.952	1706.31
544.316	1697.72
544.681	1718.74
545.045	1715.58
545.41	1690.49
545.774	1704.96
546.138	1729.59
546.503	1700.44
546.867	1688.23
547.231	1726.2
547.595	1716.93
547.959	1715.12
548.324	1721.45
548.688	1703.37
549.052	1737.04
549.416	1705.18
549.779	1730.94
550.143	1725.97
550.507	1733.2
550.871	1720.55
551.235	1739.08
551.599	1732.75
551.962	1730.94
552.326	1728.23
552.689	1733.2
553.053	1726.88
553.417	1718.51
553.78	1730.49
554.143	1730.27
554.507	1754.67
554.87	1761.45
555.234	1732.75
555.597	1744.05
555.96	1772.98
556.323	1758.06
556.686	1759.64
557.05	1750.38
557.413	1759.19
557.776	1726.65
558.139	1760.32
558.502	1752.86
558.865	1772.75
559.228	1762.81
559.59	1788.12
559.953	1763.71
560.316	1770.49
560.679	1769.13
561.041	1816.59
561.404	1776.59
561.767	1776.82
562.129	1739.98
562.492	1764.61
562.854	1781.11
563.217	1797.38
563.579	1822.24
563.941	1796.03
564.304	1821.11
564.666	1810.04
565.028	1789.92
565.39	1783.37
565.753	1822.47
566.115	1828.79
566.477	1824.27
566.839	1831.96
567.201	1842.13
567.563	1820.21
567.925	1850.94
568.287	1814.78
568.648	1836.48
569.01	1827.89
569.372	1864.27
569.734	1889.81
570.095	1844.39
570.457	1899.98
570.819	1877.83
571.18	1856.36
571.542	1865.63
571.903	1845.97
572.265	1878.28
572.626	1839.64
572.987	1854.33
573.349	1851.17
573.71	1906.76
574.071	1864.95
574.432	1873.31
574.794	1897.94
575.155	1913.99
575.516	1904.72
575.877	1890.71
576.238	1892.29
576.599	1902.46
576.96	1909.24
577.32	1887.32
577.681	1900.66
578.042	1909.47
578.403	1915.57
578.763	1912.18
579.124	1911.73
579.485	1928.68
579.845	1913.09
580.206	1918.96
580.566	1899.07
580.927	1900.43
581.287	1926.42
581.648	1936.59
582.008	1918.06
582.368	1916.02
582.728	1923.03
583.089	1918.06
583.449	1927.55
583.809	1915.12
584.169	1934.55
584.529	1899.75
584.889	1904.27
585.249	1905.18
585.609	1928.23
585.969	1887.32
586.329	1890.49
586.688	1925.29
587.048	1915.12
587.408	1915.57
587.768	1932.75
588.127	1928.23
588.487	1926.19
588.846	1937.72
589.206	1901.33
589.565	1933.2
589.925	1903.37
590.284	1909.24
590.643	1931.84
591.003	1911.05
591.362	1928.9
591.721	1954.67
592.08	1924.38
592.44	1943.37
592.799	1974.33
593.158	1969.81
593.517	1977.04
593.876	1928
594.235	1920.32
594.593	1937.94
594.952	1931.16
595.311	1931.16
595.67	1951.05
596.029	1966.64
596.387	1949.69
596.746	1994.21
597.104	1950.15
597.463	1956.02
597.822	1992.41
598.18	1959.64
598.538	1918.28
598.897	1967.55
599.255	1976.81
599.613	1949.69
599.972	1966.42
600.33	1968
600.688	1979.52
601.046	1982.24
601.404	1993.99
601.762	1956.02
602.12	1989.92
602.478	1996.7
602.836	1979.3
603.194	2006.42
603.552	1967.1
603.91	2017.94
604.268	1991.5
604.625	1992.63
604.983	1988.56
605.341	1966.64
605.698	1982.91
606.056	2001.44
606.413	2018.85
606.771	2009.13
607.128	2008.22
607.485	2011.16
607.843	1985.4
608.2	2034.21
608.557	2012.74
608.914	2015.91
609.272	2035.12
609.629	2038.05
609.986	2057.04
610.343	2056.13
610.7	2026.08
611.057	2061.33
611.414	2050.03
611.771	2032.4
612.127	2067.43
612.484	2023.82
612.841	2077.37
613.198	2043.48
613.554	2038.73
613.911	2076.7
614.267	2080.76
614.624	2062.91
614.98	2057.49
615.337	2082.8
615.693	2121.44
616.05	2088
616.406	2095.68
616.762	2082.57
617.118	2077.83
617.475	2070.6
617.831	2086.87
618.187	2107.88
618.543	2113.31
618.899	2080.31
619.255	2094.78
619.611	2128.9
619.967	2127.32
620.323	2123.93
620.678	2133.64
621.034	2113.98
621.39	2125.28
621.746	2148.11
622.101	2134.55
622.457	2144.49
622.812	2163.02
623.168	2158.5
623.523	2177.49
623.879	2146.3
624.234	2157.15
624.589	2146.07
624.945	2110.59
625.3	2159.41
625.655	2189.69
626.01	2190.59
626.365	2210.48
626.72	2167.09
627.075	2188.56
627.43	2186.52
627.785	2154.66
628.14	2172.06
628.495	2199.18
628.85	2203.25
629.205	2193.98
629.559	2217.48
629.914	2197.82
630.269	2199.63
630.623	2189.91
630.978	2203.02
631.332	2212.06
631.687	2220.2
632.041	2173.19
632.396	2215.45
632.75	2188.56
633.104	2223.81
633.459	2236.24
633.813	2232.4
634.167	2243.7
634.521	2229.69
634.875	2229.01
635.229	2227.43
635.583	2238.95
635.937	2225.39
636.291	2273.53
636.645	2253.42
636.999	2249.8
637.352	2251.16
637.706	2260.87
638.06	2297.71
638.413	2265.39
638.767	2260.65
639.121	2283.25
639.474	2292.51
639.828	2284.37
640.181	2299.97
640.534	2320.53
640.888	2283.92
641.241	2328.67
641.594	2354.43
641.947	2319.18
642.301	2347.42
642.654	2374.99
643.007	2355.79
643.36	2374.54
643.713	2329.12
644.066	2359.4
644.419	2377.03
644.771	2363.02
645.124	2348.78
645.477	2365.95
645.83	2336.35
646.182	2354.66
646.535	2353.3
646.888	2345.39
647.24	2337.71
647.593	2361.89
647.945	2407.76
648.298	2396.91
648.65	2370.25
649.002	2394.43
649.355	2441.66
649.707	2421.32
650.059	2398.04
650.411	2427.87
650.763	2459.29
651.115	2523.92
651.467	2521.88
651.819	2528.89
652.171	2528.66
652.523	2503.13
652.875	2521.43
653.227	2535.89
653.578	2566.4
653.93	2579.06
654.282	2536.57
654.633	2593.07
654.985	2594.65
655.337	2590.81
655.688	2632.39
656.039	2639.62
656.391	2619.51
656.742	2631.26
657.094	2638.72
657.445	2669.9
657.796	2697.47
658.147	2686.4
658.498	2696.57
658.849	2685.49
659.2	2696.57
659.551	2699.28
659.902	2713.97
660.253	2756.9
660.604	2761.88
660.955	2757.58
661.306	2772.5
661.656	2768.2
662.007	2845.94
662.358	2834.42
662.708	2845.04
663.059	2840.74
663.409	2843.46
663.76	2901.53
664.11	2876.22
664.461	2912.38
664.811	2939.72
665.161	2931.36
665.511	2917.8
665.862	2951.7
666.212	2984.02
666.562	2999.16
666.912	3032.15
667.262	2982.66
667.612	3023.34
667.962	3003.68
668.312	3075.54
668.662	3067.41
669.011	3057.46
669.361	3112.83
669.711	3098.59
670.06	3085.71
670.41	3112.83
670.76	3118.48
671.109	3138.14
671.459	3172.04
671.808	3157.8
672.157	3188.08
672.507	3174.07
672.856	3219.94
673.205	3203.22
673.554	3219.27
673.904	3263.11
674.253	3265.14
674.602	3248.87
674.951	3255.65
675.3	3234.63
675.649	3325.25
675.998	3329.55
676.346	3327.29
676.695	3365.93
677.044	3334.52
677.393	3339.26
677.741	3364.8
678.09	3388.07
678.438	3387.62
678.787	3399.37
679.135	3415.64
679.484	3376.32
679.832	3440.73
680.181	3426.72
680.529	3429.43
680.877	3454.74
681.225	3481.18
681.573	3463.78
681.922	3521.4
682.27	3485.47
682.618	3490.9
682.966	3504.91
683.314	3520.95
683.661	3509.88
684.009	3495.19
684.357	3553.04
684.705	3565.7
685.053	3566.38
685.4	3591.69
685.748	3571.35
686.095	3596.43
686.443	3595.3
686.79	3571.57
687.138	3568.86
687.485	3635.53
687.832	3602.08
688.18	3617.9
688.527	3628.52
688.874	3646.37
689.221	3621.29
689.568	3655.86
689.915	3613.38
690.262	3631.23
690.609	3614.74
690.956	3654.51
691.303	3633.94
691.65	3658.58
691.997	3640.27
692.344	3639.59
692.69	3622.87
693.037	3636.88
693.383	3683.43
693.73	3682.08
694.077	3665.13
694.423	3635.98
694.769	3672.36
695.116	3681.4
695.462	3668.07
695.808	3673.04
696.155	3723.66
696.501	3650.21
696.847	3672.59
697.193	3671.23
697.539	3671.46
697.885	3638.01
698.231	3654.73
698.577	3633.49
698.923	3661.06
699.269	3658.8
699.614	3649.08
699.96	3657.22
700.306	3652.47
700.651	3638.24
700.997	3645.24
701.342	3649.31
701.688	3630.1
702.033	3626.71
702.379	3649.08
702.724	3657.9
703.069	3651.12
703.415	3642.76
703.76	3626.94
704.105	3621.97
704.45	3600.5
704.795	3588.3
705.14	3626.71
705.485	3633.72
705.83	3594.4
706.175	3616.77
706.52	3585.13
706.865	3605.47
707.209	3607.05
707.554	3551.46
707.899	3593.72
708.243	3589.65
708.588	3589.43
708.932	3563.89
709.277	3572.02
709.621	3564.79
709.966	3537
710.31	3574.06
710.654	3529.99
710.998	3534.51
711.342	3550.1
711.687	3555.08
712.031	3541.52
712.375	3533.38
712.719	3551.46
713.063	3554.62
713.407	3548.75
713.75	3543.55
714.094	3556.88
714.438	3541.07
714.782	3577.22
715.125	3513.04
715.469	3529.54
715.812	3515.76
716.156	3556.21
716.499	3553.95
716.843	3525.02
717.186	3499.94
717.53	3533.38
717.873	3546.94
718.216	3528.18
718.559	3546.49
718.902	3518.69
719.246	3541.07
719.589	3522.53
719.932	3509.2
720.275	3539.03
720.617	3502.42
720.96	3482.99
721.303	3507.62
721.646	3493.83
721.989	3499.71
722.331	3536.09
722.674	3492.03
723.016	3512.59
723.359	3530.44
723.701	3522.08
724.044	3525.47
724.386	3533.38
724.729	3503.55
725.071	3489.09
725.413	3563.21
725.755	3531.57
726.097	3503.78
726.439	3506.26
726.782	3517.56
727.124	3511.91
727.465	3524.57
727.807	3530.67
728.149	3511.69
728.491	3504.68
728.833	3529.77
729.175	3548.52
729.516	3502.87
729.858	3536.32
730.199	3527.28
730.541	3554.17
730.882	3528.41
731.224	3527.96
731.565	3537
731.906	3564.12
732.248	3557.11
732.589	3527.96
732.93	3527.73
733.271	3522.76
733.612	3527.51
733.953	3528.64
734.294	3543.55
734.635	3590.1
734.976	3564.57
735.317	3544.45
735.658	3604.34
735.999	3568.41
736.339	3588.75
736.68	3577.67
737.021	3578.8
737.361	3569.09
737.702	3644.34
738.042	3608.41
738.383	3603.44
738.723	3586.26
739.063	3595.53
739.404	3675.52
739.744	3630.55
740.084	3615.87
740.424	3692.93
740.764	3647.5
741.104	3676.43
741.444	3656.09
741.784	3664.23
742.124	3654.96
742.464	3652.25
742.804	3672.81
743.143	3695.19
743.483	3669.88
743.823	3682.3
744.162	3711.68
744.502	3738.8
744.841	3722.76
745.181	3722.76
745.52	3755.75
745.86	3767.73
746.199	3789.65
746.538	3800.95
746.877	3824.45
747.216	3833.71
747.556	3833.26
747.895	3854.73
748.234	3863.77
748.573	3853.6
748.911	3875.07
749.25	3901.06
749.589	3917.1
749.928	3934.73
750.267	3966.14
750.605	3973.37
750.944	3966.59
751.283	3950.77
751.621	4013.37
751.96	4057.66
752.298	4026.93
752.636	4043.2
752.975	4052.69
753.313	4073.03
753.651	4087.72
753.989	4150.54
754.327	4133.59
754.666	4173.82
755.004	4204.55
755.342	4226.47
755.679	4238.45
756.017	4226.02
756.355	4271.22
756.693	4264.21
757.031	4235.28
757.368	4329.07
757.706	4320.93
758.044	4308.05
758.381	4346.02
758.719	4363.42
759.056	4410.19
759.394	4324.32
759.731	4367.26
760.068	4426.69
760.405	4432.12
760.743	4447.48
761.08	4443.19
761.417	4432.34
761.754	4510.31
762.091	4463.98
762.428	4484.77
762.765	4449.97
763.102	4494.49
763.438	4520.93
763.775	4507.14
764.112	4543.3
764.449	4531.32
764.785	4538.33
765.122	4518.21
765.458	4566.8
765.795	4534.03
766.131	4520.7
766.467	4537.42
766.804	4555.95
767.14	4514.15
767.476	4557.08
767.812	4515.5
768.148	4532.23
768.485	4504.2
768.821	4511.89
769.157	4530.19
769.492	4535.62
769.828	4526.58
770.164	4501.94
770.5	4522.73
770.836	4468.27
771.171	4478.89
771.507	4442.06
771.842	4463.3
772.178	4536.97
