Data from blue_chair_FLMS001491_00089.txt Node
Date: Wed Feb 08 10:31:56 GMT 2017
User: dcchb
Spectrometer: FLMS00149
Trigger mode: 0
Integration Time (sec): 2.000000E-2
Scans to average: 10
Electric dark correction enabled: true
Nonlinearity correction enabled: false
Boxcar width: 0
XAxis mode: Wavelengths
Number of Pixels in Spectrum: 2048
>>>>>Begin Spectral Data<<<<<
341.393	-16.96
341.776	-16.96
342.16	-16.96
342.543	-38.21
342.927	-67.13
343.31	-63.97
343.693	-66.91
344.077	-68.26
344.46	-61.03
344.843	-32.56
345.226	-56.28
345.61	-23.52
345.993	-20.13
346.376	10.38
346.759	-2.95
347.142	25.52
347.525	35.24
347.908	53.77
348.291	89.93
348.674	94.67
349.057	86.09
349.44	120.89
349.823	136.71
350.206	165.86
350.588	167.21
350.971	190.94
351.354	203.14
351.737	216.7
352.119	215.12
352.502	239.53
352.884	263.48
353.267	274.1
353.65	284.27
354.032	279.53
354.414	284.27
354.797	286.08
355.179	300.54
355.562	298.06
355.944	313.88
356.326	315.46
356.709	321.79
357.091	309.13
357.473	328.11
357.855	313.65
358.238	336.47
358.62	306.87
359.002	298.28
359.384	313.42
359.766	300.99
360.148	303.25
360.53	319.07
360.912	319.07
361.294	297.83
361.676	310.49
362.057	326.98
362.439	322.24
362.821	297.83
363.203	302.58
363.584	296.48
363.966	294.67
364.348	304.16
364.729	303.03
365.111	291.5
365.493	321.33
365.874	304.84
366.256	290.83
366.637	299.19
367.019	282.69
367.4	297.15
367.781	275.91
368.163	270.94
368.544	278.17
368.925	294.67
369.306	295.8
369.688	287.66
370.069	288.11
370.45	300.09
370.831	285.4
371.212	303.48
371.593	298.96
371.974	307.1
372.355	276.81
372.736	289.24
373.117	288.34
373.498	293.99
373.879	282.24
374.26	290.37
374.641	306.87
375.021	261.9
375.402	297.15
375.783	288.11
376.163	281.11
376.544	308
376.925	295.35
377.305	287.89
377.686	304.38
378.066	316.59
378.447	313.2
378.827	287.44
379.208	302.58
379.588	276.81
379.968	314.55
380.349	297.15
380.729	305.29
381.109	286.98
381.489	316.81
381.87	323.37
382.25	301.9
382.63	313.2
383.01	312.75
383.39	304.84
383.77	286.76
384.15	295.12
384.53	286.53
384.91	314.78
385.29	320.2
385.67	317.04
386.049	296.25
386.429	327.89
386.809	289.47
387.189	326.3
387.568	334.67
387.948	312.75
388.328	328.34
388.707	317.49
389.087	312.07
389.466	321.11
389.846	316.81
390.225	316.14
390.605	315.23
390.984	316.59
391.363	335.8
391.743	305.06
392.122	317.72
392.501	328.79
392.881	326.76
393.26	337.38
393.639	336.25
394.018	313.2
394.397	344.61
394.776	333.31
395.155	331.5
395.534	352.97
395.913	337.38
396.292	327.66
396.671	345.29
397.05	348.68
397.429	346.19
397.808	335.12
398.186	332.63
398.565	337.38
398.944	344.16
399.323	342.12
399.701	338.51
400.08	364.27
400.458	348.9
400.837	360.65
401.215	367.66
401.594	356.59
401.972	348.9
402.351	341.45
402.729	365.4
403.107	367.89
403.486	359.75
403.864	372.41
404.242	373.54
404.62	366.98
404.999	383.48
405.377	354.55
405.755	359.52
406.133	381.44
406.511	365.63
406.889	347.1
407.267	359.98
407.645	393.42
408.023	385.06
408.401	395.91
408.779	394.78
409.156	366.3
409.534	404.04
409.912	412.4
410.29	415.12
410.667	391.16
411.045	403.14
411.422	407.88
411.8	404.04
412.178	395.46
412.555	418.96
412.933	420.54
413.31	428.9
413.687	427.32
414.065	434.32
414.442	429.35
414.819	421.67
415.197	442.46
415.574	454.66
415.951	440.2
416.328	444.04
416.705	469.13
417.082	436.81
417.46	443.82
417.837	466.19
418.214	448.11
418.591	457.15
418.967	442.91
419.344	459.18
419.721	445.4
420.098	456.92
420.475	474.32
420.852	460.54
421.228	465.06
421.605	480.65
421.982	477.26
422.358	475.91
422.735	470.71
423.111	489.01
423.488	505.06
423.864	495.57
424.241	490.59
424.617	493.53
424.994	496.02
425.37	511.61
425.746	513.42
426.123	536.92
426.499	519.97
426.875	522.91
427.251	513.87
427.627	528.79
428.003	534.89
428.379	529.01
428.756	540.54
429.132	530.59
429.507	539.41
429.883	557.49
430.259	563.36
430.635	562
431.011	547.09
431.387	581.89
431.763	575.79
432.138	580.54
432.514	588.44
432.89	600.2
433.265	578.73
433.641	593.42
434.016	604.04
434.392	603.81
434.767	624.6
435.143	646.97
435.518	638.39
435.894	666.18
436.269	659.86
436.644	653.53
437.02	675
437.395	682.91
437.77	672.28
438.145	691.49
438.52	651.72
438.895	694.43
439.271	716.13
439.646	696.69
440.021	705.05
440.395	707.09
440.77	742.11
441.145	722
441.52	767.2
441.895	736.01
442.27	748.89
442.645	764.26
443.019	751.38
443.394	751.38
443.769	797.25
444.143	759.06
444.518	816.24
444.892	785.95
445.267	780.98
445.641	810.13
446.016	786.86
446.39	816.69
446.764	821.89
447.139	799.29
447.513	810.36
447.887	834.77
448.262	835.22
448.636	831.38
449.01	856.01
449.384	865.05
449.758	848.1
450.132	852.84
450.506	862.79
450.88	854.65
451.254	859.85
451.628	896.69
452.002	919.96
452.376	877.93
452.75	898.95
453.123	890.13
453.497	927.42
453.871	929.23
454.244	911.83
454.618	938.49
454.992	926.29
455.365	930.58
455.739	953.41
456.112	956.8
456.486	956.34
456.859	989.79
457.232	973.75
457.606	972.39
457.979	972.84
458.352	1018.04
458.725	1009
459.099	1022.33
459.472	1030.92
459.845	1018.94
460.218	1045.83
460.591	1074.99
460.964	1085.38
461.337	1071.82
461.71	1080.64
462.083	1110.24
462.456	1103.91
462.829	1110.01
463.201	1129.9
463.574	1129.9
463.947	1122.89
464.32	1133.06
464.692	1144.14
465.065	1137.58
465.438	1150.24
465.81	1141.2
466.183	1174.19
466.555	1202.89
466.928	1217.35
467.3	1202.21
467.672	1204.93
468.045	1223.23
468.417	1226.39
468.789	1251.03
469.161	1261.65
469.534	1260.07
469.906	1261.87
470.278	1278.82
470.65	1276.11
471.022	1307.3
471.394	1337.35
471.766	1321.53
472.138	1314.75
472.51	1377.8
472.882	1373.51
473.253	1365.37
473.625	1371.02
473.997	1432.26
474.369	1433.39
474.74	1422.77
475.112	1392.49
475.484	1425.26
475.855	1488.76
476.227	1465.48
476.598	1512.71
476.97	1505.26
477.341	1531.02
477.713	1522.21
478.084	1537.35
478.455	1587.97
478.827	1597.23
479.198	1594.52
479.569	1602.66
479.94	1622.54
480.311	1651.47
480.682	1657.34
481.053	1687.4
481.424	1673.84
481.795	1687.85
482.166	1731.69
482.537	1702.09
482.908	1732.82
483.279	1736.21
483.65	1754.74
484.021	1778.7
484.391	1801.97
484.762	1795.19
485.133	1794.74
485.503	1814.4
485.874	1843.78
486.244	1850.11
486.615	1863.21
486.985	1886.26
487.356	1902.31
487.726	1925.36
488.097	1896.21
488.467	1913.38
488.837	1933.27
489.207	1938.01
489.578	1931.69
489.948	1954.28
490.318	1959.03
490.688	1973.27
491.058	1984.11
491.428	1967.17
491.798	1999.48
492.168	2025.24
492.538	2034.28
492.908	2014.85
493.278	2041.06
493.648	2034.28
494.017	2019.82
494.387	2017.56
494.757	2027.28
495.126	2044.9
495.496	2051.46
495.866	2043.77
496.235	2054.4
496.605	2078.12
496.974	2030.67
497.344	2063.66
497.713	2051.01
498.082	2037.45
498.452	2029.31
498.821	2048.97
499.19	2043.1
499.559	2068.86
499.928	2048.52
500.298	2032.7
500.667	2082.64
501.036	2038.58
501.405	2026.37
501.774	2026.83
502.143	2058.01
502.512	2047.62
502.88	2037.45
503.249	2066.37
503.618	2050.33
503.987	2035.64
504.356	2030.89
504.724	2002.87
505.093	2062.53
505.462	2051.91
505.83	2066.15
506.199	2056.65
506.567	2054.4
506.936	2008.07
507.304	2003.1
507.672	2023.44
508.041	1988.86
508.409	2051.23
508.777	2012.59
509.145	1993.83
509.514	1999.26
509.882	2008.52
510.25	2005.58
510.618	1990.22
510.986	2000.39
511.354	1994.96
511.722	2034.06
512.09	1973.49
512.458	2020.72
512.826	2022.76
513.193	2005.36
513.561	1980.5
513.929	1949.54
514.297	2000.61
514.664	2008.07
515.032	2000.84
515.4	1995.87
515.767	1994.06
516.135	1967.39
516.502	1960.16
516.869	1961.74
517.237	1958.58
517.604	1930.56
517.972	1943.21
518.339	1942.31
518.706	1936.43
519.073	1920.61
519.44	1947.96
519.808	1904.79
520.175	1894.63
520.542	1899.82
520.909	1884.91
521.276	1887.39
521.643	1923.33
522.009	1920.61
522.376	1948.41
522.743	1931.01
523.11	1919.48
523.477	1895.98
523.843	1903.89
524.21	1931.01
524.577	1924.68
524.943	1901.4
525.31	1905.02
525.676	1923.55
526.043	1923.78
526.409	1931.01
526.776	1904.79
527.142	1906.15
527.508	1927.17
527.874	1929.2
528.241	1904.57
528.607	1927.17
528.973	1913.83
529.339	1950.44
529.705	1948.64
530.071	1897.56
530.437	1924.68
530.803	1896.21
531.169	1911.35
531.535	1907.96
531.901	1925.13
532.267	1901.86
532.632	1918.13
532.998	1903.21
533.364	1887.39
533.73	1923.1
534.095	1946.15
534.461	1894.63
534.826	1913.16
535.192	1907.96
535.557	1894.63
535.923	1946.83
536.288	1916.32
536.653	1921.52
537.019	1902.53
537.384	1934.85
537.749	1931.23
538.114	1924.68
538.479	1927.39
538.845	1912.03
539.21	1898.24
539.575	1873.61
539.94	1918.81
540.305	1888.98
540.67	1897.79
541.034	1874.74
541.399	1907.05
541.764	1892.59
542.129	1893.5
542.494	1912.03
542.858	1879.03
543.223	1870.67
543.587	1906.15
543.952	1895.53
544.316	1903.21
544.681	1879.26
545.045	1882.2
545.41	1875.42
545.774	1882.87
546.138	1852.37
546.503	1888.75
546.867	1883.78
547.231	1897.79
547.595	1857.79
547.959	1882.2
548.324	1880.61
548.688	1863.44
549.052	1888.75
549.416	1860.5
549.779	1858.47
550.143	1851.69
550.507	1862.31
550.871	1858.69
551.235	1869.77
551.599	1878.13
551.962	1834.97
552.326	1857.34
552.689	1865.7
553.053	1849.88
553.417	1834.51
553.78	1867.28
554.143	1841.52
554.507	1808.75
554.87	1816.21
555.234	1871.12
555.597	1802.42
555.96	1818.24
556.323	1807.17
556.686	1848.98
557.05	1825.47
557.413	1857.56
557.776	1833.38
558.139	1833.38
558.502	1801.29
558.865	1838.58
559.228	1840.62
559.59	1796.77
559.953	1823.21
560.316	1825.02
560.679	1826.83
561.041	1847.39
561.404	1842.2
561.767	1847.17
562.129	1851.69
562.492	1844.68
562.854	1845.14
563.217	1825.93
563.579	1830.22
563.941	1839.03
564.304	1874.74
564.666	1863.21
565.028	1875.42
565.39	1846.72
565.753	1878.81
566.115	1884.68
566.477	1864.8
566.839	1863.89
567.201	1878.58
567.563	1891.24
567.925	1904.79
568.287	1898.69
568.648	1900.95
569.01	1894.17
569.372	1943.21
569.734	1925.58
570.095	1928.97
570.457	1945.7
570.819	1909.99
571.18	1912.93
571.542	1949.99
571.903	1956.54
572.265	1947.28
572.626	1915.64
572.987	1989.99
573.349	1965.81
573.71	1976.88
574.071	2005.81
574.432	1990.22
574.794	1996.09
575.155	2011.23
575.516	1963.32
575.877	2015.3
576.238	1989.09
576.599	2017.56
576.96	1991.8
577.32	2018.46
577.681	2038.35
578.042	2041.29
578.403	2021.63
578.763	2001.29
579.124	2018.92
579.485	2049.2
579.845	2061.17
580.206	2021.4
580.566	2062.98
580.927	2035.86
581.287	2083.32
581.648	2106.15
582.008	2077.45
582.368	2059.82
582.728	2094.85
583.089	2084.22
583.449	2098.01
583.809	2096.2
584.169	2087.84
584.529	2110.89
584.889	2104.56
585.249	2096.88
585.609	2083.77
585.969	2116.99
586.329	2102.76
586.688	2129.87
587.048	2132.36
587.408	2107.28
587.768	2160.38
588.127	2135.52
588.487	2124.22
588.846	2152.47
589.206	2155.64
589.565	2106.6
589.925	2153.83
590.284	2151.12
590.643	2175.52
591.003	2105.92
591.362	2135.52
591.721	2120.38
592.08	2144.34
592.44	2126.94
592.799	2153.15
593.158	2123.09
593.517	2142.53
593.876	2139.14
594.235	2145.69
594.593	2129.87
594.952	2164.22
595.311	2136.65
595.67	2129.2
596.029	2118.12
596.387	2154.96
596.746	2172.58
597.104	2126.94
597.463	2135.75
597.822	2107.28
598.18	2140.27
598.538	2164.45
598.897	2148.86
599.255	2143.21
599.613	2152.02
599.972	2128.97
600.33	2119.03
600.688	2121.51
601.046	2161.51
601.404	2153.15
601.762	2157.9
602.12	2142.08
602.478	2137.1
602.836	2163.54
603.194	2125.81
603.552	2138.23
603.91	2133.04
604.268	2143.21
604.625	2128.97
604.983	2129.2
605.341	2105.69
605.698	2164
606.056	2106.15
606.413	2118.35
606.771	2158.8
607.128	2137.33
607.485	2124.68
607.843	2141.17
608.2	2152.25
608.557	2149.08
608.914	2166.93
609.272	2174.84
609.629	2149.53
609.986	2114.05
610.343	2158.12
610.7	2150.89
611.057	2151.12
611.414	2152.25
611.771	2143.66
612.127	2171.23
612.484	2139.14
612.841	2142.75
613.198	2155.18
613.554	2161.28
613.911	2166.93
614.267	2137.56
614.624	2132.81
614.98	2157.9
615.337	2145.24
615.693	2153.38
616.05	2141.62
616.406	2157.9
616.762	2172.81
617.118	2157.9
617.475	2191.79
617.831	2149.31
618.187	2133.49
618.543	2171.45
618.899	2199.93
619.255	2175.07
619.611	2194.05
619.967	2197.89
620.323	2213.49
620.678	2199.93
621.034	2182.08
621.39	2165.13
621.746	2174.84
622.101	2240.6
622.457	2149.31
622.812	2171
623.168	2183.21
623.523	2222.75
623.879	2190.89
624.234	2180.95
624.589	2162.41
624.945	2171.45
625.3	2169.65
625.655	2167.84
626.01	2152.92
626.365	2196.31
626.72	2186.37
627.075	2186.82
627.43	2199.93
627.785	2197.44
628.14	2181.85
628.495	2159.7
628.85	2192.7
629.205	2193.6
629.559	2194.73
629.914	2170.78
630.269	2170.1
630.623	2175.3
630.978	2216.65
631.332	2178.01
631.687	2197.22
632.041	2200.38
632.396	2204.22
632.75	2166.48
633.104	2165.13
633.459	2171
633.813	2184.56
634.167	2200.83
634.521	2172.81
634.875	2180.49
635.229	2175.97
635.583	2212.36
635.937	2186.37
636.291	2191.79
636.645	2189.31
636.999	2208.52
637.352	2190.21
637.706	2190.66
638.06	2170.55
638.413	2153.83
638.767	2167.61
639.121	2220.04
639.474	2195.18
639.828	2156.54
640.181	2156.09
640.534	2171
640.888	2192.24
641.241	2184.79
641.594	2178.23
641.947	2164.22
642.301	2205.8
642.654	2212.13
643.007	2181.85
643.36	2161.74
643.713	2175.97
644.066	2189.98
644.419	2176.88
644.771	2164.22
645.124	2159.93
645.477	2142.98
645.83	2141.17
646.182	2161.28
646.535	2117.22
646.888	2148.63
647.24	2151.79
647.593	2175.3
647.945	2143.66
648.298	2158.12
648.65	2152.47
649.002	2137.78
649.355	2149.76
649.707	2117.67
650.059	2160.38
650.411	2174.62
650.763	2194.05
651.115	2211.91
651.467	2206.26
651.819	2215.29
652.171	2203.32
652.523	2208.97
652.875	2220.94
653.227	2219.81
653.578	2243.77
653.93	2214.39
654.282	2205.8
654.633	2216.42
654.985	2216.65
655.337	2212.36
655.688	2256.42
656.039	2244.22
656.391	2212.36
656.742	2222.53
657.094	2236.76
657.445	2251.45
657.796	2274.05
658.147	2267.27
658.498	2227.95
658.849	2263.66
659.2	2280.38
659.551	2248.74
659.902	2273.6
660.253	2251.45
660.604	2281.96
660.955	2268.85
661.306	2261.85
661.656	2267.95
662.007	2263.66
662.358	2267.5
662.708	2265.46
663.059	2281.96
663.409	2263.43
663.76	2279.02
664.11	2277.21
664.461	2250.55
664.811	2293.71
665.161	2276.54
665.511	2255.97
665.862	2274.28
666.212	2295.74
666.562	2283.54
666.912	2280.38
667.262	2283.99
667.612	2242.41
667.962	2293.48
668.312	2255.75
668.662	2302.3
669.011	2238.8
669.361	2264.11
669.711	2278.34
670.06	2272.92
670.41	2260.27
670.76	2276.08
671.109	2295.29
671.459	2235.18
671.808	2267.95
672.157	2251.68
672.507	2206.93
672.856	2258.01
673.205	2222.07
673.554	2226.14
673.904	2235.41
674.253	2245.12
674.602	2214.62
674.951	2194.05
675.3	2194.5
675.649	2232.47
675.998	2216.42
676.346	2219.59
676.695	2219.36
677.044	2224.56
677.393	2216.65
677.741	2230.89
678.09	2188.4
678.438	2184.11
678.787	2227.72
679.135	2179.36
679.484	2152.02
679.832	2162.64
680.181	2164.45
680.529	2189.53
680.877	2159.03
681.225	2101.63
681.573	2140.27
681.922	2141.17
682.27	2163.54
682.618	2124.68
682.966	2144.79
683.314	2116.99
683.661	2165.8
684.009	2142.75
684.357	2130.33
684.705	2109.53
685.053	2133.72
685.4	2114.28
685.748	2109.99
686.095	2088.74
686.443	2086.94
686.79	2064.79
687.138	2089.65
687.485	2089.65
687.832	2095.07
688.18	2107.28
688.527	2071.57
688.874	2062.53
689.221	2042.19
689.568	2079.93
689.915	2049.88
690.262	2065.02
690.609	2051.23
690.956	2031.34
691.303	2048.97
691.65	1992.25
691.997	2008.97
692.344	2016.2
692.69	1967.62
693.037	1989.99
693.383	1965.81
693.73	1979.14
694.077	1986.37
694.423	1974.85
694.769	1982.08
695.116	1955.87
695.462	1976.66
695.808	1926.04
696.155	1941.4
696.501	1921.07
696.847	1953.61
697.193	1935.75
697.539	1926.94
697.885	1933.95
698.231	1884.23
698.577	1947.28
698.923	1887.85
699.269	1886.49
699.614	1896.89
699.96	1916.77
700.306	1881.07
700.651	1903.44
700.997	1872.03
701.342	1866.15
701.688	1870.9
702.033	1873.61
702.379	1859.82
702.724	1886.94
703.069	1900.73
703.415	1854.63
703.76	1851.01
704.105	1840.62
704.45	1849.2
704.795	1808.3
705.14	1838.81
705.485	1849.88
705.83	1853.27
706.175	1846.94
706.52	1842.42
706.865	1864.57
707.209	1870.67
707.554	1842.88
707.899	1818.47
708.243	1830.45
708.588	1820.73
708.932	1803.55
709.277	1820.73
709.621	1853.04
709.966	1836.55
710.31	1825.93
710.654	1796.77
710.998	1838.58
711.342	1839.03
711.687	1869.54
712.031	1819.37
712.375	1843.55
712.719	1810.79
713.063	1804.68
713.407	1857.11
713.75	1813.05
714.094	1840.39
714.438	1846.49
714.782	1889.65
715.125	1845.59
715.469	1830.22
715.812	1822.54
716.156	1859.15
716.499	1820.28
716.843	1874.29
717.186	1888.3
717.53	1847.85
717.873	1844.46
718.216	1828.64
718.559	1848.07
718.902	1843.78
719.246	1836.1
719.589	1867.96
719.932	1863.67
720.275	1896.66
720.617	1901.86
720.96	1894.4
721.303	1852.82
721.646	1930.56
721.989	1882.42
722.331	1904.12
722.674	1905.92
723.016	1898.47
723.359	1907.73
723.701	1928.3
724.044	1938.24
724.386	1950.67
724.729	1943.89
725.071	1963.55
725.413	1947.28
725.755	1993.38
726.097	1928.97
726.439	1976.88
726.782	1963.78
727.124	1988.86
727.465	1993.38
727.807	1989.31
728.149	1976.66
728.491	1985.24
728.833	2013.72
729.175	2028.41
729.516	2053.72
729.858	2045.13
730.199	2040.16
730.541	2060.5
730.882	2042.19
731.224	2084.45
731.565	2080.61
731.906	2086.03
732.248	2088.97
732.589	2076.09
732.93	2092.13
733.271	2131
733.612	2122.42
733.953	2146.37
734.294	2129.65
734.635	2153.6
734.976	2193.83
735.317	2174.39
735.658	2186.82
735.999	2211.68
736.339	2221.17
736.68	2228.63
737.021	2231.34
737.361	2265.69
737.702	2270.43
738.042	2313.37
738.383	2309.53
738.723	2304.78
739.063	2281.96
739.404	2345.01
739.744	2339.59
740.084	2363.09
740.424	2382.3
740.764	2418.68
741.104	2432.46
741.444	2443.54
741.784	2448.06
742.124	2524.89
742.464	2519.92
742.804	2511.33
743.143	2592.01
743.483	2573.48
743.823	2561.27
744.162	2629.97
744.502	2673.36
744.841	2691.44
745.181	2750.2
745.52	2756.98
745.86	2825.9
746.199	2799.23
746.538	2837.88
746.877	2909.74
747.216	2953.35
747.556	2945.9
747.895	2996.97
748.234	3019.79
748.573	3072.45
748.911	3100.92
749.25	3138.66
749.589	3182.28
749.928	3210.97
750.267	3312.22
750.605	3308.83
750.944	3367.13
751.283	3421.82
751.621	3486.67
751.96	3501.14
752.298	3546.79
752.636	3587.46
752.975	3696.84
753.313	3715.14
753.651	3765.31
753.989	3845.53
754.327	3879.21
754.666	3957.62
755.004	3999.65
755.342	4031.29
755.679	4111.29
756.017	4166.88
756.355	4227.45
756.693	4245.52
757.031	4374.33
757.368	4355.58
757.706	4463.82
758.044	4513.54
758.381	4624.05
758.719	4680.54
759.056	4691.84
759.394	4756.47
759.731	4786.75
760.068	4874.21
760.405	4932.06
760.743	4978.39
761.08	5049.34
761.417	5052.28
761.754	5167.53
762.091	5214.31
762.428	5275.55
762.765	5293.41
763.102	5370.47
763.438	5352.39
763.775	5427.87
764.112	5485.72
764.449	5578.82
764.785	5609.33
765.122	5648.88
765.458	5719.38
765.795	5775.88
766.131	5817.23
766.467	5805.03
766.804	5910.11
767.14	5905.14
767.476	5924.8
767.812	5957.34
768.148	6024.91
768.485	6087.51
768.821	6121.18
769.157	6119.6
769.492	6152.37
769.828	6235.53
770.164	6166.6
770.5	6226.71
770.836	6266.26
