Data from blue_shiny_book_FLMS001491_00084.txt Node
Date: Wed Feb 08 15:27:40 GMT 2017
User: dcchb
Spectrometer: FLMS00149
Trigger mode: 0
Integration Time (sec): 2.000000E-2
Scans to average: 10
Electric dark correction enabled: true
Nonlinearity correction enabled: false
Boxcar width: 0
XAxis mode: Wavelengths
Number of Pixels in Spectrum: 2048
>>>>>Begin Spectral Data<<<<<
341.393	1.81
341.776	1.81
342.16	1.81
342.543	-48.13
342.927	-62.6
343.31	-64.63
343.693	-67.57
344.077	-70.51
344.46	-56.27
344.843	-49.72
345.226	-44.29
345.61	-18.98
345.993	-33.45
346.376	-17.63
346.759	2.26
347.142	16.5
347.525	41.13
347.908	63.28
348.291	68.7
348.674	122.93
349.057	108.25
349.44	113.67
349.823	144.18
350.206	164.06
350.588	196.6
350.971	228.47
351.354	216.04
351.737	250.39
352.119	257.62
352.502	265.53
352.884	280.44
353.267	297.17
353.65	306.43
354.032	323.83
354.414	310.05
354.797	310.05
355.179	311.4
355.562	346.43
355.944	320.44
356.326	350.73
356.709	321.57
357.091	344.85
357.473	359.54
357.855	334.68
358.238	349.37
358.62	350.95
359.002	348.69
359.384	374.45
359.766	346.21
360.148	369.26
360.53	359.09
360.912	352.31
361.294	345.98
361.676	336.04
362.057	327.45
362.439	362.93
362.821	334.68
363.203	349.82
363.584	337.39
363.966	350.05
364.348	340.78
364.729	342.14
365.111	333.1
365.493	336.26
365.874	336.94
366.256	335.81
366.637	332.65
367.019	342.59
367.4	334.45
367.781	340.56
368.163	334.23
368.544	321.12
368.925	319.54
369.306	348.69
369.688	339.65
370.069	338.97
370.45	327.67
370.831	338.3
371.212	351.63
371.593	355.92
371.974	352.31
372.355	348.47
372.736	339.43
373.117	362.25
373.498	325.19
373.879	344.4
374.26	362.7
374.641	346.66
375.021	352.08
375.402	351.86
375.783	338.97
376.163	355.47
376.544	347.79
376.925	388.46
377.305	364.96
377.686	350.27
378.066	376.94
378.447	365.64
378.827	372.65
379.208	377.39
379.588	375.58
379.968	391.63
380.349	404.51
380.729	371.06
381.109	373.1
381.489	389.14
381.87	390.27
382.25	399.54
382.63	401.35
383.01	402.02
383.39	407.67
383.77	404.51
384.15	399.54
384.53	436.37
384.91	411.74
385.29	435.02
385.67	418.97
386.049	439.08
386.429	439.54
386.809	450.38
387.189	456.26
387.568	441.57
387.948	423.94
388.328	444.73
388.707	444.28
389.087	463.72
389.466	445.64
389.846	469.14
390.225	479.76
390.605	472.08
390.984	477.73
391.363	508.91
391.743	495.81
392.122	503.94
392.501	487.9
392.881	522.7
393.26	508.91
393.639	515.92
394.018	521.79
394.397	518.63
394.776	507.56
395.155	531.74
395.534	522.02
395.913	536.71
396.292	552.08
396.671	553.43
397.05	558.18
397.429	565.41
397.808	572.64
398.186	555.01
398.565	548.46
398.944	558.86
399.323	578.52
399.701	580.1
400.08	572.87
400.458	595.69
400.837	617.61
401.215	621.68
401.594	619.19
401.972	628.68
402.351	626.42
402.729	631.17
403.107	637.95
403.486	662.13
403.864	654.67
404.242	648.34
404.62	697.38
404.999	691.73
405.377	693.54
405.755	695.35
406.133	706.2
406.511	716.37
406.889	727.89
407.267	731.05
407.645	755.23
408.023	771.51
408.401	771.96
408.779	787.32
409.156	792.75
409.534	822.13
409.912	805.4
410.29	824.61
410.667	835.91
411.045	844.05
411.422	858.96
411.8	846.53
412.178	892.63
412.555	883.59
412.933	885.4
413.31	909.81
413.687	926.53
414.065	947.55
414.442	952.74
414.819	981.44
415.197	983.93
415.574	982.12
415.951	989.8
416.328	987.77
416.705	1003.14
417.082	1040.42
417.46	1030.93
417.837	1069.35
418.214	1044.49
418.591	1076.36
418.967	1093.53
419.344	1106.19
419.721	1104.6
420.098	1117.48
420.475	1151.83
420.852	1158.61
421.228	1162.91
421.605	1183.7
421.982	1194.09
422.358	1196.13
422.735	1213.53
423.111	1249.46
423.488	1263.47
423.864	1247.88
424.241	1258.95
424.617	1296.92
424.994	1293.3
425.37	1310.7
425.746	1337.59
426.123	1380.53
426.499	1378.04
426.875	1392.28
427.251	1406.74
427.627	1437.48
428.003	1451.49
428.379	1458.04
428.756	1486.97
429.132	1522.9
429.507	1531.94
429.883	1552.73
430.259	1565.83
430.635	1578.04
431.011	1589.56
431.387	1664.36
431.763	1683.57
432.138	1683.57
432.514	1729.67
432.89	1745.04
433.265	1771.93
433.641	1784.13
434.016	1797.47
434.392	1849.44
434.767	1848.99
435.143	1877.01
435.518	1905.03
435.894	1972.6
436.269	1987.74
436.644	1991.13
437.02	1999.72
437.395	2036.1
437.77	2064.8
438.145	2077.46
438.52	2085.82
438.895	2122.88
439.271	2147.97
439.646	2193.39
440.021	2183.67
440.395	2202.43
440.77	2213.05
441.145	2279.26
441.52	2291.69
441.895	2310.67
442.27	2347.96
442.645	2379.82
443.019	2392.48
443.394	2369.2
443.769	2417.56
444.143	2411.01
444.518	2435.19
444.892	2429.54
445.267	2486.26
445.641	2492.14
446.016	2535.98
446.39	2559.93
446.764	2593.38
447.139	2572.36
447.513	2603.32
447.887	2607.84
448.262	2641.96
448.636	2672.7
449.01	2684
449.384	2720.15
449.758	2731
450.132	2754.28
450.506	2810.32
450.88	2841.51
451.254	2806.71
451.628	2886.7
452.002	2900.04
452.376	2942.3
452.75	2983.88
453.123	3038.34
453.497	3043.76
453.871	3067.49
454.244	3135.06
454.618	3181.84
454.992	3208.5
455.365	3199.24
455.739	3297.99
456.112	3330.08
456.486	3355.39
456.859	3415.73
457.232	3478.55
457.606	3489.63
457.979	3578.66
458.352	3646.68
458.725	3718.55
459.099	3694.59
459.472	3792.44
459.845	3801.93
460.218	3862.27
460.591	3869.28
460.964	3928.03
461.337	4027.01
461.71	4041.25
462.083	4118.76
462.456	4121.93
462.829	4142.94
463.201	4263.84
463.574	4268.81
463.947	4355.14
464.32	4457.28
464.692	4475.59
465.065	4497.28
465.438	4572.76
465.81	4605.98
466.183	4732.3
466.555	4790.83
466.928	4838.52
467.3	4887.33
467.672	4974.11
468.045	5060.43
468.417	5083.71
468.789	5163.71
469.161	5198.51
469.534	5317.6
469.906	5421.55
470.278	5461.55
470.65	5499.06
471.022	5624.71
471.394	5746.29
471.766	5721.43
472.138	5802.56
472.51	5927.08
472.882	6041.65
473.253	6135.21
473.625	6261.76
473.997	6380.62
474.369	6416.55
474.74	6513.05
475.112	6632.82
475.484	6718.47
475.855	6903.55
476.227	6920.5
476.598	7150.32
476.97	7172.47
477.341	7364.1
477.713	7461.72
478.084	7571.55
478.455	7730.42
478.827	7811.09
479.198	8017.64
479.569	8102.39
479.94	8307.13
480.311	8403.62
480.682	8569.72
481.053	8751.18
481.424	8902.36
481.795	9023.72
482.166	9183.94
482.537	9253.32
482.908	9433.42
483.279	9552.29
483.65	9747.54
484.021	9922.45
484.391	10066.4
484.762	10122.9
485.133	10279.05
485.503	10437.01
485.874	10739.6
486.244	10829.09
486.615	10992.03
486.985	11160.38
487.356	11305.92
487.726	11424.78
488.097	11563.76
488.467	11751.56
488.837	11965.79
489.207	12192
489.578	12287.81
489.948	12392.22
490.318	12647.13
490.688	12721.25
491.058	12903.39
491.428	13276.49
491.798	13276.26
492.168	13581.56
492.538	13601.22
492.908	13761.67
493.278	13897.04
493.648	14017.26
494.017	14126.41
494.387	14310.13
494.757	14435.78
495.126	14625.6
495.496	14666.73
495.866	14838.71
496.235	15070.56
496.605	15141.75
496.974	15255.19
497.344	15392.14
497.713	15562.75
498.082	15744.9
498.452	15906.93
498.821	15966.59
499.19	16004.55
499.559	16173.81
499.928	16245
500.298	16372.68
500.667	16480.7
501.036	16494.03
501.405	16770.63
501.774	16726.11
502.143	16891.76
502.512	17184.63
502.88	17268.7
503.249	17322.26
503.618	17441.8
503.987	17538.3
504.356	17677.05
504.724	17935.8
505.093	17917.04
505.462	17974.89
505.83	18181.44
506.199	18308.9
506.567	18535.56
506.936	18447.2
507.304	18734.2
507.672	18801.54
508.041	18872.72
508.409	19046.96
508.777	19226.16
509.145	19346.38
509.514	19474.52
509.882	19596.77
510.25	19677.67
510.618	19973.26
510.986	19965.35
511.354	20167.38
511.722	20275.17
512.09	20465.22
512.458	20448.73
512.826	20705.9
513.193	20831.54
513.561	20847.81
513.929	20954.25
514.297	21078.32
514.664	21261.59
515.032	21331.42
515.4	21627.45
515.767	21592.88
516.135	21891.63
516.502	21869.71
516.869	22156.03
517.237	22374.55
517.604	22344.27
517.972	22622.68
518.339	22771.38
518.706	22922.11
519.073	23018.83
519.44	23189.67
519.808	23442.55
520.175	23369.78
520.542	23606.38
520.909	23808.19
521.276	23840.5
521.643	23999.82
522.009	24198.91
522.376	24308.51
522.743	24445.23
523.11	24723.64
523.477	25058.32
523.843	25163.63
524.21	25469.84
524.577	25895.82
524.943	25849.72
525.31	26145.98
525.676	26360.44
526.043	26592.07
526.409	26647.43
526.776	26764.27
527.142	26915.22
527.508	27089.68
527.874	27281.32
528.241	27229.34
528.607	27298.72
528.973	27626.39
529.339	27660.52
529.705	27940.73
530.071	28181.63
530.437	28281.52
530.803	28544.11
531.169	28864.33
531.535	28833.59
531.901	29066.58
532.267	29206.01
532.632	29507.92
532.998	29425.21
533.364	29852.32
533.73	29869.05
534.095	30012.54
534.461	30122.37
534.826	30167.57
535.192	30174.12
535.557	30468.58
535.923	30302.03
536.288	30535.24
536.653	30679.19
537.019	30520.1
537.384	30822.24
537.749	30950.82
538.114	31036.25
538.479	31105.17
538.845	31393.07
539.21	31287.54
539.575	31720.97
539.94	31782.67
540.305	32028.08
540.67	32011.81
541.034	32068.08
541.399	32164.13
541.764	32253.16
542.129	32319.83
542.494	32304.01
542.858	32535.42
543.223	32408.41
543.587	32685.69
543.952	32524.57
544.316	32663.1
544.681	32626.94
545.045	32873.49
545.41	32997.55
545.774	33016.98
546.138	33086.59
546.503	33291.33
546.867	33335.85
547.231	33811.99
547.595	33765.67
547.959	34006.79
548.324	34035.94
548.688	34172.43
549.052	34298.53
549.416	34389.6
549.779	34465.99
550.143	34231.42
550.507	34538.98
550.871	34379.44
551.235	34378.31
551.599	34601.8
551.962	34531.52
552.326	34612.2
552.689	34798.18
553.053	34612.88
553.417	34810.38
553.78	35327.43
554.143	35176.25
554.507	35382.57
554.87	35469.12
555.234	35896.01
555.597	35884.48
555.96	35974.42
556.323	36245.6
556.686	36402.66
557.05	36515.88
557.413	36733.72
557.776	36771.69
558.139	37003.55
558.502	36841.74
558.865	36915.41
559.228	37029.08
559.59	36935.53
559.953	36916.32
560.316	37197.89
560.679	37256.2
561.041	37473.36
561.404	37535.06
561.767	37835.39
562.129	37780.93
562.492	38173.91
562.854	38229.73
563.217	38262.72
563.579	38463.85
563.941	38757.4
564.304	39038.75
564.666	39282.36
565.028	39257.72
565.39	39559.64
565.753	39740.2
566.115	39795.56
566.477	39951.94
566.839	39977.71
567.201	40132.05
567.563	39963.92
567.925	40231.26
568.287	40361.2
568.648	40259.05
569.01	40483.23
569.372	40591.02
569.734	40360.75
570.095	40764.35
570.457	40652.72
570.819	40894.07
571.18	41005.02
571.542	41209.09
571.903	41413.37
572.265	41766.59
572.626	41796.87
572.987	41842.52
573.349	42156.41
573.71	42391.2
574.071	42487.92
574.432	42535.38
574.794	42852.88
575.155	42721.36
575.516	42597.52
575.877	42737.41
576.238	42797.97
576.599	42856.27
576.96	42626.45
577.32	42736.28
577.681	42809.27
578.042	42870.29
578.403	42751.19
578.763	42840.91
579.124	42923.39
579.485	43131.07
579.845	43432.98
580.206	43345.75
580.566	43421.91
580.927	43514.56
581.287	43813.31
581.648	43670.72
582.008	43992.97
582.368	43925.4
582.728	44049.69
583.089	44080.42
583.449	44248.55
583.809	44260.76
584.169	44183.02
584.529	44130.14
584.889	44472.73
585.249	43981.44
585.609	43870.48
585.969	44086.75
586.329	43869.58
586.688	43988.9
587.048	43818.28
587.408	43892.41
587.768	43821.67
588.127	43714.78
588.487	43721.11
588.846	43991.84
589.206	43818.73
589.565	43896.02
589.925	44175.79
590.284	43926.08
590.643	44178.5
591.003	44373.75
591.362	44660.97
591.721	44406.06
592.08	44482.9
592.44	44620.75
592.799	44918.14
593.158	44712.5
593.517	44679.73
593.876	44656.45
594.235	44525.16
594.593	44642.89
594.952	44614.42
595.311	44515.67
595.67	44561.54
596.029	44700.75
596.387	44517.25
596.746	44375.56
597.104	44191.83
597.463	44329.68
597.822	44498.72
598.18	44422.11
598.538	44378.04
598.897	44640.18
599.255	44273.19
599.613	44908.88
599.972	44683.8
600.33	44943.45
600.688	44933.06
601.046	45130.56
601.404	45205.37
601.762	45206.04
602.12	45412.37
602.478	45428.64
602.836	45386.38
603.194	45180.28
603.552	45379.6
603.91	45007.18
604.268	45247.85
604.625	45025.93
604.983	45076.78
605.341	44914.53
605.698	45071.58
606.056	45195.87
606.413	45088.08
606.771	45222.77
607.128	45223.44
607.485	45030.45
607.843	45190
608.2	45249.88
608.557	45368.52
608.914	45277.68
609.272	45519.03
609.629	45691
609.986	45782.07
610.343	45557.67
610.7	45838.79
611.057	45886.03
611.414	46011.22
611.771	46026.81
612.127	46240.82
612.484	46352.45
612.841	46219.35
613.198	46215.51
613.554	46273.13
613.911	46251.21
614.267	46321.04
614.624	46368.72
614.98	46407.37
615.337	46628.15
615.693	46323.53
616.05	46275.62
616.406	46416.86
616.762	46343.64
617.118	46279.24
617.475	46325.34
617.831	46470.64
618.187	46479.91
618.543	46454.37
618.899	46608.04
619.255	46582.05
619.611	46505.44
619.967	46701.6
620.323	46852.1
620.678	46621.6
621.034	46720.58
621.39	46833.8
621.746	46835.6
622.101	47069.27
622.457	46880.8
622.812	46954.02
623.168	47239.21
623.523	47168.93
623.879	47268.14
624.234	47081.93
624.589	47254.58
624.945	47363.27
625.3	47191.75
625.655	47182.04
626.01	47087.58
626.365	47075.15
626.72	47071.76
627.075	47031.53
627.43	46928.48
627.785	46791.54
628.14	46809.39
628.495	46886.45
628.85	46771.65
629.205	46571.66
629.559	46782.72
629.914	46432.45
630.269	46548.83
630.623	46415.05
630.978	46472.9
631.332	46685.55
631.687	46713.8
632.041	46613.46
632.396	46671.54
632.75	46520.58
633.104	46547.93
633.459	46489.4
633.813	46502.28
634.167	46509.51
634.521	46411.44
634.875	46558.32
635.229	46428.84
635.583	46305.22
635.937	46366.92
636.291	46297.99
636.645	46271.33
636.999	46068.39
637.352	46145.91
637.706	45914.5
638.06	46027.94
638.413	45942.07
638.767	45709.31
639.121	45757.21
639.474	45348.41
639.828	45482.65
640.181	45407.17
640.534	45333.27
640.888	45310
641.241	44989.55
641.594	45220.73
641.947	45299.15
642.301	45218.47
642.654	45293.72
643.007	45297.11
643.36	45315.87
643.713	45148.42
644.066	45316.55
644.419	45300.05
644.771	45232.03
645.124	45217.57
645.477	45284.46
645.83	44999.27
646.182	44645.61
646.535	44298.95
646.888	44119.52
647.24	43832.29
647.593	43890.15
647.945	43630.72
648.298	43437.28
648.65	43421.68
649.002	43462.36
649.355	43526.54
649.707	43671.17
650.059	43795.23
650.411	44321.77
650.763	44312.73
651.115	44635.44
651.467	44356.57
651.819	44286.29
652.171	44113.64
652.523	43957.71
652.875	44036.36
653.227	43962.46
653.578	44298.95
653.93	44307.31
654.282	44085.85
654.633	43982.35
654.985	44021.67
655.337	44111.16
655.688	44069.12
656.039	44334.2
656.391	44149.57
656.742	44101.67
657.094	44317.25
657.445	44508.21
657.796	44396.8
658.147	44463.24
658.498	44437.93
658.849	44470.7
659.2	44308.89
659.551	44102.12
659.902	44439.28
660.253	44243.58
660.604	44292.62
660.955	43948.9
661.306	44025.06
661.656	43866.19
662.007	43947.32
662.358	43797.94
662.708	43756.59
663.059	43581.68
663.409	43347.11
663.76	43655.12
664.11	43439.31
664.461	43367
664.811	43386.2
665.161	43348.24
665.511	43373.77
665.862	43354.34
666.212	43619.42
666.562	43568.8
666.912	43512.75
667.262	43675.69
667.612	43810.15
667.962	43749.58
668.312	43687.21
668.662	43849.69
669.011	43980.09
669.361	43873.87
669.711	43906.87
670.06	43970.6
670.41	43904.61
670.76	43840.66
671.109	43859.41
671.459	43754.56
671.808	43661.22
672.157	43710.49
672.507	43507.56
672.856	43447.67
673.205	43451.06
673.554	43438.63
673.904	43175.81
674.253	43270.5
674.602	43165.64
674.951	42508.49
675.3	42181.49
675.649	42860.34
675.998	42749.84
676.346	42684.75
676.695	42778.99
677.044	42473.46
677.393	42508.49
677.741	42448.15
678.09	42268.27
678.438	42297.42
678.787	42445.44
679.135	42479.34
679.484	42251.09
679.832	42442.5
680.181	42339.9
680.529	42560.01
680.877	42394.37
681.225	42475.49
681.573	42644.08
681.922	42508.94
682.27	42413.8
682.618	42491.76
682.966	42452.9
683.314	42437.98
683.661	42285.44
684.009	42081.38
684.357	42079.35
684.705	41980.59
685.053	41962.74
685.4	41843.42
685.748	41729.52
686.095	41533.82
686.443	41372.02
686.79	41231.46
687.138	41271.91
687.485	41258.35
687.832	40949.21
688.18	40910.34
688.527	40532.49
688.874	40539.5
689.221	40225.83
689.568	40156.46
689.915	39973.41
690.262	40081.66
690.609	39923.47
690.956	39735.23
691.303	39799.41
691.65	39711.5
691.997	39670.14
692.344	39295.92
692.69	39441.45
693.037	39453.43
693.383	39155.81
693.73	39374.33
694.077	39240.55
694.423	39258.63
694.769	39152.64
695.116	38995.81
695.462	38906.77
695.808	38975.25
696.155	39118.07
696.501	38802.37
696.847	38793.33
697.193	38468.14
697.539	38613.45
697.885	38624.97
698.231	38357.18
698.577	38256.17
698.923	38252.33
699.269	38016.63
699.614	37794.26
699.96	37613.93
700.306	37514.72
700.651	37263.88
700.997	37128.06
701.342	36911.35
701.688	36938.24
702.033	36706.61
702.379	36707.06
702.724	36420.96
703.069	36546.61
703.415	36099.16
703.76	36177.81
704.105	36012.16
704.45	35901.2
704.795	35994.53
705.14	35663.7
705.485	35711.38
705.83	35446.07
706.175	35586.18
706.52	35515.22
706.865	35342.12
707.209	35312.97
707.554	35291.05
707.899	35372.86
708.243	35206.98
708.588	35227.1
708.932	35096.93
709.277	35252.18
709.621	35301.44
709.966	34889.48
710.31	35001.34
710.654	34650.84
710.998	35036.82
711.342	34893.09
711.687	34856.26
712.031	34644.06
712.375	34402.94
712.719	34482.71
713.063	34238.65
713.407	34374.46
713.75	34137.18
714.094	34094.02
714.438	33884.76
714.782	33868.71
715.125	33680.02
715.469	33785.78
715.812	33432.57
716.156	33148.28
716.499	33279.35
716.843	33181.95
717.186	32875.75
717.53	33062.18
717.873	32823.09
718.216	32763.66
718.559	32847.05
718.902	32547.62
719.246	32763.66
719.589	32564.57
719.932	32684.56
720.275	32607.73
720.617	32494.96
720.96	32576.77
721.303	32567.05
721.646	32718.24
721.989	32592.82
722.331	32683.89
722.674	32705.13
723.016	32757.1
723.359	32743.55
723.701	32788.97
724.044	32497.9
724.386	32399.83
724.729	32609.31
725.071	32631.68
725.413	32595.75
725.755	32603.44
726.097	32472.37
726.439	32308.08
726.782	32230.56
727.124	32391.92
727.465	32177.68
727.807	32062.43
728.149	32028.99
728.491	31845.26
728.833	31867.64
729.175	31694.53
729.516	31733.18
729.858	31604.37
730.199	31695.44
730.541	31623.35
730.882	31549.45
731.224	31559.17
731.565	31297.48
731.906	31406.41
732.248	31282.57
732.589	31250.7
732.93	31250.03
733.271	31154.44
733.612	31090.48
733.953	31221.55
734.294	31107.88
734.635	31126.41
734.976	31323.24
735.317	30994.44
735.658	31125.06
735.999	31060.2
736.339	31081.67
736.68	31327.99
737.021	31236.69
737.361	31129.35
737.702	31417.48
738.042	31258.84
738.383	31311.49
738.723	31396.91
739.063	31314.43
739.404	31479.17
739.744	31525.05
740.084	31280.76
740.424	31386.75
740.764	31240.08
741.104	31373.86
741.444	31194.66
741.784	31273.3
742.124	31318.72
742.464	31268.78
742.804	31251.61
743.143	31181.55
743.483	31174.32
743.823	30960.54
744.162	31082.12
744.502	31118.5
744.841	31101.33
745.181	31116.92
745.52	30939.75
745.86	30933.42
746.199	30850.49
746.538	30849.36
746.877	30798.74
747.216	30821.56
747.556	30776.82
747.895	30802.58
748.234	30697.72
748.573	30638.29
748.911	30698.85
749.25	30740.21
749.589	30786.54
749.928	30855.69
750.267	30855.23
750.605	30791.28
750.944	30916.7
751.283	30924.84
751.621	31110.59
751.96	30871.73
752.298	30803.03
752.636	31120.99
752.975	31060.65
753.313	31117.6
