Data from blue_chair_FLMS001491_00013.txt Node
Date: Wed Feb 08 10:29:32 GMT 2017
User: dcchb
Spectrometer: FLMS00149
Trigger mode: 0
Integration Time (sec): 2.000000E-2
Scans to average: 10
Electric dark correction enabled: true
Nonlinearity correction enabled: false
Boxcar width: 0
XAxis mode: Wavelengths
Number of Pixels in Spectrum: 2048
>>>>>Begin Spectral Data<<<<<
341.393	-12.88
341.776	-12.88
342.16	-12.88
342.543	-51.75
342.927	-46.55
343.31	-49.26
343.693	-62.37
344.077	-65.08
344.46	-61.24
344.843	-49.26
345.226	-44.74
345.61	-39.32
345.993	-34.58
346.376	-5.65
346.759	14.91
347.142	37.51
347.525	29.83
347.908	53.78
348.291	74.57
348.674	94.91
349.057	105.99
349.44	104.4
349.823	108.47
350.206	142.14
350.588	172.42
350.971	210.16
351.354	203.38
351.737	223.27
352.119	225.76
352.502	248.58
352.884	249.71
353.267	259.43
353.65	245.87
354.032	289.03
354.414	271.41
354.797	287.68
355.179	272.08
355.562	299.88
355.944	302.14
356.326	295.59
356.709	301.46
357.091	305.53
357.473	316.6
357.855	316.38
358.238	299.2
358.62	312.76
359.002	321.12
359.384	293.33
359.766	324.29
360.148	309.37
360.53	316.6
360.912	318.64
361.294	293.55
361.676	305.3
362.057	304.62
362.439	315.92
362.821	303.95
363.203	294.91
363.584	298.52
363.966	291.97
364.348	283.83
364.729	292.42
365.111	294.46
365.493	284.51
365.874	307.11
366.256	296.94
366.637	301.46
367.019	276.38
367.4	289.03
367.781	288.35
368.163	273.21
368.544	264.4
368.925	268.24
369.306	289.94
369.688	280.22
370.069	272.99
370.45	275.25
370.831	279.99
371.212	270.28
371.593	298.07
371.974	273.67
372.355	256.94
372.736	281.35
373.117	271.41
373.498	271.86
373.879	280.9
374.26	287.22
374.641	292.2
375.021	268.69
375.402	268.02
375.783	289.94
376.163	296.94
376.544	308.69
376.925	284.51
377.305	271.86
377.686	296.04
378.066	285.19
378.447	293.55
378.827	317.96
379.208	305.75
379.588	293.33
379.968	296.72
380.349	310.05
380.729	308.01
381.109	296.04
381.489	290.61
381.87	281.12
382.25	270.73
382.63	293.78
383.01	305.98
383.39	290.61
383.77	288.58
384.15	312.76
384.53	302.14
384.91	297.85
385.29	282.48
385.67	289.48
386.049	304.62
386.429	307.56
386.809	309.14
387.189	279.99
387.568	299.43
387.948	291.74
388.328	319.09
388.707	304.85
389.087	310.73
389.466	323.38
389.846	296.49
390.225	322.48
390.605	306.43
390.984	302.36
391.363	305.98
391.743	298.75
392.122	299.88
392.501	314.57
392.881	331.52
393.26	309.37
393.639	334
394.018	314.12
394.397	288.81
394.776	317.05
395.155	300.33
395.534	328.8
395.913	329.93
396.292	313.44
396.671	339.2
397.05	324.06
397.429	344.85
397.808	340.56
398.186	339.65
398.565	338.97
398.944	313.44
399.323	329.03
399.701	323.83
400.08	337.17
400.458	322.93
400.837	343.04
401.215	326.55
401.594	334
401.972	338.07
402.351	321.12
402.729	358.63
403.107	333.78
403.486	335.58
403.864	359.54
404.242	360.44
404.62	350.73
404.999	344.4
405.377	357.5
405.755	347.79
406.133	360.22
406.511	353.21
406.889	375.58
407.267	353.44
407.645	372.19
408.023	345.98
408.401	374
408.779	374.45
409.156	355.47
409.534	376.71
409.912	383.04
410.29	376.04
410.667	386.88
411.045	384.85
411.422	362.25
411.8	375.58
412.178	369.26
412.555	379.65
412.933	392.53
413.31	390.72
413.687	393.89
414.065	397.05
414.442	407.67
414.819	388.01
415.197	418.29
415.574	392.31
415.951	414
416.328	400.67
416.705	406.99
417.082	415.81
417.46	415.81
417.837	412.64
418.214	419.42
418.591	429.59
418.967	416.03
419.344	430.72
419.721	415.58
420.098	407.67
420.475	412.87
420.852	421.46
421.228	433.66
421.605	439.54
421.982	447.22
422.358	439.31
422.735	440.89
423.111	444.73
423.488	426.66
423.864	455.58
424.241	472.08
424.617	449.25
424.994	469.82
425.37	481.8
425.746	445.41
426.123	447.67
426.499	469.14
426.875	488.35
427.251	458.52
427.627	479.54
428.003	479.99
428.379	469.82
428.756	510.95
429.132	491.29
429.507	502.81
429.883	506.2
430.259	517.95
430.635	517.27
431.011	516.6
431.387	521.79
431.763	526.09
432.138	529.03
432.514	536.71
432.89	530.16
433.265	532.64
433.641	548.91
434.016	575.58
434.392	552.3
434.767	574
435.143	574
435.518	583.04
435.894	572.19
436.269	611.74
436.644	605.18
437.02	599.98
437.395	600.21
437.77	596.59
438.145	620.32
438.52	619.64
438.895	630.49
439.271	650.83
439.646	632.98
440.021	654.67
440.395	656.93
440.77	648.12
441.145	651.28
441.52	678.85
441.895	670.72
442.27	666.42
442.645	688.57
443.019	665.07
443.394	695.35
443.769	658.51
444.143	693.77
444.518	703.48
444.892	707.33
445.267	704.84
445.641	706.65
446.016	719.98
446.39	719.08
446.764	738.96
447.139	721.79
447.513	733.31
447.887	732.86
448.262	732.41
448.636	732.41
449.01	738.74
449.384	756.82
449.758	745.07
450.132	752.07
450.506	788.45
450.88	786.19
451.254	760.88
451.628	768.34
452.002	796.59
452.376	814.67
452.75	795.91
453.123	801.33
453.497	814.22
453.871	808.57
454.244	822.13
454.618	830.49
454.992	847.21
455.365	837.94
455.739	851.73
456.112	861.22
456.486	863.93
456.859	871.39
457.232	878.17
457.606	870.49
457.979	920.2
458.352	886.53
458.725	907.55
459.099	904.83
459.472	876.14
459.845	908.68
460.218	920.65
460.591	916.13
460.964	934.66
461.337	958.39
461.71	976.25
462.083	973.53
462.456	977.15
462.829	962.23
463.201	973.31
463.574	963.14
463.947	977.15
464.32	1020.99
464.692	1002.69
465.065	1043.81
465.438	1052.4
465.81	1016.24
466.183	1040.88
466.555	1081.78
466.928	1050.37
467.3	1057.15
467.672	1053.53
468.045	1082.68
468.417	1080.2
468.789	1105.28
469.161	1088.56
469.534	1114.32
469.906	1124.04
470.278	1143.02
470.65	1146.86
471.022	1169.23
471.394	1176.69
471.766	1186.41
472.138	1175.11
472.51	1213.75
472.882	1207.43
473.253	1185.73
473.625	1246.75
473.997	1230.7
474.369	1214.21
474.74	1235.22
475.112	1272.06
475.484	1266.41
475.855	1297.37
476.227	1295.56
476.598	1321.1
476.97	1333.52
477.341	1316.12
477.713	1367.87
478.084	1323.13
478.455	1399.06
478.827	1416.01
479.198	1397.48
479.569	1412.62
479.94	1444.71
480.311	1451.71
480.682	1456.23
481.053	1485.38
481.424	1496.68
481.795	1501.43
482.166	1485.84
482.537	1506.85
482.908	1515.21
483.279	1555.89
483.65	1571.26
484.021	1573.97
484.391	1584.14
484.762	1579.17
485.133	1623.01
485.503	1601.99
485.874	1631.37
486.244	1624.82
486.615	1650.8
486.985	1697.81
487.356	1665.72
487.726	1653.29
488.097	1683.35
488.467	1697.58
488.837	1725.83
489.207	1706.17
489.578	1755.21
489.948	1750.01
490.318	1745.49
490.688	1738.49
491.058	1739.84
491.428	1782.1
491.798	1759.73
492.168	1799.73
492.538	1794.98
492.908	1821.65
493.278	1789.11
493.648	1816.22
494.017	1840.63
494.387	1853.06
494.757	1835.43
495.126	1819.16
495.496	1831.59
495.866	1843.79
496.235	1844.47
496.605	1844.25
496.974	1857.35
497.344	1846.05
497.713	1839.27
498.082	1858.71
498.452	1824.58
498.821	1846.73
499.19	1856
499.559	1894.19
499.928	1838.14
500.298	1876.79
500.667	1844.7
501.036	1840.86
501.405	1843.34
501.774	1837.69
502.143	1850.8
502.512	1850.12
502.88	1865.04
503.249	1865.94
503.618	1841.08
503.987	1832.49
504.356	1844.92
504.724	1862.1
505.093	1873.85
505.462	1893.51
505.83	1846.28
506.199	1852.61
506.567	1841.08
506.936	1836.11
507.304	1846.73
507.672	1858.93
508.041	1862.55
508.409	1842.21
508.777	1836.11
509.145	1858.93
509.514	1866.62
509.882	1807.64
510.25	1817.35
510.618	1840.4
510.986	1859.61
511.354	1874.53
511.722	1851.7
512.09	1844.02
512.458	1812.16
512.826	1833.4
513.193	1842.89
513.561	1817.13
513.929	1798.37
514.297	1846.73
514.664	1820.52
515.032	1780.07
515.4	1821.42
515.767	1831.14
516.135	1795.43
516.502	1801.53
516.869	1813.06
517.237	1837.24
517.604	1773.51
517.972	1780.29
518.339	1753.63
518.706	1792.04
519.073	1768.09
519.44	1791.37
519.808	1769.44
520.175	1756.11
520.542	1768.99
520.909	1790.01
521.276	1774.64
521.643	1785.72
522.009	1747.07
522.376	1785.49
522.743	1756.56
523.11	1771.48
523.477	1782.1
523.843	1755.66
524.21	1803.79
524.577	1781.65
524.943	1751.82
525.31	1771.48
525.676	1783
526.043	1782.78
526.409	1778.94
526.776	1811.93
527.142	1768.99
527.508	1787.3
527.874	1753.63
528.241	1780.52
528.607	1752.5
528.973	1747.98
529.339	1738.26
529.705	1759.05
530.071	1778.48
530.437	1761.31
530.803	1771.48
531.169	1787.98
531.535	1758.37
531.901	1747.75
532.267	1762.44
532.632	1736.9
532.998	1778.71
533.364	1745.72
533.73	1756.79
534.095	1760.63
534.461	1740.29
534.826	1735.1
535.192	1751.59
535.557	1757.02
535.923	1722.89
536.288	1734.42
536.653	1737.36
537.019	1718.6
537.384	1745.26
537.749	1734.42
538.114	1744.81
538.479	1730.12
538.845	1725.38
539.21	1699.39
539.575	1713.63
539.94	1733.51
540.305	1713.63
540.67	1696.45
541.034	1714.53
541.399	1698.49
541.764	1709.33
542.129	1685.83
542.494	1698.94
542.858	1706.17
543.223	1687.19
543.587	1682.22
543.952	1696.23
544.316	1689.45
544.681	1670.69
545.045	1663.91
545.41	1657.36
545.774	1668.43
546.138	1703.01
546.503	1662.1
546.867	1664.59
547.231	1657.58
547.595	1664.81
547.959	1674.98
548.324	1665.27
548.688	1639.28
549.052	1656.45
549.416	1651.26
549.779	1658.94
550.143	1626.85
550.507	1649.22
550.871	1643.8
551.235	1621.65
551.599	1638.38
551.962	1641.54
552.326	1629.34
552.689	1616.91
553.053	1616.91
553.417	1585.04
553.78	1642.89
554.143	1608.77
554.507	1594.76
554.87	1608.32
555.234	1620.07
555.597	1622.56
555.96	1607.64
556.323	1614.87
556.686	1611.94
557.05	1611.26
557.413	1621.65
557.776	1607.87
558.139	1620.97
558.502	1595.66
558.865	1575.33
559.228	1586.17
559.59	1611.71
559.953	1576.46
560.316	1614.42
560.679	1627.3
561.041	1584.82
561.404	1618.49
561.767	1638.6
562.129	1621.2
562.492	1620.97
562.854	1605.16
563.217	1613.06
563.579	1591.14
563.941	1625.04
564.304	1608.77
564.666	1641.31
565.028	1618.49
565.39	1608.55
565.753	1631.14
566.115	1650.8
566.477	1629.56
566.839	1663.23
567.201	1639.28
567.563	1661.65
567.925	1631.82
568.287	1629.56
568.648	1622.78
569.01	1668.88
569.372	1676.79
569.734	1674.08
570.095	1644.02
570.457	1682.89
570.819	1665.04
571.18	1675.89
571.542	1688.54
571.903	1656
572.265	1692.84
572.626	1711.59
572.987	1681.54
573.349	1685.61
573.71	1715.89
574.071	1718.15
574.432	1711.37
574.794	1693.51
575.155	1696.45
575.516	1700.29
575.877	1711.37
576.238	1715.89
576.599	1705.27
576.96	1757.69
577.32	1714.08
577.681	1728.54
578.042	1738.26
578.403	1723.12
578.763	1750.91
579.124	1769.22
579.485	1733.06
579.845	1726.06
580.206	1767.86
580.566	1731.93
580.927	1752.5
581.287	1766.73
581.648	1763.34
582.008	1758.6
582.368	1793.4
582.728	1763.8
583.089	1771.25
583.449	1757.47
583.809	1776.45
584.169	1786.62
584.529	1764.02
584.889	1784.13
585.249	1782.1
585.609	1783.23
585.969	1762.67
586.329	1787.52
586.688	1783.23
587.048	1758.82
587.408	1779.84
587.768	1797.01
588.127	1765.38
588.487	1764.25
588.846	1790.91
589.206	1757.47
589.565	1759.28
589.925	1772.83
590.284	1774.87
590.643	1800.63
591.003	1787.52
591.362	1750.69
591.721	1790.69
592.08	1774.87
592.44	1799.5
592.799	1792.95
593.158	1768.54
593.517	1767.41
593.876	1773.29
594.235	1784.36
594.593	1779.39
594.952	1774.64
595.311	1782.1
595.67	1773.74
596.029	1768.77
596.387	1780.07
596.746	1801.31
597.104	1763.8
597.463	1779.84
597.822	1776.68
598.18	1788.2
598.538	1795.88
598.897	1762.44
599.255	1748.88
599.613	1765.38
599.972	1767.64
600.33	1760.86
600.688	1799.27
601.046	1793.4
601.404	1801.08
601.762	1796.34
602.12	1807.41
602.478	1779.61
602.836	1792.04
603.194	1775.77
603.552	1801.31
603.91	1772.16
604.268	1772.38
604.625	1752.27
604.983	1767.64
605.341	1759.73
605.698	1772.38
606.056	1768.99
606.413	1767.86
606.771	1790.91
607.128	1787.07
607.485	1766.51
607.843	1780.97
608.2	1788.2
608.557	1813.74
608.914	1784.36
609.272	1824.58
609.629	1742.1
609.986	1809.67
610.343	1788.2
610.7	1817.13
611.057	1789.78
611.414	1817.35
611.771	1780.29
612.127	1795.43
612.484	1815.32
612.841	1803.79
613.198	1816.45
613.554	1792.72
613.911	1801.99
614.267	1812.38
614.624	1823.23
614.98	1812.83
615.337	1834.08
615.693	1813.74
616.05	1793.17
616.406	1812.61
616.762	1799.05
617.118	1807.18
617.475	1833.85
617.831	1802.89
618.187	1814.42
618.543	1811.48
618.899	1821.42
619.255	1811.25
619.611	1784.59
619.967	1830.69
620.323	1797.24
620.678	1805.6
621.034	1798.6
621.39	1806.51
621.746	1826.84
622.101	1838.14
622.457	1812.16
622.812	1816
623.168	1828.2
623.523	1826.84
623.879	1813.51
624.234	1825.26
624.589	1808.54
624.945	1825.04
625.3	1817.81
625.655	1831.59
626.01	1812.83
626.365	1816.22
626.72	1816
627.075	1832.27
627.43	1843.34
627.785	1820.74
628.14	1846.73
628.495	1828.43
628.85	1843.12
629.205	1850.57
629.559	1820.52
629.914	1830.69
630.269	1823.45
630.623	1811.48
630.978	1819.16
631.332	1836.56
631.687	1839.27
632.041	1822.1
632.396	1818.94
632.75	1826.62
633.104	1839.73
633.459	1814.19
633.813	1821.87
634.167	1819.39
634.521	1841.99
634.875	1834.08
635.229	1798.82
635.583	1803.12
635.937	1836.79
636.291	1798.82
636.645	1814.42
636.999	1826.17
637.352	1856
637.706	1815.77
638.06	1792.5
638.413	1811.03
638.767	1805.38
639.121	1827.3
639.474	1813.96
639.828	1837.92
640.181	1835.88
640.534	1830.46
640.888	1848.09
641.241	1827.07
641.594	1807.18
641.947	1839.95
642.301	1812.16
642.654	1789.33
643.007	1813.06
643.36	1811.93
643.713	1834.08
644.066	1835.88
644.419	1806.51
644.771	1801.31
645.124	1814.42
645.477	1784.36
645.83	1763.8
646.182	1800.4
646.535	1795.66
646.888	1761.76
647.24	1776.9
647.593	1788.43
647.945	1784.36
648.298	1788.65
648.65	1820.74
649.002	1783.68
649.355	1799.5
649.707	1800.18
650.059	1810.12
650.411	1837.47
650.763	1797.24
651.115	1842.89
651.467	1862.1
651.819	1837.47
652.171	1835.88
652.523	1838.82
652.875	1852.83
653.227	1852.61
653.578	1833.62
653.93	1865.71
654.282	1861.19
654.633	1855.54
654.985	1845.83
655.337	1825.94
655.688	1822.32
656.039	1864.36
656.391	1853.74
656.742	1852.83
657.094	1794.76
657.445	1851.48
657.796	1826.17
658.147	1819.61
658.498	1818.03
658.849	1856
659.2	1847.41
659.551	1853.96
659.902	1857.35
660.253	1854.64
660.604	1849.89
660.955	1853.06
661.306	1873.62
661.656	1887.63
662.007	1895.54
662.358	1877.24
662.708	1880.18
663.059	1886.05
663.409	1858.71
663.76	1843.12
664.11	1893.96
664.461	1886.28
664.811	1877.46
665.161	1869.33
665.511	1859.84
665.862	1868.88
666.212	1877.46
666.562	1870.23
666.912	1869.1
667.262	1873.62
667.612	1856.67
667.962	1873.4
668.312	1879.27
668.662	1891.25
669.011	1881.53
669.361	1838.37
669.711	1860.74
670.06	1826.39
670.41	1827.52
670.76	1850.8
671.109	1856.67
671.459	1820.07
671.808	1851.02
672.157	1869.33
672.507	1871.59
672.856	1860.97
673.205	1870.01
673.554	1831.36
673.904	1835.43
674.253	1855.32
674.602	1817.13
674.951	1792.72
675.3	1789.78
675.649	1829.33
675.998	1837.01
676.346	1843.79
676.695	1855.32
677.044	1837.92
677.393	1800.86
677.741	1852.61
678.09	1793.85
678.438	1818.26
678.787	1810.57
679.135	1801.31
679.484	1793.63
679.832	1796.56
680.181	1822.78
680.529	1828.2
680.877	1794.53
681.225	1796.11
681.573	1797.24
681.922	1768.32
682.27	1777.35
682.618	1753.85
682.966	1761.31
683.314	1777.13
683.661	1774.87
684.009	1766.51
684.357	1774.19
684.705	1779.39
685.053	1745.49
685.4	1707.07
685.748	1733.97
686.095	1724.93
686.443	1774.87
686.79	1759.28
687.138	1776
687.485	1755.43
687.832	1731.25
688.18	1734.42
688.527	1708.66
688.874	1732.84
689.221	1709.56
689.568	1707.07
689.915	1710.46
690.262	1688.54
690.609	1699.16
690.956	1684.7
691.303	1686.51
691.65	1713.63
691.997	1690.13
692.344	1688.09
692.69	1660.3
693.037	1687.41
693.383	1669.33
693.73	1689.22
694.077	1664.59
694.423	1682.22
694.769	1645.15
695.116	1651.48
695.462	1645.61
695.808	1668.2
696.155	1620.07
696.501	1657.13
696.847	1653.74
697.193	1600.64
697.539	1620.52
697.885	1630.92
698.231	1575.33
698.577	1599.51
698.923	1620.52
699.269	1590.92
699.614	1577.81
699.96	1572.16
700.306	1572.84
700.651	1586.85
700.997	1594.31
701.342	1567.42
701.688	1630.47
702.033	1585.27
702.379	1593.86
702.724	1565.16
703.069	1571.03
703.415	1560.64
703.76	1553.18
704.105	1533.29
704.45	1568.32
704.795	1558.38
705.14	1554.31
705.485	1551.37
705.83	1576.46
706.175	1576.68
706.52	1515.44
706.865	1578.04
707.209	1585.5
707.554	1556.57
707.899	1549.79
708.243	1532.62
708.588	1558.38
708.932	1552.05
709.277	1529.23
709.621	1556.12
709.966	1569
710.31	1553.18
710.654	1542.78
710.998	1554.99
711.342	1513.41
711.687	1543.24
712.031	1550.69
712.375	1550.92
712.719	1556.8
713.063	1540.98
713.407	1559.28
713.75	1569.9
714.094	1573.52
714.438	1570.35
714.782	1539.17
715.125	1554.76
715.469	1536.46
715.812	1556.12
716.156	1586.4
716.499	1543.91
716.843	1590.24
717.186	1560.64
717.53	1573.97
717.873	1577.36
718.216	1580.75
718.559	1614.42
718.902	1586.85
719.246	1578.26
719.589	1569.9
719.932	1601.31
720.275	1592.27
720.617	1591.14
720.96	1607.42
721.303	1586.85
721.646	1614.42
721.989	1582.56
722.331	1590.47
722.674	1618.71
723.016	1622.1
723.359	1630.47
723.701	1635.66
724.044	1611.48
724.386	1611.03
724.729	1622.56
725.071	1626.4
725.413	1652.61
725.755	1619.62
726.097	1655.78
726.439	1621.65
726.782	1634.08
727.124	1632.73
727.465	1696.23
727.807	1665.94
728.149	1669.11
728.491	1655.32
728.833	1668.2
729.175	1667.98
729.516	1679.5
729.858	1697.13
730.199	1691.48
730.541	1691.48
730.882	1682.44
731.224	1701.88
731.565	1700.07
731.906	1715.66
732.248	1708.43
732.589	1736.45
732.93	1723.34
733.271	1773.74
733.612	1754.53
733.953	1772.38
734.294	1758.6
734.635	1785.26
734.976	1774.42
735.317	1788.2
735.658	1790.91
735.999	1811.25
736.339	1788.43
736.68	1822.1
737.021	1823.91
737.361	1849.89
737.702	1853.06
738.042	1860.52
738.383	1853.74
738.723	1886.05
739.063	1895.09
739.404	1935.09
739.744	1933.28
740.084	1931.93
740.424	1941.64
740.764	1967.18
741.104	1959.27
741.444	1988.87
741.784	2005.15
742.124	2027.52
742.464	2020.51
742.804	2018.7
743.143	2077.46
743.483	2126.27
743.823	2113.62
744.162	2110.68
744.502	2135.54
744.841	2170.34
745.181	2193.16
745.52	2170.34
745.86	2212.6
746.199	2269.77
746.538	2269.54
746.877	2295.53
747.216	2335.53
747.556	2351.8
747.895	2370.33
748.234	2418.02
748.573	2437.68
748.911	2479.71
749.25	2512.02
749.589	2544.11
749.928	2576.66
750.267	2593.83
750.605	2627.05
750.944	2694.62
751.283	2695.52
751.621	2742.3
751.96	2796.99
752.298	2831.34
752.636	2893.26
752.975	2953.14
753.313	2957.89
753.651	3027.49
753.989	3081.73
754.327	3137.32
754.666	3181.16
755.004	3250.99
755.342	3276.52
755.679	3322.62
756.017	3328.27
756.355	3421.83
756.693	3490.98
757.031	3530.53
757.368	3582.5
757.706	3645.55
758.044	3681.49
758.381	3745.44
758.719	3827.7
759.056	3889.62
759.394	3963.96
759.731	3965.77
760.068	4013.45
760.405	4093.23
760.743	4185.65
761.08	4264.75
761.417	4327.34
761.754	4354.69
762.091	4404.4
762.428	4444.4
762.765	4476.27
763.102	4599.65
763.438	4586.09
763.775	4659.09
764.112	4731.85
764.449	4780.21
764.785	4856.14
765.122	4870.83
765.458	4889.81
765.795	4989.02
766.131	5014.56
766.467	5065.4
766.804	5140.43
767.14	5133.2
767.476	5261.78
767.812	5250.03
768.148	5372.74
768.485	5421.33
768.821	5440.31
769.157	5495.45
769.492	5506.75
769.828	5536.58
770.164	5533.41
770.5	5539.74
770.836	5650.7
771.171	5659.29
