Data from blue_shiny_book_FLMS001491_00100.txt Node
Date: Wed Feb 08 15:27:49 GMT 2017
User: dcchb
Spectrometer: FLMS00149
Trigger mode: 0
Integration Time (sec): 2.000000E-2
Scans to average: 10
Electric dark correction enabled: true
Nonlinearity correction enabled: false
Boxcar width: 0
XAxis mode: Wavelengths
Number of Pixels in Spectrum: 2048
>>>>>Begin Spectral Data<<<<<
341.393	-18.83
341.776	-18.83
342.16	-18.83
342.543	-64.02
342.927	-72.61
343.31	-69.22
343.693	-76.68
344.077	-64.25
344.46	-60.18
344.843	-59.28
345.226	-29.45
345.61	-45.04
345.993	-35.32
346.376	-0.75
346.759	20.72
347.142	34.5
347.525	43.09
347.908	59.59
348.291	82.87
348.674	93.26
349.057	106.14
349.44	120.15
349.823	140.04
350.206	159.02
350.588	185.46
350.971	193.37
351.354	215.29
351.737	231.11
352.119	236.31
352.502	259.13
352.884	260.71
353.267	276.76
353.65	314.95
354.032	296.19
354.414	299.13
354.797	296.64
355.179	311.56
355.562	307.04
355.944	337.55
356.326	318.11
356.709	350.2
357.091	337.55
357.473	337.55
357.855	321.5
358.238	330.99
358.62	328.51
359.002	339.13
359.384	340.26
359.766	329.64
360.148	346.59
360.53	329.86
360.912	327.6
361.294	337.32
361.676	327.83
362.057	320.6
362.439	326.93
362.821	313.37
363.203	319.24
363.584	349.3
363.966	326.02
364.348	333.71
364.729	330.09
365.111	316.98
365.493	328.06
365.874	297.77
366.256	301.62
366.637	321.95
367.019	317.21
367.4	333.03
367.781	329.64
368.163	316.08
368.544	307.04
368.925	306.36
369.306	340.49
369.688	333.25
370.069	333.71
370.45	334.16
370.831	323.54
371.212	325.34
371.593	323.99
371.974	322.86
372.355	340.71
372.736	298.23
373.117	341.39
373.498	321.28
373.879	321.95
374.26	336.87
374.641	333.48
375.021	311.11
375.402	313.14
375.783	309.75
376.163	326.7
376.544	347.72
376.925	351.78
377.305	330.54
377.686	345.23
378.066	361.05
378.447	366.7
378.827	333.48
379.208	340.94
379.588	363.99
379.968	333.71
380.349	349.98
380.729	352.01
381.109	355.63
381.489	352.46
381.87	368.28
382.25	380.26
382.63	352.01
383.01	373.25
383.39	356.98
383.77	378.9
384.15	358.11
384.53	377.09
384.91	366.25
385.29	383.65
385.67	396.98
386.049	388.39
386.429	381.61
386.809	406.25
387.189	385.91
387.568	384.33
387.948	390.88
388.328	412.8
388.707	393.59
389.087	390.2
389.466	400.6
389.846	418.22
390.225	409.41
390.605	409.64
390.984	407.6
391.363	397.66
391.743	447.6
392.122	434.95
392.501	441.73
392.881	438.56
393.26	431.1
393.639	439.01
394.018	438.79
394.397	435.17
394.776	458.9
395.155	454.38
395.534	451.67
395.913	466.81
396.292	468.17
396.671	459.35
397.05	470.2
397.429	478.33
397.808	475.85
398.186	489.18
398.565	488.73
398.944	479.46
399.323	485.57
399.701	484.89
400.08	495.28
400.458	513.59
400.837	502.74
401.215	507.49
401.594	512.68
401.972	516.53
402.351	519.01
402.729	507.03
403.107	536.41
403.486	554.27
403.864	533.93
404.242	555.62
404.62	561.95
404.999	554.49
405.377	561.5
405.755	578.67
406.133	581.38
406.511	564.43
406.889	588.39
407.267	593.36
407.645	611.44
408.023	626.58
408.401	647.14
408.779	606.47
409.156	633.81
409.534	648.95
409.912	660.7
410.29	660.93
410.667	651.44
411.045	663.64
411.422	685.56
411.8	697.31
412.178	716.52
412.555	711.1
412.933	733.47
413.31	734.15
413.687	726.24
414.065	744.32
414.442	769.4
414.819	759.01
415.197	786.12
415.574	792.9
415.951	766.91
416.328	799.23
416.705	789.06
417.082	792.22
417.46	834.26
417.837	833.35
418.214	843.3
418.591	840.59
418.967	842.17
419.344	821.38
419.721	882.84
420.098	851.66
420.475	891.66
420.852	857.53
421.228	904.76
421.605	923.29
421.982	918.55
422.358	930.07
422.735	921.04
423.111	951.09
423.488	942.05
423.864	963.07
424.241	971.43
424.617	985.67
424.994	1011.2
425.37	1013.69
425.746	1015.72
426.123	1034.93
426.499	1072.9
426.875	1096.4
427.251	1077.19
427.627	1110.63
428.003	1112.44
428.379	1117.64
428.756	1111.09
429.132	1123.06
429.507	1164.42
429.883	1168.26
430.259	1175.04
430.635	1181.82
431.011	1212.1
431.387	1242.38
431.763	1229.95
432.138	1255.94
432.514	1297.07
432.89	1296.84
433.265	1319.89
433.641	1323.96
434.016	1342.94
434.392	1381.81
434.767	1383.85
435.143	1412.1
435.518	1402.15
435.894	1448.25
436.269	1438.76
436.644	1479.44
437.02	1518.99
437.395	1525.09
437.77	1546.33
438.145	1569.83
438.52	1571.41
438.895	1573.9
439.271	1564.63
439.646	1605.76
440.021	1636.72
440.395	1619.32
440.77	1628.36
441.145	1689.83
441.52	1714.46
441.895	1720.79
442.27	1729.6
442.645	1712.88
443.019	1775.02
443.394	1757.62
443.769	1772.99
444.143	1718.08
444.518	1794.23
444.892	1782.03
445.267	1816.6
445.641	1850.73
446.016	1857.96
446.39	1890.73
446.764	1888.02
447.139	1862.48
447.513	1938.64
447.887	1920.33
448.262	1935.7
448.636	1963.72
449.01	2000.33
449.384	2000.1
449.758	1995.13
450.132	2019.09
450.506	2040.1
450.88	2043.04
451.254	2036.49
451.628	2089.37
452.002	2126.88
452.376	2186.54
452.75	2169.82
453.123	2202.36
453.497	2235.35
453.871	2251.62
454.244	2284.16
454.618	2282.36
454.992	2304.73
455.365	2312.18
455.739	2365.97
456.112	2402.8
456.486	2426.53
456.859	2491.84
457.232	2538.62
457.606	2530.26
457.979	2529.35
458.352	2597.15
458.725	2650.93
459.099	2644.38
459.472	2728.22
459.845	2700.88
460.218	2756.69
460.591	2736.13
460.964	2817.48
461.337	2841.89
461.71	2922.34
462.083	2937.71
462.456	2965.28
462.829	3012.28
463.201	3022
463.574	3033.52
463.947	3106.29
464.32	3185.38
464.692	3204.36
465.065	3207.75
465.438	3283.23
465.81	3312.61
466.183	3335.89
466.555	3415.66
466.928	3432.16
467.3	3470.35
467.672	3535.2
468.045	3639.38
468.417	3581.08
468.789	3646.61
469.161	3716.89
469.534	3733.39
469.906	3826.72
470.278	3846.16
470.65	3900.39
471.022	3987.17
471.394	4015.42
471.766	4053.61
472.138	4079.82
472.51	4228.74
472.882	4274.62
473.253	4348.06
473.625	4426.71
473.997	4508.06
474.369	4528.4
474.74	4549.41
475.112	4657.66
475.484	4741.73
475.855	4809.07
476.227	4874.15
476.598	4965.67
476.97	5024.2
477.341	5116.86
477.713	5177.19
478.084	5295.84
478.455	5454.7
478.827	5408.37
479.198	5649.5
479.569	5640.69
479.94	5771.53
480.311	5853.33
480.682	5941.92
481.053	6126.32
481.424	6146.43
481.795	6229.37
482.166	6311.85
482.537	6386.2
482.908	6509.36
483.279	6629.81
483.65	6730.6
484.021	6894.44
484.391	7007.2
484.762	7113.64
485.133	7178.5
485.503	7233.64
485.874	7454.65
486.244	7503.91
486.615	7601.76
486.985	7698.94
487.356	7851.7
487.726	7945.71
488.097	8062.32
488.467	8119.49
488.837	8245.36
489.207	8359.48
489.578	8531.46
489.948	8632.47
490.318	8728.51
490.688	8830.21
491.058	8994.27
491.428	9097.77
491.798	9202.85
492.168	9408.5
492.538	9407.59
492.908	9504.99
493.278	9576.4
493.648	9617.76
494.017	9740.01
494.387	9861.82
494.757	9930.29
495.126	10084.86
495.496	10087.57
495.866	10211.19
496.235	10356.27
496.605	10492.08
496.974	10600.78
497.344	10645.75
497.713	10750.61
498.082	10862.24
498.452	10992.86
498.821	11039.19
499.19	11092.75
499.559	11207.77
499.928	11147.88
500.298	11248.67
500.667	11409.57
501.036	11292.06
501.405	11474.2
501.774	11530.47
502.143	11655.67
502.512	11805.95
502.88	11908.54
503.249	11867.19
503.618	12115.54
503.987	12102.44
504.356	12177.46
504.724	12172.26
505.093	12406.38
505.462	12423.33
505.83	12496.32
506.199	12578.36
506.567	12682.99
506.936	12714.4
507.304	12750.33
507.672	12862.64
508.041	12969.76
508.409	13033.71
508.777	13118
509.145	13285.46
509.514	13463.98
509.882	13473.7
510.25	13569.06
510.618	13746.91
510.986	13882.73
511.354	13994.59
511.722	14051.09
512.09	14102.16
512.458	14219.89
512.826	14287.69
513.193	14312.1
513.561	14298.76
513.929	14443.84
514.297	14559.77
514.664	14644.29
515.032	14727.45
515.4	14839.54
515.767	14872.08
516.135	15096.93
516.502	15017.84
516.869	15282.24
517.237	15347.55
517.604	15380.77
517.972	15634.32
518.339	15701.89
518.706	15793.41
519.073	15911.83
519.44	15952.73
519.808	16111.6
520.175	16039.51
520.542	16223.46
520.909	16213.06
521.276	16268.2
521.643	16451.7
522.009	16599.94
522.376	16631.36
522.743	16806.49
523.11	17054.17
523.477	17240.15
523.843	17437.66
524.21	17724.89
524.577	17746.13
524.943	17846.47
525.31	17860.48
525.676	18167.59
526.043	18161.71
526.409	18243.52
526.776	18328.04
527.142	18492.1
527.508	18510.18
527.874	18572.55
528.241	18688.93
528.607	18784.52
528.973	18863.84
529.339	18984.74
529.705	19135.25
530.071	19275.35
530.437	19482.13
530.803	19665.85
531.169	19769.81
531.535	19917.6
531.901	19996.47
532.267	20129.57
532.632	20393.29
532.998	20400.52
533.364	20517.81
533.73	20573.17
534.095	20672.61
534.461	20779.27
534.826	20802.55
535.192	20745.6
535.557	20926.38
535.923	20849.55
536.288	20887.29
536.653	20944.46
537.019	21078.02
537.384	21149.88
537.749	21324.11
538.114	21452.25
538.479	21468.52
538.845	21739.92
539.21	21813.14
539.575	21930.88
539.94	21960.26
540.305	22133.13
540.67	21999.58
541.034	22191.89
541.399	22245.67
541.764	22266.46
542.129	22256.07
542.494	22255.84
542.858	22209.74
543.223	22244.99
543.587	22335.84
543.952	22326.57
544.316	22387.36
544.681	22471.2
545.045	22630.07
545.41	22735.15
545.774	22743.74
546.138	22822.38
546.503	23004.52
546.867	23025.31
547.231	23297.17
547.595	23380.11
547.959	23389.37
548.324	23484.51
548.688	23490.84
549.052	23682.7
549.416	23654.9
549.779	23578.29
550.143	23640.89
550.507	23671.4
550.871	23686.31
551.235	23656.93
551.599	23772.41
551.962	23703.94
552.326	23890.37
552.689	23935.8
553.053	23819.19
553.417	23943.48
553.78	24416.91
554.143	24124.27
554.507	24385.73
554.87	24493.75
555.234	24813.51
555.597	24668.66
555.96	24801.31
556.323	25044.92
556.686	24916.79
557.05	25221.41
557.413	25083.11
557.776	25136.22
558.139	25288.53
558.502	25254.63
558.865	25239.94
559.228	25300.28
559.59	25307.51
559.953	25314.07
560.316	25463.44
560.679	25660.5
561.041	25835.18
561.404	25877.44
561.767	25951.11
562.129	26021.39
562.492	26335.73
562.854	26331.44
563.217	26458.89
563.579	26681.71
563.941	26858.66
564.304	26985.89
564.666	27233.11
565.028	27181.81
565.39	27132.1
565.753	27428.13
566.115	27512.2
566.477	27448.93
566.839	27479.21
567.201	27596.49
567.563	27558.98
567.925	27584.29
568.287	27566.21
568.648	27631.75
569.01	27659.77
569.372	27913.77
569.734	27822.47
570.095	27984.28
570.457	28116.7
570.819	28271.5
571.18	28469.69
571.542	28488.9
571.903	28682.79
572.265	28778.83
572.626	28933.41
572.987	28913.97
573.349	29141.08
573.71	29303.79
574.071	29276.45
574.432	29329.33
574.794	29465.37
575.155	29433.51
575.516	29269.44
575.877	29438.03
576.238	29285.94
576.599	29466.27
576.96	29378.14
577.32	29465.37
577.681	29503.33
578.042	29562.54
578.403	29603.22
578.763	29677.57
579.124	29713.95
579.485	30028.29
579.845	29979.71
580.206	30040.72
580.566	30143.54
580.927	30233.03
581.287	30503.76
581.648	30298.12
582.008	30666.69
582.368	30584.21
582.728	30525.91
583.089	30614.49
583.449	30608.62
583.809	30583.31
584.169	30679.57
584.529	30560.71
584.889	30775.84
585.249	30491.33
585.609	30438.45
585.969	30576.75
586.329	30412.24
586.688	30397.1
587.048	30422.63
587.408	30382.18
587.768	30451.78
588.127	30473.25
588.487	30415.85
588.846	30876.63
589.206	30564.78
589.565	30598.9
589.925	30810.19
590.284	30636.41
590.643	30823.07
591.003	31042.95
591.362	31192.78
591.721	30946.46
592.08	31195.49
592.44	31242.5
592.799	31391.19
593.158	31240.92
593.517	31237.3
593.876	31176.28
594.235	31117.3
594.593	31066.01
594.952	31207.24
595.311	31013.58
595.67	31057.64
596.029	31304.42
596.387	31250.86
596.746	31244.31
597.104	31061.49
597.463	31054.48
597.822	31178.77
598.18	30939.91
598.538	31073.46
598.897	31270.07
599.255	31106.46
599.613	31567.91
599.972	31342.16
600.33	31570.17
600.688	31560.68
601.046	31733.56
601.404	31634.13
601.762	31579.89
602.12	31915.7
602.478	31830.96
602.836	31813.56
603.194	31698.76
603.552	31878.19
603.91	31681.81
604.268	31802.03
604.625	31617.18
604.983	31749.38
605.341	31532.89
605.698	31684.97
606.056	31703.05
606.413	31614.47
606.771	31765.87
607.128	31734.01
607.485	31491.08
607.843	31621.92
608.2	32027.11
608.557	32116.15
608.914	31994.57
609.272	32191.4
609.629	32238.86
609.986	32258.06
610.343	32198.18
610.7	32559.98
611.057	32509.81
611.414	32459.87
611.771	32586.87
612.127	32807.43
612.484	32774.43
612.841	32849.91
613.198	32724.27
613.554	32795.45
613.911	32939.4
614.267	32861.21
614.624	32672.06
614.98	32771.72
615.337	32905.73
615.693	32783.02
616.05	32693.08
616.406	32901.66
616.762	32850.37
617.118	32760.88
617.475	32766.75
617.831	32780.54
618.187	32804.49
618.543	32822.34
618.899	33030.02
619.255	33072.51
619.611	33008.1
619.967	33120.19
620.323	33365.83
620.678	33140.75
621.034	33231.6
621.39	33337.13
621.746	33259.17
622.101	33659.61
622.457	33370.35
622.812	33504.13
623.168	33664.81
623.523	33547.3
623.879	33615.32
624.234	33590.46
624.589	33617.12
624.945	33583.23
625.3	33643.11
625.655	33492.16
626.01	33619.16
626.365	33590.01
626.72	33549.33
627.075	33486.96
627.43	33514.08
627.785	33261.65
628.14	33409.22
628.495	33330.8
628.85	33220.07
629.205	33188.44
629.559	33304.82
629.914	33236.57
630.269	33153.18
630.623	33212.62
630.978	33114.76
631.332	33392.27
631.687	33462.1
632.041	33303.23
632.396	33376.9
632.75	33219.85
633.104	33281.09
633.459	33236.34
633.813	33217.36
634.167	33263.91
634.521	33075.9
634.875	33091.26
635.229	33340.52
635.583	33061.88
635.937	33223.46
636.291	32985.5
636.645	33169.23
636.999	32846.3
637.352	32899.18
637.706	32888.78
638.06	32824.38
638.413	32765.62
638.767	32496.48
639.121	32569.92
639.474	32396.82
639.828	32338.51
640.181	32355.69
640.534	32293.77
640.888	32110.72
641.241	32218.29
641.594	32134
641.947	32331.73
642.301	32272.53
642.654	32271.62
643.007	32369.02
643.36	32245.41
643.713	32280.44
644.066	32394.78
644.419	32390.72
644.771	32392.98
645.124	32202.47
645.477	32264.17
645.83	32200.44
646.182	31942.37
646.535	31465.77
646.888	31459.89
647.24	31282.72
647.593	31192.56
647.945	31078.89
648.298	31006.12
648.65	30839.34
649.002	30771.1
649.355	30974.71
649.707	31004.76
650.059	31241.59
650.411	31574.01
650.763	31569.49
651.115	31684.97
651.467	31607.91
651.819	31543.51
652.171	31526.56
652.523	31448.59
652.875	31505.77
653.227	31319.78
653.578	31707.12
653.93	31579.89
654.282	31368.82
654.633	31381.93
654.985	31505.77
655.337	31470.06
655.688	31471.64
656.039	31670.96
656.391	31531.53
656.742	31553.45
657.094	31738.98
657.445	31943.04
657.796	31595.48
658.147	31595.03
658.498	31752.54
658.849	31655.59
659.2	31672.32
659.551	31669.38
659.902	31700.11
660.253	31535.6
660.604	31524.75
660.955	31389.61
661.306	31502.38
661.656	31397.97
662.007	31344.42
662.358	31207.02
662.708	31206.79
663.059	31238.43
663.409	30985.1
663.76	31209.28
664.11	31085.67
664.461	31005.67
664.811	30964.76
665.161	31004.09
665.511	30860.59
665.862	30964.31
666.212	31188.94
666.562	31053.12
666.912	31137.19
667.262	31224.42
667.612	31381.93
667.962	31284.76
668.312	31364.53
668.662	31548.48
669.011	31477.75
669.361	31557.74
669.711	31487.46
670.06	31463.28
670.41	31368.6
670.76	31395.49
671.109	31498.76
671.459	31257.64
671.808	31247.92
672.157	31326.79
672.507	31064.42
672.856	31024.88
673.205	31007.93
673.554	31123.18
673.904	30802.28
674.253	31003.86
674.602	30783.98
674.951	30480.71
675.3	30172.02
675.649	30674.6
675.998	30561.84
676.346	30510.99
676.695	30541.05
677.044	30296.31
677.393	30322.75
677.741	30420.82
678.09	30271
678.438	30326.14
678.787	30202.75
679.135	30262.86
679.484	30091.12
679.832	30220.38
680.181	30114.17
680.529	30425.57
680.877	30314.39
681.225	30423.99
681.573	30636.64
681.922	30327.72
682.27	30388.51
682.618	30345.12
682.966	30234.84
683.314	30319.58
683.661	30244.78
684.009	30100.38
684.357	30008.41
684.705	29968.18
685.053	29821.74
685.4	29911.01
685.748	29768.19
686.095	29725.02
686.443	29499.49
686.79	29407.97
687.138	29371.36
687.485	29350.12
687.832	29071.26
688.18	29237.13
688.527	28921.2
688.874	28846.4
689.221	28711.49
689.568	28608.22
689.915	28488.45
690.262	28535.68
690.609	28459.97
690.956	28403.48
691.303	28203.93
691.65	28135.01
691.997	28127.78
692.344	27904.28
692.69	27947.9
693.037	28025.63
693.383	27839.42
693.73	27955.8
694.077	27770.72
694.423	27951.74
694.769	27855.69
695.116	27798.75
695.462	27760.56
695.808	27671.52
696.155	27840.55
696.501	27629.71
696.847	27582.03
697.193	27221.13
697.539	27325.31
697.885	27163.96
698.231	27091.19
698.577	27085.32
698.923	26890.52
699.269	26852.56
699.614	26679.91
699.96	26533.92
700.306	26545.67
700.651	26333.7
700.997	26315.85
701.342	26151.33
701.688	26052.13
702.033	25876.99
702.379	25672.7
702.724	25676.99
703.069	25750.21
703.415	25466.6
703.76	25571.91
704.105	25494.63
704.45	25383.22
704.795	25386.61
705.14	25187.74
705.485	25187.06
705.83	25099.61
706.175	25300.96
706.52	25091.25
706.865	25058.71
707.209	25192.04
707.554	25080.85
707.899	25138.7
708.243	25045.6
708.588	25106.84
708.932	24949.56
709.277	25043.79
709.621	25079.04
709.966	24824.14
710.31	24874.76
710.654	24525.61
710.998	24775.78
711.342	24625.5
711.687	24547.76
712.031	24521.54
712.375	24329.69
712.719	24405.16
713.063	24278.16
713.407	24265.96
713.75	24073.19
714.094	24125.85
714.438	23821.9
714.782	23797.27
715.125	23692.41
715.469	23781.45
715.812	23414.91
716.156	23395.25
716.499	23469.82
716.843	23275.25
717.186	23196.83
717.53	23265.08
717.873	23351.63
718.216	23264.63
718.559	23188.92
718.902	23021.92
719.246	23121.13
719.589	23042.71
719.932	23015.14
720.275	23090.17
720.617	23055.37
720.96	23138.76
721.303	23161.13
721.646	23148.7
721.989	23111.86
722.331	23149.83
722.674	23193.9
723.016	23230.28
723.359	23186.21
723.701	23159.32
724.044	23011.53
724.386	23033.9
724.729	23087.68
725.071	23135.59
725.413	23020.79
725.755	23065.09
726.097	23085.65
726.439	22960.46
726.782	22857.41
727.124	22866.9
727.465	22707.58
727.807	22723.63
728.149	22652.44
728.491	22687.02
728.833	22610.86
729.175	22645.89
729.516	22513.91
729.858	22450.86
730.199	22579.22
730.541	22512.33
730.882	22444.31
731.224	22460.13
731.565	22266.46
731.906	22188.27
732.248	22300.59
732.589	22130.19
732.93	22092
733.271	22139.01
733.612	22410.87
733.953	22297.87
734.294	22245.45
734.635	22181.04
734.976	22256.29
735.317	22247.03
735.658	22292
735.999	22290.64
736.339	22468.72
736.68	22492.67
737.021	22418.32
737.361	22353.69
737.702	22552.33
738.042	22396.4
738.383	22398.21
738.723	22497.19
739.063	22473.91
739.404	22544.2
739.744	22660.12
740.084	22618.32
740.424	22601.37
740.764	22583.52
741.104	22610.86
741.444	22521.15
741.784	22447.93
742.124	22529.73
742.464	22469.4
742.804	22508.49
743.143	22423.52
743.483	22347.36
743.823	22282.96
744.162	22252.9
744.502	22344.88
744.841	22240.47
745.181	22310.3
745.52	22250.87
745.86	22364.31
746.199	22328.38
746.538	22339.91
746.877	22432.79
747.216	22411.77
747.556	22347.59
747.895	22408.61
748.234	22329.96
748.573	22334.48
748.911	22385.1
749.25	22551.65
749.589	22407.7
749.928	22568.6
750.267	22581.48
750.605	22607.7
750.944	22502.84
751.283	22505.55
751.621	22731.76
751.96	22702.38
752.298	22661.93
752.636	22764.53
752.975	22727.92
753.313	22851.76
753.651	22812.89
753.989	22865.77
754.327	22894.92
