Data from blue_clamp_base_FLMS001491_00045.txt Node
Date: Wed Feb 08 15:16:04 GMT 2017
User: dcchb
Spectrometer: FLMS00149
Trigger mode: 0
Integration Time (sec): 2.000000E-2
Scans to average: 10
Electric dark correction enabled: true
Nonlinearity correction enabled: false
Boxcar width: 0
XAxis mode: Wavelengths
Number of Pixels in Spectrum: 2048
>>>>>Begin Spectral Data<<<<<
341.393	-6.57
341.776	-6.57
342.16	-6.57
342.543	-72.33
342.927	-73.23
343.31	-63.74
343.693	-85.66
344.077	-67.36
344.46	-75.27
344.843	-44.08
345.226	-52.67
345.61	-39.11
345.993	-18.54
346.376	-9.28
346.759	11.29
347.142	35.47
347.525	51.74
347.908	48.12
348.291	86.54
348.674	103.26
349.057	119.3
349.44	126.31
349.823	153.88
350.206	164.28
350.588	201.79
350.971	249.92
351.354	246.53
351.737	228.23
352.119	259.41
352.502	261
352.884	288.79
353.267	294.44
353.65	312.29
354.032	292.18
354.414	313.65
354.797	310.26
355.179	338.51
355.562	333.08
355.944	319.75
356.326	328.11
356.709	347.32
357.091	356.36
357.473	361.11
357.855	339.19
358.238	365.85
358.62	355.68
359.002	356.81
359.384	319.07
359.766	340.99
360.148	353.87
360.53	362.24
360.912	340.99
361.294	327.89
361.676	359.75
362.057	342.58
362.439	359.75
362.821	354.33
363.203	334.44
363.584	338.96
363.966	341.9
364.348	340.99
364.729	349.13
365.111	339.41
365.493	345.97
365.874	335.57
366.256	320.66
366.637	326.08
367.019	342.8
367.4	312.97
367.781	332.63
368.163	315.91
368.544	336.25
368.925	324.05
369.306	367.66
369.688	304.16
370.069	323.14
370.45	324.05
370.831	335.34
371.212	339.19
371.593	312.97
371.974	343.25
372.355	338.06
372.736	343.93
373.117	343.93
373.498	339.41
373.879	357.26
374.26	333.31
374.641	331.28
375.021	331.5
375.402	312.07
375.783	364.04
376.163	356.59
376.544	358.85
376.925	357.04
377.305	345.51
377.686	351.16
378.066	369.02
378.447	347.32
378.827	367.89
379.208	383.03
379.588	366.53
379.968	369.69
380.349	377.83
380.729	356.13
381.109	383.25
381.489	382.8
381.87	363.14
382.25	378.28
382.63	388.22
383.01	383.03
383.39	399.3
383.77	382.57
384.15	382.8
384.53	379.64
384.91	408.56
385.29	413.53
385.67	415.34
386.049	406.08
386.429	413.99
386.809	424.16
387.189	428.68
387.568	404.72
387.948	419.41
388.328	431.39
388.707	433.87
389.087	438.62
389.466	444.95
389.846	453.53
390.225	453.31
390.605	450.82
390.984	440.43
391.363	442.23
391.743	457.37
392.122	457.83
392.501	453.31
392.881	467.32
393.26	488.11
393.639	483.81
394.018	470.71
394.397	465.06
394.776	482.01
395.155	510.25
395.534	505.96
395.913	504.38
396.292	494.89
396.671	510.48
397.05	512.51
397.429	518.84
397.808	547.54
398.186	524.27
398.565	528.33
398.944	531.72
399.323	542.12
399.701	556.36
400.08	569.91
400.458	559.97
400.837	542.34
401.215	592.74
401.594	577.82
401.972	576.24
402.351	583.02
402.729	588.22
403.107	603.59
403.486	608.33
403.864	619.63
404.242	629.12
404.62	608.11
404.999	660.08
405.377	651.95
405.755	636.58
406.133	662.79
406.511	650.14
406.889	672.28
407.267	675.9
407.645	671.61
408.023	667.31
408.401	708.22
408.779	695.56
409.156	720.64
409.534	720.87
409.912	713.64
410.29	754.54
410.667	740.76
411.045	773.52
411.422	763.36
411.8	783.92
412.178	793.64
412.555	794.09
412.933	818.95
413.31	835.22
413.687	847.87
414.065	861.66
414.442	828.66
414.819	867.08
415.197	883.35
415.574	891.04
415.951	883.13
416.328	894.65
416.705	898.95
417.082	895.1
417.46	920.87
417.837	924.48
418.214	933.07
418.591	948.44
418.967	959.28
419.344	945.95
419.721	969.9
420.098	971.26
420.475	982.56
420.852	1009.45
421.228	1000.64
421.605	1013.97
421.982	1011.71
422.358	1047.64
422.735	1043.12
423.111	1063.01
423.488	1098.49
423.864	1065.95
424.241	1079.73
424.617	1082.22
424.994	1114.08
425.37	1109.56
425.746	1134.19
426.123	1128.09
426.499	1155.44
426.875	1173.51
427.251	1195.66
427.627	1209.45
428.003	1204.47
428.379	1231.14
428.756	1228.65
429.132	1246.51
429.507	1277.92
429.883	1299.39
430.259	1349.78
430.635	1324.92
431.011	1349.55
431.387	1344.13
431.763	1385.26
432.138	1370.35
432.514	1417.12
432.89	1424.36
433.265	1458.93
433.641	1477.69
434.016	1496.67
434.392	1518.36
434.767	1535.76
435.143	1572.15
435.518	1561.53
435.894	1547.06
436.269	1602.66
436.644	1613.95
437.02	1617.12
437.395	1654.86
437.77	1679.04
438.145	1734.18
438.52	1721.07
438.895	1715.87
439.271	1755.65
439.646	1758.58
440.021	1791.58
440.395	1799.49
440.77	1782.99
441.145	1811.92
441.52	1826.6
441.895	1826.15
442.27	1878.58
442.645	1883.78
443.019	1902.31
443.394	1902.08
443.769	1940.73
444.143	1886.72
444.518	1958.8
444.892	1941.4
445.267	1959.03
445.641	1979.59
446.016	1986.6
446.39	1997.45
446.764	2014.4
447.139	2030.67
447.513	2093.94
447.887	2050.78
448.262	2078.12
448.636	2106.37
449.01	2123.55
449.384	2161.06
449.758	2177.78
450.132	2211.91
450.506	2200.61
450.88	2187.05
451.254	2235.86
451.628	2268.17
452.002	2255.52
452.376	2278.34
452.75	2301.85
453.123	2324.44
453.497	2378
453.871	2397.89
454.244	2422.75
454.618	2444.89
454.992	2499.13
455.365	2473.14
455.739	2578.45
456.112	2590.2
456.486	2613.48
456.859	2602.4
457.232	2654.61
457.606	2620.93
457.979	2674.49
458.352	2753.81
458.725	2733.02
459.099	2769.63
459.472	2828.61
459.845	2858.22
460.218	2891.21
460.591	2910.42
460.964	2916.52
461.337	2960.36
461.71	3026.8
462.083	3045.33
462.456	3049.4
462.829	3085.33
463.201	3141.82
463.574	3133.91
463.947	3150.64
464.32	3215.27
464.692	3296.17
465.065	3247.58
465.438	3316.06
465.81	3341.37
466.183	3377.52
466.555	3431.76
466.928	3464.53
467.3	3452.55
467.672	3510.85
468.045	3577.52
468.417	3605.09
468.789	3601.02
469.161	3691.41
469.534	3743.84
469.906	3768.93
470.278	3808.93
470.65	3870.39
471.022	3925.31
471.394	3923.95
471.766	3980.22
472.138	4063.16
472.51	4117.84
472.882	4134.79
473.253	4235.35
473.625	4253.66
473.997	4324.62
474.369	4337.05
474.74	4423.15
475.112	4432.41
475.484	4499.08
475.855	4570.04
476.227	4637.83
476.598	4708.11
476.97	4719.41
477.341	4858.84
477.713	4884.15
478.084	4911.04
478.455	5018.84
478.827	5089.34
479.198	5247.98
479.569	5171.83
479.94	5314.42
480.311	5388.54
480.682	5513.74
481.053	5568.43
481.424	5649.33
481.795	5658.59
482.166	5773.17
482.537	5750.12
482.908	5895.65
483.279	5934.75
483.65	5990.34
484.021	6096.77
484.391	6148.07
484.762	6217.22
485.133	6261.52
485.503	6325.02
485.874	6441.85
486.244	6466.03
486.615	6601.17
486.985	6613.82
487.356	6697.21
487.726	6718.45
488.097	6829.86
488.467	6794.61
488.837	6945.34
489.207	6964.55
489.578	7082.96
489.948	7084.55
490.318	7127.71
490.688	7171.55
491.058	7254.03
491.428	7329.96
491.798	7346.69
492.168	7489.28
492.538	7482.5
492.908	7568.83
493.278	7619.22
493.648	7649.95
494.017	7748.26
494.387	7734.02
494.757	7767.69
495.126	7795.94
495.496	7821.7
495.866	7848.82
496.235	7934.92
496.605	7990.28
496.974	8004.07
497.344	8061.47
497.713	8103.5
498.082	8124.74
498.452	8173.56
498.821	8098.98
499.19	8142.37
499.559	8237.96
499.928	8269.15
500.298	8308.47
500.667	8396.6
501.036	8305.76
501.405	8410.16
501.774	8413.78
502.143	8406.77
502.512	8399.54
502.88	8505.52
503.249	8500.1
503.618	8481.34
503.987	8563.38
504.356	8576.48
504.724	8610.15
505.093	8620.32
505.462	8705.52
505.83	8714.33
506.199	8771.96
506.567	8814.44
506.936	8769.7
507.304	8801.79
507.672	8830.49
508.041	8859.41
508.409	8941.67
508.777	9053.99
509.145	9044.95
509.514	9040.88
509.882	9118.16
510.25	9051.05
510.618	9163.59
510.986	9096.92
511.354	9229.57
511.722	9222.12
512.09	9338.27
512.458	9224.83
512.826	9366.29
513.193	9383.47
513.561	9360.64
513.929	9393.64
514.297	9549.11
514.664	9519.51
515.032	9531.49
515.4	9562.9
515.767	9554.54
516.135	9607.87
516.502	9485.39
516.869	9654.42
517.237	9670.24
517.604	9629.56
517.972	9750.01
518.339	9769.22
518.706	9821.65
519.073	9798.82
519.44	9844.02
519.808	9903
520.175	9872.04
520.542	10018.25
520.909	10058.25
521.276	10017.58
521.643	10052.6
522.009	10135.31
522.376	10108.65
522.743	10203.11
523.11	10249.89
523.477	10401.97
523.843	10404.23
524.21	10438.81
524.577	10522.65
524.943	10549.99
525.31	10561.74
525.676	10634.51
526.043	10728.74
526.409	10703.21
526.776	10800.83
527.142	10776.43
527.508	10905.46
527.874	10971.67
528.241	10966.25
528.607	10952.47
528.973	11089.86
529.339	11018.23
529.705	11209.86
530.071	11219.58
530.437	11376.86
530.803	11304.77
531.169	11429.74
531.535	11373.02
531.901	11384.77
532.267	11455.28
532.632	11468.84
532.998	11490.76
533.364	11585.9
533.73	11537.31
534.095	11662.96
534.461	11789.73
534.826	11734.59
535.192	11825.21
535.557	11797.64
535.923	11835.38
536.288	11916.28
536.653	11960.58
537.019	11879.9
537.384	11994.02
537.749	11989.73
538.114	12027.47
538.479	12129.84
538.845	12125.09
539.21	12089.84
539.575	12323.28
539.94	12257.97
540.305	12354.01
540.67	12297.29
541.034	12345.88
541.399	12387.23
541.764	12359.89
542.129	12440.11
542.494	12465.42
542.858	12470.17
543.223	12396.27
543.587	12585.42
543.952	12567.57
544.316	12637.85
544.681	12580.45
545.045	12664.51
545.41	12763.72
545.774	12693.89
546.138	12781.57
546.503	12879.2
546.867	12800.55
547.231	12896.14
547.595	12827.45
547.959	12949.02
548.324	12917.16
548.688	12959.65
549.052	13041.45
549.416	13052.3
549.779	12988.12
550.143	13012.07
550.507	13117.16
550.871	13123.93
551.235	13103.6
551.599	13276.92
551.962	13252.97
552.326	13256.13
552.689	13360.76
553.053	13272.86
553.417	13302.69
553.78	13474.21
554.143	13435.79
554.507	13437.82
554.87	13555.11
555.234	13665.16
555.597	13548.1
555.96	13585.17
556.323	13740.64
556.686	13675.11
557.05	13812.5
557.413	13744.03
557.776	13803.24
558.139	13896.34
558.502	13878.49
558.865	13895.67
559.228	13915.1
559.59	14030.8
559.953	13976.12
560.316	14078.26
560.679	14156.45
561.041	14184.25
561.404	14236.67
561.767	14386.27
562.129	14363.9
562.492	14420.17
562.854	14459.04
563.217	14332.26
563.579	14429.21
563.941	14502.2
564.304	14689.09
564.666	14673.72
565.028	14699.49
565.39	14791.46
565.753	14856.09
566.115	14914.4
566.477	14951.01
566.839	14980.83
567.201	15078.46
567.563	15125.69
567.925	15198.46
568.287	15254.05
568.648	15229.64
569.01	15344.22
569.372	15438.22
569.734	15369.53
570.095	15431.9
570.457	15491.33
570.819	15536.98
571.18	15554.61
571.542	15676.18
571.903	15617.2
572.265	15762.28
572.626	15863.75
572.987	15910.53
573.349	15912.34
573.71	15970.64
574.071	16041.15
574.432	16071.65
574.794	16153.46
575.155	16196.85
575.516	16166.34
575.877	16231.42
576.238	16326.79
576.599	16292.66
576.96	16284.76
577.32	16265.77
577.681	16375.15
578.042	16447.24
578.403	16384.64
578.763	16464.19
579.124	16486.33
579.485	16600
579.845	16607.91
580.206	16575.82
580.566	16617.63
580.927	16678.64
581.287	16734.24
581.648	16569.49
582.008	16785.76
582.368	16732.65
582.728	16721.81
583.089	16656.72
583.449	16789.6
583.809	16774.23
584.169	16709.6
584.529	16780.56
584.889	16868.92
585.249	16830.96
585.609	16767.45
585.969	16865.98
586.329	16912.31
586.688	16924.06
587.048	16926.55
587.408	16859.66
587.768	16847.68
588.127	16880.67
588.487	16797.96
588.846	16962.7
589.206	16890.39
589.565	16928.81
589.925	17018.97
590.284	16948.24
590.643	17000.89
591.003	17027.79
591.362	17083.6
591.721	17042.48
592.08	16982.36
592.44	17096.71
592.799	17097.39
593.158	17100.55
593.517	17097.16
593.876	17170.16
594.235	17032.98
594.593	17088.35
594.952	17168.57
595.311	17165.64
595.67	17194.79
596.029	17195.01
596.387	17368.12
596.746	17316.59
597.104	17278.63
597.463	17212.19
597.822	17209.02
598.18	17235.01
598.538	17236.14
598.897	17312.98
599.255	17201.79
599.613	17385.52
599.972	17255.13
600.33	17303.26
600.688	17308.91
601.046	17341
601.404	17372.86
601.762	17364.73
602.12	17519.98
602.478	17383.48
602.836	17428.23
603.194	17317.04
603.552	17341
603.91	17282.7
604.268	17449.24
604.625	17350.04
604.983	17472.75
605.341	17406.31
605.698	17578.51
606.056	17577.38
606.413	17426.19
606.771	17695.11
607.128	17600.43
607.485	17528.11
607.843	17599.75
608.2	17618.05
608.557	17641.1
608.914	17600.2
609.272	17697.83
609.629	17730.59
609.986	17813.53
610.343	17617.6
610.7	17836.81
611.057	17766.07
611.414	17703.25
611.771	17715.45
612.127	17900.98
612.484	17844.26
612.841	17905.96
613.198	17863.24
613.554	17825.51
613.911	17926.29
614.267	17889.46
614.624	17952.73
614.98	17921.1
615.337	18053.3
615.693	18039.51
616.05	18033.18
616.406	18123.58
616.762	18037.25
617.118	17928.1
617.475	18006.52
617.831	18147.08
618.187	18150.92
618.543	18100.98
618.899	18335.1
619.255	18275.66
619.611	18245.83
619.967	18305.49
620.323	18246.96
620.678	18247.19
621.034	18239.96
621.39	18230.92
621.746	18129.45
622.101	18421.87
622.457	18296
622.812	18319.96
623.168	18323.57
623.523	18341.42
623.879	18411.93
624.234	18323.57
624.589	18439.05
624.945	18503
625.3	18442.66
625.655	18406.06
626.01	18422.78
626.365	18583.23
626.72	18452.61
627.075	18534.87
627.43	18492.61
627.785	18353.85
628.14	18498.93
628.495	18580.97
628.85	18514.08
629.205	18474.98
629.559	18680.17
629.914	18597.91
630.269	18682.66
630.623	18540.52
630.978	18568.99
631.332	18597.01
631.687	18649.44
632.041	18552.94
632.396	18654.64
632.75	18543.68
633.104	18630
633.459	18532.15
633.813	18651.7
634.167	18619.84
634.521	18683.56
634.875	18714.3
635.229	18607.41
635.583	18622.32
635.937	18530.12
636.291	18648.08
636.645	18653.51
636.999	18608.54
637.352	18687.4
637.706	18612.38
638.06	18800.4
638.413	18763.56
638.767	18632.94
639.121	18661.19
639.474	18620.29
639.828	18657.12
640.181	18705.03
640.534	18672.26
640.888	18685.6
641.241	18593.62
641.594	18729.66
641.947	18771.92
642.301	18640.17
642.654	18699.61
643.007	18613.28
643.36	18688.76
643.713	18693.28
644.066	18753.62
644.419	18723.79
644.771	18596.56
645.124	18370.8
645.477	18295.32
645.83	18328.09
646.182	18268.88
646.535	18238.6
646.888	18326.51
647.24	18311.14
647.593	18492.16
647.945	18509.1
648.298	18382.1
648.65	18279.96
649.002	18307.3
649.355	18411.48
649.707	18385.72
650.059	18488.31
650.411	18678.82
650.763	18750
651.115	19029.54
651.467	18850.34
651.819	18962.2
652.171	18966.72
652.523	18916.32
652.875	18965.59
653.227	18899.6
653.578	19063.67
653.93	19101.4
654.282	18958.13
654.633	18926.04
654.985	19058.47
655.337	18929.88
655.688	19080.84
656.039	19121.97
656.391	18955.87
656.742	18958.58
657.094	19084.46
657.445	19047.39
657.796	19038.13
658.147	18990.67
658.498	19037.9
658.849	19113.61
659.2	19157
659.551	19069.77
659.902	19138.24
660.253	19004.01
660.604	19213.04
660.955	19094.63
661.306	19129.2
661.656	19069.31
662.007	19172.36
662.358	19123.1
662.708	19235.86
663.059	19047.62
663.409	19013.72
663.76	19128.52
664.11	19170.56
664.461	19243.32
664.811	19157.22
665.161	19144.79
665.511	19191.12
665.862	19138.92
666.212	19126.94
666.562	19273.38
666.912	19156.32
667.262	19135.3
667.612	19115.87
667.962	19151.12
668.312	19084.91
668.662	19174.17
669.011	19154.51
669.361	19126.94
669.711	19037
670.06	19025.93
670.41	19006.94
670.76	18883.78
671.109	19069.09
671.459	18992.48
671.808	18975.08
672.157	19001.29
672.507	18847.85
672.856	18822.77
673.205	18865.03
673.554	18848.3
673.904	18738.02
674.253	18814.18
674.602	18881.75
674.951	18496.67
675.3	18395.89
675.649	18674.75
675.998	18701.42
676.346	18648.76
676.695	18664.35
677.044	18433.17
677.393	18445.6
677.741	18554.53
678.09	18576.22
678.438	18456.68
678.787	18389.56
679.135	18440.4
679.484	18289
679.832	18321.09
680.181	18219.85
680.529	18321.54
680.877	18164.93
681.225	18108.21
681.573	18321.31
681.922	18115.67
682.27	18105.5
682.618	18012.85
682.966	18058.72
683.314	17987.99
683.661	17947.76
684.009	17792.51
684.357	17808.56
684.705	17818.27
685.053	17848.1
685.4	17709.58
685.748	17740.99
686.095	17787.09
686.443	17703.25
686.79	17656.92
687.138	17697.83
687.485	17618.05
687.832	17552.74
688.18	17570.37
688.527	17536.25
688.874	17545.06
689.221	17431.84
689.568	17404.05
689.915	17386.87
690.262	17338.29
690.609	17263.94
690.956	17302.81
691.303	17328.12
691.65	17199.31
691.997	17187.1
692.344	17170.61
692.69	17164.05
693.037	17252.64
693.383	17020.78
693.73	17128.35
694.077	16969.71
694.423	16934
694.769	16938.3
695.116	16848.81
695.462	16958.64
695.808	16807.45
696.155	16876.15
696.501	16779.43
696.847	16792.31
697.193	16650.85
697.539	16783.5
697.885	16708.47
698.231	16604.07
698.577	16680.45
698.923	16730.85
699.269	16599.55
699.614	16526.33
699.96	16523.85
700.306	16570.17
700.651	16464.86
700.997	16449.72
701.342	16440.01
701.688	16380.8
702.033	16332.44
702.379	16304.64
702.724	16407.69
703.069	16385.09
703.415	16179
703.76	16162.27
704.105	16246.34
704.45	16205.66
704.795	16152.78
705.14	16083.86
705.485	16118.88
705.83	16037.53
706.175	16101.03
706.52	16048.83
706.865	16021.94
707.209	16068.94
707.554	15987.14
707.899	16068.49
708.243	15958.21
708.588	15979.45
708.932	15866.91
709.277	15933.8
709.621	15952.56
709.966	15912.34
710.31	15803.41
710.654	15708.05
710.998	15756.18
711.342	15802.73
711.687	15733.13
712.031	15763.87
712.375	15632.34
712.719	15747.37
713.063	15716.86
713.407	15766.58
713.75	15681.16
714.094	15711.44
714.438	15665.56
714.782	15693.81
715.125	15613.59
715.469	15608.39
715.812	15567.71
716.156	15570.88
716.499	15555.51
716.843	15583.98
717.186	15487.94
717.53	15595.06
717.873	15637.09
718.216	15532.01
718.559	15442.74
718.902	15359.58
719.246	15491.56
719.589	15388.28
719.932	15332.24
720.275	15407.94
720.617	15238.23
720.96	15392.35
721.303	15321.62
721.646	15325.91
721.989	15310.77
722.331	15346.7
722.674	15246.59
723.016	15329.3
723.359	15309.19
723.701	15334.72
724.044	15216.99
724.386	15138.8
724.729	15285.91
725.071	15191.9
725.413	15317.1
725.755	15235.29
726.097	15219.7
726.439	15132.47
726.782	15138.57
727.124	15208.63
727.465	15125.01
727.807	15111.68
728.149	15152.81
728.491	15140.15
728.833	15264.44
729.175	15167.27
729.516	15147.16
729.858	15193.71
730.199	15175.63
730.541	15077.78
730.882	15108.52
731.224	15204.33
731.565	15083.43
731.906	15166.37
732.248	15197.55
732.589	15058.57
732.93	15096.99
733.271	15179.47
733.612	15201.85
733.953	15175.18
734.294	15200.72
734.635	15096.09
734.976	15228.51
735.317	15123.66
735.658	15114.62
735.999	15229.87
736.339	15210.66
736.68	15211.56
737.021	15185.58
737.361	15188.74
737.702	15300.83
738.042	15321.16
738.383	15356.87
738.723	15382.18
739.063	15305.8
739.404	15312.8
739.744	15291.11
740.084	15383.76
740.424	15383.99
740.764	15364.33
741.104	15486.36
741.444	15344.44
741.784	15419.02
742.124	15422.18
742.464	15366.14
742.804	15399.35
743.143	15491.33
743.483	15488.62
743.823	15544.89
744.162	15508.28
744.502	15630.08
744.841	15600.93
745.181	15679.12
745.52	15682.51
745.86	15743.98
746.199	15698.78
746.538	15729.52
746.877	15833.24
747.216	15796.18
747.556	15768.61
747.895	15898.32
748.234	15896.74
748.573	15811.77
748.911	15894.26
749.25	15894.48
749.589	15950.98
749.928	16005.67
750.267	15981.03
750.605	16065.33
750.944	16000.24
751.283	16055.38
751.621	16205.66
751.96	16034.59
752.298	16139.45
752.636	16124.53
752.975	16158.88
753.313	16006.8
753.651	16319.1
753.989	16173.35
754.327	16241.37
754.666	16211.99
755.004	16255.83
755.342	16367.24
755.679	16371.08
