Data from blue_chair_FLMS001491_00024.txt Node
Date: Wed Feb 08 10:30:03 GMT 2017
User: dcchb
Spectrometer: FLMS00149
Trigger mode: 0
Integration Time (sec): 2.000000E-2
Scans to average: 10
Electric dark correction enabled: true
Nonlinearity correction enabled: false
Boxcar width: 0
XAxis mode: Wavelengths
Number of Pixels in Spectrum: 2048
>>>>>Begin Spectral Data<<<<<
341.393	-1.91
341.776	-1.91
342.16	-1.91
342.543	-50.94
342.927	-50.04
343.31	-72.41
343.693	-58.85
344.077	-59.76
344.46	-52.07
344.843	-42.81
345.226	-54.33
345.61	-26.54
345.993	-34.9
346.376	19.34
346.759	16.17
347.142	16.62
347.525	29.28
347.908	64.53
348.291	58.43
348.674	79.45
349.057	117.86
349.44	120.12
349.823	156.28
350.206	134.59
350.588	180.69
350.971	195.6
351.354	207.58
351.737	216.62
352.119	230.86
352.502	234.47
352.884	267.24
353.267	245.77
353.65	252.78
354.032	288.71
354.414	295.03
354.797	297.52
355.179	302.27
355.562	301.14
355.944	296.16
356.326	317.41
356.709	320.8
357.091	307.92
357.473	328.25
357.855	316.28
358.238	317.41
358.62	310.18
359.002	325.54
359.384	325.99
359.766	307.24
360.148	313.11
360.53	330.51
360.912	299.1
361.294	306.11
361.676	308.82
362.057	330.29
362.439	315.83
362.821	314.7
363.203	297.97
363.584	289.39
363.966	283.74
364.348	306.56
364.729	305.43
365.111	312.21
365.493	301.14
365.874	271.31
366.256	311.08
366.637	283.96
367.019	321.02
367.4	289.16
367.781	293.45
368.163	307.69
368.544	303.62
368.925	282.61
369.306	294.36
369.688	258.88
370.069	286.22
370.45	268.59
370.831	295.49
371.212	311.08
371.593	297.29
371.974	295.49
372.355	262.04
372.736	292.1
373.117	302.72
373.498	291.19
373.879	290.74
374.26	286.45
374.641	286.45
375.021	312.44
375.402	283.06
375.783	293.68
376.163	278.09
376.544	300.46
376.925	272.66
377.305	289.84
377.686	287.8
378.066	300.23
378.447	298.88
378.827	316.95
379.208	302.49
379.588	304.3
379.968	300.46
380.349	291.19
380.729	318.99
381.109	289.16
381.489	319.67
381.87	320.8
382.25	286.22
382.63	302.94
383.01	297.29
383.39	292.1
383.77	302.27
384.15	309.27
384.53	299.78
384.91	316.73
385.29	330.29
385.67	307.01
386.049	315.6
386.429	322.83
386.809	330.51
387.189	314.47
387.568	321.47
387.948	291.19
388.328	349.72
388.707	336.39
389.087	313.11
389.466	362.15
389.846	317.41
390.225	333.23
390.605	333.9
390.984	322.38
391.363	338.2
391.743	321.47
392.122	323.96
392.501	340.68
392.881	314.24
393.26	330.97
393.639	337.52
394.018	325.54
394.397	364.19
394.776	344.75
395.155	332.77
395.534	341.59
395.913	334.58
396.292	352.66
396.671	357.18
397.05	363.96
397.429	355.15
397.808	357.41
398.186	351.76
398.565	353.34
398.944	383.62
399.323	366.67
399.701	384.3
400.08	367.8
400.458	363.28
400.837	370.96
401.215	377.97
401.594	365.99
401.972	355.82
402.351	380.23
402.729	387.69
403.107	383.39
403.486	368.48
403.864	402.83
404.242	375.48
404.62	394.69
404.999	412.55
405.377	380.68
405.755	401.25
406.133	405.77
406.511	419.1
406.889	429.95
407.267	385.65
407.645	439.89
408.023	406.22
408.401	419.55
408.779	437.4
409.156	406.67
409.534	421.58
409.912	450.74
410.29	429.72
410.667	428.14
411.045	449.83
411.422	459.32
411.8	453
412.178	466.33
412.555	467.23
412.933	469.27
413.31	455.93
413.687	459.55
414.065	498.42
414.442	476.5
414.819	475.59
415.197	506.1
415.574	509.27
415.951	506.33
416.328	498.87
416.705	483.73
417.082	515.59
417.46	506.78
417.837	496.61
418.214	507.46
418.591	496.84
418.967	525.99
419.344	486.89
419.721	532.32
420.098	518.98
420.475	520.11
420.852	516.5
421.228	538.87
421.605	539.77
421.982	535.25
422.358	542.71
422.735	546.33
423.111	552.65
423.488	545.65
423.864	545.88
424.241	570.96
424.617	570.96
424.994	583.39
425.37	595.14
425.746	580.22
426.123	585.65
426.499	591.3
426.875	600.79
427.251	634.23
427.627	624.07
428.003	619.09
428.379	654.35
428.756	607.79
429.132	674.91
429.507	657.74
429.883	645.76
430.259	674.69
430.635	653.44
431.011	676.04
431.387	671.52
431.763	680.56
432.138	698.41
432.514	696.38
432.89	703.84
433.265	707.91
433.641	713.55
434.016	723.5
434.392	741.35
434.767	731.63
435.143	754.68
435.518	765.08
435.894	786.32
436.269	800.78
436.644	803.04
437.02	808.69
437.395	802.59
437.77	808.02
438.145	836.26
438.52	846.43
438.895	855.47
439.271	863.83
439.646	853.44
440.021	876.49
440.395	892.98
440.77	905.41
441.145	890.27
441.52	902.7
441.895	907.67
442.27	915.58
442.645	923.04
443.019	932.08
443.394	947.45
443.769	949.03
444.143	929.82
444.518	978.63
444.892	956.94
445.267	968.46
445.641	985.86
446.016	1005.3
446.39	996.26
446.764	1007.56
447.139	1002.13
447.513	1012.08
447.887	1050.72
448.262	1022.7
448.636	1030.83
449.01	1040.1
449.384	1051.62
449.758	1035.35
450.132	1066.77
450.506	1055.47
450.88	1057.73
451.254	1110.61
451.628	1104.96
452.002	1103.15
452.376	1136.37
452.75	1128.69
453.123	1137.05
453.497	1129.81
453.871	1133.2
454.244	1171.17
454.618	1185.41
454.992	1187.89
455.365	1190.15
455.739	1202.81
456.112	1208
456.486	1239.19
456.859	1225.63
457.232	1250.94
457.606	1235.8
457.979	1258.85
458.352	1293.2
458.725	1297.49
459.099	1295.23
459.472	1325.74
459.845	1332.75
460.218	1363.03
460.591	1375.91
460.964	1339.53
461.337	1381.79
461.71	1405.97
462.083	1406.19
462.456	1412.29
462.829	1396.7
463.201	1455
463.574	1418.39
463.947	1460.2
464.32	1470.6
464.692	1477.38
465.065	1497.71
465.438	1517.83
465.81	1516.7
466.183	1509.01
466.555	1555.11
466.928	1534.78
467.3	1581.78
467.672	1572.52
468.045	1607.32
468.417	1623.14
468.789	1628.11
469.161	1596.92
469.534	1642.34
469.906	1673.53
470.278	1706.07
470.65	1697.94
471.022	1716.01
471.394	1772.28
471.766	1762.11
472.138	1796.01
472.51	1799.63
472.882	1823.58
473.253	1871.72
473.625	1889.12
473.997	1853.19
474.369	1886.63
474.74	1927.53
475.112	1911.04
475.484	1969.34
475.855	1968.21
476.227	1965.05
476.598	2004.37
476.97	2021.77
477.341	2036.23
477.713	2092.05
478.084	2078.94
478.455	2146.74
478.827	2108.55
479.198	2179.96
479.569	2187.41
479.94	2197.13
480.311	2205.72
480.682	2268.77
481.053	2306.96
481.424	2310.8
481.795	2326.85
482.166	2343.34
482.537	2356.22
482.908	2380.63
483.279	2392.83
483.65	2462.44
484.021	2469.21
484.391	2459.05
484.762	2481.64
485.133	2498.37
485.503	2514.64
485.874	2565.03
486.244	2568.42
486.615	2574.3
486.985	2577.46
487.356	2616.78
487.726	2615.2
488.097	2663.11
488.467	2669.44
488.837	2689.77
489.207	2694.29
489.578	2735.2
489.948	2752.82
490.318	2759.6
490.688	2774.97
491.058	2768.87
491.428	2812.93
491.798	2792.37
492.168	2817.23
492.538	2804.8
492.908	2835.98
493.278	2877.11
493.648	2871.92
494.017	2872.14
494.387	2895.42
494.757	2888.19
495.126	2909.66
495.496	2870.56
495.866	2878.92
496.235	2901.97
496.605	2921.86
496.974	2924.8
497.344	2908.53
497.713	2934.97
498.082	2946.26
498.452	2926.38
498.821	2923.44
499.19	2924.57
499.559	2920.73
499.928	2919.6
500.298	2927.51
500.667	2927.51
501.036	2924.57
501.405	2928.19
501.774	2897
502.143	2899.49
502.512	2915.98
502.88	2965.47
503.249	2925.7
503.618	2874.18
503.987	2967.05
504.356	2908.53
504.724	2910.56
505.093	2923.21
505.462	2915.53
505.83	2911.69
506.199	2892.03
506.567	2934.06
506.936	2902.88
507.304	2967.73
507.672	2902.42
508.041	2889.77
508.409	2901.97
508.777	2917.11
509.145	2900.84
509.514	2930.45
509.882	2924.12
510.25	2910.11
510.618	2889.09
510.986	2903.78
511.354	2914.4
511.722	2905.14
512.09	2889.77
512.458	2894.06
512.826	2934.51
513.193	2888.19
513.561	2913.27
513.929	2902.88
514.297	2914.4
514.664	2904.01
515.032	2860.39
515.4	2876.21
515.767	2881.41
516.135	2875.98
516.502	2816.55
516.869	2900.16
517.237	2859.49
517.604	2848.41
517.972	2845.93
518.339	2843.67
518.706	2812.03
519.073	2809.54
519.44	2831.47
519.808	2854.97
520.175	2803.22
520.542	2821.75
520.909	2828.53
521.276	2777.68
521.643	2792.14
522.009	2823.56
522.376	2796.89
522.743	2835.98
523.11	2852.48
523.477	2809.77
523.843	2824.01
524.21	2832.82
524.577	2827.17
524.943	2805.7
525.31	2775.42
525.676	2831.01
526.043	2840.28
526.409	2825.36
526.776	2860.39
527.142	2826.95
527.508	2829.43
527.874	2817.68
528.241	2862.42
528.607	2824.69
528.973	2854.52
529.339	2850.45
529.705	2834.18
530.071	2885.47
530.437	2860.84
530.803	2865.14
531.169	2893.16
531.535	2877.11
531.901	2861.75
532.267	2804.35
532.632	2848.19
532.998	2826.04
533.364	2852.48
533.73	2854.52
534.095	2887.51
534.461	2856.78
534.826	2889.09
535.192	2881.63
535.557	2885.93
535.923	2868.98
536.288	2844.57
536.653	2855.42
537.019	2864.46
537.384	2855.42
537.749	2858.81
538.114	2827.4
538.479	2860.62
538.845	2866.27
539.21	2870.56
539.575	2845.25
539.94	2829.21
540.305	2864.91
540.67	2870.11
541.034	2858.36
541.399	2841.41
541.764	2874.18
542.129	2875.98
542.494	2865.81
542.858	2853.61
543.223	2835.76
543.587	2840.5
543.952	2842.76
544.316	2864.68
544.681	2864.01
545.045	2844.35
545.41	2837.11
545.774	2841.86
546.138	2862.88
546.503	2865.81
546.867	2869.88
547.231	2851.8
547.595	2857.91
547.959	2836.66
548.324	2834.63
548.688	2805.03
549.052	2854.06
549.416	2835.31
549.779	2804.57
550.143	2793.27
550.507	2851.13
550.871	2821.97
551.235	2799.6
551.599	2845.7
551.962	2814.06
552.326	2835.76
552.689	2823.1
553.053	2833.27
553.417	2824.46
553.78	2834.4
554.143	2830.34
554.507	2803.9
554.87	2795.53
555.234	2809.32
555.597	2799.38
555.96	2783.1
556.323	2800.05
556.686	2775.65
557.05	2826.49
557.413	2805.25
557.776	2820.84
558.139	2808.41
558.502	2815.87
558.865	2775.87
559.228	2777.91
559.59	2805.93
559.953	2816.55
560.316	2824.46
560.679	2805.03
561.041	2818.36
561.404	2809.54
561.767	2798.7
562.129	2789.43
562.492	2838.7
562.854	2842.99
563.217	2843.67
563.579	2860.62
563.941	2845.93
564.304	2845.02
564.666	2859.49
565.028	2844.35
565.39	2851.35
565.753	2876.89
566.115	2891.35
566.477	2874.85
566.839	2873.5
567.201	2919.15
567.563	2919.82
567.925	2909.43
568.287	2907.62
568.648	2875.53
569.01	2948.3
569.372	2993.49
569.734	2918.02
570.095	2959.15
570.457	2968.41
570.819	2959.6
571.18	2974.51
571.542	2948.07
571.903	2995.53
572.265	3032.82
572.626	3009.54
572.987	2995.53
573.349	3033.27
573.71	2987.85
574.071	2993.49
574.432	3046.83
574.794	3033.04
575.155	3081.4
575.516	3068.75
575.877	3090.89
576.238	3055.19
576.599	3091.12
576.96	3090.22
577.32	3117.79
577.681	3114.62
578.042	3138.58
578.403	3112.14
578.763	3126.82
579.124	3129.54
579.485	3164.34
579.845	3133.83
580.206	3139.48
580.566	3152.59
580.927	3130.44
581.287	3215.41
581.648	3171.12
582.008	3195.75
582.368	3189.65
582.728	3209.99
583.089	3160.04
583.449	3188.97
583.809	3196.88
584.169	3187.39
584.529	3221.96
584.889	3224.22
585.249	3216.54
585.609	3210.89
585.969	3217.22
586.329	3215.18
586.688	3206.37
587.048	3242.08
587.408	3201.62
587.768	3240.49
588.127	3204.11
588.487	3231.23
588.846	3255.41
589.206	3253.83
589.565	3216.77
589.925	3251.79
590.284	3234.84
590.643	3195.98
591.003	3261.51
591.362	3263.09
591.721	3261.06
592.08	3247.27
592.44	3256.54
592.799	3261.28
593.158	3236.43
593.517	3268.97
593.876	3252.24
594.235	3214.51
594.593	3292.7
594.952	3255.63
595.311	3221.29
595.67	3207.05
596.029	3231.68
596.387	3249.99
596.746	3244.34
597.104	3219.93
597.463	3252.02
597.822	3220.38
598.18	3249.76
598.538	3214.51
598.897	3250.44
599.255	3255.41
599.613	3283.66
599.972	3269.42
600.33	3240.04
600.688	3228.74
601.046	3256.99
601.404	3251.34
601.762	3302.19
602.12	3239.59
602.478	3258.12
602.836	3303.32
603.194	3219.48
603.552	3276.65
603.91	3279.14
604.268	3246.82
604.625	3236.43
604.983	3283.66
605.341	3239.59
605.698	3268.29
606.056	3256.54
606.413	3275.97
606.771	3244.56
607.128	3329.08
607.485	3229.87
607.843	3221.29
608.2	3243.88
608.557	3272.13
608.914	3244.11
609.272	3271
609.629	3269.42
609.986	3317.33
610.343	3307.61
610.7	3325.92
611.057	3319.14
611.414	3273.71
611.771	3271.23
612.127	3306.48
612.484	3271.45
612.841	3273.26
613.198	3289.53
613.554	3315.97
613.911	3295.41
614.267	3334.5
614.624	3312.36
614.98	3361.17
615.337	3340.15
615.693	3293.37
616.05	3302.87
616.406	3323.66
616.762	3306.03
617.118	3306.71
617.475	3287.72
617.831	3365.46
618.187	3302.19
618.543	3290.89
618.899	3377.21
619.255	3365.91
619.611	3372.69
619.967	3360.94
620.323	3344.67
620.678	3334.05
621.034	3308.29
621.39	3319.59
621.746	3346.48
622.101	3353.49
622.457	3339.7
622.812	3308.29
623.168	3364.33
623.523	3300.83
623.879	3360.04
624.234	3328.63
624.589	3408.4
624.945	3349.87
625.3	3358.46
625.655	3379.7
626.01	3367.72
626.365	3376.76
626.72	3355.07
627.075	3393.03
627.43	3375.41
627.785	3356.88
628.14	3364.56
628.495	3403.2
628.85	3337.21
629.205	3352.58
629.559	3353.03
629.914	3344.67
630.269	3405.46
630.623	3370.21
630.978	3359.13
631.332	3400.72
631.687	3409.98
632.041	3374.05
632.396	3380.83
632.75	3372.92
633.104	3395.74
633.459	3394.61
633.813	3345.35
634.167	3343.09
634.521	3380.15
634.875	3376.31
635.229	3400.72
635.583	3379.02
635.937	3380.83
636.291	3357.55
636.645	3392.81
636.999	3408.17
637.352	3381.28
637.706	3368.4
638.06	3416.53
638.413	3375.41
638.767	3377.21
639.121	3392.35
639.474	3360.04
639.828	3362.75
640.181	3328.4
640.534	3374.95
640.888	3361.39
641.241	3355.29
641.594	3353.71
641.947	3374.73
642.301	3399.81
642.654	3386.93
643.007	3387.83
643.36	3367.95
643.713	3331.56
644.066	3366.59
644.419	3372.02
644.771	3349.42
645.124	3349.42
645.477	3318.01
645.83	3315.52
646.182	3332.02
646.535	3292.92
646.888	3290.21
647.24	3285.46
647.593	3311.23
647.945	3314.62
648.298	3279.14
648.65	3327.5
649.002	3321.4
649.355	3306.25
649.707	3296.54
650.059	3309.64
650.411	3350.32
650.763	3346.03
651.115	3445.23
651.467	3426.25
651.819	3401.17
652.171	3437.78
652.523	3436.19
652.875	3455.4
653.227	3453.82
653.578	3454.05
653.93	3439.36
654.282	3438.91
654.633	3407.5
654.985	3419.7
655.337	3482.75
655.688	3461.28
656.039	3477.1
656.391	3432.81
656.742	3443.2
657.094	3463.09
657.445	3485.91
657.796	3467.15
658.147	3485.46
658.498	3481.39
658.849	3518.68
659.2	3483.88
659.551	3464.89
659.902	3506.25
660.253	3500.15
660.604	3500.6
660.955	3454.27
661.306	3524.33
661.656	3519.36
662.007	3525.46
662.358	3537.21
662.708	3542.86
663.059	3544.89
663.409	3521.84
663.76	3541.73
664.11	3562.75
664.461	3523.2
664.811	3507.38
665.161	3526.14
665.511	3581.5
665.862	3532.01
666.212	3519.13
666.562	3537.21
666.912	3494.05
667.262	3483.65
667.612	3511.22
667.962	3534.05
668.312	3496.53
668.662	3525.91
669.011	3546.47
669.361	3527.49
669.711	3533.37
670.06	3504.44
670.41	3520.49
670.76	3486.59
671.109	3516.42
671.459	3496.76
671.808	3494.5
672.157	3468.96
672.507	3456.76
672.856	3468.96
673.205	3468.96
673.554	3510.77
673.904	3472.35
674.253	3528.62
674.602	3540.82
674.951	3462.86
675.3	3409.98
675.649	3462.41
675.998	3486.36
676.346	3456.99
676.695	3490.88
677.044	3429.87
677.393	3441.17
677.741	3419.25
678.09	3408.17
678.438	3451.11
678.787	3410.43
679.135	3398.23
679.484	3346.71
679.832	3364.56
680.181	3368.85
680.529	3360.72
680.877	3382.19
681.225	3373.37
681.573	3399.13
681.922	3327.5
682.27	3337.67
682.618	3332.02
682.966	3344.45
683.314	3302.41
683.661	3334.28
684.009	3285.46
684.357	3293.15
684.705	3290.89
685.053	3292.7
685.4	3301.96
685.748	3285.01
686.095	3239.82
686.443	3254.5
686.79	3252.92
687.138	3217.67
687.485	3200.72
687.832	3208.18
688.18	3238.01
688.527	3200.95
688.874	3223.55
689.221	3168.41
689.568	3167.5
689.915	3136.77
690.262	3179.03
690.609	3160.04
690.956	3111.91
691.303	3129.08
691.65	3108.97
691.997	3130.21
692.344	3098.35
692.69	3064.91
693.037	3055.19
693.383	3060.84
693.73	3037.34
694.077	3014.29
694.423	3047.73
694.769	3034.62
695.116	3020.61
695.462	3035.53
695.808	2993.04
696.155	2987.85
696.501	3018.35
696.847	2960.5
697.193	2964.12
697.539	2969.09
697.885	2944.46
698.231	2959.82
698.577	2955.98
698.923	2931.8
699.269	2896.77
699.614	2897
699.96	2864.23
700.306	2886.15
700.651	2910.33
700.997	2853.39
701.342	2813.16
701.688	2840.96
702.033	2885.02
702.379	2842.09
702.724	2856.1
703.069	2859.71
703.415	2846.15
703.76	2852.71
704.105	2808.64
704.45	2833.5
704.795	2825.59
705.14	2810.9
705.485	2798.92
705.83	2801.18
706.175	2800.05
706.52	2778.36
706.865	2783.1
707.209	2793.5
707.554	2796.21
707.899	2792.6
708.243	2754.63
708.588	2800.51
708.932	2782.2
709.277	2783.1
709.621	2769.77
709.966	2765.25
710.31	2805.25
710.654	2778.36
710.998	2770.68
711.342	2793.95
711.687	2741.75
712.031	2756.21
712.375	2761.64
712.719	2758.92
713.063	2777.23
713.407	2792.37
713.75	2776.55
714.094	2757.79
714.438	2760.73
714.782	2758.25
715.125	2731.58
715.469	2805.93
715.812	2841.18
716.156	2805.25
716.499	2791.47
716.843	2764.8
717.186	2772.94
717.53	2788.98
717.873	2814.97
718.216	2802.31
718.559	2804.12
718.902	2800.51
719.246	2799.15
719.589	2790.56
719.932	2802.54
720.275	2799.15
720.617	2831.92
720.96	2817.23
721.303	2856.1
721.646	2856.55
721.989	2825.82
722.331	2863.55
722.674	2861.52
723.016	2885.93
723.359	2928.19
723.701	2882.76
724.044	2917.56
724.386	2887.73
724.729	2921.41
725.071	2912.37
725.413	2910.33
725.755	2939.71
726.097	2947.62
726.439	2893.16
726.782	2929.32
727.124	2974.96
727.465	2954.85
727.807	2975.42
728.149	2966.15
728.491	2986.94
728.833	3015.64
729.175	3008.18
729.516	2989.43
729.858	3028.97
730.199	3023.32
730.541	3048.63
730.882	3068.07
731.224	3090.67
731.565	3093.83
731.906	3104.45
732.248	3120.27
732.589	3104.9
732.93	3139.93
733.271	3127.05
733.612	3128.63
733.953	3146.71
734.294	3177.44
734.635	3192.59
734.976	3213.83
735.317	3207.27
735.658	3243.21
735.999	3290.44
736.339	3287.27
736.68	3316.65
737.021	3295.18
737.361	3304.67
737.702	3379.7
738.042	3390.77
738.383	3387.83
738.723	3439.13
739.063	3426.03
739.404	3441.17
739.744	3500.37
740.084	3511.22
740.424	3505.8
740.764	3549.86
741.104	3588.06
741.444	3579.69
741.784	3646.81
742.124	3684.78
742.464	3711.44
742.804	3727.03
743.143	3754.15
743.483	3806.35
743.823	3812.46
744.162	3874.15
744.502	3944.2
744.841	3934.71
745.181	3985.33
745.52	3972.68
745.86	4072.34
746.199	4114.14
746.538	4150.07
746.877	4155.95
747.216	4210.86
747.556	4239.79
747.895	4333.57
748.234	4381.25
748.573	4440.24
748.911	4478.88
749.25	4514.58
749.589	4574.47
749.928	4597.29
750.267	4708.03
750.605	4749.61
750.944	4798.19
751.283	4859.21
751.621	4945.76
751.96	5000.67
752.298	5083.16
752.636	5148.92
752.975	5180.1
753.313	5236.83
753.651	5326.99
753.989	5386.43
754.327	5462.58
754.666	5530.38
755.004	5616.02
755.342	5696.25
755.679	5760.43
756.017	5823.48
756.355	5936.02
756.693	5956.58
757.031	6037.93
757.368	6132.4
757.706	6251.71
758.044	6286.74
758.381	6354.99
758.719	6358.15
759.056	6515.21
759.394	6588.43
759.731	6638.37
760.068	6670.01
760.405	6769.67
760.743	6839.72
761.08	6936.44
761.417	7026.16
761.754	7045.14
762.091	7123.1
762.428	7186.38
762.765	7208.98
763.102	7263.66
763.438	7374.85
763.775	7420.27
764.112	7477.44
764.449	7599.25
764.785	7603.32
765.122	7578.23
765.458	7620.49
765.795	7745.23
766.131	7777.32
766.467	7916.08
766.804	7923.76
767.14	7964.21
767.476	8015.96
767.812	8068.16
768.148	8118.56
768.485	8098.22
768.821	8179.12
769.157	8237.88
769.492	8272.9
769.828	8252.34
770.164	8285.33
