Data from blue_chair_FLMS001491_00004.txt Node
Date: Wed Feb 08 10:28:55 GMT 2017
User: dcchb
Spectrometer: FLMS00149
Trigger mode: 0
Integration Time (sec): 2.000000E-2
Scans to average: 10
Electric dark correction enabled: true
Nonlinearity correction enabled: false
Boxcar width: 0
XAxis mode: Wavelengths
Number of Pixels in Spectrum: 2048
>>>>>Begin Spectral Data<<<<<
341.393	-6.62
341.776	-6.62
342.16	-6.62
342.543	-73.74
342.927	-73.52
343.31	-76
343.693	-38.94
344.077	-76.68
344.46	-51.14
344.843	-57.47
345.226	-39.17
345.61	-19.96
345.993	-38.71
346.376	3.55
346.759	14.62
347.142	29.99
347.525	42.41
347.908	50.55
348.291	73.6
348.674	92.13
349.057	91.23
349.44	150.89
349.823	139.13
350.206	144.56
350.588	199.25
350.971	180.49
351.354	203.77
351.737	203.77
352.119	215.97
352.502	264.33
352.884	248.06
353.267	256.19
353.65	265.69
354.032	261.62
354.414	295.74
354.797	273.59
355.179	291.22
355.562	309.53
355.944	294.61
356.326	282.63
356.709	318.34
357.091	304.55
357.473	323.54
357.855	322.18
358.238	305.01
358.62	305.91
359.002	306.36
359.384	316.53
359.766	323.99
360.148	297.77
360.53	299.36
360.912	302.29
361.294	294.61
361.676	315.4
362.057	309.53
362.439	310.88
362.821	309.75
363.203	300.26
363.584	295.29
363.966	299.81
364.348	295.29
364.729	287.38
365.111	280.83
365.493	276.53
365.874	269.07
366.256	293.48
366.637	284.22
367.019	275.63
367.4	280.15
367.781	296.19
368.163	279.24
368.544	306.81
368.925	278.79
369.306	269.3
369.688	285.12
370.069	273.14
370.45	284.22
370.831	272.92
371.212	282.63
371.593	306.14
371.974	291.22
372.355	272.01
372.736	278.34
373.117	292.13
373.498	276.98
373.879	282.18
374.26	277.21
374.641	287.38
375.021	295.97
375.402	287.15
375.783	296.64
376.163	298.9
376.544	288.28
376.925	277.89
377.305	277.21
377.686	308.62
378.066	282.86
378.447	277.66
378.827	291
379.208	300.49
379.588	282.86
379.968	287.61
380.349	276.31
380.729	301.16
381.109	295.74
381.489	306.81
381.87	295.97
382.25	282.63
382.63	291
383.01	299.13
383.39	293.48
383.77	277.89
384.15	302.52
384.53	291.67
384.91	303.42
385.29	297.55
385.67	304.1
386.049	313.14
386.429	290.54
386.809	294.16
387.189	303.65
387.568	318.57
387.948	276.76
388.328	287.15
388.707	273.59
389.087	303.42
389.466	322.63
389.846	290.77
390.225	315.18
390.605	321.28
390.984	319.47
391.363	319.02
391.743	322.18
392.122	332.58
392.501	322.41
392.881	322.18
393.26	317.89
393.639	318.57
394.018	326.02
394.397	320.15
394.776	316.53
395.155	333.03
395.534	326.25
395.913	324.89
396.292	331.9
396.671	334.61
397.05	314.27
397.429	319.92
397.808	335.51
398.186	332.12
398.565	315.4
398.944	318.11
399.323	335.97
399.701	334.16
400.08	317.66
400.458	346.13
400.837	335.97
401.215	325.34
401.594	332.8
401.972	314.27
402.351	323.76
402.729	326.7
403.107	355.85
403.486	346.36
403.864	344.55
404.242	341.84
404.62	363.08
404.999	354.04
405.377	345.46
405.755	353.59
406.133	357.43
406.511	347.26
406.889	355.17
407.267	386.59
407.645	348.17
408.023	360.82
408.401	366.47
408.779	363.08
409.156	380.48
409.534	383.65
409.912	382.97
410.29	367.38
410.667	373.48
411.045	373.48
411.422	366.47
411.8	385.46
412.178	422.29
412.555	393.14
412.933	388.62
413.31	394.04
413.687	412.12
414.065	403.08
414.442	402.86
414.819	386.81
415.197	392.46
415.574	389.75
415.951	408.05
416.328	405.12
416.705	406.02
417.082	418
417.46	412.35
417.837	408.05
418.214	385.46
418.591	391.78
418.967	412.35
419.344	431.1
419.721	424.78
420.098	442.63
420.475	418
420.852	447.38
421.228	432.46
421.605	429.52
421.982	452.8
422.358	460.48
422.735	458.45
423.111	439.24
423.488	430.43
423.864	459.13
424.241	442.4
424.617	456.41
424.994	463.65
425.37	470.43
425.746	463.65
426.123	467.49
426.499	476.75
426.875	479.24
427.251	481.05
427.627	488.05
428.003	501.61
428.379	510.2
428.756	486.24
429.132	498.45
429.507	506.36
429.883	489.63
430.259	512.46
430.635	501.16
431.011	505.23
431.387	510.65
431.763	499.58
432.138	530.76
432.514	527.83
432.89	542.51
433.265	539.58
433.641	551.78
434.016	544.1
434.392	561.04
434.767	572.57
435.143	552.46
435.518	581.16
435.894	577.09
436.269	569.18
436.644	604.43
437.02	563.98
437.395	610.08
437.77	613.02
438.145	621.61
438.52	612.79
438.895	623.87
439.271	622.51
439.646	622.74
440.021	614.83
440.395	627.94
440.77	647.6
441.145	643.53
441.52	647.82
441.895	671.55
442.27	670.42
442.645	668.16
443.019	662.06
443.394	678.1
443.769	703.41
444.143	679.23
444.518	687.37
444.892	663.19
445.267	696.86
445.641	703.41
446.016	703.19
446.39	707.03
446.764	730.76
447.139	723.07
447.513	715.84
447.887	746.12
448.262	748.84
448.636	705.9
449.01	709.97
449.384	730.08
449.758	756.97
450.132	768.27
450.506	722.85
450.88	759.68
451.254	780.02
451.628	760.14
452.002	781.83
452.376	788.61
452.75	790.64
453.123	796.74
453.497	799.46
453.871	782.96
454.244	787.48
454.618	809.63
454.992	808.27
455.365	825.67
455.739	852.11
456.112	855.05
456.486	852.79
456.859	876.74
457.232	851.43
457.606	878.78
457.979	858.21
458.352	885.33
458.725	880.36
459.099	906.12
459.472	885.33
459.845	892.79
460.218	911.54
460.591	935.5
460.964	924.88
461.337	932.33
461.71	927.81
462.083	937.76
462.456	947.02
462.829	942.05
463.201	968.04
463.574	938.44
463.947	970.3
464.32	982.73
464.692	990.19
465.065	1006.23
465.438	1001.94
465.81	1013.46
466.183	1013.69
466.555	1017.76
466.928	1010.75
467.3	1045.33
467.672	1028.6
468.045	1063.63
468.417	1047.59
468.789	1048.94
469.161	1058.88
469.534	1057.08
469.906	1086.45
470.278	1083.52
470.65	1110.63
471.022	1119.22
471.394	1108.15
471.766	1131.2
472.138	1112.44
472.51	1141.37
472.882	1163.97
473.253	1151.76
473.625	1199.22
473.997	1157.19
474.369	1175.72
474.74	1194.47
475.112	1174.59
475.484	1204.87
475.855	1243.29
476.227	1241.93
476.598	1255.04
476.97	1238.31
477.341	1278.31
477.713	1288.03
478.084	1310.18
478.455	1317.18
478.827	1314.92
479.198	1335.26
479.569	1314.47
479.94	1337.97
480.311	1375.26
480.682	1398.08
481.053	1394.92
481.424	1390.63
481.795	1416.84
482.166	1421.36
482.537	1430.4
482.908	1448.25
483.279	1433.79
483.65	1469.95
484.021	1509.95
484.391	1506.33
484.762	1503.62
485.133	1511.3
485.503	1491.19
485.874	1514.92
486.244	1510.85
486.615	1540.68
486.985	1558.53
487.356	1547.23
487.726	1563.28
488.097	1558.31
488.467	1566.22
488.837	1575.48
489.207	1604.86
489.578	1610.28
489.948	1633.56
490.318	1584.75
490.688	1627.91
491.058	1605.08
491.428	1625.88
491.798	1604.18
492.168	1639.43
492.538	1641.24
492.908	1643.95
493.278	1620.68
493.648	1635.37
494.017	1662.26
494.387	1654.12
494.757	1643.95
495.126	1642.6
495.496	1657.51
495.866	1626.55
496.235	1654.8
496.605	1650.96
496.974	1659.55
497.344	1664.07
497.713	1626.78
498.082	1661.58
498.452	1643.5
498.821	1635.59
499.19	1622.49
499.559	1635.14
499.928	1633.11
500.298	1620.68
500.667	1650.51
501.036	1640.56
501.405	1633.56
501.774	1648.25
502.143	1618.19
502.512	1661.35
502.88	1637.85
503.249	1629.49
503.618	1645.76
503.987	1638.08
504.356	1631.52
504.724	1606.44
505.093	1619.32
505.462	1605.54
505.83	1616.38
506.199	1616.84
506.567	1608.25
506.936	1579.77
507.304	1601.47
507.672	1589.72
508.041	1594.69
508.409	1607.57
508.777	1596.72
509.145	1593.33
509.514	1567.57
509.882	1565.99
510.25	1571.19
510.618	1578.87
510.986	1572.32
511.354	1594.92
511.722	1543.17
512.09	1575.71
512.458	1543.62
512.826	1533.9
513.193	1563.05
513.561	1554.46
513.929	1519.44
514.297	1536.84
514.664	1549.27
515.032	1549.72
515.4	1521.7
515.767	1519.89
516.135	1545.65
516.502	1511.53
516.869	1532.77
517.237	1508.59
517.604	1486.67
517.972	1500
518.339	1500.45
518.706	1496.84
519.073	1476.5
519.44	1486.22
519.808	1516.27
520.175	1460.91
520.542	1457.29
520.909	1468.14
521.276	1465.65
521.643	1455.26
522.009	1470.17
522.376	1465.65
522.743	1474.47
523.11	1447.12
523.477	1459.1
523.843	1467.01
524.21	1433.56
524.577	1476.73
524.943	1445.09
525.31	1400.57
525.676	1434.92
526.043	1491.19
526.409	1455.71
526.776	1436.95
527.142	1447.12
527.508	1454.58
527.874	1461.13
528.241	1440.57
528.607	1427.69
528.973	1410.29
529.339	1435.15
529.705	1413
530.071	1444.19
530.437	1418.2
530.803	1400.34
531.169	1419.1
531.535	1408.03
531.901	1411.64
532.267	1431.76
532.632	1422.26
532.998	1443.73
533.364	1445.77
533.73	1434.24
534.095	1402.83
534.461	1413.68
534.826	1419.78
535.192	1422.94
535.557	1433.34
535.923	1423.39
536.288	1407.12
536.653	1389.5
537.019	1424.75
537.384	1399.21
537.749	1390.85
538.114	1400.12
538.479	1380.46
538.845	1396.5
539.21	1398.54
539.575	1383.62
539.94	1395.15
540.305	1381.14
540.67	1387.69
541.034	1366.67
541.399	1375.71
541.764	1371.42
542.129	1369.16
542.494	1364.87
542.858	1387.92
543.223	1356.5
543.587	1363.74
543.952	1373
544.316	1361.25
544.681	1358.54
545.045	1363.06
545.41	1379.55
545.774	1367.58
546.138	1317.18
546.503	1376.39
546.867	1370.51
547.231	1356.5
547.595	1364.41
547.959	1356.73
548.324	1364.19
548.688	1353.11
549.052	1325.54
549.416	1346.79
549.779	1317.41
550.143	1328.93
550.507	1335.04
550.871	1342.94
551.235	1336.39
551.599	1310.86
551.962	1321.48
552.326	1334.36
552.689	1328.03
553.053	1310.18
553.417	1315.38
553.78	1321.02
554.143	1302.27
554.507	1342.27
554.87	1299.1
555.234	1346.33
555.597	1303.17
555.96	1331.65
556.323	1336.39
556.686	1322.38
557.05	1306.11
557.413	1309.5
557.776	1302.49
558.139	1290.06
558.502	1300.69
558.865	1271.08
559.228	1306.34
559.59	1307.24
559.953	1276.96
560.316	1319.89
560.679	1305.21
561.041	1315.6
561.404	1293
561.767	1320.35
562.129	1263.85
562.492	1282.83
562.854	1315.83
563.217	1284.64
563.579	1290.06
563.941	1331.42
564.304	1308.82
564.666	1287.81
565.028	1300.46
565.39	1309.95
565.753	1326.45
566.115	1314.92
566.477	1311.76
566.839	1329.84
567.201	1314.7
567.563	1322.15
567.925	1357.63
568.287	1332.78
568.648	1349.27
569.01	1344.3
569.372	1345.2
569.734	1329.39
570.095	1343.85
570.457	1327.58
570.819	1349.05
571.18	1342.72
571.542	1339.56
571.903	1339.33
572.265	1351.53
572.626	1364.41
572.987	1343.85
573.349	1360.12
573.71	1362.83
574.071	1371.19
574.432	1371.19
574.794	1392.21
575.155	1387.69
575.516	1390.63
575.877	1389.05
576.238	1376.62
576.599	1419.55
576.96	1423.85
577.32	1400.8
577.681	1426.33
578.042	1453
578.403	1410.06
578.763	1414.81
579.124	1408.93
579.485	1425.65
579.845	1409.38
580.206	1427.91
580.566	1463.39
580.927	1431.76
581.287	1439.44
581.648	1424.3
582.008	1455.94
582.368	1432.43
582.728	1432.21
583.089	1460.91
583.449	1453.9
583.809	1450.29
584.169	1442.38
584.529	1476.95
584.889	1484.64
585.249	1453.22
585.609	1475.6
585.969	1471.76
586.329	1473.11
586.688	1467.69
587.048	1477.18
587.408	1479.89
587.768	1483.73
588.127	1465.65
588.487	1480.79
588.846	1483.96
589.206	1460.91
589.565	1469.95
589.925	1489.83
590.284	1484.86
590.643	1456.84
591.003	1471.53
591.362	1480.34
591.721	1463.39
592.08	1463.39
592.44	1462.04
592.799	1468.37
593.158	1484.18
593.517	1478.76
593.876	1493.9
594.235	1493.22
594.593	1470.4
594.952	1484.64
595.311	1466.56
595.67	1455.03
596.029	1466.78
596.387	1477.86
596.746	1473.56
597.104	1471.76
597.463	1487.35
597.822	1499.1
598.18	1492.32
598.538	1468.37
598.897	1465.43
599.255	1449.83
599.613	1473.56
599.972	1468.82
600.33	1479.44
600.688	1492.32
601.046	1477.4
601.404	1473.34
601.762	1474.47
602.12	1505.43
602.478	1476.27
602.836	1470.4
603.194	1469.72
603.552	1461.13
603.91	1474.01
604.268	1491.87
604.625	1477.86
604.983	1461.59
605.341	1448.48
605.698	1462.26
606.056	1504.3
606.413	1491.42
606.771	1502.04
607.128	1471.08
607.485	1469.95
607.843	1452.32
608.2	1488.03
608.557	1488.03
608.914	1443.51
609.272	1487.57
609.629	1471.3
609.986	1499.55
610.343	1493.9
610.7	1456.61
611.057	1458.87
611.414	1484.41
611.771	1494.13
612.127	1479.66
612.484	1471.53
612.841	1488.48
613.198	1539.78
613.554	1477.63
613.911	1483.05
614.267	1491.42
614.624	1486.9
614.98	1535.48
615.337	1507.01
615.693	1507.69
616.05	1511.08
616.406	1497.74
616.762	1522.83
617.118	1469.72
617.475	1490.06
617.831	1500.91
618.187	1492.32
618.543	1502.49
618.899	1514.01
619.255	1484.64
619.611	1474.24
619.967	1518.08
620.323	1527.8
620.678	1515.6
621.034	1501.81
621.39	1496.61
621.746	1501.36
622.101	1525.76
622.457	1505.65
622.812	1523.05
623.168	1511.08
623.523	1519.89
623.879	1521.7
624.234	1513.34
624.589	1513.79
624.945	1491.19
625.3	1541.58
625.655	1531.87
626.01	1522.15
626.365	1520.57
626.72	1521.25
627.075	1522.6
627.43	1537.29
627.785	1525.76
628.14	1523.73
628.495	1533.67
628.85	1507.23
629.205	1539.32
629.559	1537.29
629.914	1533.9
630.269	1535.26
630.623	1535.26
630.978	1507.46
631.332	1541.36
631.687	1513.11
632.041	1548.82
632.396	1523.73
632.75	1493
633.104	1548.14
633.459	1503.62
633.813	1532.32
634.167	1524.64
634.521	1552.2
634.875	1520.79
635.229	1522.15
635.583	1545.2
635.937	1526.89
636.291	1549.27
636.645	1516.73
636.999	1504.3
637.352	1520.34
637.706	1510.4
638.06	1514.92
638.413	1537.29
638.767	1535.03
639.121	1521.47
639.474	1516.73
639.828	1529.61
640.181	1543.84
640.534	1530.96
640.888	1555.37
641.241	1499.78
641.594	1506.78
641.947	1537.06
642.301	1555.82
642.654	1538.65
643.007	1520.57
643.36	1531.41
643.713	1530.51
644.066	1566.89
644.419	1530.28
644.771	1512.66
645.124	1537.06
645.477	1511.75
645.83	1498.87
646.182	1495.26
646.535	1505.2
646.888	1545.43
647.24	1517.4
647.593	1495.94
647.945	1530.06
648.298	1528.25
648.65	1528.02
649.002	1504.3
649.355	1523.28
649.707	1543.17
650.059	1520.34
650.411	1531.87
650.763	1572.09
651.115	1579.1
651.467	1551.98
651.819	1554.01
652.171	1577.97
652.523	1558.98
652.875	1571.41
653.227	1554.69
653.578	1582.49
653.93	1573
654.282	1575.26
654.633	1591.3
654.985	1561.02
655.337	1554.46
655.688	1585.42
656.039	1600.34
656.391	1593.56
656.742	1564.63
657.094	1588.14
657.445	1577.52
657.796	1593.79
658.147	1588.14
658.498	1604.86
658.849	1626.55
659.2	1592.88
659.551	1623.39
659.902	1632.2
660.253	1593.79
660.604	1612.77
660.955	1595.14
661.306	1608.47
661.656	1634.91
662.007	1629.49
662.358	1609.6
662.708	1608.25
663.059	1612.09
663.409	1612.99
663.76	1609.83
664.11	1633.56
664.461	1647.8
664.811	1627.01
665.161	1641.69
665.511	1634.01
665.862	1617.51
666.212	1614.58
666.562	1632.2
666.912	1644.86
667.262	1606.21
667.612	1630.39
667.962	1607.57
668.312	1639.43
668.662	1617.97
669.011	1629.94
669.361	1645.99
669.711	1630.17
670.06	1582.49
670.41	1632.43
670.76	1620.9
671.109	1608.7
671.459	1590.17
671.808	1610.96
672.157	1595.82
672.507	1602.6
672.856	1601.24
673.205	1613.67
673.554	1598.53
673.904	1619.77
674.253	1582.71
674.602	1607.8
674.951	1573
675.3	1578.19
675.649	1565.76
675.998	1590.62
676.346	1576.61
676.695	1597.85
677.044	1536.84
677.393	1553.33
677.741	1566.89
678.09	1564.63
678.438	1557.18
678.787	1567.8
679.135	1549.49
679.484	1554.69
679.832	1558.08
680.181	1557.18
680.529	1566.22
680.877	1579.77
681.225	1568.25
681.573	1567.35
681.922	1561.24
682.27	1520.12
682.618	1535.93
682.966	1535.26
683.314	1528.02
683.661	1514.92
684.009	1530.06
684.357	1525.31
684.705	1545.2
685.053	1496.61
685.4	1517.86
685.748	1498.42
686.095	1523.28
686.443	1486.9
686.79	1495.71
687.138	1502.94
687.485	1505.65
687.832	1485.99
688.18	1470.85
688.527	1480.57
688.874	1486.22
689.221	1491.19
689.568	1471.98
689.915	1474.01
690.262	1465.43
690.609	1456.39
690.956	1431.08
691.303	1446.9
691.65	1399.89
691.997	1469.72
692.344	1426.33
692.69	1461.59
693.037	1426.56
693.383	1432.89
693.73	1413.23
694.077	1461.36
694.423	1407.35
694.769	1448.48
695.116	1428.37
695.462	1386.79
695.808	1406.9
696.155	1387.24
696.501	1415.71
696.847	1391.53
697.193	1381.59
697.539	1377.97
697.885	1362.61
698.231	1402.6
698.577	1352.66
698.923	1368.03
699.269	1375.71
699.614	1375.94
699.96	1355.15
700.306	1366.9
700.651	1350.18
700.997	1323.96
701.342	1340.91
701.688	1362.61
702.033	1350.63
702.379	1367.13
702.724	1321.93
703.069	1351.53
703.415	1341.36
703.76	1341.36
704.105	1345.88
704.45	1354.47
704.795	1322.61
705.14	1347.01
705.485	1357.18
705.83	1322.15
706.175	1345.88
706.52	1321.02
706.865	1358.31
707.209	1315.83
707.554	1342.94
707.899	1330.29
708.243	1330.06
708.588	1327.8
708.932	1338.88
709.277	1315.38
709.621	1330.97
709.966	1324.19
710.31	1344.07
710.654	1329.61
710.998	1312.44
711.342	1340.46
711.687	1356.05
712.031	1304.75
712.375	1333
712.719	1316.28
713.063	1346.79
713.407	1358.54
713.75	1334.36
714.094	1352.21
714.438	1344.53
714.782	1317.63
715.125	1361.93
715.469	1326.9
715.812	1356.96
716.156	1346.11
716.499	1363.06
716.843	1362.38
717.186	1365.32
717.53	1367.35
717.873	1372.32
718.216	1367.13
718.559	1387.92
718.902	1371.64
719.246	1354.7
719.589	1361.7
719.932	1380.01
720.275	1374.81
720.617	1384.3
720.96	1378.65
721.303	1413.23
721.646	1412.32
721.989	1381.14
722.331	1406.45
722.674	1415.71
723.016	1424.07
723.359	1455.26
723.701	1424.07
724.044	1422.26
724.386	1438.99
724.729	1424.3
725.071	1428.37
725.413	1459.78
725.755	1439.44
726.097	1460.46
726.439	1448.25
726.782	1472.21
727.124	1460.68
727.465	1484.86
727.807	1448.7
728.149	1469.72
728.491	1504.52
728.833	1516.27
729.175	1517.18
729.516	1503.39
729.858	1519.44
730.199	1525.09
730.541	1512.21
730.882	1577.74
731.224	1571.64
731.565	1547.01
731.906	1571.87
732.248	1588.81
732.589	1560.79
732.93	1597.63
733.271	1578.87
733.612	1607.12
733.953	1614.58
734.294	1629.94
734.635	1638.08
734.976	1654.58
735.317	1622.94
735.658	1676.27
735.999	1664.29
736.339	1663.39
736.68	1690.28
737.021	1694.57
737.361	1706.1
737.702	1725.76
738.042	1743.84
738.383	1747.23
738.723	1736.38
739.063	1759.43
739.404	1786.55
739.744	1790.16
740.084	1795.36
740.424	1842.59
740.764	1828.13
741.104	1876.26
741.444	1876.26
741.784	1869.26
742.124	1916.49
742.464	1912.87
742.804	1948.58
743.143	1949.03
743.483	1969.37
743.823	1998.75
744.162	2041.46
744.502	2086.65
744.841	2108.57
745.181	2113.55
745.52	2119.2
745.86	2169.36
746.199	2176.82
746.538	2202.13
746.877	2201
747.216	2248.46
747.556	2312.86
747.895	2338.85
748.234	2362.35
748.573	2429.7
748.911	2434.89
749.25	2459.53
749.589	2465.4
749.928	2553.53
750.267	2556.47
750.605	2600.99
750.944	2648.9
751.283	2674.21
751.621	2708.78
751.96	2787.88
752.298	2805.73
752.636	2853.87
752.975	2907.42
753.313	2928.44
753.651	2973.41
753.989	3064.93
754.327	3106.74
754.666	3085.27
755.004	3183.57
755.342	3243.69
755.679	3286.62
756.017	3318.03
756.355	3411.14
756.693	3419.05
757.031	3494.98
757.368	3566.16
757.706	3561.19
758.044	3615.2
758.381	3702.88
758.719	3733.39
759.056	3802.09
759.394	3817.91
759.731	3891.35
760.068	3950.56
760.405	3987.4
760.743	4041.63
761.08	4101.29
761.417	4119.82
761.754	4195.3
762.091	4271.68
762.428	4307.84
762.765	4348.74
763.102	4438.91
763.438	4424.45
763.775	4483.65
764.112	4519.13
764.449	4601.62
764.785	4627.15
765.122	4637.77
765.458	4700.82
765.795	4721.84
766.131	4798.45
766.467	4828.95
766.804	4934.26
767.14	4876.86
767.476	4995.73
767.812	4988.27
768.148	5056.29
768.485	5082.96
768.821	5080.02
769.157	5130.19
769.492	5157.76
769.828	5226.01
770.164	5200.47
770.5	5294.71
770.836	5333.12
771.171	5317.53
771.507	5344.2
