Data from blue_shiny_book_FLMS001491_00016.txt Node
Date: Wed Feb 08 15:26:36 GMT 2017
User: dcchb
Spectrometer: FLMS00149
Trigger mode: 0
Integration Time (sec): 2.000000E-2
Scans to average: 10
Electric dark correction enabled: true
Nonlinearity correction enabled: false
Boxcar width: 0
XAxis mode: Wavelengths
Number of Pixels in Spectrum: 2048
>>>>>Begin Spectral Data<<<<<
341.393	-8.23
341.776	-8.23
342.16	-8.23
342.543	-35.13
342.927	-56.82
343.31	-71.96
343.693	-74.9
344.077	-58.85
344.46	-43.26
344.843	-54.11
345.226	-41
345.61	-32.64
345.993	-7.78
346.376	-10.49
346.759	8.04
347.142	16.17
347.525	44.42
347.908	48.49
348.291	82.38
348.674	83.06
349.057	112.44
349.44	132.78
349.823	158.09
350.206	175.94
350.588	202.16
350.971	215.49
351.354	242.83
351.737	249.16
352.119	254.58
352.502	281.48
352.884	297.29
353.267	291.64
353.65	306.33
354.032	323.96
354.414	323.96
354.797	333.9
355.179	336.84
355.562	348.59
355.944	354.69
356.326	335.71
356.709	368.25
357.091	384.98
357.473	354.69
357.855	365.54
358.238	366.22
358.62	384.52
359.002	388.59
359.384	370.29
359.766	364.86
360.148	349.04
360.53	365.09
360.912	366.45
361.294	383.62
361.676	347.69
362.057	363.96
362.439	371.19
362.821	351.98
363.203	361.25
363.584	375.48
363.966	349.27
364.348	362.15
364.729	358.31
365.111	331.19
365.493	349.95
365.874	337.29
366.256	333.23
366.637	357.41
367.019	369.83
367.4	360.34
367.781	363.51
368.163	356.05
368.544	355.15
368.925	361.93
369.306	375.94
369.688	356.5
370.069	369.61
370.45	354.69
370.831	352.43
371.212	343.85
371.593	361.7
371.974	352.89
372.355	362.15
372.736	367.12
373.117	343.62
373.498	356.73
373.879	338.2
374.26	375.03
374.641	393.11
375.021	383.17
375.402	362.6
375.783	386.11
376.163	400.34
376.544	403.96
376.925	393.11
377.305	398.99
377.686	410.51
378.066	388.37
378.447	404.18
378.827	423.62
379.208	410.96
379.588	399.66
379.968	398.99
380.349	404.18
380.729	422.04
381.109	433.56
381.489	417.07
381.87	417.74
382.25	430.85
382.63	434.24
383.01	427.46
383.39	440.12
383.77	434.24
384.15	458.65
384.53	447.12
384.91	451.41
385.29	456.39
385.67	450.74
386.049	461.36
386.429	463.62
386.809	493.45
387.189	481.92
387.568	495.93
387.948	489.15
388.328	502.49
388.707	472.43
389.087	490.74
389.466	508.81
389.846	526.89
390.225	520.11
390.605	508.14
390.984	520.79
391.363	528.7
391.743	547.68
392.122	561.02
392.501	561.47
392.881	552.65
393.26	576.84
393.639	561.47
394.018	569.15
394.397	580.45
394.776	593.11
395.155	567.12
395.534	607.79
395.913	596.95
396.292	609.15
396.671	607.79
397.05	644.63
397.429	610.96
397.808	608.02
398.186	627.68
398.565	654.57
398.944	652.09
399.323	655.25
399.701	677.62
400.08	660.67
400.458	687.57
400.837	693.22
401.215	705.65
401.594	699.32
401.972	696.15
402.351	719.88
402.729	716.94
403.107	730.05
403.486	736.15
403.864	748.36
404.242	742.93
404.62	772.54
404.999	777.96
405.377	794.91
405.755	793.33
406.133	826.55
406.511	822.03
406.889	813.89
407.267	835.59
407.645	840.33
408.023	833.55
408.401	859.77
408.779	891.63
409.156	915.58
409.534	927.33
409.912	920.33
410.29	961.23
410.667	945.41
411.045	970.95
411.422	968.69
411.8	996.71
412.178	1027.67
412.555	1024.51
412.933	1051.62
413.31	1055.69
413.687	1067.67
414.065	1092.98
414.442	1093.66
414.819	1130.49
415.197	1135.69
415.574	1168.91
415.951	1157.84
416.328	1145.63
416.705	1169.59
417.082	1182.24
417.46	1193.54
417.837	1217.04
418.214	1249.13
418.591	1237.16
418.967	1271.96
419.344	1265.63
419.721	1311.51
420.098	1303.37
420.475	1319.64
420.852	1304.27
421.228	1337.72
421.605	1367.77
421.982	1371.16
422.358	1392.86
422.735	1435.57
423.111	1425.63
423.488	1499.07
423.864	1488.68
424.241	1488.22
424.617	1505.62
424.994	1512.63
425.37	1520.99
425.746	1559.86
426.123	1585.17
426.499	1574.32
426.875	1619.29
427.251	1661.33
427.627	1696.58
428.003	1703.81
428.379	1703.36
428.756	1792.4
429.132	1807.99
429.507	1783.13
429.883	1822.68
430.259	1854.54
430.635	1836.01
431.011	1871.26
431.387	1909.91
431.763	1925.05
432.138	1998.94
432.514	2045.05
432.89	2033.75
433.265	2092.73
433.641	2139.05
434.016	2120.75
434.392	2167.98
434.767	2177.7
435.143	2190.58
435.518	2197.81
435.894	2251.59
436.269	2298.37
436.644	2346.73
437.02	2353.96
437.395	2413.85
437.77	2440.51
438.145	2465.6
438.52	2502.21
438.895	2512.6
439.271	2507.41
439.646	2564.35
440.021	2602.09
440.395	2605.48
440.77	2592.15
441.145	2629.89
441.52	2679.15
441.895	2716.89
442.27	2775.87
442.645	2773.61
443.019	2828.75
443.394	2793.95
443.769	2864.23
444.143	2826.04
444.518	2901.07
444.892	2892.93
445.267	2967.05
445.641	2950.33
446.016	2976.09
446.39	2994.85
446.764	3033.04
447.139	3050.22
447.513	3081.85
447.887	3111.68
448.262	3141.74
448.636	3183.32
449.01	3194.39
449.384	3188.07
449.758	3224.45
450.132	3277.33
450.506	3261.96
450.88	3299.02
451.254	3353.49
451.628	3384.9
452.002	3447.95
452.376	3474.84
452.75	3543.08
453.123	3536.53
453.497	3603.65
453.871	3633.93
454.244	3750.99
454.618	3752.57
454.992	3776.75
455.365	3762.74
455.739	3902.62
456.112	3979.68
456.486	3968.61
456.859	4008.84
457.232	4140.58
457.606	4093.8
457.979	4196.63
458.352	4285.44
458.725	4334.7
459.099	4355.72
459.472	4467.58
459.845	4503.51
460.218	4501.48
460.591	4609.5
460.964	4621.02
461.337	4685.65
461.71	4777.4
462.083	4914.35
462.456	4905.08
462.829	4950.73
463.201	5021.92
463.574	5067.11
463.947	5161.12
464.32	5285.86
464.692	5331.74
465.065	5374
465.438	5464.84
465.81	5529.47
466.183	5510.72
466.555	5716.81
466.928	5710.26
467.3	5699.86
467.672	5867.54
468.045	6007.43
468.417	6009.69
468.789	6082.23
469.161	6229.57
469.534	6298.49
469.906	6434.99
470.278	6447.42
470.65	6523.57
471.022	6647.41
471.394	6798.14
471.766	6853.51
472.138	6902.32
472.51	7073.39
472.882	7232.71
473.253	7241.97
473.625	7388.86
473.997	7570.32
474.369	7678.34
474.74	7795.85
475.112	7927.6
475.484	8108.61
475.855	8191.78
476.227	8189.52
476.598	8444.42
476.97	8536.85
477.341	8723.74
477.713	8882.61
478.084	9014.81
478.455	9167.8
478.827	9277.62
479.198	9548.8
479.569	9575.47
479.94	9835.35
480.311	9999.41
480.682	10259.74
481.053	10493.41
481.424	10576.35
481.795	10684.59
482.166	10854.98
482.537	11081.19
482.908	11241.19
483.279	11301.75
483.65	11569.54
484.021	11753.49
484.391	11892.92
484.762	12110.09
485.133	12212.01
485.503	12425.11
485.874	12781.49
486.244	12870.07
486.615	13159.78
486.985	13263.51
487.356	13526.33
487.726	13635.02
488.097	13882.25
488.467	13978.52
488.837	14284.95
489.207	14463.02
489.578	14598.39
489.948	14779.85
490.318	14948.43
490.688	15054.19
491.058	15350.46
491.428	15613.05
491.798	15718.36
492.168	16139.59
492.538	16205.35
492.908	16476.98
493.278	16574.38
493.648	16705.45
494.017	16939.57
494.387	16996.74
494.757	17158.32
495.126	17381.14
495.496	17465.88
495.866	17539.78
496.235	17742.03
496.605	17984.51
496.974	18073.78
497.344	18275.8
497.713	18406.65
498.082	18611.62
498.452	18846.64
498.821	19008.21
499.19	19140.19
499.559	19343.57
499.928	19377.02
500.298	19539.5
500.667	19774.75
501.036	19661.31
501.405	19889.77
501.774	19885.03
502.143	20080.73
502.512	20207.28
502.88	20517.55
503.249	20437.1
503.618	20734.05
503.987	20805.91
504.356	20976.98
504.724	21177.2
505.093	21243.18
505.462	21407.93
505.83	21611.31
506.199	21826.45
506.567	22045.2
506.936	21967.46
507.304	22184.18
507.672	22317.05
508.041	22460.55
508.409	22710.26
508.777	22803.6
509.145	22883.59
509.514	22969.92
509.882	23241.1
510.25	23232.06
510.618	23514.31
510.986	23602.44
511.354	23989.78
511.722	24194.07
512.09	24377.34
512.458	24538.46
512.826	24725.13
513.193	24764
513.561	24849.87
513.929	25013.93
514.297	25118.34
514.664	25309.29
515.032	25374.38
515.4	25651.2
515.767	25671.09
516.135	25972.33
516.502	25699.79
516.869	26351.75
517.237	26535.93
517.604	26547
517.972	27006.87
518.339	27236.93
518.706	27253.87
519.073	27546.3
519.44	27848.21
519.808	28012.05
520.175	28009.56
520.542	28302.66
520.909	28543.11
521.276	28518.93
521.643	28698.13
522.009	28787.62
522.376	28968.86
522.743	29132.24
523.11	29521.84
523.477	29669.86
523.843	29769.97
524.21	30303.96
524.577	30607.46
524.943	30815.14
525.31	31078.63
525.676	31451.28
526.043	31726.07
526.409	31975.33
526.776	32172.84
527.142	32429.33
527.508	32563.11
527.874	32642.66
528.241	32707.06
528.607	32772.37
528.973	33118.8
529.339	33068.18
529.705	33380.94
530.071	33571.67
530.437	33657.32
530.803	34088.04
531.169	34176.63
531.535	34332.33
531.901	34538.43
532.267	34633.57
532.632	35137.51
532.998	35295.24
533.364	35619.53
533.73	35722.58
534.095	36050.03
534.461	36285.73
534.826	36387.19
535.192	36499.96
535.557	36651.59
535.923	36508.77
536.288	36619.5
536.653	36643.68
537.019	36572.95
537.384	36814.98
537.749	37026.72
538.114	37082.09
538.479	36984.69
538.845	37339.94
539.21	37339.03
539.575	37663.09
539.94	37928.4
540.305	38310.53
540.67	38176.98
541.034	38590.98
541.399	38800.69
541.764	38880.23
542.129	38961.36
542.494	39065.31
542.858	39041.13
543.223	39126.1
543.587	39352.54
543.952	39142.15
544.316	39348.47
544.681	39086.78
545.045	39199.1
545.41	39437.51
545.774	39543.72
546.138	39544.62
546.503	39631.85
546.867	39808.35
547.231	40195.91
547.595	40272.06
547.959	40477.25
548.324	40680.87
548.688	40999.28
549.052	41083.79
549.416	41328.53
549.779	41325.14
550.143	41383.22
550.507	41611.01
550.871	41607.62
551.235	41514.29
551.599	41697.34
551.962	41632.25
552.326	41704.34
552.689	41808.29
553.053	41601.75
553.417	41750.44
553.78	42234.04
554.143	42034.5
554.507	42133.26
554.87	42452.57
555.234	42794.48
555.597	42716.07
555.96	43088.26
556.323	43384.75
556.686	43479.21
557.05	43895.47
557.413	43936.15
557.776	44100.21
558.139	44430.82
558.502	44507.88
558.865	44529.13
559.228	44621.33
559.59	44647.99
559.953	44750.81
560.316	44980.41
560.679	44976.8
561.041	45011.15
561.404	45109.45
561.767	45343.12
562.129	45222.21
562.492	45591.24
562.854	45591.02
563.217	45763.22
563.579	45947.17
563.941	46252.24
564.304	46527.27
564.666	46809.97
565.028	47041.6
565.39	47283.4
565.753	47465.09
566.115	47540.35
566.477	47923.84
566.839	47983.95
567.201	48033.89
567.563	48087
567.925	48309.59
568.287	48245.41
568.648	48007.68
569.01	48261.01
569.372	48348.91
569.734	48116.6
570.095	48342.81
570.457	48458.97
570.819	48400.89
571.18	48534.9
571.542	48682.91
571.903	48847.66
572.265	48957.71
572.626	49141.43
572.987	49384.37
573.349	49560.86
573.71	49919.94
574.071	49972.82
574.432	50195.42
574.794	50453.04
575.155	50344.57
575.516	50262.76
575.877	50437.44
576.238	50467.05
576.599	50595.63
576.96	50528.74
577.32	50453.49
577.681	50596.76
578.042	50610.32
578.403	50612.36
578.763	50648.29
579.124	50679.92
579.485	50801.28
579.845	50634.5
580.206	50653.03
580.566	50846.02
580.927	50786.36
581.287	50966.24
581.648	50989.75
582.008	51262.51
582.368	51134.6
582.728	51453.46
583.089	51383.86
583.449	51440.13
583.809	51543.86
584.169	51626.79
584.529	51562.39
584.889	51866.79
585.249	51573.46
585.609	51496.85
585.969	51630.18
586.329	51453.92
586.688	51476.29
587.048	51289.63
587.408	51377.76
587.768	51271.32
588.127	51210.76
588.487	51185.22
588.846	51391.77
589.206	51176.18
589.565	51100.7
589.925	51321.49
590.284	51239.68
590.643	51352.45
591.003	51476.51
591.362	51605.55
591.721	51618.2
592.08	51744.08
592.44	51768.03
592.799	51844.41
593.158	51806.22
593.517	51986.1
593.876	52055.03
594.235	52000.79
594.593	52043.73
594.952	51981.36
595.311	51853.9
595.67	51953.79
596.029	52008.03
596.387	52017.74
596.746	51881.02
597.104	51770.74
597.463	51720.35
597.822	51785.21
598.18	51690.75
598.538	51701.37
598.897	51893
599.255	51562.39
599.613	52001.92
599.972	51794.92
600.33	52026.56
600.688	51944.3
601.046	52078.98
601.404	52219.09
601.762	52220.67
602.12	52456.37
602.478	52482.59
602.836	52535.24
603.194	52422.25
603.552	52661.79
603.91	52528.92
604.268	52594.22
604.625	52453.89
604.983	52646.43
605.341	52307.45
605.698	52451.63
606.056	52616.6
606.413	52457.5
606.771	52561.23
607.128	52462.02
607.485	52328.69
607.843	52368.92
608.2	52560.55
608.557	52614.56
608.914	52438.75
609.272	52545.64
609.629	52679.65
609.986	52732.3
610.343	52548.8
610.7	52837.61
611.057	52845.97
611.414	52892.97
611.771	52931.16
612.127	53068.79
612.484	53133.19
612.841	53235.79
613.198	53229.69
613.554	53305.84
613.911	53412.96
614.267	53514.2
614.624	53416.35
614.98	53500.64
615.337	53598.27
615.693	53501.77
616.05	53461.77
616.406	53581.32
616.762	53447.99
617.118	53483.47
617.475	53409.34
617.831	53456.57
618.187	53502
618.543	53437.14
618.899	53568.66
619.255	53527.99
619.611	53382.68
619.967	53524.14
620.323	53521.66
620.678	53398.05
621.034	53459.96
621.39	53475.78
621.746	53544.93
622.101	53734.99
622.457	53613.41
622.812	53646.17
623.168	53817.47
623.523	53746.96
623.879	53998.26
624.234	53847.98
624.589	53935.43
624.945	53982.89
625.3	53989.89
625.655	53931.36
626.01	53987.41
626.365	53950.12
626.72	53952.15
627.075	53737.7
627.43	53796.9
627.785	53787.87
628.14	53809.33
628.495	53680.07
628.85	53647.08
629.205	53562.33
629.559	53655.21
629.914	53482.79
630.269	53452.05
630.623	53437.82
630.978	53297.48
631.332	53367.99
631.687	53517.36
632.041	53416.8
632.396	53560.75
632.75	53403.92
633.104	53439.63
633.459	53366.41
633.813	53362.79
634.167	53373.64
634.521	53376.8
634.875	53421.32
635.229	53355.11
635.583	53361.21
635.937	53318.73
636.291	53335
636.645	53457.03
636.999	53322.34
637.352	53390.36
637.706	53234.21
638.06	53217.71
638.413	53096.13
638.767	52982.24
639.121	53057.26
639.474	52840.32
639.828	52782.92
640.181	52629.48
640.534	52600.78
640.888	52508.35
641.241	52343.61
641.594	52435.36
641.947	52492.31
642.301	52370.73
642.654	52455.92
643.007	52318.75
643.36	52313.1
643.713	52257.74
644.066	52458.18
644.419	52344.06
644.771	52297.51
645.124	52214.12
645.477	52189.49
645.83	52039.21
646.182	51744.76
646.535	51510.86
646.888	51427.02
647.24	51349.74
647.593	51506.12
647.945	51312
648.298	51266.12
648.65	51174.15
649.002	51071.1
649.355	51324.43
649.707	51248.72
650.059	51380.02
650.411	51827.24
650.763	51774.58
651.115	52021.13
651.467	51750.4
651.819	51645.1
652.171	51643.74
652.523	51543.63
652.875	51589.28
653.227	51356.06
653.578	51570.07
653.93	51488.72
654.282	51308.83
654.633	51145.22
654.985	51288.72
655.337	51448.49
655.688	51361.26
656.039	51416.63
656.391	51186.8
656.742	51390.41
657.094	51486.68
657.445	51594.7
657.796	51538.43
658.147	51600.35
658.498	51628.83
658.849	51702.5
659.2	51627.24
659.551	51586.79
659.902	51783.62
660.253	51615.72
660.604	51753.57
660.955	51577.3
661.306	51615.27
661.656	51549.73
662.007	51463.41
662.358	51286.01
662.708	51409.17
663.059	51321.72
663.409	51153.58
663.76	51367.82
664.11	51149.52
664.461	51066.13
664.811	50965.57
665.161	50927.38
665.511	50870.88
665.862	50852.35
666.212	50973.02
666.562	50939.8
666.912	50883.08
667.262	50795.63
667.612	50854.16
667.962	51043.53
668.312	50925.34
668.662	51146.13
669.011	51038.79
669.361	51090.76
669.711	51044.66
670.06	51052.12
670.41	51030.65
670.76	50993.81
671.109	51219.57
671.459	51132.57
671.808	51101.61
672.157	51136.18
672.507	51066.81
672.856	51005.57
673.205	51093.02
673.554	51133.92
673.904	51009.86
674.253	51028.16
674.602	50946.13
674.951	50415.3
675.3	50107.06
675.649	50518.12
675.998	50386.15
676.346	50385.24
676.695	50239.94
677.044	49885.82
677.393	50127.4
677.741	50054.63
678.09	49958.59
678.438	49730.57
678.787	49661.42
679.135	49758.59
679.484	49482.44
679.832	49805.6
680.181	49669.1
680.529	49759.04
680.877	49754.98
681.225	49712.04
681.573	49974.63
681.922	49796.11
682.27	49726.5
682.618	49925.37
682.966	49766.5
683.314	49924.24
683.661	49778.93
684.009	49644.7
684.357	49651.02
684.705	49598.82
685.053	49762.21
685.4	49611.48
685.748	49444.7
686.095	49379.62
686.443	49352.5
686.79	49223.47
687.138	49190.7
687.485	49135.11
687.832	48930.82
688.18	48849.92
688.527	48444.5
688.874	48436.37
689.221	48185.53
689.568	48016.94
689.915	48017.4
690.262	47971.75
690.609	47795.71
690.956	47531.76
691.303	47544.19
691.65	47226.23
691.997	47299
692.344	46968.61
692.69	46970.19
693.037	46899.46
693.383	46671.44
693.73	46813.13
694.077	46620.82
694.423	46589.86
694.769	46580.15
695.116	46513.25
695.462	46654.04
695.808	46609.07
696.155	46743.3
696.501	46529.53
696.847	46411.11
697.193	46181.06
697.539	46344.22
697.885	46153.49
698.231	45971.57
698.577	45928.19
698.923	45982.19
699.269	45849.32
699.614	45513.51
699.96	45368.65
700.306	45326.17
700.651	45149.67
700.997	44919.4
701.342	44575
701.688	44366.64
702.033	44264.95
702.379	44295.23
702.724	44037.39
703.069	44059.08
703.415	43609.38
703.76	43444.41
704.105	43444.18
704.45	43209.84
704.795	43107.69
705.14	42760.58
705.485	42620.93
705.83	42542.51
706.175	42670.87
706.52	42540.48
706.865	42403.76
707.209	42420.03
707.554	42360.82
707.899	42524.43
708.243	42404.89
708.588	42428.39
708.932	42177.55
709.277	42305.23
709.621	42305
709.966	42116.99
710.31	42334.61
710.654	42024.11
710.998	42124.44
711.342	42101.17
711.687	41987.5
712.031	42025.24
712.375	41890.55
712.719	41794.96
713.063	41473.84
713.407	41674.74
713.75	41497.12
714.094	41435.42
714.438	41254.18
714.782	41350.9
715.125	41128.76
715.469	41057.58
715.812	40704.37
716.156	40420.08
716.499	40444.04
716.843	40433.19
717.186	40130.6
717.53	40035.68
717.873	39920.43
718.216	39816.71
718.559	39721.34
718.902	39326.32
719.246	39594.11
719.589	39485.42
719.932	39238.42
720.275	39369.04
720.617	39303.5
720.96	39265.76
721.303	39103.28
721.646	39324.74
721.989	39127.46
722.331	39341.69
722.674	39393.22
723.016	39410.62
723.359	39476.83
723.701	39490.61
724.044	39408.58
724.386	39226.21
724.729	39354.35
725.071	39375.59
725.413	39362.03
725.755	39244.07
726.097	39196.16
726.439	39101.25
726.782	39073.22
727.124	39265.54
727.465	38987.8
727.807	39031.42
728.149	38798.43
728.491	38682.27
728.833	38748.03
729.175	38550.07
729.516	38516.63
729.858	38506.01
730.199	38346.46
730.541	38183.3
730.882	38103.98
731.224	38228.5
731.565	37976.76
731.906	37842.07
732.248	37912.12
732.589	37656.09
732.93	37512.59
733.271	37630.32
733.612	37569.76
733.953	37569.76
734.294	37317.11
734.635	37448.86
734.976	37426.49
735.317	37204.8
735.658	37447.05
735.999	37410.22
736.339	37504.23
736.68	37571.34
737.021	37464.23
737.361	37378.35
737.702	37547.84
738.042	37512.59
738.383	37594.39
738.723	37643.88
739.063	37557.56
739.404	37620.15
739.744	37708.06
740.084	37669.87
740.424	37711.23
740.764	37782.41
741.104	37849.98
741.444	37565.92
741.784	37690.44
742.124	37636.43
742.464	37712.13
742.804	37697.44
743.143	37557.11
743.483	37525.92
743.823	37244.12
744.162	37176.1
744.502	37325.02
744.841	37219.71
745.181	37349.65
745.52	37098.36
745.86	37196.44
746.199	37078.25
746.538	37089.1
746.877	37007.06
747.216	37205.02
747.556	36948.99
747.895	36975.2
748.234	36773.62
748.573	36901.98
748.911	36618.15
749.25	36828.31
749.589	36688.65
749.928	36573.85
750.267	36727.07
750.605	36757.8
750.944	36676.68
751.283	36716.9
751.621	36804.58
751.96	36792.15
752.298	36721.42
752.636	36931.59
752.975	36693.63
