Data from blue_surface_keyboard_FLMS001491_065.txt Node
Date: Tue Feb 07 11:13:29 GMT 2017
User: dcchb
Spectrometer: FLMS00149
Trigger mode: 0
Integration Time (sec): 2.000000E-2
Scans to average: 10
Electric dark correction enabled: true
Nonlinearity correction enabled: false
Boxcar width: 0
XAxis mode: Wavelengths
Number of Pixels in Spectrum: 2048
>>>>>Begin Spectral Data<<<<<
341.393	-27.2
341.776	-27.2
342.16	-27.2
342.543	-78.27
342.927	-49.12
343.31	-69.46
343.693	-78.5
344.077	-56.13
344.46	-55.9
344.843	-39.41
345.226	-35.11
345.61	-22.23
345.993	-10.93
346.376	-20.88
346.759	3.3
347.142	26.58
347.525	38.33
347.908	52.34
348.291	82.4
348.674	65.9
349.057	119.69
349.44	128.95
349.823	143.41
350.206	154.94
350.588	192.45
350.971	189.06
351.354	210.53
351.737	215.28
352.119	244.88
352.502	242.62
352.884	249.17
353.267	263.41
353.65	266.12
354.032	286.46
354.414	290.76
354.797	294.14
355.179	290.08
355.562	313.81
355.944	319.23
356.326	306.35
356.709	299.12
357.091	313.35
357.473	311.09
357.855	338.66
358.238	337.53
358.62	306.12
359.002	305.9
359.384	306.57
359.766	319.23
360.148	309.51
360.53	308.16
360.912	328.27
361.294	312.45
361.676	300.25
362.057	308.38
362.439	323.97
362.821	286.46
363.203	301.6
363.584	299.79
363.966	296.63
364.348	289.63
364.729	284.88
365.111	293.24
365.493	283.52
365.874	306.35
366.256	283.75
366.637	302.28
367.019	291.21
367.4	286.01
367.781	284.2
368.163	285.78
368.544	289.4
368.925	287.82
369.306	309.74
369.688	295.05
370.069	291.88
370.45	309.29
370.831	308.16
371.212	297.31
371.593	281.72
371.974	292.79
372.355	288.72
372.736	298.66
373.117	293.01
373.498	289.17
373.879	286.01
374.26	319
374.641	288.95
375.021	295.95
375.402	295.05
375.783	283.07
376.163	269.96
376.544	303.41
376.925	309.51
377.305	302.96
377.686	285.78
378.066	310.87
378.447	284.88
378.827	302.51
379.208	294.37
379.588	288.04
379.968	295.27
380.349	308.38
380.729	316.07
381.109	292.34
381.489	310.42
381.87	311.09
382.25	317.42
382.63	304.54
383.01	284.65
383.39	323.3
383.77	299.79
384.15	321.94
384.53	302.73
384.91	300.47
385.29	306.8
385.67	302.05
386.049	310.19
386.429	339.12
386.809	320.13
387.189	321.04
387.568	324.88
387.948	324.65
388.328	308.38
388.707	314.71
389.087	309.74
389.466	295.95
389.846	316.74
390.225	342.73
390.605	342.51
390.984	335.95
391.363	325.78
391.743	321.49
392.122	312.22
392.501	344.31
392.881	337.99
393.26	336.63
393.639	332.56
394.018	321.71
394.397	323.07
394.776	305.9
395.155	319.68
395.534	338.21
395.913	339.34
396.292	316.07
396.671	326.46
397.05	318.55
397.429	351.77
397.808	340.7
398.186	329.4
398.565	344.54
398.944	329.17
399.323	340.25
399.701	324.43
400.08	353.35
400.458	333.47
400.837	330.98
401.215	353.8
401.594	340.92
401.972	339.57
402.351	344.09
402.729	339.57
403.107	340.47
403.486	344.76
403.864	367.36
404.242	359
404.62	341.83
404.999	345.44
405.377	365.78
405.755	339.12
406.133	343.86
406.511	368.04
406.889	327.36
407.267	356.06
407.645	368.49
408.023	355.16
408.401	361.49
408.779	375.27
409.156	370.08
409.534	357.19
409.912	350.64
410.29	368.49
410.667	354.71
411.045	380.24
411.422	370.3
411.8	353.8
412.178	356.97
412.555	390.64
412.933	366.91
413.31	392.22
413.687	368.49
414.065	368.49
414.442	376.4
414.819	384.31
415.197	387.02
415.574	403.29
415.951	367.59
416.328	370.53
416.705	381.15
417.082	384.76
417.46	381.15
417.837	399.9
418.214	391.32
418.591	391.32
418.967	382.73
419.344	398.55
419.721	396.06
420.098	409.62
420.475	399.9
420.852	403.29
421.228	406.91
421.605	387.02
421.982	410.98
422.358	420.7
422.735	392
423.111	413.24
423.488	393.35
423.864	401.71
424.241	410.07
424.617	409.4
424.994	434.03
425.37	415.95
425.746	412.56
426.123	436.06
426.499	415.72
426.875	439.68
427.251	427.25
427.627	421.83
428.003	438.32
428.379	436.51
428.756	441.26
429.132	438.55
429.507	450.75
429.883	437.42
430.259	439.9
430.635	446.01
431.011	442.62
431.387	446.68
431.763	445.1
432.138	451.43
432.514	476.51
432.89	486.68
433.265	483.97
433.641	478.32
434.016	484.65
434.392	464.08
434.767	481.71
435.143	483.29
435.518	479.45
435.894	487.13
436.269	489.62
436.644	474.93
437.02	472.9
437.395	477.64
437.77	495.72
438.145	516.96
438.52	507.25
438.895	502.95
439.271	504.31
439.646	517.64
440.021	499.56
440.395	515.16
440.77	511.77
441.145	510.41
441.52	518.09
441.895	520.81
442.27	528.26
442.645	506.34
443.019	523.29
443.394	525.33
443.769	522.16
444.143	512.22
444.518	535.72
444.892	519
445.267	529.62
445.641	529.17
446.016	521.26
446.39	540.47
446.764	554.02
447.139	550.18
447.513	543.86
447.887	564.19
448.262	548.15
448.636	536.17
449.01	534.36
449.384	565.55
449.758	575.72
450.132	556.06
450.506	569.39
450.88	559.22
451.254	588.83
451.628	562.61
452.002	583.63
452.376	585.66
452.75	573.69
453.123	553.8
453.497	588.37
453.871	603.29
454.244	594.93
454.618	599.45
454.992	589.05
455.365	603.97
455.739	607.81
456.112	612.33
456.486	623.18
456.859	634.7
457.232	622.95
457.606	621.82
457.979	614.14
458.352	608.49
458.725	648.49
459.099	660.24
459.472	653.01
459.845	668.15
460.218	659.56
460.591	644.64
460.964	669.28
461.337	686.68
461.71	661.37
462.083	674.25
462.456	674.02
462.829	654.36
463.201	703.63
463.574	674.93
463.947	703.63
464.32	698.2
464.692	686
465.065	683.29
465.438	715.38
465.81	715.15
466.183	707.69
466.555	718.31
466.928	712.89
467.3	706.56
467.672	728.94
468.045	746.11
468.417	747.92
468.789	717.64
469.161	766.45
469.534	771.65
469.906	775.26
470.278	763.51
470.65	763.96
471.022	770.06
471.394	802.83
471.766	799.22
472.138	805.09
472.51	807.8
472.882	817.07
473.253	790.18
473.625	811.87
473.997	828.82
474.369	874.24
474.74	843.73
475.112	851.19
475.484	855.94
475.855	873.11
476.227	880.34
476.598	876.73
476.97	889.16
477.341	904.07
477.713	902.04
478.084	926.44
478.455	944.52
478.827	928.93
479.198	939.55
479.569	957.86
479.94	1003.05
480.311	1003.73
480.682	980.45
481.053	1005.54
481.424	1014.8
481.795	1026.55
482.166	1028.36
482.537	1033.33
482.908	1030.85
483.279	1048.93
483.65	1064.75
484.021	1088.02
484.391	1075.59
484.762	1098.87
485.133	1073.79
485.503	1092.32
485.874	1117.4
486.244	1095.93
486.615	1146.55
486.985	1138.87
487.356	1161.69
487.726	1165.08
488.097	1155.82
488.467	1151.75
488.837	1171.64
489.207	1194.46
489.578	1226.1
489.948	1215.48
490.318	1191.75
490.688	1228.58
491.058	1216.61
491.428	1222.03
491.798	1256.38
492.168	1262.71
492.538	1270.62
492.908	1276.72
493.278	1278.07
493.648	1290.95
494.017	1266.1
494.387	1279.66
494.757	1295.93
495.126	1326.43
495.496	1314.68
495.866	1299.09
496.235	1311.52
496.605	1334.8
496.974	1302.03
497.344	1335.02
497.713	1347.22
498.082	1361.91
498.452	1340.67
498.821	1349.03
499.19	1340.9
499.559	1370.05
499.928	1387.45
500.298	1396.26
500.667	1370.73
501.036	1373.21
501.405	1385.42
501.774	1369.6
502.143	1377.51
502.512	1336.83
502.88	1367.79
503.249	1409.14
503.618	1415.47
503.987	1417.05
504.356	1392.2
504.724	1392.42
505.093	1403.72
505.462	1402.59
505.83	1387.45
506.199	1428.58
506.567	1422.7
506.936	1407.11
507.304	1414.57
507.672	1441.46
508.041	1427.9
508.409	1437.62
508.777	1434.91
509.145	1446.66
509.514	1425.19
509.882	1434.91
510.25	1434
510.618	1458.86
510.986	1413.44
511.354	1449.14
511.722	1462.7
512.09	1477.16
512.458	1458.41
512.826	1465.87
513.193	1472.42
513.561	1475.81
513.929	1483.49
514.297	1492.08
514.664	1527.56
515.032	1476.94
515.4	1518.75
515.767	1469.71
516.135	1488.92
516.502	1499.31
516.869	1526.65
517.237	1505.86
517.604	1506.32
517.972	1498.41
518.339	1490.72
518.706	1498.18
519.073	1492.76
519.44	1502.25
519.808	1485.07
520.175	1538.63
520.542	1501.8
520.909	1543.15
521.276	1521.68
521.643	1532.08
522.009	1524.17
522.376	1574.56
522.743	1560.55
523.11	1532.08
523.477	1559.42
523.843	1588.35
524.21	1570.5
524.577	1550.38
524.943	1564.39
525.31	1582.25
525.676	1583.6
526.043	1566.43
526.409	1581.34
526.776	1617.27
527.142	1577.73
527.508	1592.64
527.874	1570.72
528.241	1562.81
528.607	1578.4
528.973	1623.83
529.339	1595.35
529.705	1602.81
530.071	1628.57
530.437	1603.26
530.803	1620.44
531.169	1659.08
531.535	1608.46
531.901	1634.67
532.267	1611.4
532.632	1633.09
532.998	1641.68
533.364	1615.47
533.73	1631.51
534.095	1618.86
534.461	1632.19
534.826	1642.81
535.192	1661.11
535.557	1664.28
535.923	1654.34
536.288	1666.99
536.653	1651.85
537.019	1615.69
537.384	1653.43
537.749	1669.25
538.114	1662.7
538.479	1672.64
538.845	1638.97
539.21	1655.46
539.575	1645.97
539.94	1668.12
540.305	1659.98
540.67	1673.54
541.034	1653.21
541.399	1656.14
541.764	1664.05
542.129	1632.87
542.494	1627.22
542.858	1662.47
543.223	1655.46
543.587	1670.15
543.952	1682.58
544.316	1643.49
544.681	1644.62
545.045	1666.31
545.41	1667.44
545.774	1683.94
546.138	1667.44
546.503	1665.41
546.867	1642.13
547.231	1694.56
547.595	1684.62
547.959	1692.53
548.324	1680.55
548.688	1684.16
549.052	1695.46
549.416	1622.02
549.779	1664.28
550.143	1659.76
550.507	1715.35
550.871	1674.9
551.235	1661.57
551.599	1682.81
551.962	1697.95
552.326	1695.69
552.689	1697.95
553.053	1704.5
553.417	1678.74
553.78	1700.89
554.143	1700.21
554.507	1676.71
554.87	1691.62
555.234	1718.51
555.597	1689.36
555.96	1709.25
556.323	1688.68
556.686	1698.63
557.05	1704.73
557.413	1716.48
557.776	1704.5
558.139	1684.16
558.502	1688.46
558.865	1702.92
559.228	1723.49
559.59	1720.32
559.953	1723.94
560.316	1736.37
560.679	1739.98
561.041	1754.45
561.404	1730.49
561.767	1746.31
562.129	1763.03
562.492	1760.32
562.854	1750.38
563.217	1735.46
563.579	1751.51
563.941	1726.65
564.304	1743.37
564.666	1759.42
565.028	1774.56
565.39	1746.31
565.753	1768.68
566.115	1775.24
566.477	1748.34
566.839	1742.69
567.201	1774.11
567.563	1805.07
567.925	1786.53
568.287	1799.19
568.648	1783.82
569.01	1778.85
569.372	1768.23
569.734	1784.5
570.095	1782.24
570.457	1819.75
570.819	1809.81
571.18	1815.69
571.542	1829.02
571.903	1817.72
572.265	1801
572.626	1789.7
572.987	1774.56
573.349	1818.17
573.71	1836.7
574.071	1823.6
574.432	1789.7
574.794	1847.1
575.155	1838.06
575.516	1831.73
575.877	1857.72
576.238	1835.8
576.599	1842.35
576.96	1817.04
577.32	1820.43
577.681	1832.18
578.042	1821.34
578.403	1817.04
578.763	1852.3
579.124	1869.47
579.485	1854.78
579.845	1872.41
580.206	1867.89
580.566	1855.46
580.927	1866.53
581.287	1874.89
581.648	1859.53
582.008	1849.81
582.368	1878.51
582.728	1883.93
583.089	1861.34
583.449	1871.28
583.809	1872.41
584.169	1872.63
584.529	1838.06
584.889	1858.62
585.249	1861.79
585.609	1871.96
585.969	1881.9
586.329	1867.89
586.688	1846.65
587.048	1852.52
587.408	1869.7
587.768	1878.28
588.127	1884.16
588.487	1865.18
588.846	1869.02
589.206	1897.72
589.565	1870.37
589.925	1872.18
590.284	1891.16
590.643	1875.35
591.003	1892.29
591.362	1917.38
591.721	1888.23
592.08	1879.41
592.44	1876.02
592.799	1879.64
593.158	1891.62
593.517	1878.96
593.876	1890.49
594.235	1911.73
594.593	1904.27
594.952	1902.01
595.311	1894.33
595.67	1887.55
596.029	1886.19
596.387	1882.13
596.746	1932.52
597.104	1913.31
597.463	1906.31
597.822	1897.94
598.18	1894.1
598.538	1917.83
598.897	1918.06
599.255	1902.01
599.613	1927.1
599.972	1912.18
600.33	1915.35
600.688	1930.49
601.046	1929.13
601.404	1903.14
601.762	1941.79
602.12	1962.35
602.478	1935.91
602.836	1965.06
603.194	1951.5
603.552	1963.93
603.91	1934.55
604.268	1939.98
604.625	1945.63
604.983	1944.95
605.341	1932.97
605.698	1942.92
606.056	1986.76
606.413	1941.56
606.771	1946.08
607.128	1932.07
607.485	1939.75
607.843	1972.07
608.2	1960.09
608.557	1956.47
608.914	1951.95
609.272	1982.91
609.629	2002.35
609.986	2026.53
610.343	1976.81
610.7	1978.17
611.057	1990.6
611.414	2006.42
611.771	1948.34
612.127	1994.89
612.484	2007.09
612.841	2026.75
613.198	1999.41
613.554	2014.55
613.911	2011.61
614.267	2024.04
614.624	2019.52
614.98	2027.66
615.337	2040.77
615.693	2027.88
616.05	2029.47
616.406	2027.21
616.762	2038.73
617.118	2015.68
617.475	2012.07
617.831	2055.68
618.187	2036.02
618.543	2071.27
618.899	2044.16
619.255	2046.42
619.611	2062.01
619.967	2058.62
620.323	2066.3
620.678	2080.76
621.034	2068.34
621.39	2061.33
621.746	2084.83
622.101	2074.89
622.457	2069.24
622.812	2088
623.168	2097.71
623.523	2073.99
623.879	2094.55
624.234	2061.56
624.589	2084.15
624.945	2100.65
625.3	2098.39
625.655	2096.58
626.01	2079.18
626.365	2136.13
626.72	2121.89
627.075	2099.52
627.43	2088.45
627.785	2135.68
628.14	2147.88
628.495	2092.06
628.85	2112.4
629.205	2121.22
629.559	2160.08
629.914	2160.76
630.269	2134.1
630.623	2121.22
630.978	2168.9
631.332	2169.35
631.687	2136.81
632.041	2160.54
632.396	2199.63
632.75	2161.21
633.104	2155.79
633.459	2146.75
633.813	2154.89
634.167	2158.5
634.521	2164.15
634.875	2172.74
635.229	2194.21
635.583	2167.99
635.937	2159.63
636.291	2181.33
636.645	2193.3
636.999	2181.78
637.352	2199.18
637.706	2185.85
638.06	2205.06
638.413	2230.14
638.767	2206.18
639.121	2221.55
639.474	2243.02
639.828	2247.54
640.181	2259.97
640.534	2284.37
640.888	2263.81
641.241	2296.13
641.594	2232.4
641.947	2269.46
642.301	2290.48
642.654	2257.93
643.007	2291.61
643.36	2308.56
643.713	2300.65
644.066	2323.92
644.419	2296.13
644.771	2269.91
645.124	2302.68
645.477	2317.14
645.83	2294.54
646.182	2308.1
646.535	2300.65
646.888	2308.56
647.24	2284.6
647.593	2325.28
647.945	2299.29
648.298	2347.88
648.65	2343.58
649.002	2357.14
649.355	2360.31
649.707	2373.19
650.059	2343.81
650.411	2393.98
650.763	2416.35
651.115	2447.08
651.467	2481.66
651.819	2461.77
652.171	2500.19
652.523	2471.49
652.875	2496.8
653.227	2479.85
653.578	2520.07
653.93	2514.88
654.282	2526.85
654.633	2512.62
654.985	2536.12
655.337	2538.15
655.688	2549.45
656.039	2561.88
656.391	2570.24
656.742	2579.06
657.094	2565.27
657.445	2632.16
657.796	2607.3
658.147	2631.71
658.498	2667.42
658.849	2680.52
659.2	2655.44
659.551	2678.71
659.902	2696.79
660.253	2691.37
660.604	2740.63
660.955	2731.37
661.306	2711.71
661.656	2767.53
662.007	2763.01
662.358	2755.55
662.708	2784.7
663.059	2804.59
663.409	2766.4
663.76	2824.47
664.11	2858.37
664.461	2853.17
664.811	2897.47
665.161	2873.74
665.511	2930.46
665.862	2929.33
666.212	2936.56
666.562	2951.93
666.912	2970.23
667.262	2989.44
667.612	2970.46
667.962	2991.93
668.312	3007.97
668.662	3015.88
669.011	3041.87
669.361	3041.64
669.711	3084.81
670.06	3092.04
670.41	3050.91
670.76	3068.99
671.109	3092.04
671.459	3125.48
671.808	3152.6
672.157	3178.36
672.507	3157.35
672.856	3161.19
673.205	3160.74
673.554	3174.52
673.904	3188.31
674.253	3237.34
674.602	3245.03
674.951	3237.12
675.3	3197.8
675.649	3234.41
675.998	3261.98
676.346	3308.3
676.695	3325.03
677.044	3298.36
677.393	3322.31
677.741	3332.03
678.09	3331.81
678.438	3365.93
678.787	3341.52
679.135	3416.1
679.484	3407.51
679.832	3399.83
680.181	3415.42
680.529	3412.93
680.877	3412.03
681.225	3453.61
681.573	3479.37
681.922	3496.32
682.27	3464.91
682.618	3495.64
682.966	3517.11
683.314	3527.51
683.661	3489.77
684.009	3515.3
684.357	3516.21
684.705	3556.43
685.053	3577
685.4	3506.72
685.748	3555.75
686.095	3560.95
686.443	3586.04
686.79	3572.7
687.138	3614.51
687.485	3607.28
687.832	3588.52
688.18	3676.43
688.527	3620.39
688.874	3630.1
689.221	3614.51
689.568	3619.71
689.915	3556.66
690.262	3654.28
690.609	3662.87
690.956	3592.59
691.303	3676.43
691.65	3632.14
691.997	3644.79
692.344	3632.81
692.69	3626.49
693.037	3686.37
693.383	3638.69
693.73	3643.21
694.077	3674.85
694.423	3679.82
694.769	3702.42
695.116	3615.87
695.462	3659.25
695.808	3688.18
696.155	3703.55
696.501	3687.73
696.847	3647.05
697.193	3659.48
697.539	3655.41
697.885	3662.42
698.231	3677.11
698.577	3666.26
698.923	3682.3
699.269	3653.38
699.614	3666.26
699.96	3628.75
700.306	3601.18
700.651	3623.1
700.997	3633.94
701.342	3653.38
701.688	3672.59
702.033	3644.79
702.379	3656.99
702.724	3602.08
703.069	3649.08
703.415	3610.22
703.76	3572.02
704.105	3613.61
704.45	3628.97
704.795	3601.63
705.14	3640.95
705.485	3572.48
705.83	3609.99
706.175	3639.37
706.52	3567.96
706.865	3569.54
707.209	3602.76
707.554	3610.67
707.899	3563.66
708.243	3584.45
708.588	3540.16
708.932	3579.48
709.277	3572.25
709.621	3598.69
709.966	3547.62
710.31	3594.17
710.654	3575.41
710.998	3537.45
711.342	3556.43
711.687	3582.65
712.031	3546.04
712.375	3541.97
712.719	3560.05
713.063	3526.38
713.407	3510.33
713.75	3494.96
714.094	3560.27
714.438	3534.29
714.782	3519.14
715.125	3565.47
715.469	3534.51
715.812	3533.38
716.156	3556.66
716.499	3543.1
716.843	3518.24
717.186	3520.27
717.53	3568.63
717.873	3531.57
718.216	3518.92
718.559	3509.88
718.902	3515.76
719.246	3569.31
719.589	3495.64
719.932	3503.78
720.275	3485.25
720.617	3506.26
720.96	3507.85
721.303	3539.94
721.646	3512.37
721.989	3540.39
722.331	3475.98
722.674	3494.96
723.016	3513.95
723.359	3505.81
723.701	3500.84
724.044	3491.57
724.386	3493.16
724.729	3526.15
725.071	3525.7
725.413	3546.04
725.755	3538.58
726.097	3531.35
726.439	3535.87
726.782	3510.78
727.124	3519.37
727.465	3506.72
727.807	3524.57
728.149	3517.11
728.491	3567.51
728.833	3526.38
729.175	3543.78
729.516	3524.57
729.858	3572.7
730.199	3555.53
730.541	3539.26
730.882	3521.4
731.224	3568.86
731.565	3574.96
731.906	3553.49
732.248	3565.7
732.589	3569.09
732.93	3586.04
733.271	3552.36
733.612	3567.73
733.953	3563.66
734.294	3592.59
734.635	3593.49
734.976	3602.98
735.317	3554.17
735.658	3573.83
735.999	3623.77
736.339	3588.3
736.68	3581.52
737.021	3625.81
737.361	3618.8
737.702	3632.14
738.042	3617.45
738.383	3622.42
738.723	3640.05
739.063	3638.46
739.404	3608.63
739.744	3655.64
740.084	3639.37
740.424	3647.05
740.764	3637.79
741.104	3659.25
741.444	3672.14
741.784	3684.11
742.124	3683.66
742.464	3705.35
742.804	3713.04
743.143	3716.88
743.483	3708.97
743.823	3712.81
744.162	3776.31
744.502	3750.78
744.841	3742.19
745.181	3787.61
745.52	3770.21
745.86	3802.08
746.199	3800.49
746.538	3857.89
746.877	3839.81
747.216	3900.83
747.556	3865.35
747.895	3888.85
748.234	3879.14
748.573	3896.99
748.911	3928.4
749.25	3918
749.589	3960.72
749.928	3977.66
750.267	4013.6
750.605	3986.25
750.944	4021.28
751.283	4031.45
751.621	4051.79
751.96	4065.8
752.298	4085.46
752.636	4141.95
752.975	4126.59
753.313	4159.81
753.651	4160.71
753.989	4164.1
754.327	4186.02
754.666	4172.23
755.004	4227.6
755.342	4252.46
755.679	4303.3
756.017	4272.12
756.355	4303.08
756.693	4301.95
757.031	4387.37
757.368	4366.13
757.706	4392.57
758.044	4391.66
758.381	4400.7
758.719	4413.81
759.056	4415.39
759.394	4467.59
759.731	4490.64
760.068	4495.62
760.405	4468.05
760.743	4436.86
761.08	4548.95
761.417	4550.98
761.754	4536.97
762.091	4569.29
762.428	4554.37
762.765	4540.13
763.102	4580.36
763.438	4552.56
763.775	4580.36
764.112	4628.72
764.449	4676.18
764.785	4651.09
765.122	4620.81
765.458	4598.21
765.795	4628.04
766.131	4591.21
766.467	4655.16
766.804	4656.29
767.14	4616.52
767.476	4661.49
767.812	4632.79
768.148	4609.74
768.485	4607.93
768.821	4672.33
769.157	4654.26
769.492	4643.18
769.828	4622.17
770.164	4629.62
770.5	4610.42
770.836	4608.38
771.171	4613.81
771.507	4637.31
771.842	4601.38
