Data from blue_surface_keyboard_FLMS001491_078.txt Node
Date: Tue Feb 07 11:13:38 GMT 2017
User: dcchb
Spectrometer: FLMS00149
Trigger mode: 0
Integration Time (sec): 2.000000E-2
Scans to average: 10
Electric dark correction enabled: true
Nonlinearity correction enabled: false
Boxcar width: 0
XAxis mode: Wavelengths
Number of Pixels in Spectrum: 2048
>>>>>Begin Spectral Data<<<<<
341.393	2.18
341.776	2.18
342.16	2.18
342.543	-61.55
342.927	-59.29
343.31	-59.52
343.693	-90.7
344.077	-61.78
344.46	-66.75
344.843	-41.44
345.226	-44.38
345.61	-31.95
345.993	-18.84
346.376	-8.67
346.759	-1.44
347.142	26.13
347.525	46.92
347.908	75.17
348.291	66.13
348.674	98.67
349.057	112.45
349.44	115.17
349.823	151.78
350.206	163.75
350.588	154.49
350.971	191.1
351.354	218.89
351.737	213.02
352.119	231.1
352.502	248.72
352.884	239.91
353.267	262.51
353.65	269.06
354.032	271.55
354.414	274.26
354.797	301.38
355.179	284.43
355.562	284.43
355.944	309.06
356.326	319.68
356.709	319.68
357.091	316.97
357.473	321.49
357.855	304.77
358.238	316.07
358.62	321.04
359.002	299.12
359.384	311.32
359.766	309.06
360.148	315.61
360.53	315.61
360.912	305.9
361.294	293.01
361.676	297.08
362.057	319.45
362.439	304.54
362.821	303.64
363.203	299.34
363.584	291.21
363.966	302.51
364.348	299.57
364.729	286.46
365.111	289.17
365.493	286.24
365.874	282.85
366.256	292.79
366.637	302.28
367.019	293.69
367.4	307.93
367.781	301.6
368.163	293.01
368.544	293.01
368.925	286.69
369.306	309.96
369.688	285.56
370.069	291.43
370.45	290.53
370.831	277.2
371.212	299.34
371.593	280.36
371.974	266.35
372.355	273.13
372.736	284.43
373.117	288.95
373.498	274.94
373.879	273.58
374.26	295.95
374.641	275.61
375.021	272.22
375.402	291.43
375.783	286.24
376.163	296.18
376.544	275.39
376.925	302.28
377.305	300.47
377.686	304.77
378.066	311.55
378.447	284.43
378.827	309.96
379.208	308.83
379.588	299.79
379.968	294.82
380.349	309.96
380.729	301.38
381.109	304.54
381.489	300.02
381.87	293.24
382.25	309.06
382.63	309.29
383.01	302.96
383.39	323.52
383.77	293.24
384.15	291.66
384.53	309.06
384.91	313.35
385.29	315.16
385.67	310.64
386.049	304.09
386.429	299.34
386.809	319.68
387.189	306.12
387.568	312.68
387.948	315.84
388.328	311.55
388.707	328.72
389.087	312.9
389.466	321.94
389.846	330.75
390.225	309.06
390.605	328.95
390.984	321.94
391.363	308.83
391.743	338.89
392.122	330.53
392.501	319.45
392.881	318.1
393.26	327.36
393.639	326.23
394.018	334.14
394.397	308.83
394.776	316.29
395.155	309.51
395.534	307.93
395.913	309.29
396.292	316.52
396.671	299.12
397.05	304.31
397.429	336.4
397.808	351.09
398.186	351.77
398.565	334.6
398.944	362.17
399.323	306.57
399.701	336.4
400.08	350.19
400.458	337.99
400.837	327.36
401.215	347.93
401.594	353.35
401.972	324.88
402.351	312.45
402.729	343.86
403.107	332.56
403.486	353.13
403.864	354.71
404.242	353.58
404.62	346.35
404.999	343.18
405.377	358.78
405.755	343.41
406.133	351.09
406.511	370.08
406.889	341.15
407.267	348.15
407.645	360.13
408.023	370.08
408.401	354.48
408.779	359.91
409.156	342.05
409.534	362.84
409.912	382.73
410.29	377.53
410.667	368.49
411.045	369.62
411.422	358.32
411.8	372.33
412.178	364.2
412.555	381.15
412.933	369.17
413.31	377.08
413.687	387.48
414.065	377.98
414.442	379.79
414.819	373.24
415.197	377.31
415.574	375.72
415.951	384.09
416.328	375.05
416.705	380.02
417.082	391.09
417.46	372.33
417.837	379.34
418.214	401.49
418.591	370.75
418.967	390.19
419.344	385.89
419.721	391.09
420.098	373.46
420.475	394.93
420.852	389.74
421.228	389.06
421.605	385.67
421.982	385.89
422.358	409.17
422.735	411.66
423.111	406.91
423.488	412.33
423.864	390.41
424.241	433.35
424.617	397.64
424.994	426.8
425.37	407.81
425.746	424.31
426.123	400.58
426.499	400.81
426.875	439
427.251	412.56
427.627	438.1
428.003	416.63
428.379	424.31
428.756	410.3
429.132	412.56
429.507	435.84
429.883	427.7
430.259	445.33
430.635	440.81
431.011	428.6
431.387	449.85
431.763	433.35
432.138	438.32
432.514	442.16
432.89	444.88
433.265	457.53
433.641	472.9
434.016	454.59
434.392	438.77
434.767	489.17
435.143	444.42
435.518	473.35
435.894	462.5
436.269	465.21
436.644	476.74
437.02	486.91
437.395	475.38
437.77	467.02
438.145	480.13
438.52	485.55
438.895	478.55
439.271	483.07
439.646	504.76
440.021	487.81
440.395	500.92
440.77	496.63
441.145	515.83
441.52	496.4
441.895	499.79
442.27	495.95
442.645	527.13
443.019	500.24
443.394	510.41
443.769	511.31
444.143	500.69
444.518	512.9
444.892	527.13
445.267	520.58
445.641	527.58
446.016	521.26
446.39	518.77
446.764	516.74
447.139	533.01
447.513	521.71
447.887	519.9
448.262	537.08
448.636	532.56
449.01	536.85
449.384	547.25
449.758	549.51
450.132	555.38
450.506	539.11
450.88	536.85
451.254	551.77
451.628	538.21
452.002	528.26
452.376	561.26
452.75	575.04
453.123	575.72
453.497	582.5
453.871	563.74
454.244	554.02
454.618	581.14
454.992	586.57
455.365	592.89
455.739	569.17
456.112	593.35
456.486	559.45
456.859	588.37
457.232	612.1
457.606	590.86
457.979	618.88
458.352	575.27
458.725	603.74
459.099	605.1
459.472	603.29
459.845	615.04
460.218	618.66
460.591	633.57
460.964	620.24
461.337	635.83
461.71	643.51
462.083	626.34
462.456	639.9
462.829	648.03
463.201	648.71
463.574	629.5
463.947	666.79
464.32	667.02
464.692	694.59
465.065	658.2
465.438	681.71
465.81	710.18
466.183	673.12
466.555	687.13
466.928	705.66
467.3	670.86
467.672	698.65
468.045	706.34
468.417	694.13
468.789	729.84
469.161	735.04
469.534	718.54
469.906	716.73
470.278	731.42
470.65	754.25
471.022	742.04
471.394	732.78
471.766	745.66
472.138	764.41
472.51	769.84
472.882	756.05
473.253	754.7
473.625	787.47
473.997	795.6
474.369	813.91
474.74	796.73
475.112	798.54
475.484	827.92
475.855	826.33
476.227	827.24
476.598	848.93
476.97	827.46
477.341	858.42
477.713	861.36
478.084	849.16
478.455	877.18
478.827	883.96
479.198	897.97
479.569	892.55
479.94	910.17
480.311	916.28
480.682	950.85
481.053	968.03
481.424	959.66
481.795	971.64
482.166	962.38
482.537	989.27
482.908	979.1
483.279	1004.41
483.65	985.65
484.021	1000.79
484.391	1015.26
484.762	1040.57
485.133	1023.39
485.503	1020
485.874	1050.96
486.244	1055.71
486.615	1044.18
486.985	1067.01
487.356	1082.37
487.726	1102.26
488.097	1084.18
488.467	1096.61
488.837	1083.28
489.207	1088.25
489.578	1106.33
489.948	1140.22
490.318	1135.48
490.688	1131.41
491.058	1125.08
491.428	1158.3
491.798	1173.22
492.168	1173.22
492.538	1176.83
492.908	1163.05
493.278	1195.82
493.648	1182.93
494.017	1189.94
494.387	1190.62
494.757	1215.93
495.126	1224.06
495.496	1220.67
495.866	1243.5
496.235	1216.61
496.605	1229.94
496.974	1229.26
497.344	1205.31
497.713	1231.3
498.082	1259.09
498.452	1246.21
498.821	1230.39
499.19	1238.53
499.559	1231.75
499.928	1246.66
500.298	1240.79
500.667	1259.54
501.036	1259.77
501.405	1252.31
501.774	1251.63
502.143	1271.07
502.512	1296.38
502.88	1290.73
503.249	1292.31
503.618	1280.56
503.987	1291.63
504.356	1288.24
504.724	1282.37
505.093	1302.71
505.462	1303.38
505.83	1315.59
506.199	1319.2
506.567	1317.62
506.936	1292.54
507.304	1319.88
507.672	1319.2
508.041	1333.21
508.409	1349.03
508.777	1311.75
509.145	1335.02
509.514	1348.81
509.882	1349.71
510.25	1358.07
510.618	1333.44
510.986	1348.35
511.354	1337.73
511.722	1379.77
512.09	1368.01
512.458	1354.91
512.826	1355.36
513.193	1382.25
513.561	1376.38
513.929	1391.29
514.297	1384.51
514.664	1366.43
515.032	1367.11
515.4	1363.27
515.767	1385.87
516.135	1371.18
516.502	1377.73
516.869	1402.14
517.237	1419.54
517.604	1397.17
517.972	1393.78
518.339	1380.22
518.706	1386.55
519.073	1378.41
519.44	1419.09
519.808	1381.8
520.175	1406.21
520.542	1391.52
520.909	1408.69
521.276	1417.05
521.643	1425.19
522.009	1417.05
522.376	1446.66
522.743	1437.17
523.11	1425.64
523.477	1426.32
523.843	1467.9
524.21	1468.35
524.577	1476.49
524.943	1482.81
525.31	1438.52
525.676	1476.94
526.043	1461.8
526.409	1495.47
526.776	1514.68
527.142	1460.67
527.508	1491.85
527.874	1487.11
528.241	1451.85
528.607	1471.97
528.973	1500.21
529.339	1478.29
529.705	1522.81
530.071	1469.93
530.437	1498.41
530.803	1520.1
531.169	1524.85
531.535	1517.16
531.901	1514
532.267	1524.62
532.632	1532.53
532.998	1556.48
533.364	1519.42
533.73	1537.05
534.095	1527.78
534.461	1518.52
534.826	1537.73
535.192	1556.71
535.557	1553.77
535.923	1554.22
536.288	1562.59
536.653	1526.2
537.019	1515.81
537.384	1551.74
537.749	1508.8
538.114	1553.77
538.479	1548.12
538.845	1561.46
539.21	1539.08
539.575	1525.52
539.94	1554.45
540.305	1569.37
540.67	1561.46
541.034	1559.2
541.399	1586.54
541.764	1570.04
542.129	1556.71
542.494	1590.83
542.858	1568.46
543.223	1551.06
543.587	1559.65
543.952	1558.97
544.316	1596.71
544.681	1564.17
545.045	1564.62
545.41	1588.57
545.774	1567.11
546.138	1550.61
546.503	1560.1
546.867	1576.14
547.231	1601.91
547.595	1563.72
547.959	1570.27
548.324	1578.18
548.688	1563.94
549.052	1571.63
549.416	1577.27
549.779	1589.93
550.143	1600.55
550.507	1604.62
550.871	1561.68
551.235	1600.1
551.599	1608.46
551.962	1592.64
552.326	1611.62
552.689	1598.97
553.053	1581.12
553.417	1614.34
553.78	1601.91
554.143	1595.35
554.507	1594.9
554.87	1604.84
555.234	1628.12
555.597	1609.36
555.96	1589.48
556.323	1630.38
556.686	1622.25
557.05	1621.12
557.413	1606.65
557.776	1616.37
558.139	1618.86
558.502	1622.25
558.865	1619.08
559.228	1617.5
559.59	1628.57
559.953	1649.82
560.316	1643.94
560.679	1621.12
561.041	1636.71
561.404	1648.69
561.767	1636.26
562.129	1654.79
562.492	1666.76
562.854	1624.96
563.217	1643.04
563.579	1634.67
563.941	1670.83
564.304	1661.79
564.666	1701.34
565.028	1654.56
565.39	1633.54
565.753	1682.13
566.115	1660.44
566.477	1653.88
566.839	1703.83
567.201	1706.54
567.563	1663.15
567.925	1717.38
568.287	1711.28
568.648	1719.87
569.01	1681.23
569.372	1664.28
569.734	1715.35
570.095	1697.05
570.457	1699.76
570.819	1717.38
571.18	1711.06
571.542	1712.41
571.903	1720.32
572.265	1711.28
572.626	1727.55
572.987	1740.43
573.349	1713.54
573.71	1734.78
574.071	1753.09
574.432	1721.9
574.794	1744.95
575.155	1732.3
575.516	1725.75
575.877	1739.53
576.238	1759.64
576.599	1780.43
576.96	1726.88
577.32	1766.2
577.681	1739.08
578.042	1755.8
578.403	1757.84
578.763	1765.52
579.124	1755.35
579.485	1800.55
579.845	1765.07
580.206	1771.85
580.566	1792.18
580.927	1761
581.287	1787.44
581.648	1775.69
582.008	1770.72
582.368	1782.24
582.728	1758.74
583.089	1796.48
583.449	1755.12
583.809	1778.85
584.169	1792.64
584.529	1786.99
584.889	1782.92
585.249	1774.56
585.609	1781.79
585.969	1811.85
586.329	1765.52
586.688	1779.08
587.048	1761.68
587.408	1804.39
587.768	1744.95
588.127	1808.46
588.487	1815.69
588.846	1804.16
589.206	1799.87
589.565	1810.72
589.925	1803.48
590.284	1803.94
590.643	1775.91
591.003	1822.69
591.362	1829.92
591.721	1794.44
592.08	1815.23
592.44	1790.38
592.799	1791.05
593.158	1819.53
593.517	1798.51
593.876	1802.35
594.235	1809.59
594.593	1808.23
594.952	1831.73
595.311	1792.86
595.67	1819.75
596.029	1822.47
596.387	1793.31
596.746	1816.36
597.104	1810.04
597.463	1800.09
597.822	1833.31
598.18	1816.36
598.538	1794.67
598.897	1810.26
599.255	1827.89
599.613	1835.8
599.972	1833.31
600.33	1825.18
600.688	1802.13
601.046	1814.33
601.404	1813.65
601.762	1815.01
602.12	1858.4
602.478	1823.37
602.836	1822.69
603.194	1848.45
603.552	1855.91
603.91	1850.49
604.268	1871.96
604.625	1851.39
604.983	1839.19
605.341	1856.59
605.698	1883.03
606.056	1875.57
606.413	1847.55
606.771	1866.53
607.128	1881.67
607.485	1861.11
607.843	1832.64
608.2	1878.28
608.557	1864.05
608.914	1907.21
609.272	1852.75
609.629	1845.52
609.986	1881.67
610.343	1902.01
610.7	1910.83
611.057	1897.72
611.414	1887.32
611.771	1896.14
612.127	1908.11
612.484	1907.21
612.841	1925.74
613.198	1919.86
613.554	1932.97
613.911	1896.14
614.267	1932.97
614.624	1916.93
614.98	1907.89
615.337	1920.32
615.693	1945.63
616.05	1944.04
616.406	1928.68
616.762	1936.14
617.118	1935.91
617.475	1948.79
617.831	1934.1
618.187	1897.27
618.543	1954.89
618.899	1934.1
619.255	1976.59
619.611	1951.28
619.967	1931.16
620.323	1947.89
620.678	1959.41
621.034	1965.51
621.39	1982.24
621.746	1950.37
622.101	1962.35
622.457	1963.93
622.812	1971.84
623.168	1962.8
623.523	1974.33
623.879	1956.93
624.234	1971.61
624.589	2002.57
624.945	1972.74
625.3	1986.53
625.655	1983.37
626.01	1971.61
626.365	1994.21
626.72	1976.36
627.075	1972.52
627.43	2002.12
627.785	1983.82
628.14	1992.86
628.495	2014.33
628.85	2026.98
629.205	2008.45
629.559	2015.23
629.914	2018.85
630.269	2017.72
630.623	2033.53
630.978	2026.08
631.332	2024.27
631.687	2043.7
632.041	2010.94
632.396	2022.69
632.75	2021.11
633.104	2031.5
633.459	2027.66
633.813	2043.03
634.167	2025.62
634.521	2049.8
634.875	2057.71
635.229	2017.26
635.583	2054.78
635.937	2029.24
636.291	2074.89
636.645	2057.04
636.999	2056.58
637.352	2046.87
637.706	2055.45
638.06	2066.08
638.413	2055.68
638.767	2092.52
639.121	2072.86
639.474	2095.91
639.828	2086.41
640.181	2091.39
640.534	2082.12
640.888	2085.96
641.241	2090.26
641.594	2108.56
641.947	2109.69
642.301	2132.74
642.654	2137.49
643.007	2117.15
643.36	2121.44
643.713	2129.12
644.066	2127.54
644.419	2120.09
644.771	2148.79
645.124	2120.09
645.477	2113.98
645.83	2131.38
646.182	2119.86
646.535	2123.7
646.888	2145.4
647.24	2137.26
647.593	2123.02
647.945	2175.23
648.298	2154.66
648.65	2158.5
649.002	2156.47
649.355	2189.01
649.707	2182.68
650.059	2193.76
650.411	2219.07
650.763	2255.45
651.115	2255.22
651.467	2233.75
651.819	2271.49
652.171	2292.74
652.523	2285.28
652.875	2269.46
653.227	2289.35
653.578	2319.18
653.93	2341.32
654.282	2324.15
654.633	2302.23
654.985	2340.42
655.337	2382
655.688	2352.4
656.039	2369.34
656.391	2340.42
656.742	2373.41
657.094	2370.47
657.445	2442.56
657.796	2374.32
658.147	2439.4
658.498	2427.42
658.849	2423.35
659.2	2437.59
659.551	2445.27
659.902	2462.68
660.253	2483.47
660.604	2444.82
660.955	2487.76
661.306	2501.54
661.656	2508.32
662.007	2523.24
662.358	2520.3
662.708	2519.17
663.059	2517.82
663.409	2542.22
663.76	2584.25
664.11	2597.81
664.461	2601.2
664.811	2609.79
665.161	2586.97
665.511	2587.42
665.862	2609.79
666.212	2660.41
666.562	2618.38
666.912	2657.47
667.262	2687.53
667.612	2688.21
667.962	2668.09
668.312	2666.96
668.662	2710.13
669.011	2709
669.361	2706.96
669.711	2758.49
670.06	2737.24
670.41	2750.13
670.76	2755.1
671.109	2724.59
671.459	2759.62
671.808	2783.57
672.157	2787.41
672.507	2808.2
672.856	2819.73
673.205	2796.45
673.554	2851.82
673.904	2878.71
674.253	2873.29
674.602	2839.39
674.951	2825.6
675.3	2827.64
675.649	2892.27
675.998	2891.82
676.346	2914.41
676.695	2908.54
677.044	2922.55
677.393	2945.83
677.741	2892.72
678.09	2894.98
678.438	2986.73
678.787	2963.91
679.135	2984.24
679.484	2966.62
679.832	2995.54
680.181	3038.71
680.529	2995.09
680.877	3014.07
681.225	2969.1
681.573	3035.99
681.922	3035.77
682.27	3033.73
682.618	3052.72
682.966	3054.75
683.314	3064.24
683.661	3021.98
684.009	3079.16
684.357	3074.18
684.705	3043
685.053	3050.46
685.4	3097.69
685.748	3079.16
686.095	3087.52
686.443	3094.75
686.79	3066.28
687.138	3157.12
687.485	3166.84
687.832	3115.99
688.18	3076.44
688.527	3103.11
688.874	3132.49
689.221	3092.94
689.568	3081.87
689.915	3107.18
690.262	3112.15
690.609	3153.28
690.956	3152.15
691.303	3133.84
691.65	3119.83
691.997	3141.53
692.344	3124.58
692.69	3111.47
693.037	3154.18
693.383	3093.62
693.73	3152.83
694.077	3148.53
694.423	3125.93
694.769	3117.12
695.116	3111.92
695.462	3117.12
695.808	3115.09
696.155	3157.8
696.501	3092.94
696.847	3084.81
697.193	3100.4
697.539	3127.52
697.885	3078.48
698.231	3099.04
698.577	3097.01
698.923	3102.21
699.269	3081.87
699.614	3062.66
699.96	3078.03
700.306	3078.03
700.651	3103.11
700.997	3065.37
701.342	3102.43
701.688	3067.63
702.033	3051.36
702.379	3062.43
702.724	3072.38
703.069	3068.99
703.415	3040.97
703.76	2994.86
704.105	3039.16
704.45	3065.6
704.795	3035.77
705.14	3051.36
705.485	3022.66
705.83	3011.81
706.175	3007.52
706.52	2976.79
706.865	3043.9
707.209	3009.1
707.554	3021.53
707.899	3023.34
708.243	3025.6
708.588	3007.29
708.932	3001.42
709.277	3002.55
709.621	2992.83
709.966	2995.77
710.31	2987.18
710.654	2976.11
710.998	2965.49
711.342	3005.26
711.687	2978.37
712.031	2979.5
712.375	2977.24
712.719	2970.23
713.063	2943.57
713.407	2950.8
713.75	2966.16
714.094	2967.75
714.438	2907.41
714.782	2955.54
715.125	2975.66
715.469	2962.78
715.812	2937.92
716.156	2943.79
716.499	2985.37
716.843	2930.91
717.186	2956.22
717.53	2986.73
717.873	2958.48
718.216	2959.39
718.559	2945.83
718.902	2900.63
719.246	2971.14
719.589	2928.65
719.932	2965.71
720.275	2945.37
720.617	2954.64
720.96	2936.11
721.303	3000.06
721.646	2953.74
721.989	2938.14
722.331	2967.75
722.674	2920.74
723.016	2945.6
723.359	2936.79
723.701	2912.61
724.044	2936.79
724.386	2934.75
724.729	2919.39
725.071	2940.85
725.413	2929.56
725.755	2928.2
726.097	2909.9
726.439	2935.43
726.782	2924.58
727.124	2952.61
727.465	2932.27
727.807	2943.57
728.149	2948.31
728.491	2921.65
728.833	2956.67
729.175	2961.19
729.516	2966.84
729.858	2955.09
730.199	2967.97
730.541	2970.01
730.882	2964.13
731.224	2978.37
731.565	2941.53
731.906	2920.29
732.248	2962.55
732.589	2953.51
732.93	2938.37
733.271	2995.32
733.612	2993.06
733.953	2970.23
734.294	2981.08
734.635	2995.32
734.976	2960.29
735.317	3009.1
735.658	3005.26
735.999	2962.78
736.339	3028.08
736.68	3033.73
737.021	2995.54
737.361	3035.99
737.702	3029.44
738.042	3014.07
738.383	3012.27
738.723	3036.67
739.063	3057.46
739.404	3074.64
739.744	2999.16
740.084	3060.4
740.424	3083.68
740.764	3097.01
741.104	3111.47
741.444	3087.52
741.784	3101.53
742.124	3089.1
742.464	3099.49
742.804	3102.21
743.143	3124.8
743.483	3147.63
743.823	3132.49
744.162	3165.93
744.502	3178.81
744.841	3156.67
745.181	3195.99
745.52	3184.01
745.86	3210
746.199	3243.22
746.538	3245.93
746.877	3261.3
747.216	3259.04
747.556	3259.26
747.895	3308.75
748.234	3278.7
748.573	3297.46
748.911	3301.3
749.25	3331.81
749.589	3348.3
749.928	3367.74
750.267	3409.77
750.605	3384.69
750.944	3417.9
751.283	3381.52
751.621	3450.67
751.96	3417.23
752.298	3476.21
752.636	3505.13
752.975	3495.19
753.313	3531.12
753.651	3551.69
753.989	3548.75
754.327	3604.11
754.666	3578.13
755.004	3636.2
755.342	3649.08
755.679	3635.75
756.017	3674.62
756.355	3732.02
756.693	3737.44
757.031	3746.48
757.368	3734.05
757.706	3737.44
758.044	3750.1
758.381	3838.91
758.719	3818.8
759.056	3810.44
759.394	3791.23
759.731	3827.84
760.068	3878.91
760.405	3850.44
760.743	3884.33
761.08	3917.1
761.417	3954.39
761.754	3954.84
762.091	3900.15
762.428	3967.04
762.765	3942.18
763.102	3985.57
763.438	3955.07
763.775	3936.31
764.112	3977.21
764.449	4040.94
764.785	3997.32
765.122	4011.11
765.458	4038.68
765.795	4020.6
766.131	4047.27
766.467	3967.95
766.804	4025.8
767.14	4002.52
767.476	3990.09
767.812	4061.73
768.148	4034.61
768.485	4023.99
768.821	4027.38
769.157	4076.64
769.492	4027.15
769.828	4065.35
770.164	4053.14
770.5	4012.01
770.836	4049.3
771.171	4029.19
771.507	3993.26
771.842	3992.13
