Data from blue_clamp_base_FLMS001491_00065.txt Node
Date: Wed Feb 08 15:16:21 GMT 2017
User: dcchb
Spectrometer: FLMS00149
Trigger mode: 0
Integration Time (sec): 2.000000E-2
Scans to average: 10
Electric dark correction enabled: true
Nonlinearity correction enabled: false
Boxcar width: 0
XAxis mode: Wavelengths
Number of Pixels in Spectrum: 2048
>>>>>Begin Spectral Data<<<<<
341.393	-10.49
341.776	-10.49
342.16	-10.49
342.543	-62.24
342.927	-79.64
343.31	-76.26
343.693	-65.63
344.077	-59.98
344.46	-48.01
344.843	-42.13
345.226	-55.24
345.61	-52.07
345.993	-18.63
346.376	-15.69
346.759	-1
347.142	47.36
347.525	40.8
347.908	76.96
348.291	68.83
348.674	106.79
349.057	93.91
349.44	126.23
349.823	140.46
350.206	173.46
350.588	200.8
350.971	186.79
351.354	203.74
351.737	232.66
352.119	229.73
352.502	244.19
352.884	250.52
353.267	251.19
353.65	272.21
354.032	294.13
354.414	301.81
354.797	292.1
355.179	304.07
355.562	307.24
355.944	320.8
356.326	331.42
356.709	315.6
357.091	310.85
357.473	340.91
357.855	348.37
358.238	321.47
358.62	337.97
359.002	314.47
359.384	331.87
359.766	341.14
360.148	325.99
360.53	341.59
360.912	327.35
361.294	317.41
361.676	328.71
362.057	342.49
362.439	310.63
362.821	320.34
363.203	326.22
363.584	320.34
363.966	316.73
364.348	314.7
364.729	319.21
365.111	300.68
365.493	321.7
365.874	307.69
366.256	314.7
366.637	307.92
367.019	302.94
367.4	304.53
367.781	305.88
368.163	289.16
368.544	298.42
368.925	313.34
369.306	304.75
369.688	305.88
370.069	298.88
370.45	293.9
370.831	312.66
371.212	311.53
371.593	321.25
371.974	308.37
372.355	297.75
372.736	316.5
373.117	288.03
373.498	314.24
373.879	325.54
374.26	304.75
374.641	301.36
375.021	312.44
375.402	325.99
375.783	324.19
376.163	297.07
376.544	317.41
376.925	299.78
377.305	298.42
377.686	309.72
378.066	305.2
378.447	339.33
378.827	302.72
379.208	319.44
379.588	327.58
379.968	315.6
380.349	329.61
380.729	332.32
381.109	329.16
381.489	335.71
381.87	307.46
382.25	351.53
382.63	334.81
383.01	329.16
383.39	356.05
383.77	351.53
384.15	327.35
384.53	345.2
384.91	331.64
385.29	357.41
385.67	337.07
386.049	333
386.429	356.05
386.809	345.43
387.189	364.86
387.568	335.94
387.948	349.27
388.328	364.41
388.707	346.78
389.087	377.07
389.466	369.61
389.846	353.11
390.225	351.53
390.605	350.85
390.984	376.84
391.363	366.9
391.743	367.35
392.122	385.88
392.501	372.32
392.881	382.26
393.26	379.1
393.639	393.79
394.018	380
394.397	403.51
394.776	400.79
395.155	401.47
395.534	400.57
395.913	414.13
396.292	398.76
396.671	391.76
397.05	417.97
397.429	422.26
397.808	405.09
398.186	422.94
398.565	430.4
398.944	453
399.323	438.08
399.701	416.16
400.08	447.57
400.458	441.47
400.837	461.36
401.215	455.93
401.594	438.31
401.972	423.62
402.351	442.83
402.729	462.71
403.107	467.91
403.486	469.72
403.864	469.27
404.242	471.08
404.62	491.19
404.999	507.68
405.377	472.43
405.755	481.7
406.133	495.48
406.511	495.26
406.889	494.35
407.267	497.97
407.645	523.96
408.023	513.11
408.401	516.05
408.779	550.62
409.156	540.45
409.534	548.36
409.912	541.36
410.29	559.21
410.667	575.71
411.045	562.15
411.422	562.15
411.8	584.97
412.178	583.16
412.555	585.2
412.933	599.43
413.31	573.45
413.687	600.11
414.065	607.34
414.442	619.55
414.819	615.7
415.197	633.1
415.574	655.03
415.951	661.8
416.328	655.03
416.705	649.83
417.082	653.44
417.46	666.32
417.837	675.36
418.214	684.85
418.591	701.13
418.967	681.69
419.344	687.79
419.721	698.41
420.098	705.19
420.475	709.26
420.852	724.85
421.228	723.95
421.605	738.19
421.982	715.81
422.358	730.5
422.735	754.23
423.111	756.72
423.488	748.36
423.864	753.1
424.241	771.41
424.617	810.95
424.994	780.22
425.37	777.96
425.746	794
426.123	812.31
426.499	826.32
426.875	822.93
427.251	841.46
427.627	869.71
428.003	832.42
428.379	855.92
428.756	891.4
429.132	876.94
429.507	899.54
429.883	911.52
430.259	914.23
430.635	942.93
431.011	952.42
431.387	940.22
431.763	982.25
432.138	975.47
432.514	1009.82
432.89	1012.53
433.265	982.02
433.641	1030.16
434.016	1024.73
434.392	1048.91
434.767	1062.47
435.143	1077.39
435.518	1078.97
435.894	1081.45
436.269	1097.73
436.644	1127.1
437.02	1138.85
437.395	1144.05
437.77	1144.96
438.145	1161.68
438.52	1179.31
438.895	1190.38
439.271	1195.58
439.646	1233.09
440.021	1222.92
440.395	1211.62
440.77	1242.35
441.145	1275.35
441.52	1286.87
441.895	1281.22
442.27	1287.1
442.645	1307.89
443.019	1301.79
443.394	1275.57
443.769	1328.91
444.143	1330.94
444.518	1346.31
444.892	1342.92
445.267	1360.32
445.641	1391.73
446.016	1401.22
446.39	1386.76
446.764	1414.55
447.139	1410.71
447.513	1421.78
447.887	1427.21
448.262	1454.33
448.636	1416.14
449.01	1450.03
449.384	1457.04
449.758	1462.24
450.132	1499.52
450.506	1509.92
450.88	1543.59
451.254	1512.86
451.628	1539.97
452.002	1571.16
452.376	1572.97
452.75	1587.43
453.123	1560.54
453.497	1630.14
453.871	1643.02
454.244	1675.79
454.618	1688.67
454.992	1675.56
455.365	1683.47
455.739	1729.35
456.112	1751.27
456.486	1764.6
456.859	1807.99
457.232	1807.09
457.606	1777.03
457.979	1798.27
458.352	1851.38
458.725	1883.69
459.099	1866.52
459.472	1904.26
459.845	1932.28
460.218	1953.3
460.591	1968.66
460.964	1990.81
461.337	2025.38
461.71	2029.9
462.083	2089.79
462.456	2091.6
462.829	2050.69
463.201	2111.48
463.574	2095.21
463.947	2149.45
464.32	2185.38
464.692	2185.83
465.065	2178.37
465.438	2224.25
465.81	2264.93
466.183	2275.32
466.555	2327.52
466.928	2325.72
467.3	2323.46
467.672	2374.08
468.045	2445.71
468.417	2420.63
468.789	2432.15
469.161	2468.76
469.534	2514.41
469.906	2547.86
470.278	2568.42
470.65	2579.04
471.022	2602.32
471.394	2667.4
471.766	2687.29
472.138	2701.53
472.51	2780.62
472.882	2819.49
473.253	2769.55
473.625	2823.33
473.997	2897
474.369	2879.15
474.74	2886.38
475.112	2977.22
475.484	3019.26
475.855	3064.23
476.227	3083.89
476.598	3154.17
476.97	3155.75
477.341	3216.54
477.713	3245.24
478.084	3283.88
478.455	3328.4
478.827	3369.76
479.198	3447.27
479.569	3459.7
479.94	3472.58
480.311	3537.21
480.682	3571.56
481.053	3642.52
481.424	3732.91
481.795	3774.04
482.166	3755.51
482.537	3813.36
482.908	3886.13
483.279	3901.49
483.65	3938.78
484.021	4015.39
484.391	4020.13
484.762	4100.81
485.133	4071.88
485.503	4107.59
485.874	4203.41
486.244	4223.29
486.615	4281.6
486.985	4284.76
487.356	4377.87
487.726	4367.47
488.097	4441.14
488.467	4444.53
488.837	4543.28
489.207	4543.51
489.578	4661.02
489.948	4663.28
490.318	4668.25
490.688	4669.61
491.058	4762.71
491.428	4763.17
491.798	4789.15
492.168	4878.42
492.538	4895.82
492.908	4908.02
493.278	4976.49
493.648	4972.2
494.017	5004.52
494.387	5040.22
494.757	5008.58
495.126	5064.17
495.496	5029.37
495.866	5119.31
496.235	5105.76
496.605	5181.01
496.974	5216.94
497.344	5191.86
497.713	5260.78
498.082	5220.78
498.452	5263.04
498.821	5254.45
499.19	5264.85
499.559	5343.49
499.928	5393.43
500.298	5383.71
500.667	5412.87
501.036	5399.08
501.405	5412.19
501.774	5401.79
502.143	5433.2
502.512	5452.87
502.88	5457.61
503.249	5436.59
503.618	5502.58
503.987	5517.95
504.356	5537.38
504.724	5512.3
505.093	5534.22
505.462	5535.8
505.83	5578.74
506.199	5641.11
506.567	5637.04
506.936	5645.4
507.304	5678.62
507.672	5691.95
508.041	5733.76
508.409	5740.77
508.777	5719.75
509.145	5795.68
509.514	5793.65
509.882	5827.32
510.25	5844.49
510.618	5847.43
510.986	5881.55
511.354	5816.92
511.722	5922.46
512.09	5915.45
512.458	5931.95
512.826	5948.9
513.193	5959.07
513.561	5937.15
513.929	6002.91
514.297	6075.9
514.664	6072.51
515.032	6048.33
515.4	6168.33
515.767	6115.22
516.135	6112.96
516.502	6065.5
516.869	6198.38
517.237	6185.5
517.604	6146.63
517.972	6153.86
518.339	6195.9
518.706	6187.31
519.073	6227.53
519.44	6260.53
519.808	6309.79
520.175	6264.6
520.542	6349.34
520.909	6360.64
521.276	6343.92
521.643	6374.2
522.009	6373.29
522.376	6457.36
522.743	6433.4
523.11	6496.23
523.477	6599.73
523.843	6523.35
524.21	6537.58
524.577	6643.12
524.943	6607.64
525.31	6635.88
525.676	6638.6
526.043	6701.42
526.409	6741.42
526.776	6775.32
527.142	6775.32
527.508	6777.58
527.874	6804.69
528.241	6867.97
528.607	6883.11
528.973	6905.26
529.339	6891.25
529.705	7007.17
530.071	6999.04
530.437	7028.87
530.803	6994.52
531.169	7030.68
531.535	7074.97
531.901	7074.07
532.267	7120.84
532.632	7119.26
532.998	7134.4
533.364	7225.7
533.73	7185.7
534.095	7260.95
534.461	7291.69
534.826	7313.83
535.192	7331.46
535.557	7369.2
535.923	7351.57
536.288	7363.78
536.653	7370.78
537.019	7383.44
537.384	7420.95
537.749	7399.25
538.114	7421.85
538.479	7448.07
538.845	7511.57
539.21	7456.88
539.575	7432.02
539.94	7455.52
540.305	7542.08
540.67	7458.69
541.034	7535.3
541.399	7615.97
541.764	7616.42
542.129	7628.63
542.494	7610.1
542.858	7650.55
543.223	7666.59
543.587	7704.78
543.952	7686.25
544.316	7726.93
544.681	7781.17
545.045	7719.25
545.41	7709.3
545.774	7767.83
546.138	7761.05
546.503	7810.77
546.867	7806.93
547.231	7843.99
547.595	7846.7
547.959	7871.33
548.324	7905.46
548.688	7834.72
549.052	7877.89
549.416	7942.52
549.779	7876.76
550.143	7967.38
550.507	7957.66
550.871	7977.32
551.235	8004.21
551.599	8014.83
551.962	8041.72
552.326	8051.89
552.689	8014.61
553.053	8077.43
553.417	8059.8
553.78	8228.16
554.143	8056.41
554.507	8116.07
554.87	8140.93
555.234	8193.36
555.597	8204.21
555.96	8173.47
556.323	8222.51
556.686	8194.26
557.05	8206.92
557.413	8278.1
557.776	8249.63
558.139	8321.04
558.502	8348.83
558.865	8349.74
559.228	8336.63
559.59	8357.87
559.953	8427.48
560.316	8480.81
560.679	8479.9
561.041	8549.73
561.404	8532.33
561.767	8589.28
562.129	8545.89
562.492	8512.45
562.854	8599.9
563.217	8525.33
563.579	8615.72
563.941	8637.87
564.304	8708.15
564.666	8636.51
565.028	8726.9
565.39	8759.44
565.753	8741.14
566.115	8821.59
566.477	8847.8
566.839	8836.5
567.201	8875.83
567.563	8907.24
567.925	8885.54
568.287	8890.51
568.648	9021.58
569.01	8968.03
569.372	9102.94
569.734	9046.89
570.095	9059.32
570.457	9046.44
570.819	9101.81
571.18	9066.56
571.542	9176.38
571.903	9122.83
572.265	9266.32
572.626	9195.59
572.987	9267.91
573.349	9285.76
573.71	9243.27
574.071	9245.08
574.432	9351.75
574.794	9455.47
575.155	9371.41
575.516	9380.22
575.877	9457.51
576.238	9456.15
576.599	9517.39
576.96	9545.19
577.32	9506.09
577.681	9555.36
578.042	9507
578.403	9570.27
578.763	9663.6
579.124	9610.04
579.485	9688.46
579.845	9688.91
580.206	9643.49
580.566	9695.69
580.927	9662.02
581.287	9746.09
581.648	9661.34
582.008	9749.02
582.368	9613.21
582.728	9783.37
583.089	9744.5
583.449	9766.88
583.809	9772.07
584.169	9755.8
584.529	9766.2
584.889	9866.31
585.249	9744.05
585.609	9862.69
585.969	9816.82
586.329	9764.62
586.688	9815.91
587.048	9743.37
587.408	9821.79
587.768	9811.62
588.127	9836.03
588.487	9755.12
588.846	9859.3
589.206	9787.21
589.565	9812.98
589.925	9927.55
590.284	9863.6
590.643	9904.73
591.003	9892.07
591.362	9906.99
591.721	9897.04
592.08	9911.96
592.44	9951.05
592.799	9937.04
593.158	9946.31
593.517	9915.8
593.876	9929.36
594.235	9967.32
594.593	9923.48
594.952	10023.37
595.311	9925.29
595.67	9997.15
596.029	10002.8
596.387	9974.1
596.746	9983.59
597.104	9937.72
597.463	9981.56
597.822	10018.62
598.18	9986.08
598.538	9966.19
598.897	10063.59
599.255	9960.32
599.613	10146.08
599.972	10026.76
600.33	10040.09
600.688	10012.97
601.046	10096.81
601.404	10168.22
601.762	10041.22
602.12	10106.98
602.478	10047.55
602.836	10110.82
603.194	10096.81
603.552	10041.67
603.91	10068.56
604.268	10154.66
604.625	10081.9
604.983	10109.01
605.341	10056.36
605.698	10160.31
606.056	10217.94
606.413	10174.1
606.771	10191.05
607.128	10168.67
607.485	10151.5
607.843	10213.19
608.2	10193.31
608.557	10219.97
608.914	10165.51
609.272	10286.41
609.629	10211.84
609.986	10308.56
610.343	10276.69
610.7	10287.54
611.057	10257.94
611.414	10249.58
611.771	10326.64
612.127	10330.02
612.484	10307.43
612.841	10337.48
613.198	10328.9
613.554	10360.53
613.911	10420.42
614.267	10343.36
614.624	10391.04
614.98	10331.83
615.337	10430.36
615.693	10406.86
616.05	10366.86
616.406	10459.97
616.762	10420.64
617.118	10432.17
617.475	10490.92
617.831	10472.17
618.187	10408.44
618.543	10405.28
618.899	10517.14
619.255	10525.73
619.611	10498.83
619.967	10567.08
620.323	10568.66
620.678	10516.23
621.034	10540.41
621.39	10573.41
621.746	10592.39
622.101	10678.04
622.457	10541.77
622.812	10584.93
623.168	10634.42
623.523	10659.51
623.879	10652.95
624.234	10658.83
624.589	10621.77
624.945	10606.4
625.3	10670.58
625.655	10683.46
626.01	10697.7
626.365	10705.38
626.72	10716.68
627.075	10695.89
627.43	10715.1
627.785	10615.44
628.14	10667.19
628.495	10797.58
628.85	10663.58
629.205	10673.74
629.559	10778.15
629.914	10676
630.269	10713.29
630.623	10717.13
630.978	10693.63
631.332	10782.67
631.687	10756.45
632.041	10772.95
632.396	10768.66
632.75	10758.04
633.104	10651.82
633.459	10742.9
633.813	10753.52
634.167	10669.45
634.521	10771.82
634.875	10836.68
635.229	10757.81
635.583	10837.13
635.937	10827.87
636.291	10867.19
636.645	10921.42
636.999	10848.66
637.352	10931.14
637.706	10847.3
638.06	10873.06
638.413	10832.16
638.767	10859.28
639.121	10857.24
639.474	10816.34
639.828	10838.71
640.181	10897.69
640.534	10940.4
640.888	10861.08
641.241	10835.32
641.594	10871.93
641.947	10934.75
642.301	10904.93
642.654	10902.67
643.007	10898.37
643.36	10967.97
643.713	10988.31
644.066	10960.52
644.419	10929.11
644.771	10923
645.124	10818.37
645.477	10836.68
645.83	10723.69
646.182	10669.9
646.535	10732.5
646.888	10734.53
647.24	10656.34
647.593	10732.95
647.945	10718.94
648.298	10715.33
648.65	10681.43
649.002	10696.12
649.355	10750.58
649.707	10736.79
650.059	10929.78
650.411	10997.58
650.763	10948.99
651.115	11115.32
651.467	11152.38
651.819	11106.28
652.171	11137.24
652.523	11105.37
652.875	11119.38
653.227	11082.77
653.578	11126.39
653.93	11131.59
654.282	11064.24
654.633	11066.28
654.985	11092.04
655.337	11171.13
655.688	11193.51
656.039	11207.06
656.391	11186.05
656.742	11218.82
657.094	11225.82
657.445	11300.17
657.796	11290.9
658.147	11179.95
658.498	11219.72
658.849	11288.42
659.2	11226.95
659.551	11225.37
659.902	11260.4
660.253	11231.24
660.604	11278.25
660.955	11266.27
661.306	11294.75
661.656	11214.97
662.007	11270.57
662.358	11303.11
662.708	11244.13
663.059	11332.26
663.409	11198.48
663.76	11295.65
664.11	11242.09
664.461	11264.24
664.811	11362.99
665.161	11312.37
665.511	11243.67
665.862	11308.3
666.212	11285.93
666.562	11291.13
666.912	11206.39
667.262	11256.78
667.612	11283.22
667.962	11226.95
668.312	11235.76
668.662	11339.72
669.011	11273.5
669.361	11214.97
669.711	11239.15
670.06	11169.55
670.41	11170.45
670.76	11184.92
671.109	11174.52
671.459	11118.25
671.808	11170
672.157	11137.46
672.507	11076.67
672.856	11059.27
673.205	10972.04
673.554	11043.23
673.904	10968.43
674.253	11078.03
674.602	10996.9
674.951	10796.68
675.3	10724.82
675.649	10959.39
675.998	11010.01
676.346	10946.05
676.695	10901.31
677.044	10777.92
677.393	10908.77
677.741	10856.11
678.09	10773.63
678.438	10785.61
678.787	10755.78
679.135	10732.05
679.484	10715.55
679.832	10714.2
680.181	10703.35
680.529	10681.2
680.877	10692.05
681.225	10641.88
681.573	10682.56
681.922	10583.8
682.27	10533.18
682.618	10557.36
682.966	10466.29
683.314	10512.17
683.661	10518.49
684.009	10431.04
684.357	10416.58
684.705	10334.32
685.053	10389.46
685.4	10362.11
685.748	10362.79
686.095	10368.67
686.443	10226.07
686.79	10271.72
687.138	10350.36
687.485	10285.28
687.832	10191.95
688.18	10228.33
688.527	10195.34
688.874	10257.26
689.221	10230.14
689.568	10129.13
689.915	10163.93
690.262	10159.18
690.609	10109.01
690.956	10075.34
691.303	10110.82
691.65	10033.08
691.997	10075.79
692.344	10017.49
692.69	10005.51
693.037	9947.89
693.383	9874.9
693.73	9973.42
694.077	9938.17
694.423	9888.68
694.769	9857.04
695.116	9847.33
695.462	9929.81
695.808	9831.06
696.155	9916.48
696.501	9815.01
696.847	9817.95
697.193	9770.72
697.539	9758.97
697.885	9813.88
698.231	9737.72
698.577	9735.24
698.923	9769.14
699.269	9677.84
699.614	9640.78
699.96	9622.92
700.306	9687.78
700.651	9595.13
700.997	9579.99
701.342	9622.25
701.688	9616.15
702.033	9567.33
702.379	9529.82
702.724	9530.95
703.069	9611.85
703.415	9419.09
703.76	9525.98
704.105	9584.28
704.45	9428.81
704.795	9409.6
705.14	9350.62
705.485	9425.19
705.83	9384.06
706.175	9427.68
706.52	9380.9
706.865	9414.12
707.209	9350.62
707.554	9321.92
707.899	9447.34
708.243	9370.05
708.588	9423.83
708.932	9318.07
709.277	9351.29
709.621	9291.86
709.966	9285.76
710.31	9229.26
710.654	9245.08
710.998	9281.92
711.342	9324.85
711.687	9294.12
712.031	9184.52
712.375	9189.94
712.719	9226.78
713.063	9251.18
713.407	9295.7
713.75	9223.39
714.094	9239.43
714.438	9219.77
714.782	9177.29
715.125	9142.03
715.469	9197.17
715.812	9118.31
716.156	9089.61
716.499	9177.06
716.843	9179.09
717.186	9103.39
717.53	9131.64
717.873	9174.8
718.216	9123.96
718.559	9119.44
718.902	9056.61
719.246	9122.6
719.589	9077.85
719.932	9072.88
720.275	9058.19
720.617	9029.49
720.96	8999.89
721.303	9034.92
721.646	9091.19
721.989	9033.34
722.331	9105.65
722.674	9014.13
723.016	9014.81
723.359	8986.11
723.701	9091.19
724.044	8989.72
724.386	8943.62
724.729	9022.26
725.071	9069.27
725.413	9001.47
725.755	9059.32
726.097	8988.14
726.439	9017.74
726.782	8981.81
727.124	9096.16
727.465	8965.54
727.807	8965.32
728.149	8965.99
728.491	8978.87
728.833	8956.73
729.175	8936.84
729.516	9017.07
729.858	9029.95
730.199	8983.85
730.541	9004.41
730.882	8993.79
731.224	9051.19
731.565	9035.82
731.906	8966.45
732.248	8990.17
732.589	9010.29
732.93	8987.24
733.271	9041.02
733.612	8985.65
733.953	9049.15
734.294	9038.99
734.635	9071.3
734.976	9070.62
735.317	9015.94
735.658	9036.05
735.999	9066.56
736.339	9092.54
736.68	9020
737.021	9109.04
737.361	9086.67
737.702	9140
738.042	9113.33
738.383	9169.83
738.723	9143.62
739.063	9137.51
739.404	9168.7
739.744	9190.17
740.084	9208.47
740.424	9214.12
740.764	9275.36
741.104	9345.87
741.444	9288.7
741.784	9264.97
742.124	9261.8
742.464	9299.77
742.804	9300
743.143	9332.99
743.483	9298.64
743.823	9285.76
744.162	9269.94
744.502	9404.4
744.841	9423.38
745.181	9488.24
745.52	9414.57
745.86	9517.84
746.199	9535.02
746.538	9510.84
746.877	9505.87
747.216	9565.75
747.556	9543.15
747.895	9626.99
748.234	9556.49
748.573	9566.66
748.911	9638.07
749.25	9702.7
749.589	9641.23
749.928	9729.14
750.267	9749.48
750.605	9760.77
750.944	9749.93
751.283	9739.98
751.621	9803.71
751.96	9801.68
752.298	9822.69
752.636	9787.21
752.975	9909.92
753.313	9802.13
753.651	9942.92
753.989	9896.59
754.327	10013.88
754.666	9953.54
755.004	10069.47
755.342	9986.98
755.679	10057.72
756.017	9968.45
756.355	10051.39
756.693	10109.69
757.031	10109.92
757.368	10049.13
757.706	10083.93
758.044	10125.51
758.381	10191.27
758.719	10105.85
759.056	10218.84
759.394	10219.97
759.731	10153.76
760.068	10251.61
760.405	10212.74
760.743	10188.79
761.08	10229.46
761.417	10215.9
761.754	10181.55
762.091	10210.48
762.428	10309.91
762.765	10253.87
763.102	10257.03
763.438	10167.09
763.775	10284.6
