Data from blue_surface_keyboard_FLMS001491_022.txt Node
Date: Tue Feb 07 11:12:50 GMT 2017
User: dcchb
Spectrometer: FLMS00149
Trigger mode: 0
Integration Time (sec): 2.000000E-2
Scans to average: 10
Electric dark correction enabled: true
Nonlinearity correction enabled: false
Boxcar width: 0
XAxis mode: Wavelengths
Number of Pixels in Spectrum: 2048
>>>>>Begin Spectral Data<<<<<
341.393	-7.81
341.776	-7.81
342.16	-7.81
342.543	-77.41
342.927	-71.99
343.31	-57.98
343.693	-72.22
344.077	-65.21
344.46	-58.43
344.843	-62.5
345.226	-34.25
345.61	-34.02
345.993	-24.08
346.376	-13.46
346.759	15.47
347.142	27.22
347.525	36.03
347.908	74.22
348.291	64.28
348.674	84.16
349.057	120.77
349.44	119.19
349.823	147.44
350.206	170.94
350.588	177.72
350.971	199.19
351.354	196.48
351.737	205.07
352.119	188.12
352.502	240.32
352.884	246.65
353.267	266.76
353.65	273.99
354.032	278.74
354.414	294.1
354.797	284.61
355.179	293.42
355.562	304.72
355.944	294.33
356.326	307.21
356.709	299.53
357.091	312.86
357.473	336.59
357.855	315.12
358.238	294.55
358.62	311.73
359.002	299.75
359.384	295.23
359.766	298.4
360.148	339.52
360.53	309.24
360.912	318.96
361.294	290.94
361.676	296.81
362.057	290.26
362.439	288.68
362.821	290.71
363.203	294.33
363.584	284.84
363.966	310.15
364.348	287.55
364.729	287.1
365.111	277.15
365.493	276.93
365.874	289.13
366.256	291.62
366.637	261.33
367.019	301.79
367.4	264.27
367.781	282.13
368.163	282.13
368.544	290.49
368.925	285.52
369.306	287.55
369.688	286.65
370.069	285.29
370.45	280.32
370.831	297.27
371.212	283.93
371.593	275.57
371.974	288
372.355	278.28
372.736	291.39
373.117	270.15
373.498	298.17
373.879	294.33
374.26	270.37
374.641	278.74
375.021	297.94
375.402	288.68
375.783	292.97
376.163	279.64
376.544	285.74
376.925	284.61
377.305	292.52
377.686	277.83
378.066	300.2
378.447	291.16
378.827	277.83
379.208	283.93
379.588	295.01
379.968	269.47
380.349	294.33
380.729	288
381.109	269.7
381.489	289.81
381.87	285.97
382.25	281.22
382.63	305.63
383.01	299.98
383.39	291.39
383.77	309.7
384.15	306.08
384.53	292.52
384.91	306.53
385.29	313.31
385.67	297.49
386.049	315.57
386.429	307.44
386.809	302.69
387.189	298.17
387.568	300.43
387.948	317.38
388.328	316.93
388.707	296.36
389.087	302.92
389.466	325.06
389.846	318.96
390.225	310.15
390.605	305.18
390.984	302.69
391.363	290.49
391.743	309.7
392.122	340.2
392.501	331.39
392.881	319.64
393.26	313.99
393.639	311.28
394.018	329.36
394.397	325.74
394.776	328.9
395.155	337.27
395.534	317.83
395.913	315.57
396.292	324.61
396.671	319.19
397.05	319.86
397.429	313.99
397.808	333.42
398.186	308.57
398.565	325.74
398.944	333.42
399.323	334.78
399.701	329.13
400.08	345.17
400.458	348.79
400.837	329.58
401.215	318.96
401.594	336.59
401.972	341.33
402.351	344.04
402.729	345.17
403.107	326.19
403.486	336.81
403.864	347.21
404.242	336.81
404.62	351.5
404.999	342.91
405.377	347.21
405.755	358.51
406.133	375.68
406.511	345.17
406.889	363.71
407.267	351.5
407.645	367.32
408.023	361.67
408.401	355.12
408.779	357.38
409.156	343.37
409.534	347.43
409.912	360.09
410.29	361.9
410.667	344.5
411.045	376.36
411.422	373.87
411.8	356.47
412.178	364.38
412.555	350.82
412.933	366.19
413.31	364.84
413.687	378.17
414.065	377.94
414.442	372.52
414.819	369.81
415.197	368.9
415.574	381.11
415.951	381.78
416.328	393.31
416.705	386.3
417.082	382.69
417.46	413.65
417.837	408.45
418.214	379.52
418.591	373.65
418.967	393.76
419.344	396.7
419.721	384.72
420.098	392.4
420.475	398.28
420.852	429.24
421.228	396.92
421.605	406.19
421.982	410.03
422.358	372.74
422.735	408.9
423.111	400.99
423.488	412.52
423.864	398.96
424.241	407.77
424.617	394.89
424.994	405.96
425.37	427.43
425.746	428.79
426.123	417.49
426.499	403.03
426.875	402.35
427.251	427.21
427.627	424.27
428.003	424.04
428.379	434.21
428.756	440.77
429.132	422.23
429.507	432.4
429.883	443.93
430.259	438.05
430.635	448
431.011	440.54
431.387	419.75
431.763	442.35
432.138	431.95
432.514	455.45
432.89	449.58
433.265	455.23
433.641	460.65
434.016	468.56
434.392	459.75
434.767	469.01
435.143	465.17
435.518	466.98
435.894	473.08
436.269	474.44
436.644	484.15
437.02	490.03
437.395	479.41
437.77	498.84
438.145	508.79
438.52	488
438.895	490.48
439.271	478.73
439.646	491.84
440.021	503.14
440.395	506.53
440.77	482.12
441.145	511.05
441.52	489.58
441.895	515.79
442.27	510.14
442.645	492.06
443.019	508.56
443.394	507.66
443.769	527.77
444.143	519.18
444.518	527.99
444.892	536.36
445.267	539.29
445.641	527.32
446.016	541.55
446.39	513.53
446.764	541.78
447.139	516.24
447.513	561.89
447.887	525.28
448.262	532.74
448.636	546.98
449.01	552.85
449.384	543.36
449.758	572.29
450.132	566.86
450.506	546.3
450.88	543.36
451.254	546.3
451.628	555.56
452.002	578.39
452.376	585.39
452.75	583.36
453.123	561.67
453.497	579.07
453.871	588.56
454.244	544.27
454.618	576.58
454.992	587.43
455.365	573.87
455.739	577.03
456.112	581.78
456.486	593.53
456.859	613.64
457.232	592.4
457.606	601.66
457.979	623.59
458.352	627.65
458.725	607.99
459.099	637.14
459.472	637.37
459.845	620.2
460.218	614.77
460.591	642.79
460.964	656.35
461.337	667.88
461.71	645.73
462.083	636.92
462.456	650.48
462.829	652.29
463.201	668.1
463.574	660.87
463.947	664.26
464.32	658.16
464.692	687.54
465.065	686.86
465.438	673.98
465.81	708.1
466.183	711.72
466.555	694.54
466.928	693.64
467.3	715.33
467.672	726.41
468.045	732.96
468.417	741.32
468.789	737.03
469.161	758.27
469.534	739.97
469.906	744.03
470.278	732.51
470.65	753.53
471.022	739.06
471.394	774.09
471.766	761.89
472.138	749.01
472.51	784.49
472.882	799.85
473.253	800.76
473.625	833.3
473.997	803.24
474.369	816.57
474.74	829.91
475.112	840.98
475.484	832.85
475.855	854.77
476.227	862.68
476.598	889.12
476.97	899.06
477.341	865.84
477.713	879.4
478.084	874.2
478.455	920.98
478.827	906.06
479.198	952.16
479.569	924.59
479.94	913.07
480.311	920.07
480.682	952.62
481.053	972.95
481.424	990.36
481.795	964.82
482.166	994.42
482.537	990.58
482.908	969.11
483.279	1021.99
483.65	1020.41
484.021	1042.11
484.391	1064.7
484.762	1043.69
485.133	1041.65
485.503	1058.38
485.874	1103.8
486.244	1089.11
486.615	1089.56
486.985	1086.4
487.356	1079.39
487.726	1100.86
488.097	1115.55
488.467	1138.37
488.837	1141.99
489.207	1137.7
489.578	1138.6
489.948	1149.22
490.318	1172.95
490.688	1188.77
491.058	1169.33
491.428	1178.6
491.798	1190.8
492.168	1174.31
492.538	1184.25
492.908	1195.55
493.278	1206.17
493.648	1218.82
494.017	1240.52
494.387	1215.66
494.757	1228.77
495.126	1236.22
495.496	1269.22
495.866	1243.68
496.235	1231.25
496.605	1293.17
496.974	1247.3
497.344	1260.86
497.713	1259.73
498.082	1270.35
498.452	1287.97
498.821	1291.14
499.19	1274.64
499.559	1287.3
499.928	1275.55
500.298	1291.14
500.667	1297.24
501.036	1323.91
501.405	1323.45
501.774	1290.91
502.143	1281.87
502.512	1289.78
502.88	1326.84
503.249	1317.13
503.618	1284.58
503.987	1334.53
504.356	1327.3
504.724	1315.09
505.093	1333.17
505.462	1332.95
505.83	1348.99
506.199	1341.31
506.567	1352.15
506.936	1348.31
507.304	1365.03
507.672	1354.64
508.041	1358.26
508.409	1339.27
508.777	1363
509.145	1385.15
509.514	1369.55
509.882	1359.84
510.25	1388.76
510.618	1386.73
510.986	1370.01
511.354	1389.67
511.722	1410.68
512.09	1384.24
512.458	1380.4
512.826	1390.8
513.193	1420.85
513.561	1397.58
513.929	1372.04
514.297	1435.77
514.664	1397.12
515.032	1395.32
515.4	1436.45
515.767	1428.76
516.135	1414.98
516.502	1441.64
516.869	1453.62
517.237	1435.54
517.604	1415.88
517.972	1410.46
518.339	1425.37
518.706	1409.55
519.073	1435.54
519.44	1427.63
519.808	1410.46
520.175	1465.82
520.542	1451.81
520.909	1437.58
521.276	1451.13
521.643	1452.94
522.009	1482.55
522.376	1468.31
522.743	1472.83
523.11	1498.36
523.477	1473.05
523.843	1482.77
524.21	1467.18
524.577	1498.82
524.943	1496.33
525.31	1502.43
525.676	1516.22
526.043	1534.97
526.409	1527.74
526.776	1519.38
527.142	1522.32
527.508	1526.16
527.874	1556.89
528.241	1509.89
528.607	1532.26
528.973	1541.53
529.339	1544.01
529.705	1538.59
530.071	1548.98
530.437	1571.81
530.803	1545.14
531.169	1545.59
531.535	1553.96
531.901	1539.27
532.267	1544.69
532.632	1570.91
532.998	1565.03
533.364	1589.44
533.73	1570.23
534.095	1574.29
534.461	1601.19
534.826	1571.81
535.192	1598.02
535.557	1598.7
535.923	1593.5
536.288	1548.53
536.653	1574.29
537.019	1567.29
537.384	1592.37
537.749	1584.92
538.114	1583.79
538.479	1561.19
538.845	1615.42
539.21	1573.84
539.575	1580.62
539.94	1592.15
540.305	1583.11
540.67	1588.76
541.034	1597.57
541.399	1579.49
541.764	1601.41
542.129	1591.02
542.494	1581.3
542.858	1572.49
543.223	1583.79
543.587	1607.74
543.952	1602.09
544.316	1609.1
544.681	1606.61
545.045	1598.93
545.41	1649.55
545.774	1609.55
546.138	1595.09
546.503	1612.49
546.867	1585.59
547.231	1621.07
547.595	1609.32
547.959	1638.02
548.324	1625.82
548.688	1618.81
549.052	1601.64
549.416	1618.36
549.779	1600.73
550.143	1647.97
550.507	1665.82
550.871	1611.13
551.235	1631.02
551.599	1627.63
551.962	1646.16
552.326	1605.71
552.689	1667.85
553.053	1619.72
553.417	1624.01
553.78	1644.8
554.143	1652.03
554.507	1645.03
554.87	1641.86
555.234	1646.16
555.597	1637.8
555.96	1664.01
556.323	1633.5
556.686	1645.48
557.05	1671.92
557.413	1627.17
557.776	1653.61
558.139	1667.85
558.502	1665.37
558.865	1652.26
559.228	1672.37
559.59	1649.77
559.953	1675.54
560.316	1711.47
560.679	1692.94
561.041	1642.09
561.404	1656.55
561.767	1677.57
562.129	1704.01
562.492	1713.95
562.854	1686.83
563.217	1702.88
563.579	1670.34
563.941	1684.8
564.304	1704.69
564.666	1700.17
565.028	1708.08
565.39	1704.69
565.753	1724.12
566.115	1760.28
566.477	1725.25
566.839	1716.89
567.201	1732.26
567.563	1720.28
567.925	1751.01
568.287	1728.42
568.648	1727.06
569.01	1762.54
569.372	1727.06
569.734	1715.53
570.095	1758.02
570.457	1731.35
570.819	1759.15
571.18	1772.26
571.542	1756.89
571.903	1724.35
572.265	1710.11
572.626	1746.27
572.987	1737.91
573.349	1778.36
573.71	1784.23
574.071	1780.84
574.432	1772.71
574.794	1777.91
575.155	1807.73
575.516	1748.08
575.877	1771.35
576.238	1780.39
576.599	1780.17
576.96	1784.01
577.32	1776.1
577.681	1819.26
578.042	1770.22
578.403	1789.43
578.763	1817.9
579.124	1831.01
579.485	1830.11
579.845	1822.2
580.206	1800.28
580.566	1808.41
580.927	1815.42
581.287	1824.01
581.648	1804.57
582.008	1814.97
582.368	1776.78
582.728	1815.87
583.089	1820.62
583.449	1842.31
583.809	1812.03
584.169	1823.33
584.529	1818.58
584.889	1840.28
585.249	1836.89
585.609	1802.54
585.969	1829.2
586.329	1842.31
586.688	1834.4
587.048	1815.64
587.408	1850.67
587.768	1831.46
588.127	1849.32
588.487	1847.96
588.846	1850.22
589.206	1820.16
589.565	1834.17
589.925	1824.91
590.284	1826.49
590.643	1824.01
591.003	1862.2
591.362	1822.65
591.721	1838.24
592.08	1856.55
592.44	1821.07
592.799	1840.5
593.158	1849.32
593.517	1853.61
593.876	1843.21
594.235	1824.91
594.593	1852.71
594.952	1852.48
595.311	1845.93
595.67	1852.25
596.029	1849.99
596.387	1856.55
596.746	1891.57
597.104	1861.29
597.463	1844.12
597.822	1861.97
598.18	1851.58
598.538	1869.88
598.897	1904.23
599.255	1856.32
599.613	1853.16
599.972	1861.74
600.33	1882.54
600.688	1844.34
601.046	1889.99
601.404	1880.5
601.762	1911.24
602.12	1891.8
602.478	1861.07
602.836	1887.05
603.194	1887.96
603.552	1875.98
603.91	1895.19
604.268	1911.46
604.625	1890.9
604.983	1911.24
605.341	1871.69
605.698	1899.26
606.056	1892.93
606.413	1903.55
606.771	1883.44
607.128	1887.96
607.485	1904.91
607.843	1898.58
608.2	1937.45
608.557	1935.87
608.914	1934.06
609.272	1919.14
609.629	1942.87
609.986	1926.6
610.343	1897.22
610.7	1944.91
611.057	1911.91
611.414	1949.65
611.771	1931.57
612.127	1952.36
612.484	1936.55
612.841	1940.84
613.198	1948.3
613.554	1948.07
613.911	1978.35
614.267	1960.27
614.624	1955.53
614.98	1943.32
615.337	1974.96
615.693	1947.17
616.05	1952.59
616.406	1970.67
616.762	1961.63
617.118	1974.28
617.475	1992.36
617.831	1983.32
618.187	1986.04
618.543	1990.56
618.899	1972.93
619.255	1971.8
619.611	2028.52
619.967	1989.65
620.323	2006.15
620.678	1994.62
621.034	1993.49
621.39	1999.59
621.746	2017.9
622.101	2011.35
622.457	2000.95
622.812	1985.13
623.168	1977.9
623.523	2006.83
623.879	2026.71
624.234	2022.19
624.589	2025.58
624.945	2045.02
625.3	2033.27
625.655	2032.36
626.01	2032.36
626.365	2024.23
626.72	2047.28
627.075	2021.74
627.43	2034.17
627.785	2021.97
628.14	2026.94
628.495	2029.2
628.85	2013.61
629.205	2020.84
629.559	2026.71
629.914	2049.76
630.269	2035.07
630.623	2043.43
630.978	2065.81
631.332	2086.6
631.687	2064.9
632.041	2106.94
632.396	2053.83
632.75	2094.51
633.104	2087.73
633.459	2089.31
633.813	2072.13
634.167	2060.84
634.521	2106.48
634.875	2103.09
635.229	2077.56
635.583	2067.16
635.937	2134.28
636.291	2096.54
636.645	2126.14
636.999	2122.53
637.352	2121.63
637.706	2104.68
638.06	2113.49
638.413	2129.53
638.767	2117.56
639.121	2127.73
639.474	2149.65
639.828	2110.55
640.181	2130.21
640.534	2148.74
640.888	2123.43
641.241	2161.4
641.594	2156.43
641.947	2170.44
642.301	2167.5
642.654	2154.62
643.007	2192.36
643.36	2164.34
643.713	2181.51
644.066	2218.12
644.419	2175.86
644.771	2162.08
645.124	2194.84
645.477	2185.35
645.83	2170.66
646.182	2165.01
646.535	2177.67
646.888	2168.63
647.24	2184.45
647.593	2168.63
647.945	2226.93
648.298	2206.82
648.65	2204.79
649.002	2216.31
649.355	2226.26
649.707	2211.34
650.059	2232.36
650.411	2267.38
650.763	2293.82
651.115	2295.41
651.467	2319.59
651.819	2317.55
652.171	2342.18
652.523	2341.51
652.875	2329.98
653.227	2365.01
653.578	2348.29
653.93	2357.78
654.282	2374.05
654.633	2388.28
654.985	2389.87
655.337	2391.67
655.688	2416.53
656.039	2409.53
656.391	2417.89
656.742	2416.31
657.094	2428.28
657.445	2457.44
657.796	2444.33
658.147	2474.84
658.498	2474.61
658.849	2475.51
659.2	2478.23
659.551	2508.51
659.902	2518.45
660.253	2527.04
660.604	2514.38
660.955	2545.57
661.306	2551.67
661.656	2562.29
662.007	2592.8
662.358	2563.65
662.708	2594.15
663.059	2612.23
663.409	2613.82
663.76	2626.92
664.11	2668.73
664.461	2660.82
664.811	2646.36
665.161	2689.29
665.511	2642.97
665.862	2675.51
666.212	2683.19
666.562	2699.46
666.912	2752.57
667.262	2694.94
667.612	2770.87
667.962	2762.74
668.312	2753.7
668.662	2783.53
669.011	2766.13
669.361	2803.41
669.711	2792.79
670.06	2812.68
670.41	2836.63
670.76	2859.46
671.109	2835.5
671.459	2861.94
671.808	2827.37
672.157	2862.62
672.507	2888.84
672.856	2885.45
673.205	2910.76
673.554	2913.47
673.904	2913.47
674.253	2944.88
674.602	2924.77
674.951	2919.57
675.3	2920.47
675.649	2965.44
675.998	2988.27
676.346	3003.64
676.695	3024.2
677.044	2981.49
677.393	3006.12
677.741	3053.35
678.09	3029.17
678.438	3033.69
678.787	3071.2
679.135	3066.46
679.484	3041.15
679.832	3064.65
680.181	3037.76
680.529	3072.56
680.877	3052.22
681.225	3110.53
681.573	3127.47
681.922	3073.46
682.27	3131.54
682.618	3103.29
682.966	3142.39
683.314	3183.97
683.661	3153.69
684.009	3141.94
684.357	3193.91
684.705	3101.26
685.053	3175.61
685.4	3174.7
685.748	3208.6
686.095	3183.52
686.443	3211.31
686.79	3197.75
687.138	3179.22
687.485	3199.11
687.832	3231.2
688.18	3192.33
688.527	3209.96
688.874	3209.28
689.221	3216.29
689.568	3186.23
689.915	3230.3
690.262	3272.33
690.609	3257.41
690.956	3235.04
691.303	3242.5
691.65	3243.18
691.997	3244.53
692.344	3244.99
692.69	3259.67
693.037	3258.77
693.383	3181.94
693.73	3252.44
694.077	3223.74
694.423	3212.9
694.769	3248.38
695.116	3268.04
695.462	3196.62
695.808	3221.48
696.155	3249.5
696.501	3198.21
696.847	3208.38
697.193	3243.4
697.539	3212.67
697.885	3181.71
698.231	3170.19
698.577	3198.66
698.923	3206.12
699.269	3190.98
699.614	3202.05
699.96	3191.88
700.306	3209.05
700.651	3208.15
700.997	3193.24
701.342	3183.52
701.688	3199.56
702.033	3162.05
702.379	3167.7
702.724	3156.85
703.069	3221.94
703.415	3176.06
703.76	3170.86
704.105	3127.7
704.45	3175.83
704.795	3105.55
705.14	3161.37
705.485	3143.75
705.83	3135.16
706.175	3130.64
706.52	3151.43
706.865	3101.26
707.209	3155.72
707.554	3119.11
707.899	3157.76
708.243	3110.98
708.588	3146
708.932	3116.85
709.277	3103.07
709.621	3114.82
709.966	3105.78
710.31	3102.84
710.654	3081.15
710.998	3101.94
711.342	3123.86
711.687	3114.59
712.031	3058.1
712.375	3072.56
712.719	3090.64
713.063	3071.88
713.407	3105.1
713.75	3098.55
714.094	3067.36
714.438	3089.96
714.782	3113.69
715.125	3078.89
715.469	3100.81
715.812	3094.03
716.156	3040.47
716.499	3077.98
716.843	3068.94
717.186	3064.2
717.53	3085.67
717.873	3075.72
718.216	3070.3
718.559	3064.43
718.902	3063.52
719.246	3119.34
719.589	3048.83
719.932	2993.01
720.275	3071.88
720.617	3016.06
720.96	3075.05
721.303	3040.47
721.646	3111.66
721.989	3068.94
722.331	3053.13
722.674	3069.4
723.016	3091.32
723.359	3037.31
723.701	3082.28
724.044	3082.05
724.386	3035.5
724.729	3068.49
725.071	3052.45
725.413	3084.09
725.755	3047.25
726.097	3108.94
726.439	3092.22
726.782	3040.47
727.124	3060.36
727.465	3042.96
727.807	3034.82
728.149	3085.22
728.491	3042.28
728.833	3068.04
729.175	3097.42
729.516	3057.19
729.858	3054.71
730.199	3087.02
730.541	3031.43
730.882	3082.28
731.224	3097.42
731.565	3099.23
731.906	3102.62
732.248	3094.25
732.589	3076.63
732.93	3049.06
733.271	3100.36
733.612	3105.33
733.953	3078.21
734.294	3097.64
734.635	3108.72
734.976	3122.95
735.317	3117.76
735.658	3098.1
735.999	3106.91
736.339	3128.15
736.68	3123.86
737.021	3150.52
737.361	3105.1
737.702	3116.63
738.042	3131.99
738.383	3154.59
738.723	3200.69
739.063	3180.35
739.404	3214.7
739.744	3176.74
740.084	3152.78
740.424	3166.57
740.764	3183.74
741.104	3218.09
741.444	3196.85
741.784	3147.81
742.124	3214.03
742.464	3240.47
742.804	3234.82
743.143	3248.38
743.483	3326.11
743.823	3306.45
744.162	3269.39
744.502	3301.26
744.841	3328.15
745.181	3353.01
745.52	3360.69
745.86	3358.65
746.199	3383.74
746.538	3353.01
746.877	3424.42
747.216	3436.62
747.556	3423.96
747.895	3437.3
748.234	3463.96
748.573	3470.74
748.911	3504.41
749.25	3490.63
749.589	3495.83
749.928	3542.6
750.267	3560.68
750.605	3542.83
750.944	3607.69
751.283	3580.12
751.621	3622.15
751.96	3630.51
752.298	3615.15
752.636	3679.78
752.975	3656.5
753.313	3707.12
753.651	3776.5
753.989	3754.35
754.327	3768.14
754.666	3762.94
755.004	3776.5
755.342	3852.65
755.679	3856.72
756.017	3804.29
756.355	3913.67
756.693	3873.22
757.031	3921.35
757.368	3962.93
757.706	3948.7
758.044	3929.71
758.381	4009.26
758.719	4008.81
759.056	3987.79
759.394	4069.14
759.731	4031.63
760.068	4072.76
760.405	4069.6
760.743	4105.3
761.08	4093.32
761.417	4085.87
761.754	4141.68
762.091	4131.29
762.428	4144.4
762.765	4155.7
763.102	4204.28
763.438	4220.1
763.775	4178.75
764.112	4218.29
764.449	4224.85
764.785	4200.44
765.122	4235.24
765.458	4221.46
765.795	4255.81
766.131	4230.27
766.467	4214.68
766.804	4217.39
767.14	4227.33
767.476	4276.37
767.812	4240.67
768.148	4262.81
768.485	4202.02
768.821	4256.03
769.157	4223.72
769.492	4232.98
769.828	4278.86
770.164	4198.18
770.5	4217.39
770.836	4258.97
771.171	4214
771.507	4245.18
771.842	4207.9
