Data from blue_clamp_base_FLMS001491_00069.txt Node
Date: Wed Feb 08 15:16:22 GMT 2017
User: dcchb
Spectrometer: FLMS00149
Trigger mode: 0
Integration Time (sec): 2.000000E-2
Scans to average: 10
Electric dark correction enabled: true
Nonlinearity correction enabled: false
Boxcar width: 0
XAxis mode: Wavelengths
Number of Pixels in Spectrum: 2048
>>>>>Begin Spectral Data<<<<<
341.393	1.99
341.776	1.99
342.16	1.99
342.543	-49.76
342.927	-34.39
343.31	-77.55
343.693	-93.6
344.077	-82.75
344.46	-50.89
344.843	-55.18
345.226	-35.07
345.61	-30.78
345.993	-36.65
346.376	-13.15
346.759	18.26
347.142	39.96
347.525	52.39
347.908	61.42
348.291	88.09
348.674	93.74
349.057	121.76
349.44	112.05
349.823	159.05
350.206	172.61
350.588	194.98
350.971	207.41
351.354	228.43
351.737	244.47
352.119	256
352.502	260.97
352.884	274.07
353.267	269.1
353.65	292.38
354.032	315.43
354.414	309.78
354.797	298.25
355.179	313.17
355.562	311.36
355.944	313.85
356.326	338.48
356.709	326.28
357.091	341.19
357.473	337.12
357.855	331.47
358.238	341.64
358.62	331.7
359.002	326.73
359.384	338.71
359.766	336.22
360.148	338.48
360.53	324.47
360.912	321.98
361.294	351.59
361.676	329.21
362.057	331.25
362.439	326.73
362.821	346.39
363.203	314.75
363.584	316.11
363.966	330.8
364.348	306.84
364.729	327.86
365.111	307.52
365.493	320.85
365.874	311.59
366.256	320.85
366.637	299.84
367.019	315.2
367.4	311.36
367.781	293.74
368.163	322.89
368.544	304.36
368.925	317.24
369.306	319.95
369.688	298.93
370.069	309.55
370.45	319.5
370.831	321.98
371.212	309.78
371.593	307.29
371.974	318.14
372.355	311.36
372.736	305.03
373.117	300.74
373.498	317.69
373.879	327.41
374.26	314.3
374.641	329.89
375.021	309.1
375.402	326.05
375.783	310.23
376.163	344.36
376.544	318.37
376.925	324.92
377.305	345.49
377.686	324.92
378.066	317.01
378.447	335.99
378.827	341.42
379.208	316.11
379.588	305.94
379.968	328.76
380.349	323.56
380.729	332.15
381.109	308.42
381.489	327.18
381.87	346.39
382.25	330.34
382.63	324.24
383.01	329.21
383.39	325.37
383.77	323.34
384.15	341.64
384.53	331.47
384.91	354.07
385.29	361.98
385.67	347.07
386.049	364.24
386.429	349.33
386.809	357.69
387.189	344.36
387.568	352.26
387.948	360.63
388.328	351.36
388.707	372.38
389.087	357.69
389.466	365.37
389.846	359.04
390.225	360.63
390.605	356.56
390.984	382.77
391.363	376.22
391.743	401.08
392.122	371.25
392.501	386.84
392.881	423.9
393.26	387.52
393.639	391.13
394.018	391.81
394.397	394.07
394.776	416.9
395.155	399.04
395.534	414.18
395.913	420.29
396.292	429.32
396.671	419.83
397.05	418.03
397.429	420.74
397.808	401.08
398.186	434.3
398.565	432.04
398.944	447.86
399.323	433.84
399.701	442.43
400.08	441.08
400.458	445.14
400.837	440.17
401.215	449.21
401.594	468.87
401.972	460.51
402.351	481.98
402.729	470.91
403.107	449.89
403.486	491.02
403.864	486.72
404.242	471.36
404.62	472.49
404.999	486.27
405.377	493.28
405.755	500.51
406.133	507.06
406.511	498.25
406.889	513.16
407.267	518.36
407.645	543.9
408.023	532.15
408.401	547.06
408.779	561.52
409.156	561.98
409.534	581.41
409.912	553.62
410.29	571.92
410.667	556.33
411.045	586.61
411.422	564.46
411.8	573.28
412.178	601.3
412.555	600.62
412.933	608.08
413.31	620.28
413.687	618.7
414.065	619.83
414.442	650.11
414.819	641.52
415.197	639.71
415.574	627.96
415.951	656.44
416.328	645.59
416.705	662.99
417.082	675.42
417.46	659.6
417.837	668.64
418.214	669.32
418.591	683.56
418.967	718.58
419.344	708.87
419.721	699.6
420.098	697.34
420.475	725.36
420.852	723.78
421.228	717
421.605	740.05
421.982	739.15
422.358	752.71
422.735	760.84
423.111	770.56
423.488	749.09
423.864	762.65
424.241	775.3
424.617	776.66
424.994	812.59
425.37	797.9
425.746	795.64
426.123	795.42
426.499	807.17
426.875	829.09
427.251	853.72
427.627	863.66
428.003	860.05
428.379	874.28
428.756	870.44
429.132	888.52
429.507	912.93
429.883	906.15
430.259	918.58
430.635	958.35
431.011	951.57
431.387	966.26
431.763	968.75
432.138	1008.52
432.514	976.2
432.89	992.7
433.265	1007.84
433.641	1030.21
434.016	1025.69
434.392	1089.42
434.767	1061.62
435.143	1092.58
435.518	1067.73
435.894	1076.31
436.269	1102.3
436.644	1122.19
437.02	1115.63
437.395	1132.36
437.77	1175.97
438.145	1189.3
438.52	1179.14
438.895	1206.71
439.271	1182.3
439.646	1220.26
440.021	1225.46
440.395	1232.24
440.77	1261.62
441.145	1246.25
441.52	1258.68
441.895	1302.07
442.27	1286.48
442.645	1292.58
443.019	1335.52
443.394	1294.61
443.769	1344.78
444.143	1354.5
444.518	1359.02
444.892	1343.65
445.267	1374.16
445.641	1385.68
446.016	1386.36
446.39	1395.85
446.764	1407.83
447.139	1422.07
447.513	1415.51
447.887	1419.36
448.262	1441.28
448.636	1476.08
449.01	1516.75
449.384	1466.36
449.758	1522.18
450.132	1535.28
450.506	1512.91
450.88	1545.45
451.254	1548.62
451.628	1534.15
452.002	1556.53
452.376	1577.54
452.75	1557.88
453.123	1601.72
453.497	1632.91
453.871	1646.24
454.244	1666.81
454.618	1639.46
454.992	1677.88
455.365	1708.16
455.739	1753.13
456.112	1742.28
456.486	1775.73
456.859	1766.01
457.232	1800.59
457.606	1791.55
457.979	1837.88
458.352	1860.47
458.725	1885.33
459.099	1887.82
459.472	1926.23
459.845	1952.67
460.218	1951.54
460.591	1982.5
460.964	1950.64
461.337	1988.83
461.71	2046.46
462.083	2085.78
462.456	2078.32
462.829	2091.65
463.201	2091.88
463.574	2129.62
463.947	2171.65
464.32	2177.53
464.692	2196.06
465.065	2228.6
465.438	2241.03
465.81	2264.08
466.183	2288.03
466.555	2336.17
466.928	2332.1
467.3	2337.52
467.672	2379.56
468.045	2403.74
468.417	2429.05
468.789	2442.38
469.161	2472.66
469.534	2481.25
469.906	2560.79
470.278	2600.79
470.65	2565.99
471.022	2631.53
471.394	2652.54
471.766	2678.76
472.138	2657.29
472.51	2751.07
472.882	2777.51
473.253	2838.53
473.625	2829.71
473.997	2875.36
474.369	2876.27
474.74	2930.5
475.112	3011.4
475.484	2983.83
475.855	3071.29
476.227	3074.23
476.598	3198.52
476.97	3157.61
477.341	3235.13
477.713	3275.35
478.084	3265.18
478.455	3334.56
478.827	3353.54
479.198	3440.77
479.569	3439.42
479.94	3497.72
480.311	3553.99
480.682	3621.78
481.053	3647.32
481.424	3685.51
481.795	3719.41
482.166	3786.52
482.537	3815.45
482.908	3869.91
483.279	3879.86
483.65	3987.88
484.021	4054.99
484.391	4038.5
484.762	4069.68
485.133	4103.13
485.503	4141.54
485.874	4203.01
486.244	4235.1
486.615	4265.38
486.985	4328.21
487.356	4366.85
487.726	4375.21
488.097	4471.48
488.467	4442.78
488.837	4545.37
489.207	4538.82
489.578	4592.15
489.948	4631.02
490.318	4734.97
490.688	4693.17
491.058	4712.83
491.428	4739.72
491.798	4854.52
492.168	4874.86
492.538	4880.96
492.908	4934.29
493.278	4980.17
493.648	4947.4
494.017	5001.63
494.387	5035.53
494.757	5079.82
495.126	5111.46
495.496	5055.64
495.866	5082.08
496.235	5132.25
496.605	5198.69
496.974	5163.66
497.344	5200.95
497.713	5241.85
498.082	5206.15
498.452	5277.33
498.821	5283.89
499.19	5263.32
499.559	5310.1
499.928	5342.42
500.298	5350.78
500.667	5382.41
501.036	5363.43
501.405	5426.03
501.774	5412.47
502.143	5359.14
502.512	5427.16
502.88	5464.45
503.249	5446.37
503.618	5502.19
503.987	5504.22
504.356	5566.14
504.724	5530.21
505.093	5542.86
505.462	5540.38
505.83	5555.97
506.199	5621.28
506.567	5655.63
506.936	5670.99
507.304	5712.8
507.672	5720.94
508.041	5743.99
508.409	5715.97
508.777	5772.24
509.145	5814.49
509.514	5775.62
509.882	5803.65
510.25	5814.04
510.618	5837.09
510.986	5863.98
511.354	5909.63
511.722	5893.36
512.09	5981.95
512.458	5949.86
512.826	5970.65
513.193	5950.54
513.561	5966.58
513.929	6062.85
514.297	6046.8
514.664	6103.98
515.032	6085.22
515.4	6039.57
515.767	6074.83
516.135	6086.58
516.502	6042.51
516.869	6174.71
517.237	6165.9
517.604	6149.63
517.972	6203.18
518.339	6207.93
518.706	6176.29
519.073	6229.4
519.44	6241.6
519.808	6325.67
520.175	6268.49
520.542	6382.39
520.909	6342.16
521.276	6314.37
521.643	6390.98
522.009	6396.4
522.376	6437.98
522.743	6474.14
523.11	6459.45
523.477	6574.47
523.843	6501.03
524.21	6610.18
524.577	6571.99
524.943	6581.71
525.31	6625.77
525.676	6701.48
526.043	6709.16
526.409	6717.3
526.776	6750.29
527.142	6859.21
527.508	6790.29
527.874	6883.39
528.241	6868.03
528.607	6872.55
528.973	6912.77
529.339	6927.23
529.705	6999.77
530.071	7001.58
530.437	7034.8
530.803	7124.52
531.169	7094.91
531.535	7044.97
531.901	7076.38
532.267	7112.99
532.632	7181.24
532.998	7173.1
533.364	7218.75
533.73	7220.11
534.095	7284.96
534.461	7276.15
534.826	7312.53
535.192	7327
535.557	7336.26
535.923	7293.78
536.288	7346.21
536.653	7414.23
537.019	7407.9
537.384	7368.58
537.749	7416.26
538.114	7433.89
538.479	7403.83
538.845	7463.94
539.21	7432.98
539.575	7491.74
539.94	7475.02
540.305	7518.18
540.67	7536.93
541.034	7557.5
541.399	7564.73
541.764	7587.78
542.129	7632.3
542.494	7615.8
542.858	7567.67
543.223	7632.07
543.587	7731.51
543.952	7676.14
544.316	7767.89
544.681	7700.09
545.045	7747.55
545.41	7805.4
545.774	7761.56
546.138	7777.38
546.503	7770.83
546.867	7879.98
547.231	7888.79
547.595	7825.74
547.959	7884.04
548.324	7895.34
548.688	7796.14
549.052	7924.27
549.416	7932.18
549.779	7856.47
550.143	7956.81
550.507	7989.13
550.871	7986.19
551.235	7922.91
551.599	8013.98
551.962	7974.66
552.326	8037.71
552.689	8122.68
553.053	8014.44
553.417	8052.4
553.78	8124.72
554.143	8095.79
554.507	8159.74
554.87	8126.07
555.234	8243.36
555.597	8117.71
555.96	8215.11
556.323	8192.28
556.686	8147.09
557.05	8274.77
557.413	8253.3
557.776	8298.04
558.139	8308.21
558.502	8381.43
558.865	8352.96
559.228	8343.92
559.59	8402.22
559.953	8408.32
560.316	8408.55
560.679	8441.32
561.041	8453.75
561.404	8476.12
561.767	8563.35
562.129	8498.04
562.492	8604.48
562.854	8572.16
563.217	8536.23
563.579	8610.58
563.941	8677.92
564.304	8654.42
564.666	8691.48
565.028	8676.11
565.39	8686.51
565.753	8747.52
566.115	8705.94
566.477	8779.39
566.839	8828.2
567.201	8877.69
567.563	8892.15
567.925	8907.29
568.287	8885.83
568.648	8874.75
569.01	9039.72
569.372	9033.84
569.734	9021.87
570.095	9063
570.457	9111.81
570.819	9061.41
571.18	9137.8
571.542	9210.11
571.903	9114.07
572.265	9206.95
572.626	9255.99
572.987	9246.04
573.349	9227.96
573.71	9287.17
574.071	9297.11
574.432	9329.88
574.794	9437
575.155	9419.14
575.516	9355.64
575.877	9482.42
576.238	9495.53
576.599	9484.45
576.96	9429.09
577.32	9508.86
577.681	9478.13
578.042	9568.07
578.403	9554.51
578.763	9569.88
579.124	9627.28
579.485	9623.21
579.845	9645.35
580.206	9615.3
580.566	9584.79
580.927	9686.26
581.287	9744.33
581.648	9654.62
582.008	9731.45
582.368	9663.88
582.728	9734.39
583.089	9782.07
583.449	9755.86
583.809	9770.55
584.169	9772.13
584.529	9756.31
584.889	9833.6
585.249	9809.87
585.609	9820.49
585.969	9835.63
586.329	9806.03
586.688	9845.8
587.048	9843.54
587.408	9843.09
587.768	9784.33
588.127	9779.59
588.487	9796.99
588.846	9845.12
589.206	9786.82
589.565	9775.52
589.925	9868.85
590.284	9807.84
590.643	9880.38
591.003	9946.14
591.362	9933.26
591.721	9939.36
592.08	9938.91
592.44	9882.41
592.799	9968.51
593.158	9923.76
593.517	9926.7
593.876	9914.73
594.235	9920.15
594.593	9975.51
594.952	9901.17
595.311	9930.32
595.67	9966.02
596.029	9964.89
596.387	10029.75
596.746	10017.32
597.104	10019.36
597.463	10037.21
597.822	10067.49
598.18	9996.98
598.538	9998.56
598.897	10082.63
599.255	9953.59
599.613	10158.33
599.972	10079.92
600.33	10043.54
600.688	9994.27
601.046	10029.07
601.404	10066.36
601.762	10033.37
602.12	10105.23
602.478	10030.65
602.836	10124.66
603.194	10056.64
603.552	10053.7
603.91	10144.55
604.268	10137.77
604.625	10092.35
604.983	10166.92
605.341	10065.23
605.698	10153.14
606.056	10217.99
606.413	10175.51
606.771	10165.57
607.128	10254.83
607.485	10140.26
607.843	10126.02
608.2	10208.73
608.557	10227.26
608.914	10239.24
609.272	10269.07
609.629	10263.64
609.986	10280.37
610.343	10294.6
610.7	10355.17
611.057	10325.11
611.414	10285.11
611.771	10297.77
612.127	10355.39
612.484	10310.2
612.841	10304.77
613.198	10295.73
613.554	10293.92
613.911	10355.17
614.267	10389.97
614.624	10329.18
614.98	10306.58
615.337	10404.43
615.693	10308.39
616.05	10412.11
616.406	10472.9
616.762	10429.06
617.118	10361.72
617.475	10442.17
617.831	10470.87
618.187	10467.03
618.543	10473.81
618.899	10554.03
619.255	10526.01
619.611	10501.6
619.967	10535.95
620.323	10561.49
620.678	10556.06
621.034	10503.86
621.39	10552.22
621.746	10573.69
622.101	10660.47
622.457	10595.16
622.812	10565.56
623.168	10624.99
623.523	10710.41
623.879	10670.86
624.234	10536.18
624.589	10592.45
624.945	10652.78
625.3	10621.37
625.655	10664.99
626.01	10670.19
626.365	10690.07
626.72	10709.05
627.075	10662.73
627.43	10662.73
627.785	10597.87
628.14	10739.11
628.495	10751.77
628.85	10718.09
629.205	10694.82
629.559	10754.7
629.914	10692.56
630.269	10700.02
630.623	10723.97
630.978	10675.84
631.332	10701.82
631.687	10831.09
632.041	10654.59
632.396	10726.68
632.75	10685.55
633.104	10711.99
633.459	10761.26
633.813	10754.03
634.167	10780.01
634.521	10750.86
634.875	10816.85
635.229	10806.91
635.583	10698.66
635.937	10816.62
636.291	10744.76
636.645	10769.17
636.999	10910.18
637.352	10900.46
637.706	10777.98
638.06	10823.18
638.413	10848.26
638.767	10870.86
639.121	10911.54
639.474	10830.63
639.828	10831.99
640.181	10906.11
640.534	10903.4
640.888	10859.11
641.241	10843.51
641.594	10923.96
641.947	10876.96
642.301	10866.34
642.654	10874.93
643.007	10917.64
643.36	10906.79
643.713	10893.23
644.066	10970.06
644.419	10870.86
644.771	10915.15
645.124	10825.89
645.477	10774.82
645.83	10824.98
646.182	10784.31
646.535	10699.79
646.888	10705.21
647.24	10638.1
647.593	10709.96
647.945	10757.41
648.298	10629.96
648.65	10674.71
649.002	10647.81
649.355	10741.37
649.707	10777.53
650.059	10817.75
650.411	11060.01
650.763	11027.69
651.115	11056.84
651.467	11087.58
651.819	11075.15
652.171	11040.57
652.523	11122.38
652.875	11082.38
653.227	11017.97
653.578	11072.66
653.93	11074.69
654.282	11032.21
654.633	11069.72
654.985	11124.64
655.337	11123.73
655.688	11145.43
656.039	11136.16
656.391	11135.71
656.742	11223.62
657.094	11234.01
657.445	11169.83
657.796	11156.5
658.147	11219.78
658.498	11183.84
658.849	11176.39
659.2	11218.42
659.551	11255.93
659.902	11275.37
660.253	11262.26
660.604	11233.33
660.955	11189.95
661.306	11280.34
661.656	11250.06
662.007	11257.97
662.358	11224.97
662.708	11237.18
663.059	11291.86
663.409	11222.71
663.76	11263.84
664.11	11301.36
664.461	11245.54
664.811	11309.49
665.161	11256.16
665.511	11296.84
665.862	11174.81
666.212	11344.07
666.562	11311.07
666.912	11283.95
667.262	11158.53
667.612	11164.64
667.962	11275.37
668.312	11218.42
668.662	11288.02
669.011	11196.73
669.361	11196.27
669.711	11168.93
670.06	11162.15
670.41	11045.54
670.76	11180.91
671.109	11208.02
671.459	11071.53
671.808	11033.57
672.157	11102.94
672.507	10982.04
672.856	10989.73
673.205	11040.57
673.554	11043.96
673.904	10997.63
674.253	11069.05
674.602	10951.53
674.951	10872.44
675.3	10815.72
675.649	10915.6
675.998	10910.41
676.346	10863.63
676.695	10943.62
677.044	10808.49
677.393	10826.34
677.741	10901.37
678.09	10854.81
678.438	10751.77
678.787	10758.54
679.135	10735.49
679.484	10643.07
679.832	10713.8
680.181	10669.28
680.529	10622.73
680.877	10632.22
681.225	10606.01
681.573	10671.77
681.922	10636.74
682.27	10580.02
682.618	10564.88
682.966	10510.87
683.314	10525.78
683.661	10488.04
684.009	10385
684.357	10414.83
684.705	10360.82
685.053	10426.35
685.4	10300.7
685.748	10310.2
686.095	10317.65
686.443	10251.67
686.79	10317.65
687.138	10279.01
687.485	10219.58
687.832	10262.74
688.18	10252.12
688.527	10213.93
688.874	10198.33
689.221	10124.44
689.568	10187.03
689.915	10103.65
690.262	10193.14
690.609	10093.7
690.956	10036.98
691.303	10107.49
691.65	10019.58
691.997	10102.29
692.344	9948.17
692.69	9969.41
693.037	9924.67
693.383	9898.68
693.73	9976.19
694.077	9849.64
694.423	9843.31
694.769	9825.24
695.116	9905.46
695.462	9874.05
695.808	9922.86
696.155	9899.81
696.501	9794.5
696.847	9800.83
697.193	9767.38
697.539	9873.6
697.885	9699.36
698.231	9666.6
698.577	9754.73
698.923	9698.69
699.269	9651
699.614	9648.52
699.96	9646.26
700.306	9688.06
700.651	9622.98
700.997	9634.51
701.342	9615.75
701.688	9593.6
702.033	9576.65
702.379	9550.67
702.724	9515.64
703.069	9622.98
703.415	9466.6
703.76	9525.13
704.105	9510.89
704.45	9506.37
704.795	9436.32
705.14	9433.61
705.485	9449.65
705.83	9453.49
706.175	9469.77
706.52	9405.81
706.865	9378.69
707.209	9398.35
707.554	9350.45
707.899	9379.82
708.243	9339.83
708.588	9305.25
708.932	9317.45
709.277	9285.36
709.621	9317.45
709.966	9263.67
710.31	9278.36
710.654	9195.65
710.998	9229.32
711.342	9270.45
711.687	9255.53
712.031	9195.42
712.375	9192.03
712.719	9261.41
713.063	9196.1
713.407	9309.77
713.75	9245.14
714.094	9237.45
714.438	9190.68
714.782	9225.25
715.125	9180.73
715.469	9230
715.812	9173.5
716.156	9139.38
716.499	9184.57
716.843	9154.07
717.186	9089.21
717.53	9096.89
717.873	9205.59
718.216	9043.34
718.559	9085.14
718.902	9038.36
719.246	9106.16
719.589	9045.37
719.932	9122.43
720.275	9072.94
720.617	9052.37
720.96	9059.61
721.303	9066.61
721.646	9043.34
721.989	8969.21
722.331	9057.57
722.674	9047.86
723.016	9083.79
723.359	9014.41
723.701	9051.47
724.044	9001.3
724.386	8983.45
724.729	8986.61
725.071	8943.23
725.413	9002.88
725.755	9029.78
726.097	8973.96
726.439	8944.58
726.782	8978.93
727.124	9047.63
727.465	8968.08
727.807	9008.08
728.149	8957.91
728.491	8904.36
728.833	8984.35
729.175	9018.7
729.516	8962.21
729.858	9007.4
730.199	9028.65
730.541	8999.5
730.882	8967.41
731.224	9018.25
731.565	8988.2
731.906	9018.03
732.248	9046.5
732.589	9009.89
732.93	8994.75
733.271	9098.02
733.612	9067.52
733.953	9008.76
734.294	9052.83
734.635	8999.27
734.976	9053.96
735.317	9028.42
735.658	9072.71
735.999	9085.14
736.339	9063.67
736.68	9105.71
737.021	9087.85
737.361	9062.54
737.702	9142.09
738.042	9074.52
738.383	9151.81
738.723	9188.64
739.063	9150.68
739.404	9190
739.744	9184.35
740.084	9156.1
740.424	9196.55
740.764	9180.96
741.104	9244.91
741.444	9221.64
741.784	9260.05
742.124	9277.68
742.464	9260.96
742.804	9305.25
743.143	9355.64
743.483	9327.85
743.823	9273.16
744.162	9383.89
744.502	9344.12
744.841	9416.66
745.181	9472.25
745.52	9388.19
745.86	9495.3
746.199	9517.22
746.538	9507.5
746.877	9534.62
747.216	9560.38
747.556	9543.89
747.895	9595.64
748.234	9584.34
748.573	9589.76
748.911	9659.82
749.25	9674.96
749.589	9665.24
749.928	9686.71
750.267	9657.78
750.605	9737.55
750.944	9722.41
751.283	9699.36
751.621	9805.35
751.96	9773.94
752.298	9826.14
752.636	9907.95
752.975	9815.74
753.313	9838.12
753.651	9891.67
753.989	9843.99
754.327	9930.77
754.666	9944.1
755.004	9912.01
755.342	10022.52
755.679	10048.28
756.017	10053.93
756.355	10013.93
756.693	10022.74
757.031	10118.34
757.368	10079.69
757.706	10151.33
758.044	10122.86
758.381	10152.23
758.719	10103.42
759.056	10193.36
759.394	10216.86
759.731	10186.36
760.068	10207.37
760.405	10186.36
760.743	10128.05
761.08	10237.65
761.417	10274.94
761.754	10205.56
762.091	10207.37
762.428	10263.64
762.765	10267.48
763.102	10272.23
