Data from blue_shiny_book_FLMS001491_00005.txt Node
Date: Wed Feb 08 15:26:27 GMT 2017
User: dcchb
Spectrometer: FLMS00149
Trigger mode: 0
Integration Time (sec): 2.000000E-2
Scans to average: 10
Electric dark correction enabled: true
Nonlinearity correction enabled: false
Boxcar width: 0
XAxis mode: Wavelengths
Number of Pixels in Spectrum: 2048
>>>>>Begin Spectral Data<<<<<
341.393	-28.87
341.776	-28.87
342.16	-28.87
342.543	-69.09
342.927	-73.84
343.31	-68.64
343.693	-81.98
344.077	-60.28
344.46	-77.46
344.843	-32.26
345.226	-50.56
345.61	-36.1
345.993	-21.41
346.376	8.87
346.759	5.48
347.142	33.05
347.525	41.19
347.908	66.72
348.291	63.78
348.674	97.91
349.057	111.69
349.44	105.82
349.823	165.25
350.206	173.39
350.588	205.47
350.971	213.16
351.354	233.27
351.737	265.13
352.119	256.32
352.502	277.34
352.884	291.57
353.267	313.04
353.65	312.82
354.032	324.12
354.414	308.52
354.797	315.98
355.179	338.8
355.562	331.8
355.944	348.07
356.326	341.74
356.709	359.14
357.091	353.95
357.473	339.48
357.855	367.28
358.238	364.57
358.62	371.57
359.002	351.23
359.384	347.84
359.766	368.86
360.148	354.62
360.53	351.69
360.912	335.41
361.294	352.14
361.676	349.88
362.057	373.38
362.439	334.28
362.821	356.43
363.203	343.32
363.584	356.66
363.966	335.87
364.348	345.13
364.729	355.75
365.111	351.23
365.493	361.4
365.874	367.28
366.256	356.43
366.637	369.31
367.019	355.98
367.4	365.7
367.781	352.36
368.163	345.13
368.544	350.78
368.925	359.37
369.306	360.05
369.688	335.41
370.069	375.87
370.45	348.3
370.831	347.17
371.212	351.69
371.593	356.66
371.974	382.87
372.355	341.29
372.736	358.69
373.117	367.28
373.498	367.28
373.879	337.9
374.26	344
374.641	362.53
375.021	351.23
375.402	379.93
375.783	372.93
376.163	387.39
376.544	409.76
376.925	383.1
377.305	356.21
377.686	374.96
378.066	379.93
378.447	392.36
378.827	385.81
379.208	370.89
379.588	400.05
379.968	415.86
380.349	408.41
380.729	412.48
381.109	404.57
381.489	408.18
381.87	397.79
382.25	421.06
382.63	426.71
383.01	410.89
383.39	444.34
383.77	427.62
384.15	423.77
384.53	450.89
384.91	477.11
385.29	452.02
385.67	421.51
386.049	450.89
386.429	468.07
386.809	472.59
387.189	471.68
387.568	482.53
387.948	480.72
388.328	466.48
388.707	467.16
389.087	488.18
389.466	507.84
389.846	495.86
390.225	509.87
390.605	524.34
390.984	506.03
391.363	521.85
391.743	523.43
392.122	537.22
392.501	518.46
392.881	535.64
393.26	558.23
393.639	568.18
394.018	572.47
394.397	547.16
394.776	554.62
395.155	555.3
395.534	589.65
395.913	580.61
396.292	581.96
396.671	585.8
397.05	604.56
397.429	593.04
397.808	617.89
398.186	574.5
398.565	623.09
398.944	617.89
399.323	635.52
399.701	637.78
400.08	649.76
400.458	656.08
400.837	662.19
401.215	652.02
401.594	667.61
401.972	690.43
402.351	676.65
402.729	714.61
403.107	705.8
403.486	701.28
403.864	736.08
404.242	704.22
404.62	727.49
404.999	740.83
405.377	738.79
405.755	757.1
406.133	758.68
406.511	765.23
406.889	780.15
407.267	791.67
407.645	799.81
408.023	806.81
408.401	836.19
408.779	853.37
409.156	857.21
409.534	871.67
409.912	871.9
410.29	921.61
410.667	899.47
411.045	923.65
411.422	922.29
411.8	912.12
412.178	955.51
412.555	960.03
412.933	970.2
413.31	1016.07
413.687	1017.43
414.065	1026.47
414.442	1035.06
414.819	1038.67
415.197	1059.69
415.574	1088.62
415.951	1074.83
416.328	1119.8
416.705	1104.21
417.082	1126.81
417.46	1138.11
417.837	1134.49
418.214	1162.29
418.591	1153.47
418.967	1190.99
419.344	1183.75
419.721	1206.35
420.098	1204.32
420.475	1238.44
420.852	1248.39
421.228	1237.54
421.605	1282.96
421.982	1281.15
422.358	1297.2
422.735	1318.21
423.111	1309.63
423.488	1371.32
423.864	1351.89
424.241	1382.84
424.617	1406.8
424.994	1407.48
425.37	1411.77
425.746	1414.71
426.123	1428.95
426.499	1456.74
426.875	1485.44
427.251	1513.91
427.627	1540.81
428.003	1571.77
428.379	1590.52
428.756	1622.84
429.132	1678.43
429.507	1649.28
429.883	1679.56
430.259	1716.17
430.635	1677.98
431.011	1737.64
431.387	1730.86
431.763	1793.23
432.138	1819.67
432.514	1865.54
432.89	1869.84
433.265	1905.32
433.641	1935.6
434.016	1960.23
434.392	2010.85
434.767	1994.58
435.143	2070.06
435.518	2034.58
435.894	2072.54
436.269	2109.61
436.644	2130.17
437.02	2146.44
437.395	2170.17
437.77	2220.34
438.145	2237.74
438.52	2311.86
438.895	2336.72
439.271	2309.15
439.646	2365.19
440.021	2406.09
440.395	2398.64
440.77	2392.08
441.145	2421.69
441.52	2434.79
441.895	2445.87
442.27	2484.74
442.645	2495.81
443.019	2578.52
443.394	2580.1
443.769	2597.05
444.143	2574.45
444.518	2650.83
444.892	2597.5
445.267	2641.34
445.641	2676.37
446.016	2687.44
446.39	2674.56
446.764	2759.31
447.139	2723.15
447.513	2756.82
447.887	2765.86
448.262	2798.63
448.636	2863.48
449.01	2884.5
449.384	2959.53
449.758	2951.62
450.132	2948.45
450.506	3007.89
450.88	2989.58
451.254	2971.28
451.628	3066.87
452.002	3087.21
452.376	3111.61
452.75	3134.44
453.123	3162.23
453.497	3264.38
453.871	3311.16
454.244	3392.28
454.618	3416.92
454.992	3448.1
455.365	3445.62
455.739	3515.22
456.112	3529.91
456.486	3560.41
456.859	3595.67
457.232	3660.53
457.606	3687.42
457.979	3729
458.352	3796.57
458.725	3907.52
459.099	3926.96
459.472	4056.45
459.845	4065.94
460.218	4104.58
460.591	4101.64
460.964	4133.28
461.337	4235.2
461.71	4260.51
462.083	4348.19
462.456	4344.58
462.829	4375.99
463.201	4461.63
463.574	4491.01
463.947	4555.42
464.32	4701.63
464.692	4789.76
465.065	4817.78
465.438	4907.72
465.81	4941.17
466.183	4990.89
466.555	5126.93
466.928	5103.43
467.3	5112.01
467.672	5221.39
468.045	5293.48
468.417	5302.29
468.789	5317.66
469.161	5414.83
469.534	5533.24
469.906	5706.57
470.278	5756.29
470.65	5845.1
471.022	5970.52
471.394	6018.66
471.766	6109.05
472.138	6233.79
472.51	6324.64
472.882	6404.18
473.253	6421.13
473.625	6553.33
473.997	6640.56
474.369	6678.07
474.74	6812.31
475.112	6942.92
475.484	7091.62
475.855	7174.78
476.227	7289.81
476.598	7486.19
476.97	7594.21
477.341	7829.46
477.713	7918.27
478.084	7925.72
478.455	8139.5
478.827	8198.03
479.198	8400.06
479.569	8436.44
479.94	8605.25
480.311	8711.69
480.682	8986.26
481.053	9145.8
481.424	9322.75
481.795	9421.96
482.166	9570.65
482.537	9773.36
482.908	9933.13
483.279	10074.59
483.65	10324.53
484.021	10470.06
484.391	10635.71
484.762	10690.62
485.133	10759.77
485.503	10856.95
485.874	11155.7
486.244	11212.42
486.615	11388.91
486.985	11604.95
487.356	11873.19
487.726	11968.78
488.097	12349.79
488.467	12387.53
488.837	12643.79
489.207	12776.44
489.578	13001.07
489.948	13117.23
490.318	13331.01
490.688	13278.58
491.058	13518.57
491.428	13779.36
491.798	13868.62
492.168	14118.78
492.538	14146.13
492.908	14251.66
493.278	14552.22
493.648	14622.5
494.017	14857.74
494.387	15069.49
494.757	15147.91
495.126	15335.02
495.496	15427.67
495.866	15603.94
496.235	15810.94
496.605	15956.93
496.974	16000.99
497.344	16058.62
497.713	16138.84
498.082	16223.36
498.452	16514.2
498.821	16498.83
499.19	16599.62
499.559	16889.33
499.928	16999.84
500.298	17070.57
500.667	17272.37
501.036	17332.48
501.405	17559.14
501.774	17527.96
502.143	17846.59
502.512	17901.51
502.88	18160.03
503.249	18062.18
503.618	18252.68
503.987	18302.17
504.356	18412
504.724	18496.07
505.093	18669.85
505.462	18716.17
505.83	18898.09
506.199	19041.14
506.567	19214.69
506.936	19244.75
507.304	19570.16
507.672	19672.99
508.041	19834.11
508.409	20069.81
508.777	20142.35
509.145	20395.23
509.514	20283.14
509.882	20475.9
510.25	20565.39
510.618	20776.91
510.986	20679.74
511.354	20978.26
511.722	21098.94
512.09	21352.26
512.458	21307.74
512.826	21616.66
513.193	21554.74
513.561	21801.29
513.929	21990.44
514.297	22322.63
514.664	22457.09
515.032	22375.74
515.4	22603.3
515.767	22748.16
516.135	23028.83
516.502	22850.98
516.869	23240.58
517.237	23382.49
517.604	23300.46
517.972	23629.94
518.339	23750.84
518.706	23786.1
519.073	23974.34
519.44	24189.7
519.808	24426.08
520.175	24557.83
520.542	24938.38
520.909	25037.59
521.276	25098.83
521.643	25279.62
522.009	25600.06
522.376	25614.07
522.743	25832.82
523.11	26045.47
523.477	26348.06
523.843	26415.86
524.21	26790.09
524.577	26978.1
524.943	26969.29
525.31	27254.03
525.676	27451.09
526.043	27602.49
526.409	27737.86
526.776	28157.51
527.142	28280.67
527.508	28423.94
527.874	28748.45
528.241	28856.92
528.607	28998.62
528.973	29322
529.339	29180.08
529.705	29438.6
530.071	29780.52
530.437	29795.66
530.803	29980.96
531.169	30207.62
531.535	30206.04
531.901	30300.5
532.267	30455.75
532.632	30772.35
532.998	30882.86
533.364	31218.67
533.73	31291.89
534.095	31577.31
534.461	31550.87
534.826	31842.16
535.192	32080.12
535.557	32260.68
535.923	32274.01
536.288	32320.34
536.653	32621.12
537.019	32448.24
537.384	32575.7
537.749	32718.29
538.114	32732.3
538.479	32738.86
538.845	33120.32
539.21	32981.11
539.575	33232.85
539.94	33398.27
540.305	33679.85
540.67	33597.59
541.034	33731.6
541.399	34084.36
541.764	34186.73
542.129	34181.3
542.494	34442.31
542.858	34420.85
543.223	34544.23
543.587	34852.02
543.952	34875.07
544.316	34863.32
544.681	34943.32
545.045	35002.07
545.41	35113.48
545.774	35259.92
546.138	35016.99
546.503	35191.67
546.867	35286.81
547.231	35560.25
547.595	35640.93
547.959	35838.89
548.324	35814.03
548.688	36115.49
549.052	36347.58
549.416	36407.91
549.779	36374.24
550.143	36532.66
550.507	36804.74
550.871	36938.07
551.235	36921.8
551.599	37156.59
551.962	37286.53
552.326	37419.41
552.689	37390.49
553.053	37265.74
553.417	37370.83
553.78	37796.58
554.143	37598.39
554.507	37734.43
554.87	37860.76
555.234	38220.29
555.597	38072.05
555.96	38320.4
556.323	38625.93
556.686	38545.71
557.05	38967.17
557.413	39032.02
557.776	39274.05
558.139	39571.45
558.502	39414.39
558.865	39826.81
559.228	39844.66
559.59	40050.53
559.953	39992.9
560.316	40294.82
560.679	40223.18
561.041	40419.11
561.404	40474.02
561.767	40620.01
562.129	40429.5
562.492	40896.61
562.854	40921.24
563.217	41033.78
563.579	41108.81
563.941	41384.96
564.304	41644.16
564.666	41893.42
565.028	41950.82
565.39	42189.68
565.753	42459.05
566.115	42646.84
566.477	42836.67
566.839	43008.42
567.201	43261.74
567.563	43290.22
567.925	43616.54
568.287	43475.3
568.648	43638.46
569.01	43741.51
569.372	43785.12
569.734	43618.12
570.095	43750.54
570.457	43939.47
570.819	43839.36
571.18	43921.39
571.542	44088.84
571.903	44262.62
572.265	44355.5
572.626	44603.4
572.987	44784.64
573.349	44924.3
573.71	45139.21
574.071	45319.77
574.432	45422.59
574.794	45883.6
575.155	45888.57
575.516	45891.28
575.877	45939.19
576.238	46057.6
576.599	46230.71
576.96	46200.88
577.32	46164.72
577.681	46371.94
578.042	46211.04
578.403	46293.08
578.763	46213.98
579.124	46163.59
579.485	46322
579.845	46289.46
580.206	46270.03
580.566	46266.86
580.927	46168.11
581.287	46497.36
581.648	46386.63
582.008	46726.29
582.368	46785.72
582.728	46999.72
583.089	47041.53
583.449	47041.76
583.809	47048.99
584.169	47300.28
584.529	47374.4
584.889	47557.45
585.249	47408.75
585.609	47471.8
585.969	47687.39
586.329	47555.19
586.688	47501.63
587.048	47276.78
587.408	47147.97
587.768	47127.63
588.127	46922.66
588.487	46885.38
588.846	47100.29
589.206	46752.05
589.565	46962.21
589.925	46999.72
590.284	46991.59
590.643	47133.73
591.003	47253.5
591.362	47369.66
591.721	47358.13
592.08	47513.84
592.44	47729.2
592.799	47717.9
593.158	47724.68
593.517	47924.22
593.876	48068.85
594.235	47993.6
594.593	48084.89
594.952	48176.42
595.311	47895.97
595.67	48035.86
596.029	48011
596.387	48030.66
596.746	47992.01
597.104	47775.98
597.463	47612.59
597.822	47648.97
598.18	47525.36
598.538	47515.64
598.897	47687.84
599.255	47250.34
599.613	47802.64
599.972	47671.8
600.33	47738.01
600.688	47637.45
601.046	47851
601.404	48113.14
601.762	48130.77
602.12	48400.82
602.478	48335.06
602.836	48582.06
603.194	48361.5
603.552	48553.81
603.91	48497.99
604.268	48703.63
604.625	48512
604.983	48632.68
605.341	48340.25
605.698	48545.45
606.056	48614.37
606.413	48571.89
606.771	48648.04
607.128	48639.23
607.485	48322.63
607.843	48290.31
608.2	48456.86
608.557	48570.53
608.914	48373.47
609.272	48577.08
609.629	48608.95
609.986	48779.79
610.343	48556.29
610.7	48843.97
611.057	48928.71
611.414	48956.28
611.771	49066.56
612.127	49354.46
612.484	49337.97
612.841	49679.88
613.198	49409.15
613.554	49592.65
613.911	49757.39
614.267	49667.9
614.624	49727.34
614.98	49799.2
615.337	49935.01
615.693	49826.09
616.05	49832.87
616.406	50024.05
616.762	49607.57
617.118	49558.3
617.475	49593.1
617.831	49669.03
618.187	49501.81
618.543	49504.52
618.899	49699.99
619.255	49554.69
619.611	49456.38
619.967	49599.88
620.323	49705.42
620.678	49528.02
621.034	49589.49
621.39	49706.32
621.746	49552.65
622.101	50000.55
622.457	49796.49
622.812	49959.42
623.168	50111.96
623.523	50311.5
623.879	50406.87
624.234	50176.14
624.589	50416.81
624.945	50424.04
625.3	50323.25
625.655	50393.53
626.01	50309.02
626.365	50314.89
626.72	50239.19
627.075	50183.37
627.43	50060.21
627.785	49917.84
628.14	49998.29
628.495	49854.56
628.85	49865.19
629.205	49692.99
629.559	49804.85
629.914	49612.31
630.269	49657.06
630.623	49575.93
630.978	49465.42
631.332	49754.68
631.687	49726.43
632.041	49803.72
632.396	49886.43
632.75	49762.14
633.104	49906.09
633.459	49654.34
633.813	49798.07
634.167	49757.39
634.521	49918.29
634.875	49837.16
635.229	49828.8
635.583	49724.17
635.937	49625.42
636.291	49728.24
636.645	49690.05
636.999	49597.85
637.352	49693.89
637.706	49394.46
638.06	49508.81
638.413	49293.68
638.767	49021.82
639.121	49077.86
639.474	48824.31
639.828	48839.9
640.181	48811.43
640.534	48749.74
640.888	48536.18
641.241	48365.79
641.594	48528.05
641.947	48455.96
642.301	48571.66
642.654	48472.45
643.007	48475.39
643.36	48410.99
643.713	48250.54
644.066	48574.6
644.419	48580.47
644.771	48526.46
645.124	48442.4
645.477	48405.79
645.83	48196.08
646.182	47907.5
646.535	47611.91
646.888	47458.7
647.24	47201.08
647.593	47609.2
647.945	47418.92
648.298	47306.16
648.65	47117.69
649.002	47016
649.355	47083.56
649.707	47109.33
650.059	47304.58
650.411	47784.79
650.763	47799.7
651.115	48001.05
651.467	47722.42
651.819	47722.19
652.171	47513.16
652.523	47499.82
652.875	47486.72
653.227	47294.63
653.578	47698.01
653.93	47438.36
654.282	47357
654.633	47239.04
654.985	47358.13
655.337	47443.1
655.688	47336.89
656.039	47444.23
656.391	47144.13
656.742	47321.3
657.094	47457.79
657.445	47734.85
657.796	47672.93
658.147	47654.85
658.498	47686.49
658.849	47836.76
659.2	47709.76
659.551	47695.07
659.902	47661.18
660.253	47635.87
660.604	47735.07
660.955	47376.89
661.306	47506.6
661.656	47385.7
662.007	47384.8
662.358	47267.06
662.708	47190.68
663.059	47211.92
663.409	46985.04
663.76	47166.73
664.11	46915.43
664.461	46830.46
664.811	46726.29
665.161	46720.41
665.511	46643.12
665.862	46710.47
666.212	46865.49
666.562	46891.48
666.912	46788.43
667.262	46698.72
667.612	46839.05
667.962	46979.61
668.312	46927.64
668.662	47071.59
669.011	47065.26
669.361	47032.72
669.711	47049.21
670.06	46987.97
670.41	47137.35
670.76	47076.78
671.109	47174.18
671.459	47159.72
671.808	47091.93
672.157	47267.74
672.507	47064.58
672.856	47118.37
673.205	47096.67
673.554	47139.83
673.904	46840.18
674.253	47127.4
674.602	46880.63
674.951	46213.3
675.3	45935.8
675.649	46505.73
675.998	46308.9
676.346	46190.03
676.695	46275.9
677.044	45863.26
677.393	45963.14
677.741	45949.81
678.09	45723.6
678.438	45774.45
678.787	45873.88
679.135	45710.94
679.484	45533.77
679.832	45802.02
680.181	45605.19
680.529	45690.15
680.877	45642.25
681.225	45768.8
681.573	45866.42
681.922	45721.11
682.27	45645.86
682.618	45782.58
682.966	45734
683.314	45753.88
683.661	45795.01
684.009	45601.12
684.357	45408.13
684.705	45450.39
685.053	45659.19
685.4	45467.79
685.748	45087.01
686.095	45279.77
686.443	45057.63
686.79	44901.25
687.138	44828.26
687.485	44761.14
687.832	44470.98
688.18	44520.69
688.527	44219.01
688.874	44126.13
689.221	43944.44
689.568	43832.12
689.915	43703.99
690.262	43681.62
690.609	43526.6
690.956	43230.78
691.303	43142.88
691.65	42990.79
691.997	43013.39
692.344	42614.53
692.69	42642.1
693.037	42668.54
693.383	42424.93
693.73	42541.31
694.077	42414.31
694.423	42484.59
694.769	42307.87
695.116	42476.91
695.462	42311.94
695.808	42483.46
696.155	42479.39
696.501	42208.44
696.847	42201.21
697.193	41938.61
697.539	42157.37
697.885	41975.45
698.231	41685.51
698.577	41740.2
698.923	41718.06
699.269	41489.59
699.614	41253.89
699.96	41056.83
700.306	41161.91
700.651	40945.65
700.997	40736.16
701.342	40461.14
701.688	40274.25
702.033	40236.51
702.379	40119.23
702.724	39890.53
703.069	39908.84
703.415	39263.66
703.76	39329.64
704.105	39140.04
704.45	39122.64
704.795	38837.45
705.14	38776.21
705.485	38641.75
705.83	38718.36
706.175	38761.75
706.52	38451.47
706.865	38586.16
707.209	38491.47
707.554	38435.43
707.899	38372.15
708.243	38232.95
708.588	38367.86
708.932	38238.6
709.277	38274.3
709.621	38295.09
709.966	38160.41
710.31	38367.18
710.654	38130.81
710.998	38137.58
711.342	38148.43
711.687	38094.65
712.031	37967.65
712.375	37822.56
712.719	37879.51
713.063	37752.96
713.407	37841.77
713.75	37479.07
714.094	37432.52
714.438	37235.24
714.782	37253.99
715.125	37140.77
715.469	36982.59
715.812	36577.4
716.156	36445.65
716.499	36500.34
716.843	36384.64
717.186	36093.34
717.53	36170.63
717.873	36153.23
718.216	35842.73
718.559	35730.64
718.902	35537.43
719.246	35606.13
719.589	35468.73
719.932	35481.84
720.275	35527.94
720.617	35465.56
720.96	35415.17
721.303	35375.17
721.646	35359.8
721.989	35341.73
722.331	35547.37
722.674	35476.64
723.016	35579.46
723.359	35611.1
723.701	35675.28
724.044	35473.7
724.386	35487.03
724.729	35594.6
725.071	35551.66
725.413	35503.08
725.755	35559.35
726.097	35472.12
726.439	35287.26
726.782	35271.45
727.124	35409.29
727.465	35163.2
727.807	35168.17
728.149	35035.29
728.491	34879.14
728.833	35017.67
729.175	34697.68
729.516	34652.7
729.858	34572.03
730.199	34656.77
730.541	34594.63
730.882	34232.15
731.224	34489.55
731.565	34133.62
731.906	34045.71
732.248	34177.69
732.589	33958.03
732.93	33749.23
733.271	33941.99
733.612	33849.34
733.953	33830.13
734.294	33669.45
734.635	33572.73
734.976	33711.26
735.317	33586.07
735.658	33711.71
735.999	33872.61
736.339	33776.12
736.68	33960.07
737.021	33835.33
737.361	33865.61
737.702	33977.02
738.042	34019.95
738.383	33966.85
738.723	34226.73
739.063	34144.02
739.404	34376.1
739.744	34232.15
740.084	34222.43
740.424	34471.24
740.764	34336.78
741.104	34306.95
741.444	34210
741.784	34134.07
742.124	34199.16
742.464	34185.15
742.804	34121.65
743.143	34041.65
743.483	33979.95
743.823	33836
744.162	33773.63
744.502	33983.8
744.841	33727.76
745.181	33836.45
745.52	33676.46
745.86	33694.76
746.199	33473.07
746.538	33379.97
746.877	33534.54
747.216	33509.91
747.556	33357.82
747.895	33296.81
748.234	33193.76
748.573	33252.74
748.911	33155.57
749.25	33244.83
749.589	33186.98
749.928	33254.1
750.267	33230.37
750.605	33276.92
750.944	33297.94
751.283	33158.73
751.621	33298.84
751.96	33215.91
752.298	33316.24
752.636	33400.99
752.975	33418.16
753.313	33371.61
