Data from blue_surface_keyboard_FLMS001491_018.txt Node
Date: Tue Feb 07 11:12:43 GMT 2017
User: dcchb
Spectrometer: FLMS00149
Trigger mode: 0
Integration Time (sec): 2.000000E-2
Scans to average: 10
Electric dark correction enabled: true
Nonlinearity correction enabled: false
Boxcar width: 0
XAxis mode: Wavelengths
Number of Pixels in Spectrum: 2048
>>>>>Begin Spectral Data<<<<<
341.393	-0.62
341.776	-0.62
342.16	-0.62
342.543	-88.98
342.927	-51.47
343.31	-43.56
343.693	-69.32
344.077	-67.96
344.46	-59.15
344.843	-56.44
345.226	-34.07
345.61	-44.46
345.993	-8.53
346.376	-16.89
346.759	8.64
347.142	23.33
347.525	40.73
347.908	59.94
348.291	72.82
348.674	83.9
349.057	111.01
349.44	115.53
349.823	130.22
350.206	144.46
350.588	174.52
350.971	174.06
351.354	195.98
351.737	237.34
352.119	221.97
352.502	238.69
352.884	248.19
353.267	237.79
353.65	250.22
354.032	274.4
354.414	286.38
354.797	294.51
355.179	298.81
355.562	295.19
355.944	310.56
356.326	309.65
356.709	307.39
357.091	318.69
357.473	313.95
357.855	318.69
358.238	311.46
358.62	316.66
359.002	315.08
359.384	302.2
359.766	327.05
360.148	291.35
360.53	313.49
360.912	313.27
361.294	313.49
361.676	303.55
362.057	315.53
362.439	309.43
362.821	304.68
363.203	305.36
363.584	292.7
363.966	302.87
364.348	290.67
364.729	311.23
365.111	313.04
365.493	289.09
365.874	277.11
366.256	286.38
366.637	284.57
367.019	292.25
367.4	291.35
367.781	290.67
368.163	264.23
368.544	275.76
368.925	281.86
369.306	304.68
369.688	299.48
370.069	287.73
370.45	293.16
370.831	291.8
371.212	264.46
371.593	267.62
371.974	305.81
372.355	279.15
372.736	266.72
373.117	288.64
373.498	295.19
373.879	301.07
374.26	273.04
374.641	287.73
375.021	280.5
375.402	289.77
375.783	280.95
376.163	285.25
376.544	279.15
376.925	297.9
377.305	304.23
377.686	286.15
378.066	306.49
378.447	312.14
378.827	312.82
379.208	307.62
379.588	303.33
379.968	292.48
380.349	292.25
380.729	293.83
381.109	318.92
381.489	299.94
381.87	290.67
382.25	303.1
382.63	297.45
383.01	289.31
383.39	291.57
383.77	312.14
384.15	313.95
384.53	310.1
384.91	325.47
385.29	312.36
385.67	308.07
386.049	302.42
386.429	313.04
386.809	306.04
387.189	316.66
387.568	293.38
387.948	311.46
388.328	314.4
388.707	321.18
389.087	313.95
389.466	319.14
389.846	303.55
390.225	327.51
390.605	305.81
390.984	325.47
391.363	328.86
391.743	342.19
392.122	311.91
392.501	315.98
392.881	320.73
393.26	317.79
393.639	321.4
394.018	312.82
394.397	327.51
394.776	325.47
395.155	316.43
395.534	344.45
395.913	336.32
396.292	310.78
396.671	314.85
397.05	329.99
397.429	317.34
397.808	329.99
398.186	318.92
398.565	331.12
398.944	346.26
399.323	328.18
399.701	314.85
400.08	320.95
400.458	338.8
400.837	345.36
401.215	325.02
401.594	338.8
401.972	346.94
402.351	350.78
402.729	348.52
403.107	331.57
403.486	325.25
403.864	334.06
404.242	350.56
404.62	351.69
404.999	343.1
405.377	340.16
405.755	357.11
406.133	334.51
406.511	347.62
406.889	349.88
407.267	363.66
407.645	353.49
408.023	330.67
408.401	357.79
408.779	352.59
409.156	339.93
409.534	387.16
409.912	389.42
410.29	362.53
410.667	367.73
411.045	356.66
411.422	378.58
411.8	359.37
412.178	365.47
412.555	379.93
412.933	387.39
413.31	372.25
413.687	366.83
414.065	363.66
414.442	395.3
414.819	367.96
415.197	402.08
415.574	377
415.951	380.39
416.328	365.24
416.705	372.25
417.082	394.4
417.46	391.01
417.837	370.44
418.214	388.29
418.591	385.81
418.967	393.49
419.344	392.81
419.721	396.43
420.098	383.32
420.475	394.62
420.852	411.57
421.228	418.35
421.605	403.89
421.982	402.08
422.358	421.29
422.735	395.75
423.111	389.65
423.488	403.89
423.864	413.6
424.241	417.22
424.617	417.22
424.994	410.44
425.37	414.28
425.746	417.9
426.123	397.56
426.499	413.15
426.875	420.84
427.251	404.34
427.627	422.87
428.003	426.26
428.379	426.26
428.756	432.36
429.132	438.01
429.507	434.85
429.883	437.11
430.259	440.5
430.635	420.38
431.011	458.12
431.387	446.6
431.763	451.12
432.138	444.34
432.514	483.43
432.89	435.75
433.265	459.93
433.641	467.39
434.016	452.93
434.392	451.57
434.767	484.11
435.143	479.59
435.518	459.03
435.894	473.26
436.269	488.41
436.644	452.93
437.02	494.28
437.395	464.9
437.77	457.67
438.145	498.12
438.52	467.84
438.895	479.82
439.271	492.25
439.646	479.59
440.021	480.72
440.395	509.42
440.77	505.35
441.145	505.13
441.52	525.69
441.895	506.26
442.27	495.18
442.645	494.51
443.019	526.82
443.394	526.37
443.769	521.17
444.143	537.22
444.518	531.57
444.892	529.76
445.267	505.81
445.641	549.87
446.016	511.23
446.39	527.5
446.764	518.01
447.139	530.44
447.513	549.42
447.887	505.58
448.262	534.51
448.636	540.83
449.01	541.74
449.384	539.48
449.758	534.96
450.132	574.73
450.506	522.75
450.88	562.53
451.254	565.01
451.628	549.42
452.002	539.93
452.376	576.09
452.75	579.48
453.123	586.48
453.497	571.34
453.871	578.12
454.244	580.15
454.618	575.18
454.992	599.81
455.365	587.61
455.739	574.5
456.112	605.69
456.486	598.68
456.859	619.48
457.232	606.37
457.606	603.66
457.979	611.34
458.352	627.61
458.725	635.29
459.099	619.48
459.472	623.77
459.845	648.85
460.218	643.43
460.591	630.1
460.964	655.41
461.337	632.58
461.71	654.95
462.083	634.39
462.456	631.23
462.829	649.98
463.201	673.26
463.574	662.19
463.947	673.94
464.32	687.27
464.692	673.03
465.065	663.09
465.438	689.76
465.81	675.07
466.183	690.89
466.555	700.83
466.928	710.77
467.3	711.68
467.672	698.8
468.045	714.39
468.417	716.2
468.789	726.59
469.161	734.5
469.534	739.25
469.906	739.25
470.278	746.7
470.65	750.09
471.022	766.82
471.394	775.86
471.766	771.11
472.138	766.82
472.51	787.61
472.882	812.46
473.253	791.22
473.625	791
473.997	833.93
474.369	820.83
474.74	813.59
475.112	829.64
475.484	846.81
475.855	845.23
476.227	850.43
476.598	856.76
476.97	870.99
477.341	875.51
477.713	878.9
478.084	887.49
478.455	905.12
478.827	903.31
479.198	911.9
479.569	917.09
479.94	922.52
480.311	934.95
480.682	924.55
481.053	974.49
481.424	966.13
481.795	966.81
482.166	976.75
482.537	995.28
482.908	1003.65
483.279	1012.01
483.65	1026.02
484.021	996.41
484.391	1023.98
484.762	1041.61
485.133	1029.41
485.503	1079.35
485.874	1046.13
486.244	1084.32
486.615	1067.15
486.985	1092.68
487.356	1097.2
487.726	1125.45
488.097	1115.06
488.467	1131.55
488.837	1149.4
489.207	1159.57
489.578	1156.41
489.948	1167.94
490.318	1160.93
490.688	1174.26
491.058	1171.55
491.428	1197.09
491.798	1201.15
492.168	1234.6
492.538	1214.49
492.908	1219.46
493.278	1226.46
493.648	1232.11
494.017	1199.8
494.387	1224.88
494.757	1254.49
495.126	1235.96
495.496	1232.57
495.866	1270.31
496.235	1258.33
496.605	1241.83
496.974	1268.5
497.344	1260.59
497.713	1260.36
498.082	1259.46
498.452	1269.4
498.821	1294.94
499.19	1279.8
499.559	1288.38
499.928	1275.96
500.298	1304.43
500.667	1290.42
501.036	1284.09
501.405	1306.01
501.774	1291.55
502.143	1289.51
502.512	1324.77
502.88	1311.21
503.249	1313.69
503.618	1310.08
503.987	1329.97
504.356	1320.7
504.724	1304.43
505.093	1316.86
505.462	1345.78
505.83	1329.06
506.199	1355.28
506.567	1337.42
506.936	1354.15
507.304	1373.81
507.672	1359.79
508.041	1357.53
508.409	1346.91
508.777	1350.08
509.145	1347.59
509.514	1364.99
509.882	1341.04
510.25	1338.55
510.618	1397.53
510.986	1381.72
511.354	1378.55
511.722	1372.68
512.09	1387.59
512.458	1384.88
512.826	1389.85
513.193	1405.44
513.561	1398.44
513.929	1373.13
514.297	1400.92
514.664	1414.26
515.032	1406.57
515.4	1385.56
515.767	1388.95
516.135	1431.88
516.502	1428.72
516.869	1404.77
517.237	1419.45
517.604	1442.5
517.972	1440.24
518.339	1444.31
518.706	1433.01
519.073	1442.05
519.44	1411.09
519.808	1457.42
520.175	1436.63
520.542	1420.81
520.909	1442.5
521.276	1473.46
521.643	1461.49
522.009	1451.09
522.376	1467.81
522.743	1442.5
523.11	1465.55
523.477	1456.06
523.843	1484.99
524.21	1489.96
524.577	1464.88
524.943	1470.98
525.31	1479.34
525.676	1478.89
526.043	1524.54
526.409	1510.3
526.776	1488.15
527.142	1489.51
527.508	1515.04
527.874	1526.57
528.241	1508.94
528.607	1501.49
528.973	1506.23
529.339	1508.27
529.705	1531.54
530.071	1536.06
530.437	1565.21
530.803	1543.74
531.169	1546.91
531.535	1532.45
531.901	1521.6
532.267	1523.86
532.632	1538.55
532.998	1525.67
533.364	1548.49
533.73	1528.38
534.095	1551.2
534.461	1553.01
534.826	1528.15
535.192	1536.74
535.557	1597.3
535.923	1549.17
536.288	1560.92
536.653	1563.18
537.019	1573.57
537.384	1534.93
537.749	1555.72
538.114	1536.06
538.479	1551.88
538.845	1555.5
539.21	1537.42
539.575	1551.2
539.94	1566.79
540.305	1572.22
540.67	1568.83
541.034	1588.94
541.399	1576.51
541.764	1584.65
542.129	1583.29
542.494	1561.82
542.858	1576.51
543.223	1550.52
543.587	1568.15
543.952	1583.29
544.316	1563.86
544.681	1575.16
545.045	1576.74
545.41	1565.67
545.774	1589.62
546.138	1583.07
546.503	1590.98
546.867	1555.72
547.231	1558.66
547.595	1572.44
547.959	1577.64
548.324	1575.83
548.688	1589.85
549.052	1592.11
549.416	1557.08
549.779	1582.16
550.143	1582.84
550.507	1623.06
550.871	1577.19
551.235	1601.82
551.599	1607.47
551.962	1579
552.326	1584.65
552.689	1586
553.053	1588.26
553.417	1591.2
553.78	1605.66
554.143	1593.01
554.507	1621.93
554.87	1598.43
555.234	1627.36
555.597	1601.14
555.96	1609.96
556.323	1583.52
556.686	1577.42
557.05	1642.27
557.413	1596.85
557.776	1613.8
558.139	1618.55
558.502	1609.28
558.865	1602.5
559.228	1620.58
559.59	1624.87
559.953	1625.1
560.316	1612.44
560.679	1610.41
561.041	1637.53
561.404	1633.01
561.767	1640.24
562.129	1625.32
562.492	1621.48
562.854	1626.45
563.217	1630.07
563.579	1651.76
563.941	1697.64
564.304	1663.06
564.666	1657.41
565.028	1643.86
565.39	1649.28
565.753	1659.67
566.115	1661.03
566.477	1667.36
566.839	1672.1
567.201	1687.24
567.563	1687.24
567.925	1695.61
568.287	1686.57
568.648	1662.61
569.01	1682.72
569.372	1712.1
569.734	1701.48
570.095	1681.59
570.457	1712.1
570.819	1697.19
571.18	1679.56
571.542	1687.02
571.903	1686.34
572.265	1697.41
572.626	1718.88
572.987	1706.45
573.349	1724.76
573.71	1704.19
574.071	1706
574.432	1729.05
574.794	1736.06
575.155	1756.62
575.516	1721.82
575.877	1756.62
576.238	1750.52
576.599	1722.05
576.96	1749.16
577.32	1746
577.681	1740.8
578.042	1756.39
578.403	1747.58
578.763	1757.3
579.124	1768.15
579.485	1747.81
579.845	1746.23
580.206	1765.89
580.566	1765.43
580.927	1769.5
581.287	1760.91
581.648	1767.24
582.008	1740.35
582.368	1776.28
582.728	1756.39
583.089	1755.26
583.449	1776.96
583.809	1755.49
584.169	1744.64
584.529	1729.28
584.889	1812.89
585.249	1732.67
585.609	1746.9
585.969	1775.15
586.329	1750.52
586.688	1768.15
587.048	1765.66
587.408	1787.58
587.768	1793
588.127	1753
588.487	1763.85
588.846	1796.62
589.206	1774.7
589.565	1743.97
589.925	1808.82
590.284	1752.55
590.643	1804.08
591.003	1799.11
591.362	1770.86
591.721	1813.12
592.08	1762.27
592.44	1828.71
592.799	1753.46
593.158	1813.34
593.517	1816.73
593.876	1764.08
594.235	1812.44
594.593	1775.15
594.952	1795.94
595.311	1766.56
595.67	1773.34
596.029	1825.32
596.387	1819.67
596.746	1803.62
597.104	1804.08
597.463	1794.13
597.822	1798.65
598.18	1797.3
598.538	1809.95
598.897	1817.86
599.255	1803.4
599.613	1826.68
599.972	1821.48
600.33	1801.37
600.688	1809.05
601.046	1842.49
601.404	1834.13
601.762	1835.04
602.12	1826.22
602.478	1834.81
602.836	1837.75
603.194	1830.06
603.552	1831.65
603.91	1821.25
604.268	1853.57
604.625	1820.35
604.983	1832.1
605.341	1839.1
605.698	1800.01
606.056	1824.87
606.413	1833
606.771	1871.65
607.128	1839.1
607.485	1842.04
607.843	1847.47
608.2	1841.36
608.557	1863.28
608.914	1837.75
609.272	1843.62
609.629	1894.24
609.986	1870.52
610.343	1879.78
610.7	1886.33
611.057	1863.96
611.414	1888.59
611.771	1915.03
612.127	1888.59
612.484	1903.96
612.841	1886.79
613.198	1888.14
613.554	1873.68
613.911	1883.17
614.267	1883.85
614.624	1910.51
614.98	1923.17
615.337	1889.05
615.693	1886.56
616.05	1894.47
616.406	1912.55
616.762	1928.14
617.118	1894.92
617.475	1926.33
617.831	1934.47
618.187	1941.02
618.543	1934.47
618.899	1952.55
619.255	1968.37
619.611	1932.21
619.967	1947.58
620.323	1971.3
620.678	1929.05
621.034	1955.03
621.39	1950.51
621.746	1953.68
622.101	1958.42
622.457	1952.1
622.812	1992.32
623.168	1960.68
623.523	1974.47
623.879	2004.07
624.234	1994.35
624.589	1989.83
624.945	1979.89
625.3	1990.96
625.655	1972.66
626.01	1998.42
626.365	1976.73
626.72	2012.43
627.075	1998.65
627.43	1975.37
627.785	2004.3
628.14	1983.28
628.495	1997.52
628.85	2001.81
629.205	1993.9
629.559	2004.98
629.914	2018.53
630.269	2022.15
630.623	2020.79
630.978	2019.21
631.332	1994.58
631.687	2056.73
632.041	2049.27
632.396	2031.42
632.75	2033
633.104	2043.39
633.459	2020.12
633.813	2037.74
634.167	2065.99
634.521	2051.75
634.875	2062.38
635.229	2064.86
635.583	2063.96
635.937	2084.75
636.291	2047.23
636.645	2057.4
636.999	2114.35
637.352	2088.59
637.706	2115.93
638.06	2087.69
638.413	2112.77
638.767	2103.96
639.121	2108.25
639.474	2131.98
639.828	2126.55
640.181	2119.77
640.534	2131.98
640.888	2115.48
641.241	2115.03
641.594	2123.84
641.947	2163.39
642.301	2136.72
642.654	2142.83
643.007	2155.48
643.36	2167.91
643.713	2142.37
644.066	2190.96
644.419	2178.53
644.771	2161.36
645.124	2122.03
645.477	2163.62
645.83	2182.82
646.182	2162.71
646.535	2156.38
646.888	2136.05
647.24	2167.23
647.593	2240.22
647.945	2191.19
648.298	2179.66
648.65	2191.64
649.002	2206.1
649.355	2228.02
649.707	2228.92
650.059	2272.31
650.411	2261.92
650.763	2309.15
651.115	2328.36
651.467	2332.88
651.819	2310.5
652.171	2353.44
652.523	2378.53
652.875	2333.1
653.227	2332.88
653.578	2368.81
653.93	2381.69
654.282	2371.29
654.633	2402.25
654.985	2392.99
655.337	2428.02
655.688	2458.97
656.039	2428.47
656.391	2442.93
656.742	2444.96
657.094	2469.82
657.445	2481.8
657.796	2513.44
658.147	2479.77
658.498	2497.62
658.849	2525.87
659.2	2530.84
659.551	2487
659.902	2555.92
660.253	2544.4
660.604	2582.36
660.955	2555.47
661.306	2624.62
661.656	2592.08
662.007	2634.34
662.358	2639.76
662.708	2644.28
663.059	2635.02
663.409	2623.72
663.76	2698.29
664.11	2691.74
664.461	2749.59
664.811	2696.48
665.161	2671.85
665.511	2723.6
665.862	2755.92
666.212	2781.68
666.562	2739.87
666.912	2794.79
667.262	2795.92
667.612	2782.81
667.962	2804.28
668.312	2812.86
668.662	2844.5
669.011	2879.08
669.361	2879.08
669.711	2827.55
670.06	2860.55
670.41	2881.79
670.76	2899.87
671.109	2963.59
671.459	2910.26
671.808	2934.67
672.157	2947.32
672.507	2980.09
672.856	2962.01
673.205	2972.18
673.554	3005.18
673.904	3009.92
674.253	3052.86
674.602	3029.81
674.951	3021.9
675.3	3031.16
675.649	3090.82
675.998	3113.19
676.346	3080.2
676.695	3100.09
677.044	3147.54
677.393	3103.7
677.741	3121.1
678.09	3169.01
678.438	3126.98
678.787	3144.15
679.135	3247.65
679.484	3195.23
679.832	3210.14
680.181	3195.45
680.529	3217.15
680.877	3219.63
681.225	3247.43
681.573	3262.12
681.922	3256.92
682.27	3259.18
682.618	3287.2
682.966	3297.37
683.314	3310.03
683.661	3270.7
684.009	3317.48
684.357	3328.78
684.705	3297.82
685.053	3334.43
685.4	3301.21
685.748	3361.78
686.095	3312.06
686.443	3334.88
686.79	3292.4
687.138	3369.69
687.485	3397.26
687.832	3390.7
688.18	3418.27
688.527	3346.64
688.874	3430.7
689.221	3410.59
689.568	3421.89
689.915	3405.39
690.262	3437.25
690.609	3417.37
690.956	3430.02
691.303	3446.29
691.65	3412.85
691.997	3424.6
692.344	3408.1
692.69	3440.87
693.037	3440.64
693.383	3454.43
693.73	3448.55
694.077	3428.67
694.423	3420.08
694.769	3465.73
695.116	3403.58
695.462	3481.55
695.808	3435.45
696.155	3456.01
696.501	3427.76
696.847	3468.67
697.193	3442.68
697.539	3460.98
697.885	3454.65
698.231	3458.27
698.577	3469.34
698.923	3457.82
699.269	3451.04
699.614	3455.11
699.96	3395.67
700.306	3446.52
700.651	3394.32
700.997	3404.71
701.342	3447.88
701.688	3453.53
702.033	3443.36
702.379	3417.14
702.724	3394.32
703.069	3420.31
703.415	3390.48
703.76	3399.97
704.105	3385.5
704.45	3402.45
704.795	3398.39
705.14	3381.66
705.485	3381.44
705.83	3391.15
706.175	3380.76
706.52	3383.24
706.865	3339.86
707.209	3349.57
707.554	3394.77
707.899	3377.82
708.243	3364.04
708.588	3354.77
708.932	3330.36
709.277	3333.98
709.621	3365.39
709.966	3376.01
710.31	3382.79
710.654	3362
710.998	3379.63
711.342	3382.57
711.687	3353.87
712.031	3303.02
712.375	3344.6
712.719	3372.62
713.063	3310.25
713.407	3368.78
713.75	3351.61
714.094	3375.56
714.438	3337.37
714.782	3337.6
715.125	3344.15
715.469	3333.53
715.812	3314.09
716.156	3337.82
716.499	3297.82
716.843	3298.5
717.186	3334.66
717.53	3321.78
717.873	3336.69
718.216	3346.86
718.559	3319.97
718.902	3313.42
719.246	3370.14
719.589	3267.32
719.932	3308.22
720.275	3325.17
720.617	3314.55
720.96	3317.03
721.303	3309.35
721.646	3334.21
721.989	3311.61
722.331	3327.65
722.674	3353.19
723.016	3338.73
723.359	3323.58
723.701	3294.21
724.044	3315.45
724.386	3306.18
724.729	3343.02
725.071	3322.23
725.413	3319.29
725.755	3321.33
726.097	3319.07
726.439	3330.59
726.782	3363.13
727.124	3318.84
727.465	3313.42
727.807	3326.07
728.149	3337.82
728.491	3299.4
728.833	3347.99
729.175	3322.46
729.516	3315.45
729.858	3337.82
730.199	3325.84
730.541	3335.34
730.882	3338.5
731.224	3356.8
731.565	3324.26
731.906	3351.38
732.248	3338.5
732.589	3350.25
732.93	3380.98
733.271	3352.51
733.612	3322.23
733.953	3390.02
734.294	3350.48
734.635	3369.91
734.976	3344.83
735.317	3376.92
735.658	3373.75
735.999	3381.89
736.339	3386.63
736.68	3382.79
737.021	3371.72
737.361	3392.51
737.702	3421.89
738.042	3403.58
738.383	3423.24
738.723	3438.16
739.063	3436.35
739.404	3477.93
739.744	3450.36
740.084	3452.17
740.424	3473.41
740.764	3433.41
741.104	3485.84
741.444	3447.42
741.784	3479.74
742.124	3496.91
742.464	3475.9
742.804	3510.47
743.143	3502.79
743.483	3531.04
743.823	3557.93
744.162	3516.57
744.502	3551.15
744.841	3570.36
745.181	3577.36
745.52	3571.04
745.86	3613.75
746.199	3619.62
746.538	3623.92
746.877	3654.88
747.216	3664.82
747.556	3603.35
747.895	3664.82
748.234	3673.63
748.573	3702.56
748.911	3689.9
749.25	3715.67
749.589	3746.4
749.928	3791.37
750.267	3773.29
750.605	3780.52
750.944	3800.41
751.283	3850.58
751.621	3867.98
751.96	3824.14
752.298	3869.79
752.636	3867.07
752.975	3912.5
753.313	3920.18
753.651	3935.77
753.989	3941.87
754.327	3954.08
754.666	3997.01
755.004	3990.01
755.342	4040.85
755.679	4042.44
756.017	4069.55
756.355	4066.84
756.693	4075.2
757.031	4105.49
757.368	4139.16
757.706	4128.76
758.044	4167.18
758.381	4170.12
758.719	4184.58
759.056	4214.63
759.394	4173.96
759.731	4192.04
760.068	4254.18
760.405	4220.06
760.743	4284.24
761.08	4265.48
761.417	4298.93
761.754	4289.44
762.091	4285.14
762.428	4286.5
762.765	4290.79
763.102	4357.46
763.438	4322.43
763.775	4380.05
764.112	4344.35
764.449	4342.09
764.785	4373.5
765.122	4339.83
765.458	4362.88
765.795	4356.1
766.131	4390.45
766.467	4329.21
766.804	4370.11
767.14	4364.24
767.476	4342.54
767.812	4308.87
768.148	4437.23
768.485	4349.55
768.821	4368.3
769.157	4364.69
769.492	4346.16
769.828	4370.11
770.164	4376.21
770.5	4370.79
770.836	4366.04
771.171	4303.22
771.507	4350.45
771.842	4338.93
772.178	4353.39
