Data from blue_chair_FLMS001491_00002.txt Node
Date: Wed Feb 08 10:28:55 GMT 2017
User: dcchb
Spectrometer: FLMS00149
Trigger mode: 0
Integration Time (sec): 2.000000E-2
Scans to average: 10
Electric dark correction enabled: true
Nonlinearity correction enabled: false
Boxcar width: 0
XAxis mode: Wavelengths
Number of Pixels in Spectrum: 2048
>>>>>Begin Spectral Data<<<<<
341.393	-18.59
341.776	-18.59
342.16	-18.59
342.543	-39.15
342.927	-72.6
343.31	-59.26
343.693	-62.2
344.077	-54.97
344.46	-63.11
344.843	-31.47
345.226	-20.85
345.61	-41.19
345.993	-24.24
346.376	-13.62
346.759	-3.45
347.142	9.89
347.525	32.49
347.908	52.6
348.291	66.83
348.674	102.77
349.057	109.77
349.44	139.37
349.823	127.17
350.206	160.39
350.588	164.91
350.971	179.6
351.354	201.07
351.737	223.89
352.119	218.24
352.502	240.84
352.884	222.99
353.267	255.3
353.65	255.53
354.032	265.93
354.414	277.9
354.797	297.79
355.179	297.11
355.562	307.05
355.944	296.43
356.326	280.61
356.709	297.79
357.091	306.15
357.473	322.87
357.855	298.01
358.238	307.28
358.62	310.44
359.002	296.66
359.384	298.69
359.766	309.09
360.148	307.05
360.53	306.15
360.912	283.78
361.294	291.01
361.676	319.03
362.057	299.82
362.439	277
362.821	309.99
363.203	295.3
363.584	300.5
363.966	328.75
364.348	284.68
364.729	299.37
365.111	298.01
365.493	315.19
365.874	307.05
366.256	291.24
366.637	291.24
367.019	291.69
367.4	287.85
367.781	280.61
368.163	286.94
368.544	292.82
368.925	288.07
369.306	289.2
369.688	271.35
370.069	265.93
370.45	277.22
370.831	293.72
371.212	283.33
371.593	285.13
371.974	301.4
372.355	259.6
372.736	290.78
373.117	283.55
373.498	278.81
373.879	282.65
374.26	294.17
374.641	279.26
375.021	304.57
375.402	309.09
375.783	282.2
376.163	291.69
376.544	298.01
376.925	302.31
377.305	293.95
377.686	288.75
378.066	277.22
378.447	288.3
378.827	300.73
379.208	279.03
379.588	275.87
379.968	302.53
380.349	288.75
380.729	290.78
381.109	284
381.489	294.85
381.87	288.07
382.25	310.44
382.63	308.86
383.01	298.69
383.39	300.27
383.77	304.57
384.15	308.41
384.53	311.12
384.91	299.82
385.29	293.95
385.67	297.34
386.049	297.56
386.429	308.86
386.809	311.12
387.189	307.96
387.568	318.13
387.948	286.72
388.328	315.87
388.707	301.63
389.087	311.8
389.466	309.54
389.846	321.07
390.225	294.17
390.605	313.38
390.984	325.36
391.363	329.65
391.743	309.77
392.122	314.29
392.501	312.03
392.881	329.88
393.26	301.63
393.639	320.39
394.018	310.22
394.397	322.19
394.776	299.14
395.155	316.09
395.534	326.26
395.913	326.04
396.292	333.95
396.671	334.62
397.05	338.69
397.429	325.58
397.808	309.54
398.186	327.62
398.565	364.23
398.944	334.62
399.323	335.98
399.701	331.01
400.08	353.83
400.458	348.63
400.837	324
401.215	332.82
401.594	326.26
401.972	358.13
402.351	344.12
402.729	351.8
403.107	348.86
403.486	343.89
403.864	351.12
404.242	356.77
404.62	355.87
404.999	353.15
405.377	336.66
405.755	362.19
406.133	362.19
406.511	339.6
406.889	368.07
407.267	377.11
407.645	359.48
408.023	363.55
408.401	374.4
408.779	374.62
409.156	354.96
409.534	370.78
409.912	379.37
410.29	369.88
410.667	400.84
411.045	406.94
411.422	401.51
411.8	381.18
412.178	409.2
412.555	384.34
412.933	411.01
413.31	366.71
413.687	402.87
414.065	391.35
414.442	388.63
414.819	387.05
415.197	386.37
415.574	389.09
415.951	413.94
416.328	403.1
416.705	418.92
417.082	411.01
417.46	413.94
417.837	423.44
418.214	425.92
418.591	415.3
418.967	438.58
419.344	421.18
419.721	416.66
420.098	439.48
420.475	415.3
420.852	443.32
421.228	422.08
421.605	429.31
421.982	456.88
422.358	448.07
422.735	443.55
423.111	452.81
423.488	459.14
423.864	443.32
424.241	474.28
424.617	477.67
424.994	478.12
425.37	476.09
425.746	457.33
426.123	495.3
426.499	467.28
426.875	443.77
427.251	479.7
427.627	486.94
428.003	466.82
428.379	482.64
428.756	481.74
429.132	476.77
429.507	497.33
429.883	498.91
430.259	530.1
430.635	497.78
431.011	510.89
431.387	504.79
431.763	515.86
432.138	513.15
432.514	515.41
432.89	535.07
433.265	526.94
433.641	550.44
434.016	565.35
434.392	570.32
434.767	576.88
435.143	575.3
435.518	573.71
435.894	599.02
436.269	567.61
436.644	574.62
437.02	602.64
437.395	589.76
437.77	610.77
438.145	600.61
438.52	608.29
438.895	603.77
439.271	626.59
439.646	633.15
440.021	622.75
440.395	644.45
440.77	630.66
441.145	630.21
441.52	666.37
441.895	658.23
442.27	662.52
442.645	689.64
443.019	668.17
443.394	682.86
443.769	681.28
444.143	658.46
444.518	703.65
444.892	688.29
445.267	695.52
445.641	687.84
446.016	699.13
446.39	690.77
446.764	725.8
447.139	716.08
447.513	719.25
447.887	698.68
448.262	750.21
448.636	726.03
449.01	739.59
449.384	737.33
449.758	755.4
450.132	764.67
450.506	739.59
450.88	761.28
451.254	780.04
451.628	764.22
452.002	777.1
452.376	803.31
452.75	796.31
453.123	807.83
453.497	806.7
453.871	804.89
454.244	825.68
454.618	806.02
454.992	816.65
455.365	829.07
455.739	836.08
456.112	846.93
456.486	840.83
456.859	865.46
457.232	828.17
457.606	870.66
457.979	873.14
458.352	875.17
458.725	884.44
459.099	888.51
459.472	887.6
459.845	912.69
460.218	896.19
460.591	902.74
460.964	919.24
461.337	936.87
461.71	912.24
462.083	959.47
462.456	938.9
462.829	926.7
463.201	974.38
463.574	962.4
463.947	972.35
464.32	988.39
464.692	992.46
465.065	978.45
465.438	1014.83
465.81	1000.14
466.183	1003.31
466.555	993.36
466.928	1013.93
467.3	1025.45
467.672	1014.38
468.045	1051.89
468.417	1053.02
468.789	1075.85
469.161	1055.51
469.534	1076.98
469.906	1076.98
470.278	1106.36
470.65	1087.15
471.022	1112.68
471.394	1122.17
471.766	1115.85
472.138	1142.06
472.51	1132.12
472.882	1156.3
473.253	1178.44
473.625	1163.98
473.997	1171.44
474.369	1203.53
474.74	1224.09
475.112	1195.17
475.484	1243.3
475.855	1222.28
476.227	1229.74
476.598	1277.2
476.97	1258.67
477.341	1288.05
477.713	1279.01
478.084	1282.4
478.455	1319
478.827	1309.97
479.198	1344.09
479.569	1344.09
479.94	1348.38
480.311	1368.5
480.682	1371.21
481.053	1406.23
481.424	1399.45
481.795	1408.49
482.166	1417.99
482.537	1461.83
482.908	1448.94
483.279	1442.39
483.65	1437.65
484.021	1481.94
484.391	1497.53
484.762	1520.81
485.133	1466.8
485.503	1503.63
485.874	1526.68
486.244	1527.36
486.615	1579.79
486.985	1558.55
487.356	1569.39
487.726	1551.77
488.097	1568.72
488.467	1563.29
488.837	1570.98
489.207	1608.04
489.578	1561.71
489.948	1600.13
490.318	1583.63
490.688	1618.43
491.058	1627.7
491.428	1599.45
491.798	1608.26
492.168	1645.55
492.538	1648.71
492.908	1626.57
493.278	1644.42
493.648	1620.47
494.017	1622.95
494.387	1632.44
494.757	1655.27
495.126	1646.68
495.496	1637.41
495.866	1644.19
496.235	1630.86
496.605	1662.5
496.974	1643.97
497.344	1654.14
497.713	1650.75
498.082	1623.63
498.452	1676.74
498.821	1660.24
499.19	1636.51
499.559	1633.8
499.928	1652.56
500.298	1647.58
500.667	1628.38
501.036	1672.89
501.405	1643.97
501.774	1639
502.143	1622.5
502.512	1624.08
502.88	1651.43
503.249	1622.27
503.618	1641.48
503.987	1646.68
504.356	1657.3
504.724	1608.26
505.093	1643.52
505.462	1604.65
505.83	1604.87
506.199	1589.05
506.567	1587.7
506.936	1618.43
507.304	1589.28
507.672	1588.6
508.041	1591.77
508.409	1589.73
508.777	1599.45
509.145	1608.49
509.514	1577.76
509.882	1587.02
510.25	1590.64
510.618	1576.85
510.986	1559.9
511.354	1559.9
511.722	1582.5
512.09	1562.61
512.458	1574.37
512.826	1547.25
513.193	1552.45
513.561	1540.92
513.929	1538.66
514.297	1564.87
514.664	1550.41
515.032	1538.43
515.4	1547.25
515.767	1518.55
516.135	1523.07
516.502	1507.7
516.869	1525.33
517.237	1542.95
517.604	1488.49
517.972	1495.72
518.339	1506.57
518.706	1479.23
519.073	1478.77
519.44	1482.39
519.808	1488.04
520.175	1458.44
520.542	1453.01
520.909	1457.53
521.276	1448.72
521.643	1458.89
522.009	1445.33
522.376	1493.46
522.743	1449.4
523.11	1474.93
523.477	1444.88
523.843	1470.41
524.21	1459.79
524.577	1463.18
524.943	1448.94
525.31	1474.71
525.676	1459.11
526.043	1472.22
526.409	1451.88
526.776	1460.47
527.142	1446.91
527.508	1436.97
527.874	1424.76
528.241	1450.3
528.607	1429.96
528.973	1433.35
529.339	1442.39
529.705	1405.1
530.071	1430.41
530.437	1438.1
530.803	1453.46
531.169	1425.22
531.535	1427.02
531.901	1413.92
532.267	1390.87
532.632	1449.17
532.998	1431.54
533.364	1429.51
533.73	1409.17
534.095	1428.38
534.461	1411.21
534.826	1417.31
535.192	1428.61
535.557	1444.43
535.923	1385.22
536.288	1400.81
536.653	1424.76
537.019	1415.95
537.384	1411.66
537.749	1392
538.114	1401.26
538.479	1416.18
538.845	1383.41
539.21	1393.13
539.575	1387.7
539.94	1399.45
540.305	1378.89
540.67	1387.48
541.034	1406.91
541.399	1412.56
541.764	1373.69
542.129	1374.82
542.494	1367.37
542.858	1394.71
543.223	1361.49
543.587	1364.2
543.952	1376.63
544.316	1380.92
544.681	1369.17
545.045	1368.04
545.41	1342.28
545.774	1363.75
546.138	1403.07
546.503	1353.58
546.867	1335.95
547.231	1350.42
547.595	1338.67
547.959	1341.15
548.324	1351.55
548.688	1338.44
549.052	1381.38
549.416	1321.26
549.779	1322.62
550.143	1360.36
550.507	1340.93
550.871	1337.99
551.235	1333.02
551.599	1333.24
551.962	1324.2
552.326	1315.16
552.689	1324.65
553.053	1325.56
553.417	1330.3
553.78	1347.25
554.143	1309.51
554.507	1308.38
554.87	1299.57
555.234	1323.52
555.597	1312
555.96	1304.99
556.323	1320.81
556.686	1295.05
557.05	1308.84
557.413	1325.11
557.776	1299.8
558.139	1341.6
558.502	1319.91
558.865	1282.17
559.228	1304.54
559.59	1292.56
559.953	1301.83
560.316	1290.53
560.679	1301.15
561.041	1297.54
561.404	1298.67
561.767	1312
562.129	1274.71
562.492	1304.99
562.854	1320.36
563.217	1333.69
563.579	1289.85
563.941	1310.64
564.304	1309.29
564.666	1300.93
565.028	1330.76
565.39	1315.84
565.753	1325.78
566.115	1330.3
566.477	1365.56
566.839	1343.19
567.201	1330.53
567.563	1333.02
567.925	1328.95
568.287	1343.64
568.648	1325.56
569.01	1337.54
569.372	1314.71
569.734	1344.09
570.095	1340.25
570.457	1329.63
570.819	1345.67
571.18	1346.57
571.542	1335.28
571.903	1343.41
572.265	1369.4
572.626	1364.65
572.987	1347.93
573.349	1351.09
573.71	1336.86
574.071	1372.56
574.432	1384.77
574.794	1385.44
575.155	1422.96
575.516	1397.87
575.877	1389.96
576.238	1416.86
576.599	1395.84
576.96	1405.1
577.32	1430.41
577.681	1397.87
578.042	1416.4
578.403	1399.68
578.763	1406.69
579.124	1423.18
579.485	1433.35
579.845	1467.48
580.206	1420.25
580.566	1430.87
580.927	1426.8
581.287	1424.76
581.648	1433.8
582.008	1439.68
582.368	1462.28
582.728	1453.24
583.089	1451.43
583.449	1453.46
583.809	1440.36
584.169	1466.8
584.529	1442.84
584.889	1446.46
585.249	1454.37
585.609	1479
585.969	1468.38
586.329	1476.51
586.688	1464.09
587.048	1458.44
587.408	1475.84
587.768	1492.56
588.127	1500.7
588.487	1470.41
588.846	1503.63
589.206	1454.82
589.565	1472.67
589.925	1492.11
590.284	1457.98
590.643	1441.26
591.003	1461.6
591.362	1505.67
591.721	1470.41
592.08	1480.13
592.44	1508.38
592.799	1487.14
593.158	1508.38
593.517	1497.76
593.876	1479.45
594.235	1503.63
594.593	1455.27
594.952	1454.82
595.311	1484.42
595.67	1507.7
596.029	1492.56
596.387	1471.54
596.746	1494.82
597.104	1487.14
597.463	1480.13
597.822	1478.1
598.18	1504.08
598.538	1461.83
598.897	1491.2
599.255	1480.81
599.613	1516.06
599.972	1476.97
600.33	1507.25
600.688	1460.24
601.046	1459.11
601.404	1488.94
601.762	1472.45
602.12	1462.28
602.478	1487.36
602.836	1488.94
603.194	1465.89
603.552	1467.02
603.91	1488.94
604.268	1498.44
604.625	1498.44
604.983	1463.86
605.341	1454.82
605.698	1475.61
606.056	1483.07
606.413	1483.97
606.771	1504.08
607.128	1493.01
607.485	1494.59
607.843	1476.74
608.2	1477.19
608.557	1499.79
608.914	1474.03
609.272	1488.94
609.629	1473.8
609.986	1487.81
610.343	1488.94
610.7	1471.77
611.057	1476.51
611.414	1499.11
611.771	1468.38
612.127	1502.28
612.484	1484.42
612.841	1481.26
613.198	1515.16
613.554	1498.89
613.911	1497.53
614.267	1491.66
614.624	1493.24
614.98	1475.16
615.337	1491.2
615.693	1489.4
616.05	1472.9
616.406	1524.2
616.762	1479.68
617.118	1483.29
617.475	1482.16
617.831	1503.86
618.187	1513.12
618.543	1526.91
618.899	1497.76
619.255	1511.09
619.611	1485.33
619.967	1527.59
620.323	1532.78
620.678	1502.5
621.034	1485.78
621.39	1504.08
621.746	1521.26
622.101	1521.71
622.457	1520.13
622.812	1515.61
623.168	1479.23
623.523	1537.3
623.879	1500.02
624.234	1504.99
624.589	1499.34
624.945	1501.37
625.3	1500.47
625.655	1512.45
626.01	1517.19
626.365	1508.15
626.72	1530.98
627.075	1533.69
627.43	1521.26
627.785	1520.36
628.14	1544.76
628.495	1528.04
628.85	1511.09
629.205	1517.87
629.559	1519.23
629.914	1527.36
630.269	1540.92
630.623	1528.72
630.978	1549.28
631.332	1563.74
631.687	1540.47
632.041	1529.85
632.396	1525.78
632.75	1532.56
633.104	1531.2
633.459	1541.6
633.813	1506.8
634.167	1527.13
634.521	1538.43
634.875	1535.04
635.229	1525.33
635.583	1530.52
635.937	1530.07
636.291	1521.71
636.645	1529.62
636.999	1538.66
637.352	1521.49
637.706	1512.22
638.06	1519.45
638.413	1520.81
638.767	1527.36
639.121	1524.2
639.474	1522.62
639.828	1516.74
640.181	1529.39
640.534	1554.93
640.888	1560.58
641.241	1512.67
641.594	1533.01
641.947	1533.46
642.301	1508.15
642.654	1545.44
643.007	1557.87
643.36	1517.87
643.713	1537.08
644.066	1508.6
644.419	1562.39
644.771	1514.48
645.124	1506.57
645.477	1545.44
645.83	1555.83
646.182	1493.92
646.535	1499.79
646.888	1512.45
647.24	1527.59
647.593	1527.36
647.945	1528.26
648.298	1522.84
648.65	1510.41
649.002	1519.9
649.355	1514.71
649.707	1542.05
650.059	1500.02
650.411	1551.32
650.763	1569.17
651.115	1571.65
651.467	1559.9
651.819	1551.99
652.171	1566.68
652.523	1532.11
652.875	1568.49
653.227	1573.91
653.578	1566.23
653.93	1570.07
654.282	1570.52
654.633	1580.01
654.985	1572.56
655.337	1584.99
655.688	1562.39
656.039	1582.05
656.391	1575.27
656.742	1593.35
657.094	1610.3
657.445	1597.64
657.796	1584.08
658.147	1601.71
658.498	1592.67
658.849	1606.91
659.2	1589.96
659.551	1615.72
659.902	1627.92
660.253	1631.31
660.604	1612.33
660.955	1594.03
661.306	1606.91
661.656	1619.11
662.007	1614.14
662.358	1586.57
662.708	1593.35
663.059	1622.95
663.409	1622.5
663.76	1625.66
664.11	1643.97
664.461	1624.53
664.811	1655.72
665.161	1627.7
665.511	1637.19
665.862	1591.31
666.212	1616.62
666.562	1636.74
666.912	1640.13
667.262	1617.53
667.612	1628.6
667.962	1637.64
668.312	1618.66
668.662	1619.79
669.011	1623.86
669.361	1623.4
669.711	1619.56
670.06	1622.05
670.41	1606.23
670.76	1595.16
671.109	1617.3
671.459	1627.7
671.808	1613.23
672.157	1636.28
672.507	1598.77
672.856	1598.55
673.205	1619.79
673.554	1596.51
673.904	1607.36
674.253	1630.18
674.602	1595.83
674.951	1554.7
675.3	1561.48
675.649	1600.58
675.998	1609.62
676.346	1582.05
676.695	1612.33
677.044	1617.75
677.393	1564.42
677.741	1595.83
678.09	1563.74
678.438	1580.01
678.787	1559.45
679.135	1578.89
679.484	1588.15
679.832	1550.19
680.181	1542.05
680.529	1535.95
680.877	1547.7
681.225	1585.89
681.573	1541.37
681.922	1543.86
682.27	1567.59
682.618	1554.93
682.966	1575.04
683.314	1526.46
683.661	1526.46
684.009	1530.07
684.357	1526.23
684.705	1493.24
685.053	1543.86
685.4	1515.16
685.748	1487.59
686.095	1473.58
686.443	1521.03
686.79	1483.07
687.138	1500.92
687.485	1516.06
687.832	1498.89
688.18	1516.06
688.527	1478.55
688.874	1492.33
689.221	1482.39
689.568	1481.71
689.915	1489.4
690.262	1470.64
690.609	1464.31
690.956	1471.09
691.303	1468.83
691.65	1448.27
691.997	1452.79
692.344	1421.15
692.69	1452.33
693.037	1459.57
693.383	1438.32
693.73	1427.93
694.077	1449.4
694.423	1428.15
694.769	1433.8
695.116	1444.88
695.462	1419.57
695.808	1413.47
696.155	1420.47
696.501	1417.08
696.847	1390.87
697.193	1403.3
697.539	1391.32
697.885	1387.03
698.231	1383.64
698.577	1399.45
698.923	1373.01
699.269	1390.42
699.614	1347.93
699.96	1387.25
700.306	1357.2
700.651	1314.26
700.997	1365.78
701.342	1356.29
701.688	1375.95
702.033	1369.63
702.379	1336.41
702.724	1352.68
703.069	1349.51
703.415	1330.53
703.76	1366.69
704.105	1342.96
704.45	1373.92
704.795	1337.76
705.14	1329.63
705.485	1328.95
705.83	1328.5
706.175	1327.82
706.52	1368.95
706.865	1335.95
707.209	1345.44
707.554	1323.52
707.899	1326.24
708.243	1308.16
708.588	1314.49
708.932	1338.67
709.277	1315.39
709.621	1342.51
709.966	1333.24
710.31	1319.46
710.654	1336.18
710.998	1342.28
711.342	1372.56
711.687	1316.29
712.031	1323.75
712.375	1315.16
712.719	1364.65
713.063	1338.44
713.407	1345.67
713.75	1310.64
714.094	1338.89
714.438	1357.87
714.782	1366.69
715.125	1347.48
715.469	1379.57
715.812	1343.41
716.156	1354.94
716.499	1340.25
716.843	1369.85
717.186	1353.58
717.53	1371.66
717.873	1348.16
718.216	1351.77
718.559	1398.78
718.902	1371.43
719.246	1365.78
719.589	1384.31
719.932	1370.3
720.275	1394.71
720.617	1408.95
720.96	1398.1
721.303	1402.17
721.646	1417.31
721.989	1382.51
722.331	1427.25
722.674	1428.61
723.016	1428.15
723.359	1430.64
723.701	1416.63
724.044	1431.77
724.386	1422.96
724.729	1467.48
725.071	1435.61
725.413	1441.26
725.755	1448.49
726.097	1472.9
726.439	1462.73
726.782	1467.48
727.124	1471.54
727.465	1487.59
727.807	1488.72
728.149	1481.26
728.491	1493.46
728.833	1517.87
729.175	1526.91
729.516	1514.25
729.858	1522.39
730.199	1536.63
730.541	1538.43
730.882	1541.37
731.224	1530.98
731.565	1541.15
731.906	1572.33
732.248	1550.86
732.589	1570.75
732.93	1576.17
733.271	1601.26
733.612	1604.65
733.953	1609.17
734.294	1626.57
734.635	1605.33
734.976	1652.78
735.317	1616.62
735.658	1629.51
735.999	1683.52
736.339	1674.7
736.68	1692.1
737.021	1715.15
737.361	1689.39
737.702	1714.47
738.042	1748.37
738.383	1757.19
738.723	1753.34
739.063	1764.87
739.404	1788.6
739.744	1756.28
740.084	1759.22
740.424	1808.94
740.764	1846
741.104	1843.06
741.444	1869.72
741.784	1910.85
742.124	1921.93
742.464	1916.05
742.804	1940.23
743.143	1983.85
743.483	1992.21
743.823	2011.42
744.162	2025.43
744.502	2081.7
744.841	2080.57
745.181	2134.35
745.52	2119.89
745.86	2153.11
746.199	2179.77
746.538	2200.34
746.877	2271.75
747.216	2296.15
747.556	2308.36
747.895	2324.85
748.234	2378.86
748.573	2409.15
748.911	2414.57
749.25	2453.89
749.589	2484.17
749.928	2532.98
750.267	2569.37
750.605	2610.5
750.944	2637.84
751.283	2663.15
751.621	2789.47
751.96	2766.42
752.298	2822.47
752.636	2850.94
752.975	2889.59
753.313	2943.37
753.651	2993.54
753.989	3014.55
754.327	3090.26
754.666	3144.95
755.004	3195.79
755.342	3221.33
755.679	3299.29
756.017	3348.56
756.355	3387.2
756.693	3392.4
757.031	3509
757.368	3542
757.706	3609.57
758.044	3631.71
758.381	3701.54
758.719	3770.01
759.056	3794.65
759.394	3881.65
759.731	3882.1
760.068	3956.9
760.405	3983.34
760.743	4047.52
761.08	4083.68
761.417	4198.03
761.754	4188.76
762.091	4290.45
762.428	4275.09
762.765	4315.31
763.102	4386.49
763.438	4449.09
763.775	4472.59
764.112	4577
764.449	4635.3
764.785	4661.74
765.122	4672.14
765.458	4724.57
765.795	4748.29
766.131	4816.54
766.467	4789.65
766.804	4875.07
767.14	4925.46
767.476	4952.13
767.812	4985.58
768.148	5026.7
768.485	5038.23
768.821	5088.17
769.157	5164.78
769.492	5162.52
769.828	5243.42
770.164	5250.88
770.5	5271.9
770.836	5301.95
771.171	5306.02
771.507	5368.16
