Data from blue_clamp_base_FLMS001491_00018.txt Node
Date: Wed Feb 08 15:15:38 GMT 2017
User: dcchb
Spectrometer: FLMS00149
Trigger mode: 0
Integration Time (sec): 2.000000E-2
Scans to average: 10
Electric dark correction enabled: true
Nonlinearity correction enabled: false
Boxcar width: 0
XAxis mode: Wavelengths
Number of Pixels in Spectrum: 2048
>>>>>Begin Spectral Data<<<<<
341.393	-15.61
341.776	-15.61
342.16	-15.61
342.543	-47.24
342.927	-72.33
343.31	-61.03
343.693	-90.18
344.077	-83.4
344.46	-54.02
344.843	-65.1
345.226	-41.14
345.61	-42.72
345.993	1.57
346.376	3.38
346.759	26.2
347.142	22.13
347.525	55.8
347.908	69.36
348.291	56.71
348.674	90.15
349.057	112.3
349.44	121.79
349.823	143.48
350.206	168.34
350.588	202.24
350.971	229.36
351.354	220.32
351.737	236.36
352.119	256.93
352.502	249.92
352.884	249.92
353.267	272.07
353.65	297.38
354.032	288.11
354.414	317.72
354.797	296.02
355.179	326.3
355.562	325.4
355.944	330.6
356.326	306.87
356.709	331.28
357.091	353.2
357.473	342.35
357.855	336.93
358.238	362.24
358.62	342.8
359.002	346.87
359.384	332.86
359.766	347.32
360.148	345.74
360.53	346.87
360.912	311.39
361.294	351.39
361.676	327.21
362.057	340.54
362.439	343.93
362.821	311.62
363.203	331.95
363.584	334.89
363.966	319.75
364.348	320.43
364.729	337.38
365.111	335.57
365.493	326.08
365.874	339.41
366.256	328.11
366.637	329.69
367.019	286.31
367.4	335.57
367.781	332.86
368.163	327.89
368.544	318.62
368.925	310.71
369.306	326.3
369.688	327.21
370.069	309.13
370.45	315.01
370.831	314.55
371.212	282.92
371.593	319.75
371.974	312.52
372.355	316.59
372.736	305.97
373.117	333.54
373.498	331.05
373.879	323.14
374.26	306.87
374.641	300.99
375.021	309.81
375.402	346.19
375.783	323.59
376.163	323.82
376.544	346.87
376.925	315.91
377.305	350.49
377.686	354.33
378.066	347.32
378.447	344.38
378.827	335.57
379.208	359.07
379.588	360.88
379.968	340.32
380.349	350.26
380.729	330.37
381.109	370.6
381.489	348.45
381.87	334.21
382.25	359.98
382.63	370.37
383.01	351.16
383.39	384.16
383.77	358.62
384.15	365.85
384.53	375.8
384.91	355.68
385.29	382.12
385.67	352.74
386.049	368.34
386.429	379.64
386.809	388.22
387.189	398.17
387.568	377.15
387.948	358.85
388.328	387.32
388.707	372.86
389.087	391.39
389.466	397.49
389.846	406.53
390.225	409.92
390.605	403.14
390.984	413.53
391.363	409.01
391.743	410.82
392.122	422.35
392.501	451.05
392.881	418.96
393.26	425.29
393.639	445.4
394.018	435.91
394.397	452.18
394.776	452.4
395.155	455.57
395.534	453.99
395.913	440.65
396.292	483.81
396.671	446.3
397.05	475.91
397.429	473.42
397.808	504.83
398.186	482.23
398.565	453.99
398.944	499.41
399.323	502.57
399.701	507.77
400.08	503.25
400.458	503.93
400.837	500.99
401.215	509.13
401.594	516.58
401.972	544.15
402.351	559.07
402.729	520.65
403.107	545.06
403.486	554.1
403.864	549.8
404.242	556.13
404.62	551.84
404.999	554.32
405.377	570.14
405.755	565.62
406.133	599.29
406.511	599.52
406.889	605.39
407.267	604.49
407.645	607.2
408.023	617.6
408.401	620.53
408.779	629.8
409.156	661.89
409.534	649.23
409.912	665.05
410.29	686.07
410.667	663.02
411.045	659.63
411.422	671.38
411.8	690.82
412.178	677.93
412.555	709.57
412.933	719.29
413.31	721.1
413.687	724.26
414.065	738.5
414.442	743.47
414.819	772.17
415.197	786.63
415.574	772.85
415.951	819.17
416.328	802.45
416.705	803.13
417.082	806.52
417.46	814.2
417.837	820.3
418.214	845.84
418.591	864.14
418.967	851.04
419.344	886.06
419.721	852.84
420.098	858.72
420.475	876.35
420.852	870.92
421.228	893.3
421.605	892.17
421.982	922.45
422.358	925.61
422.735	929.23
423.111	954.76
423.488	946.4
423.864	955.21
424.241	961.09
424.617	969.68
424.994	978.27
425.37	1008.09
425.746	993.63
426.123	1005.84
426.499	1025.27
426.875	1039.51
427.251	1038.38
427.627	1070.01
428.003	1070.47
428.379	1107.08
428.756	1084.25
429.132	1116.11
429.507	1128.54
429.883	1164.48
430.259	1157.7
430.635	1165.6
431.011	1191.59
431.387	1211.25
431.763	1237.24
432.138	1224.36
432.514	1253.51
432.89	1260.07
433.265	1287.41
433.641	1309.56
434.016	1326.73
434.392	1307.3
434.767	1373.74
435.143	1349.1
435.518	1380.51
435.894	1387.29
436.269	1378.93
436.644	1404.92
437.02	1485.6
437.395	1466.84
437.77	1453.06
438.145	1471.13
438.52	1503
438.895	1547.29
439.271	1548.65
439.646	1585.93
440.021	1576.44
440.395	1582.77
440.77	1585.03
441.145	1597.68
441.52	1667.74
441.895	1644.01
442.27	1643.33
442.645	1670.68
443.019	1652.15
443.394	1671.81
443.769	1711.81
444.143	1748.41
444.518	1708.64
444.892	1785.93
445.267	1787.06
445.641	1743.22
446.016	1800.16
446.39	1808.98
446.764	1779.6
447.139	1813.72
447.513	1831.35
447.887	1858.47
448.262	1857.56
448.636	1858.47
449.01	1890.33
449.384	1903.89
449.758	1917
450.132	1935.75
450.506	1979.82
450.88	1970.1
451.254	1949.99
451.628	2003.77
452.002	2050.78
452.376	2059.82
452.75	2073.6
453.123	2074.28
453.497	2112.92
453.871	2145.92
454.244	2161.28
454.618	2211.45
454.992	2216.42
455.365	2250.1
455.739	2257.1
456.112	2284.22
456.486	2330.09
456.859	2326.03
457.232	2375.06
457.606	2346.14
457.979	2427.49
458.352	2444.22
458.725	2505
459.099	2507.04
459.472	2536.87
459.845	2531.22
460.218	2545
460.591	2609.41
460.964	2608.28
461.337	2682.63
461.71	2679.24
462.083	2705.68
462.456	2756.07
462.829	2723.3
463.201	2813.7
463.574	2779.57
463.947	2828.16
464.32	2913.58
464.692	2938.89
465.065	2954.94
465.438	3013.01
465.81	3034.03
466.183	3040.36
466.555	3097.98
466.928	3107.25
467.3	3108.38
467.672	3156.29
468.045	3248.04
468.417	3262.95
468.789	3285.32
469.161	3303.85
469.534	3343.63
469.906	3415.94
470.278	3413.23
470.65	3481.48
471.022	3486
471.394	3558.99
471.766	3605.99
472.138	3637.63
472.51	3747.46
472.882	3742.71
473.253	3789.26
473.625	3820.22
473.997	3904.52
474.369	3902.03
474.74	3973.89
475.112	4033.1
475.484	4097.96
475.855	4139.76
476.227	4168.46
476.598	4217.05
476.97	4313.54
477.341	4393.09
477.713	4459.53
478.084	4457.04
478.455	4566.42
478.827	4615.23
479.198	4693.42
479.569	4737.94
479.94	4829.69
480.311	4850.48
480.682	4952.4
481.053	5009.57
481.424	5122.56
481.795	5121.89
482.166	5192.84
482.537	5266.29
482.908	5359.17
483.279	5372.5
483.65	5480.07
484.021	5530.91
484.391	5558.26
484.762	5645.94
485.133	5658.14
485.503	5723.45
485.874	5842.09
486.244	5849.32
486.615	5952.37
486.985	5997.57
487.356	6101.29
487.726	6069.43
488.097	6225.81
488.467	6199.14
488.837	6329.31
489.207	6376.09
489.578	6463.32
489.948	6499.02
490.318	6588.74
490.688	6543.32
491.058	6643.65
491.428	6723.88
491.798	6762.07
492.168	6843.87
492.538	6779.24
492.908	6877.77
493.278	6958.9
493.648	6986.47
494.017	7035.06
494.387	7108.27
494.757	7119.35
495.126	7214.03
495.496	7151.89
495.866	7186.46
496.235	7233.02
496.605	7343.97
496.974	7284.54
497.344	7425.78
497.713	7363.86
498.082	7450.19
498.452	7549.17
498.821	7516.4
499.19	7509.62
499.559	7642.95
499.928	7643.4
500.298	7645.21
500.667	7691.99
501.036	7624.42
501.405	7750.29
501.774	7717.3
502.143	7748.26
502.512	7797.75
502.88	7868.03
503.249	7811.98
503.618	7909.83
503.987	7859.67
504.356	7924.98
504.724	7967.46
505.093	7933.11
505.462	8033.67
505.83	8040.23
506.199	8091.52
506.567	8160
506.936	8134.01
507.304	8220.79
507.672	8244.29
508.041	8197.51
508.409	8299.65
508.777	8335.13
509.145	8369.26
509.514	8341.01
509.882	8393.66
510.25	8439.76
510.618	8475.47
510.986	8487.45
511.354	8490.38
511.722	8547.33
512.09	8655.58
512.458	8583.94
512.826	8624.84
513.193	8626.2
513.561	8720.21
513.929	8711.4
514.297	8844.5
514.664	8777.16
515.032	8842.69
515.4	8852.86
515.767	8853.09
516.135	8976.02
516.502	8881.56
516.869	9074.32
517.237	9064.38
517.604	8977.83
517.972	9120.65
518.339	9106.41
518.706	9112.97
519.073	9155.45
519.44	9168.78
519.808	9274.54
520.175	9245.62
520.542	9264.6
520.909	9339.4
521.276	9333.75
521.643	9406.74
522.009	9488.1
522.376	9500.98
522.743	9529.45
523.11	9667.53
523.477	9684.7
523.843	9740.07
524.21	9753.63
524.577	9821.2
524.943	9764.25
525.31	9867.75
525.676	9979.16
526.043	10047.63
526.409	10075.43
526.776	10141.87
527.142	10163.56
527.508	10180.74
527.874	10311.58
528.241	10250.11
528.607	10247.17
528.973	10357.68
529.339	10337.57
529.705	10389.77
530.071	10574.85
530.437	10553.61
530.803	10569.65
531.169	10572.59
531.535	10579.59
531.901	10632.25
532.267	10737.78
532.632	10733.94
532.998	10712.47
533.364	10815.97
533.73	10899.13
534.095	10937.33
534.461	10901.85
534.826	10931.45
535.192	10918.57
535.557	11059.36
535.923	11000.83
536.288	11078.11
536.653	11153.36
537.019	11160.6
537.384	11166.7
537.749	11161.73
538.114	11247.15
538.479	11246.47
538.845	11320.59
539.21	11265.45
539.575	11315.85
539.94	11469.97
540.305	11448.72
540.67	11362.4
541.034	11530.08
541.399	11548.38
541.764	11496.63
542.129	11601.04
542.494	11613.47
542.858	11624.54
543.223	11612.34
543.587	11684.65
543.952	11661.15
544.316	11727.36
544.681	11756.29
545.045	11770.52
545.41	11754.48
545.774	11859.56
546.138	11827.47
546.503	11892.55
546.867	11853.23
547.231	11997.86
547.595	11979.78
547.959	11992.89
548.324	12001.03
548.688	12021.59
549.052	12138.65
549.416	12125.77
549.779	12115.6
550.143	12134.13
550.507	12259.78
550.871	12161.7
551.235	12171.64
551.599	12313.33
551.962	12301.36
552.326	12356.27
552.689	12455.7
553.053	12318.53
553.417	12322.15
553.78	12500
554.143	12442.37
554.507	12459.77
554.87	12511.97
555.234	12594.68
555.597	12592.88
555.96	12672.42
556.323	12688.69
556.686	12673.1
557.05	12764.4
557.413	12839.65
557.776	12797.16
558.139	12895.69
558.502	12815.92
558.865	12840.55
559.228	12980.66
559.59	13026.08
559.953	13000.55
560.316	13177.49
560.679	13103.6
561.041	13143.37
561.404	13167.1
561.767	13372.06
562.129	13254.1
562.492	13372.74
562.854	13315.34
563.217	13438.95
563.579	13371.84
563.941	13453.87
564.304	13476.92
564.666	13539.06
565.028	13565.73
565.39	13538.84
565.753	13675.11
566.115	13725.73
566.477	13767.31
566.839	13935.21
567.201	13946.51
567.563	13844.37
567.925	13907.64
568.287	14134.76
568.648	14080.52
569.01	14085.72
569.372	14220.4
569.734	14143.12
570.095	14288.2
570.457	14264.24
570.819	14288.88
571.18	14362.32
571.542	14436.44
571.903	14466.5
572.265	14624.46
572.626	14548.98
572.987	14652.26
573.349	14737.45
573.71	14755.98
574.071	14713.95
574.432	14862.87
574.794	14897.67
575.155	14971.34
575.516	14829.43
575.877	15038.46
576.238	14941.97
576.599	15012.92
576.96	15051.57
577.32	15067.61
577.681	15091.57
578.042	15181.73
578.403	15102.19
578.763	15246.59
579.124	15266.25
579.485	15150.55
579.845	15325.91
580.206	15303.76
580.566	15380.15
580.927	15356.64
581.287	15486.81
581.648	15367.49
582.008	15492.91
582.368	15407.94
582.728	15501.05
583.089	15480.71
583.449	15447.04
583.809	15492.01
584.169	15522.52
584.529	15459.24
584.889	15640.93
585.249	15508.96
585.609	15531.1
585.969	15638.67
586.329	15571.55
586.688	15620.59
587.048	15607.03
587.408	15663.98
587.768	15632.12
588.127	15574.04
588.487	15601.16
588.846	15646.81
589.206	15645.45
589.565	15630.08
589.925	15798.89
590.284	15649.29
590.643	15670.53
591.003	15752.11
591.362	15817.88
591.721	15769.74
592.08	15721.15
592.44	15858.78
592.799	15908.27
593.158	15740.36
593.517	15828.5
593.876	15808.16
594.235	15834.15
594.593	15837.99
594.952	15924.76
595.311	15783.53
595.67	15953.46
596.029	16003.41
596.387	15931.09
596.746	16033.91
597.104	15996.63
597.463	15889.06
597.822	15991.88
598.18	15949.4
598.538	15987.36
598.897	16042.05
599.255	15892.68
599.613	16118.88
599.972	16021.71
600.33	16117.98
600.688	16014.48
601.046	16072.33
601.404	16148.94
601.762	16154.59
602.12	16146.91
602.478	16212.67
602.836	16188.26
603.194	16152.1
603.552	16212.89
603.91	16050.86
604.268	16315.49
604.625	16161.14
604.983	16264.64
605.341	16153.91
605.698	16315.72
606.056	16230.07
606.413	16288.37
606.771	16301.25
607.128	16344.41
607.485	16260.12
607.843	16300.35
608.2	16418.54
608.557	16476.61
608.914	16395.71
609.272	16506.67
609.629	16481.59
609.986	16515.03
610.343	16471.64
610.7	16527.91
611.057	16480
611.414	16495.37
611.771	16568.36
612.127	16671.19
612.484	16701.92
612.841	16658.3
613.198	16592.09
613.554	16590.51
613.911	16782.37
614.267	16752.99
614.624	16726.55
614.98	16713.9
615.337	16807.23
615.693	16918.19
616.05	16811.97
616.406	16907.79
616.762	16860.79
617.118	16857.62
617.475	16872.08
617.831	16885.64
618.187	16922.48
618.543	16943.27
618.899	17016.94
619.255	17084.73
619.611	17009.71
619.967	17163.6
620.323	17164.51
620.678	17007.67
621.034	17035.24
621.39	17069.82
621.746	17086.54
622.101	17174.9
622.457	17105.3
622.812	17252.87
623.168	17162.7
623.523	17201.57
623.879	17298.29
624.234	17182.36
624.589	17262.13
624.945	17254.45
625.3	17227.33
625.655	17284.28
626.01	17338.74
626.365	17384.39
626.72	17416.03
627.075	17313.65
627.43	17362.02
627.785	17352.3
628.14	17426.87
628.495	17358.17
628.85	17423.93
629.205	17362.24
629.559	17440.43
629.914	17302.36
630.269	17450.83
630.623	17420.32
630.978	17393.65
631.332	17560.88
631.687	17560.65
632.041	17549.35
632.396	17541.45
632.75	17493.09
633.104	17489.7
633.459	17525.63
633.813	17544.38
634.167	17495.57
634.521	17557.94
634.875	17565.17
635.229	17427.32
635.583	17416.25
635.937	17531.28
636.291	17451.28
636.645	17532.63
636.999	17521.56
637.352	17479.07
637.706	17470.49
638.06	17615.12
638.413	17522.69
638.767	17500.77
639.121	17516.36
639.474	17480.2
639.828	17556.59
640.181	17569.47
640.534	17581.44
640.888	17514.78
641.241	17500.32
641.594	17566.53
641.947	17715.45
642.301	17652.86
642.654	17518.85
643.007	17664.83
643.36	17585.96
643.713	17615.12
644.066	17725.4
644.419	17520.43
644.771	17577.38
645.124	17384.84
645.477	17420.54
645.83	17283.83
646.182	17329.25
646.535	17358.4
646.888	17256.93
647.24	17185.3
647.593	17313.88
647.945	17226.2
648.298	17178.97
648.65	17196.82
649.002	17174.9
649.355	17286.54
649.707	17305.07
650.059	17369.92
650.411	17577.38
650.763	17688.33
651.115	17852.4
651.467	17892.17
651.819	17804.49
652.171	17797.26
652.523	17866.18
652.875	17792.51
653.227	17728.11
653.578	17910.02
653.93	17872.28
654.282	17817.82
654.633	17843.13
654.985	17821.89
655.337	17904.6
655.688	17892.62
656.039	17926.07
656.391	17804.49
656.742	17848.1
657.094	17844.26
657.445	17948.89
657.796	17971.94
658.147	17936.24
658.498	17899.85
658.849	17948.89
659.2	17962.9
659.551	17930.14
659.902	17947.76
660.253	17978.27
660.604	18009.46
660.955	17880.42
661.306	18007.87
661.656	17940.31
662.007	17909.57
662.358	17981.21
662.708	17964.71
663.059	18037.25
663.409	17964.71
663.76	17961.1
664.11	18056.46
664.461	17947.99
664.811	17957.71
665.161	17954.77
665.511	17973.07
665.862	17971.94
666.212	18020.3
666.562	17982.56
666.912	17905.73
667.262	17847.88
667.612	17935.33
667.962	17864.6
668.312	17881.1
668.662	18017.37
669.011	18005.84
669.361	17868.22
669.711	17981.43
670.06	17889.91
670.41	17900.31
670.76	17785.73
671.109	17852.62
671.459	17856.47
671.808	17739.63
672.157	17708.22
672.507	17742.34
672.856	17616.02
673.205	17689.01
673.554	17740.54
673.904	17652.18
674.253	17748.45
674.602	17631.61
674.951	17357.72
675.3	17407.89
675.649	17500.32
675.998	17651.5
676.346	17565.63
676.695	17531.73
677.044	17435.01
677.393	17382.13
677.741	17389.81
678.09	17340.32
678.438	17366.08
678.787	17298.97
679.135	17347.1
679.484	17217.84
679.832	17288.12
680.181	17143.94
680.529	17148.46
680.877	17161.12
681.225	17068.69
681.573	17311.85
681.922	17116.82
682.27	17020.78
682.618	17099.2
682.966	17011.97
683.314	17052.64
683.661	16972.87
684.009	16806.1
684.357	16835.7
684.705	16702.6
685.053	16775.36
685.4	16691.75
685.748	16632.32
686.095	16640.9
686.443	16620.34
686.79	16525.88
687.138	16606.78
687.485	16564.75
687.832	16562.71
688.18	16508.93
688.527	16474.81
688.874	16502.6
689.221	16404.98
689.568	16369.5
689.915	16284.98
690.262	16334.47
690.609	16296.28
690.956	16270.74
691.303	16277.98
691.65	16179.45
691.997	16212.21
692.344	16067.13
692.69	16120.01
693.037	16051.09
693.383	16060.58
693.73	16087.7
694.077	15933.8
694.423	15998.21
694.769	15857.2
695.116	15895.39
695.462	15884.77
695.808	15846.35
696.155	15915.27
696.501	15746.69
696.847	15852
697.193	15665.79
697.539	15708.05
697.885	15671.21
698.231	15668.5
698.577	15669.18
698.923	15646.35
699.269	15548.5
699.614	15512.35
699.96	15588.73
700.306	15465.34
700.651	15492.46
700.997	15430.54
701.342	15450.88
701.688	15519.13
702.033	15354.38
702.379	15392.35
702.724	15409.52
703.069	15404.1
703.415	15320.49
703.76	15332.24
704.105	15208.17
704.45	15313.48
704.795	15240.04
705.14	15186.03
705.485	15146.93
705.83	15108.97
706.175	15160.94
706.52	15189.42
706.865	15047.27
707.209	15061.96
707.554	15092.92
707.899	15104
708.243	15022.64
708.588	15029.87
708.932	14963.89
709.277	14941.29
709.621	15057.67
709.966	14860.61
710.31	14924.79
710.654	14754.17
710.998	14900.61
711.342	14820.16
711.687	14811.8
712.031	14785.59
712.375	14759.6
712.719	14792.14
713.063	14771.57
713.407	14893.83
713.75	14810.9
714.094	14815.19
714.438	14720.05
714.782	14695.87
715.125	14640.96
715.469	14696.55
715.812	14593.27
716.156	14620.62
716.499	14582.88
716.843	14642.99
717.186	14538.36
717.53	14526.16
717.873	14646.83
718.216	14603.9
718.559	14560.06
718.902	14444.35
719.246	14586.27
719.589	14480.96
719.932	14412.04
720.275	14504.92
720.617	14420.62
720.96	14372.72
721.303	14418.14
721.646	14405.48
721.989	14330.46
722.331	14461.53
722.674	14407.74
723.016	14435.99
723.359	14379.04
723.701	14418.36
724.044	14323.23
724.386	14258.82
724.729	14440.51
725.071	14303.34
725.413	14290.23
725.755	14305.37
726.097	14247.07
726.439	14226.73
726.782	14236.67
727.124	14355.99
727.465	14274.86
727.807	14261.08
728.149	14187.18
728.491	14240.74
728.833	14306.28
729.175	14252.27
729.516	14178.6
729.858	14314.41
730.199	14207.3
730.541	14270.35
730.882	14206.17
731.224	14251.36
731.565	14172.72
731.906	14194.64
732.248	14233.96
732.589	14232.15
732.93	14174.53
733.271	14249.78
733.612	14234.64
733.953	14199.84
734.294	14299.04
734.635	14161.2
734.976	14296.56
735.317	14207.3
735.658	14320.06
735.999	14297.01
736.339	14237.13
736.68	14315.32
737.021	14316.45
737.361	14360.06
737.702	14400.51
738.042	14403.45
738.383	14378.36
738.723	14382.43
739.063	14439.15
739.404	14395.54
739.744	14434.86
740.084	14441.64
740.424	14393.28
740.764	14450.45
741.104	14450.23
741.444	14519.6
741.784	14489.77
742.124	14594.86
742.464	14570.68
742.804	14534.07
743.143	14554.63
743.483	14653.84
743.823	14538.13
744.162	14617
744.502	14616.32
744.841	14570.68
745.181	14692.48
745.52	14673.5
745.86	14742.2
746.199	14715.31
746.538	14787.17
746.877	14825.58
747.216	14779.48
747.556	14866.94
747.895	14953.04
748.234	14934.28
748.573	14855.41
748.911	14935.64
749.25	14963.43
749.589	14944
749.928	14933.6
750.267	15047.5
750.605	15051.57
750.944	15022.64
751.283	15059.25
751.621	15120.72
751.96	15011.34
752.298	15106.71
752.636	15092.24
752.975	15157.1
753.313	15129.53
753.651	15195.97
753.989	15164.78
754.327	15236.65
754.666	15139.25
755.004	15247.95
755.342	15354.84
755.679	15331.11
756.017	15205.01
756.355	15371.33
756.693	15372.24
