Data from blue_clamp_base_FLMS001491_00053.txt Node
Date: Wed Feb 08 15:16:12 GMT 2017
User: dcchb
Spectrometer: FLMS00149
Trigger mode: 0
Integration Time (sec): 2.000000E-2
Scans to average: 10
Electric dark correction enabled: true
Nonlinearity correction enabled: false
Boxcar width: 0
XAxis mode: Wavelengths
Number of Pixels in Spectrum: 2048
>>>>>Begin Spectral Data<<<<<
341.393	-11.02
341.776	-11.02
342.16	-11.02
342.543	-55.08
342.927	-78.59
343.31	-74.29
343.693	-55.54
344.077	-61.64
344.46	-60.28
344.843	-75.87
345.226	-32.03
345.61	-18.25
345.993	-8.76
346.376	-13.95
346.759	6.38
347.142	21.52
347.525	41.86
347.908	62.65
348.291	56.33
348.674	101.52
349.057	110.34
349.44	114.18
349.823	170.22
350.206	162.31
350.588	198.92
350.971	209.32
351.354	208.41
351.737	214.29
352.119	237.56
352.502	263.1
352.884	269.2
353.267	275.08
353.65	306.94
354.032	293.61
354.414	308.75
354.797	318.01
355.179	317.34
355.562	331.57
355.944	316.88
356.326	329.99
356.709	355.53
357.091	349.65
357.473	354.4
357.855	320.27
358.238	344.23
358.62	317.56
359.002	308.75
359.384	320.95
359.766	356.43
360.148	325.7
360.53	345.36
360.912	331.12
361.294	346.26
361.676	324.79
362.057	338.35
362.439	335.64
362.821	325.92
363.203	325.92
363.584	312.36
363.966	323.21
364.348	315.98
364.729	323.44
365.111	323.89
365.493	317.79
365.874	331.12
366.256	299.48
366.637	319.37
367.019	318.69
367.4	309.65
367.781	316.88
368.163	326.15
368.544	290.22
368.925	293.16
369.306	308.07
369.688	309.65
370.069	298.35
370.45	328.86
370.831	294.29
371.212	305.13
371.593	309.65
371.974	332.25
372.355	322.99
372.736	321.63
373.117	298.81
373.498	294.74
373.879	316.66
374.26	308.52
374.641	277.34
375.021	328.64
375.402	331.8
375.783	326.38
376.163	333.16
376.544	308.75
376.925	332.93
377.305	335.87
377.686	316.66
378.066	339.26
378.447	336.77
378.827	331.12
379.208	341.97
379.588	329.77
379.968	332.25
380.349	337.45
380.729	328.18
381.109	326.38
381.489	343.78
381.87	328.64
382.25	339.71
382.63	341.74
383.01	341.29
383.39	345.81
383.77	344
384.15	360.72
384.53	337
384.91	351.91
385.29	355.3
385.67	364.11
386.049	360.72
386.429	371.35
386.809	358.24
387.189	353.72
387.568	372.7
387.948	376.54
388.328	372.48
388.707	391.68
389.087	388.75
389.466	374.51
389.846	374.06
390.225	400.72
390.605	387.84
390.984	375.64
391.363	393.04
391.743	391.91
392.122	400.27
392.501	394.85
392.881	406.83
393.26	412.7
393.639	408.41
394.018	403.89
394.397	429.42
394.776	416.32
395.155	404.34
395.534	424.45
395.913	437.79
396.292	444.79
396.671	423.55
397.05	431.46
397.429	439.59
397.808	432.14
398.186	441.85
398.565	475.07
398.944	444.34
399.323	456.09
399.701	446.82
400.08	464.9
400.458	459.71
400.837	482.08
401.215	481.17
401.594	488.63
401.972	503.77
402.351	500.83
402.729	485.69
403.107	493.6
403.486	494.73
403.864	515.52
404.242	514.85
404.62	512.59
404.999	539.93
405.377	534.96
405.755	537.44
406.133	562.08
406.511	576.54
406.889	569.08
407.267	561.17
407.645	585.35
408.023	593.04
408.401	606.59
408.779	597.33
409.156	613.15
409.534	602.3
409.912	610.44
410.29	621.74
410.667	626.48
411.045	644.11
411.422	629.64
411.8	642.3
412.178	657.44
412.555	686.82
412.933	682.07
413.31	681.39
413.687	660.38
414.065	729.75
414.442	693.6
414.819	727.04
415.197	705.35
415.574	731.56
415.951	748.51
416.328	746.48
416.705	754.39
417.082	751.68
417.46	761.17
417.837	753.48
418.214	772.24
418.591	797.1
418.967	794.61
419.344	816.76
419.721	814.5
420.098	801.17
420.475	846.14
420.852	834.38
421.228	851.79
421.605	845.01
421.982	842.97
422.358	840.26
422.735	869.86
423.111	873.25
423.488	869.41
423.864	880.26
424.241	913.93
424.617	918.22
424.994	899.92
425.37	904.21
425.746	913.03
426.123	933.14
426.499	947.38
426.875	944.21
427.251	974.72
427.627	1004.32
428.003	998.45
428.379	1040.48
428.756	1012.23
429.132	1049.29
429.507	1072.34
429.883	1065.79
430.259	1109.86
430.635	1087.94
431.011	1116.19
431.387	1136.52
431.763	1158.44
432.138	1144.66
432.514	1145.11
432.89	1194.83
433.265	1191.89
433.641	1210.42
434.016	1224.88
434.392	1266.46
434.767	1283.64
435.143	1269.85
435.518	1281.6
435.894	1316.41
436.269	1320.47
436.644	1317.54
437.02	1353.24
437.395	1350.98
437.77	1366.8
438.145	1410.19
438.52	1427.59
438.895	1468.04
439.271	1441.37
439.646	1479.11
440.021	1488.15
440.395	1491.32
440.77	1463.29
441.145	1510.98
441.52	1527.7
441.895	1544.87
442.27	1549.85
442.645	1561.37
443.019	1594.82
443.394	1593.23
443.769	1591.43
444.143	1603.18
444.518	1633.69
444.892	1657.41
445.267	1639.79
445.641	1658.32
446.016	1660.8
446.39	1703.74
446.764	1696.28
447.139	1705.1
447.513	1729.5
447.887	1783.74
448.262	1752.78
448.636	1772.67
449.01	1775.15
449.384	1787.13
449.758	1820.57
450.132	1807.92
450.506	1841.14
450.88	1868.03
451.254	1863.06
451.628	1881.36
452.002	1891.08
452.376	1900.12
452.75	1946.67
453.123	1951.87
453.497	1981.7
453.871	1983.28
454.244	2033
454.618	2078.65
454.992	2086.1
455.365	2108.7
455.739	2149.38
456.112	2159.55
456.486	2127.01
456.859	2174.01
457.232	2218.98
457.606	2205.42
457.979	2252.88
458.352	2302.37
458.725	2328.58
459.099	2352.76
459.472	2404.74
459.845	2385.76
460.218	2425.98
460.591	2432.76
460.964	2448.35
461.337	2527
461.71	2532.42
462.083	2538.52
462.456	2597.95
462.829	2576.71
463.201	2613.77
463.574	2626.43
463.947	2649.03
464.32	2710.95
464.692	2712.75
465.065	2766.99
465.438	2769.25
465.81	2829.36
466.183	2833.88
466.555	2880.88
466.928	2912.07
467.3	2918.17
467.672	2938.28
468.045	3038.62
468.417	3006.31
468.789	3036.13
469.161	3087.43
469.534	3144.38
469.906	3205.4
470.278	3183.25
470.65	3208.79
471.022	3306.86
471.394	3359.52
471.766	3371.95
472.138	3424.83
472.51	3463.24
472.882	3461.43
473.253	3518.38
473.625	3623.69
473.997	3588.44
474.369	3639.96
474.74	3656.68
475.112	3691.94
475.484	3763.57
475.855	3893.97
476.227	3860.07
476.598	3939.61
476.97	3939.39
477.341	4068.42
477.713	4076.79
478.084	4109.78
478.455	4194.07
478.827	4193.39
479.198	4310.45
479.569	4330.11
479.94	4393.84
480.311	4444.91
480.682	4499.37
481.053	4624.79
481.424	4671.35
481.795	4708.86
482.166	4748.18
482.537	4828.18
482.908	4882.41
483.279	4942.07
483.65	5018.23
484.021	5056.87
484.391	5074.05
484.762	5124.89
485.133	5238.34
485.503	5205.57
485.874	5312.01
486.244	5347.03
486.615	5432
486.985	5398.11
487.356	5493.92
487.726	5531.44
488.097	5585.45
488.467	5569.63
488.837	5691.66
489.207	5741.15
489.578	5761.94
489.948	5848.94
490.318	5878.09
490.688	5874.03
491.058	5937.75
491.428	6037.64
491.798	6024.76
492.168	6174.58
492.538	6168.71
492.908	6181.36
493.278	6214.58
493.648	6187.69
494.017	6295.26
494.387	6324.86
494.757	6311.53
495.126	6319.89
495.496	6436.27
495.866	6389.72
496.235	6475.37
496.605	6423.39
496.974	6473.56
497.344	6520.56
497.713	6546.33
498.082	6576.38
498.452	6603.95
498.821	6603.5
499.19	6593.78
499.559	6675.81
499.928	6713.55
500.298	6713.78
500.667	6758.52
501.036	6717.62
501.405	6796.26
501.774	6767.56
502.143	6815.47
502.512	6895.47
502.88	6833.55
503.249	6816.6
503.618	6876.26
503.987	6922.59
504.356	6882.36
504.724	6924.62
505.093	6921
505.462	6984.96
505.83	6922.59
506.199	7013.66
506.567	7104.05
506.936	7066.54
507.304	7137.5
507.672	7158.51
508.041	7062.92
508.409	7166.87
508.777	7168.46
509.145	7153.09
509.514	7181.79
509.882	7231.73
510.25	7223.37
510.618	7229.7
510.986	7278.28
511.354	7257.72
511.722	7380.2
512.09	7359.64
512.458	7302.01
512.826	7362.8
513.193	7365.29
513.561	7355.12
513.929	7422.23
514.297	7514.66
514.664	7506.3
515.032	7482.35
515.4	7497.94
515.767	7498.16
516.135	7558.05
516.502	7506.98
516.869	7577.03
517.237	7607.99
517.604	7586.98
517.972	7666.07
518.339	7630.59
518.706	7637.6
519.073	7672.85
519.44	7657.48
519.808	7777.25
520.175	7708.55
520.542	7765.5
520.909	7855.67
521.276	7762.56
521.643	7836.69
522.009	7909
522.376	7897.25
522.743	7931.6
523.11	8039.39
523.477	8004.14
523.843	8077.81
524.21	8139.05
524.577	8128.43
524.943	8153.06
525.31	8190.12
525.676	8235.09
526.043	8277.58
526.409	8274.87
526.776	8310.57
527.142	8320.06
527.508	8368.65
527.874	8418.14
528.241	8387.41
528.607	8450.68
528.973	8412.94
529.339	8524.13
529.705	8522.77
530.071	8555.54
530.437	8563.22
530.803	8582.66
531.169	8628.08
531.535	8609.1
531.901	8680.05
532.267	8676.89
532.632	8765.25
532.998	8690.9
533.364	8791.46
533.73	8775.19
534.095	8906.04
534.461	8846.83
534.826	8894.06
535.192	8904.91
535.557	8892.48
535.923	8929.77
536.288	8943.32
536.653	9028.97
537.019	8957.56
537.384	9032.14
537.749	9024.9
538.114	9137.9
538.479	9093.6
538.845	9101.29
539.21	9080.5
539.575	9103.09
539.94	9158.69
540.305	9212.7
540.67	9135.18
541.034	9174.28
541.399	9253.15
541.764	9208.63
542.129	9243.43
542.494	9284.78
542.858	9280.04
543.223	9300.6
543.587	9324.33
543.952	9298.57
544.316	9363.65
544.681	9332.01
545.045	9389.64
545.41	9445.68
545.774	9425.12
546.138	9481.16
546.503	9493.82
546.867	9360.49
547.231	9472.58
547.595	9492.91
547.959	9472.58
548.324	9414.05
548.688	9507.38
549.052	9522.07
549.416	9566.81
549.779	9494.5
550.143	9534.04
550.507	9587.83
550.871	9628.96
551.235	9523.87
551.599	9607.49
551.962	9684.1
552.326	9668.95
552.689	9678.67
553.053	9662.18
553.417	9617.88
553.78	9788.05
554.143	9785.56
554.507	9766.13
554.87	9782.17
555.234	9793.47
555.597	9723.87
555.96	9791.21
556.323	9818.1
556.686	9772.23
557.05	9927.48
557.413	9836.41
557.776	9910.3
558.139	9905.33
558.502	9874.15
558.865	9857.42
559.228	9932.45
559.59	9939.68
559.953	9950.76
560.316	10057.87
560.679	10057.19
561.041	10047.25
561.404	10042.05
561.767	10114.82
562.129	10140.13
562.492	10178.09
562.854	10177.64
563.217	10157.08
563.579	10139.9
563.941	10206.57
564.304	10251.99
564.666	10326.79
565.028	10223.52
565.39	10270.07
565.753	10369.5
566.115	10429.84
566.477	10412.44
566.839	10442.04
567.201	10502.15
567.563	10466.45
567.925	10588.25
568.287	10581.47
568.648	10625.99
569.01	10672.32
569.372	10716.38
569.734	10611.3
570.095	10739.66
570.457	10745.76
570.819	10794.12
571.18	10731.53
571.542	10869.83
571.903	10785.54
572.265	10827.12
572.626	10879.32
572.987	10916.38
573.349	10918.87
573.71	10949.37
574.071	10990.05
574.432	11009.26
574.794	11094
575.155	11103.27
575.516	10983.72
575.877	11097.62
576.238	11157.28
576.599	11162.93
576.96	11195.02
577.32	11220.1
577.681	11270.72
578.042	11273.66
578.403	11279.53
578.763	11285.64
579.124	11366.76
579.485	11290.61
579.845	11401.56
580.206	11430.26
580.566	11365.41
580.927	11400.43
581.287	11493.31
581.648	11468.46
582.008	11489.25
582.368	11458.06
582.728	11473.88
583.089	11445.63
583.449	11415.35
583.809	11492.86
584.169	11481.79
584.529	11542.8
584.889	11605.18
585.249	11519.53
585.609	11476.82
585.969	11577.38
586.329	11588
586.688	11617.6
587.048	11540.77
587.408	11541.45
587.768	11537.38
588.127	11577.61
588.487	11573.99
588.846	11714.1
589.206	11536.48
589.565	11574.22
589.925	11646.3
590.284	11628
590.643	11609.02
591.003	11695.12
591.362	11714.1
591.721	11646.53
592.08	11711.16
592.44	11679.52
592.799	11667.09
593.158	11719.97
593.517	11712.97
593.876	11754.32
594.235	11729.92
594.593	11736.25
594.952	11712.97
595.311	11689.01
595.67	11690.14
596.029	11810.37
596.387	11825.51
596.746	11778.5
597.104	11843.13
597.463	11809.46
597.822	11804.27
598.18	11842.91
598.538	11759.97
598.897	11806.07
599.255	11764.72
599.613	11945.28
599.972	11858.28
600.33	11958.16
600.688	11797.71
601.046	11885.85
601.404	11952.96
601.762	11990.48
602.12	11979.63
602.478	11916.13
602.836	11958.61
603.194	11850.59
603.552	11866.19
603.91	11935.11
604.268	11937.6
604.625	11908.9
604.983	11887.65
605.341	11898.95
605.698	11927.65
606.056	11959.97
606.413	12017.37
606.771	12078.61
607.128	11943.92
607.485	11944.38
607.843	11973.53
608.2	12118.83
608.557	12140.3
608.914	12075.9
609.272	12131.71
609.629	12102.79
609.986	12166.52
610.343	12055.78
610.7	12128.55
611.057	12226.63
611.414	12025.5
611.771	12125.16
612.127	12180.98
612.484	12152.96
612.841	12188.89
613.198	12227.53
613.554	12160.64
613.911	12253.52
614.267	12252.62
614.624	12237.7
614.98	12294.42
615.337	12390.69
615.693	12309.79
616.05	12295.55
616.406	12389.79
616.762	12282.67
617.118	12395.66
617.475	12349.79
617.831	12519.5
618.187	12359.73
618.543	12424.81
618.899	12447.41
619.255	12473.63
619.611	12462.55
619.967	12465.94
620.323	12558.14
620.678	12572.16
621.034	12444.25
621.39	12480.86
621.746	12459.62
622.101	12654.64
622.457	12570.57
622.812	12595.43
623.168	12610.8
623.523	12611.7
623.879	12696.22
624.234	12641.31
624.589	12619.61
624.945	12604.02
625.3	12665.03
625.655	12653.96
626.01	12788.42
626.365	12791.81
626.72	12737.8
627.075	12683.79
627.43	12720.17
627.785	12599.73
628.14	12770.12
628.495	12732.38
628.85	12770.12
629.205	12738.48
629.559	12761.98
629.914	12791.13
630.269	12831.36
630.623	12802.88
630.978	12794.07
631.332	12840.62
631.687	12861.41
632.041	12803.79
632.396	12846.27
632.75	12844.24
633.104	12845.82
633.459	12868.19
633.813	12879.04
634.167	12852.6
634.521	12843.11
634.875	12947.96
635.229	12881.98
635.583	12935.31
635.937	12827.06
636.291	12907.97
636.645	12940.96
636.999	12970.79
637.352	12994.97
637.706	12827.74
638.06	13035.19
638.413	12977.34
638.767	12961.52
639.121	13035.65
639.474	12996.32
639.828	13007.17
640.181	13004.91
640.534	13163.78
640.888	13001.07
641.241	12965.14
641.594	13105.02
641.947	13111.35
642.301	12998.13
642.654	13073.61
643.007	13089.66
643.36	13167.85
643.713	13165.81
644.066	13196.55
644.419	13149.99
644.771	13073.39
645.124	13012.6
645.477	13071.35
645.83	12977.34
646.182	13024.57
646.535	12906.16
646.888	12906.16
647.24	12879.49
647.593	12882.2
647.945	12884.92
648.298	12855.76
648.65	12895.54
649.002	12799.04
649.355	12964.91
649.707	12986.61
650.059	13090.56
650.411	13296.88
650.763	13232.93
651.115	13423.88
651.467	13415.52
651.819	13408.97
652.171	13431.12
652.523	13405.81
652.875	13378.91
653.227	13341.4
653.578	13486.71
653.93	13449.65
654.282	13376.88
654.633	13523.32
654.985	13547.04
655.337	13530.32
655.688	13605.35
656.039	13604.67
656.391	13443.32
656.742	13499.14
657.094	13600.15
657.445	13596.08
657.796	13655.06
658.147	13566.71
658.498	13571.45
658.849	13650.32
659.2	13681.5
659.551	13659.36
659.902	13634.73
660.253	13595.63
660.604	13815.29
660.955	13629.98
661.306	13686.25
661.656	13695.06
662.007	13628.62
662.358	13671.79
662.708	13717.66
663.059	13719.02
663.409	13719.92
663.76	13788.62
664.11	13761.5
664.461	13714.72
664.811	13698.45
665.161	13764.44
665.511	13713.82
665.862	13731.9
666.212	13845.57
666.562	13865
666.912	13752.24
667.262	13766.02
667.612	13745.68
667.962	13827.26
668.312	13678.57
668.662	13785
669.011	13793.59
669.361	13715.63
669.711	13580.49
670.06	13668.17
670.41	13608.06
670.76	13646.93
671.109	13615.07
671.459	13637.44
671.808	13529.87
672.157	13568.06
672.507	13410.78
672.856	13513.37
673.205	13441.74
673.554	13496.88
673.904	13403.09
674.253	13535.97
674.602	13370.78
674.951	13229.31
675.3	13103.21
675.649	13293.04
675.998	13320.84
676.346	13345.92
676.695	13299.14
677.044	13108.64
677.393	13228.64
677.741	13242.19
678.09	13210.33
678.438	13054.4
678.787	13109.77
679.135	13196.32
679.484	12998.81
679.832	13039.49
680.181	12971.92
680.529	13021.64
680.877	12952.03
681.225	12954.29
681.573	13064.35
681.922	12899.15
682.27	12862.77
682.618	12808.76
682.966	12844.46
683.314	12785.93
683.661	12781.64
684.009	12671.14
684.357	12627.07
684.705	12696.22
685.053	12610.35
685.4	12630.46
685.748	12560.4
686.095	12541.2
686.443	12529.67
686.79	12479.05
687.138	12480.41
687.485	12487.86
687.832	12465.72
688.18	12546.17
688.527	12453.51
688.874	12417.13
689.221	12403.8
689.568	12317.7
689.915	12348.21
690.262	12290.81
690.609	12345.27
690.956	12267.53
691.303	12189.34
691.65	12148.44
691.997	12176.01
692.344	12088.55
692.69	12114.54
693.037	12148.89
693.383	12059.4
693.73	12105.73
694.077	12060.08
694.423	12051.49
694.769	11970.82
695.116	12032.28
695.462	11963.13
695.808	12021.44
696.155	11995.45
696.501	11891.27
696.847	11919.97
697.193	11957.71
697.539	11943.25
697.885	11851.72
698.231	11763.59
698.577	11885.39
698.923	11919.29
699.269	11823.93
699.614	11864.15
699.96	11744.61
700.306	11822.8
700.651	11788.45
700.997	11766.53
701.342	11704.16
701.688	11806.3
702.033	11661.67
702.379	11729.01
702.724	11651.28
703.069	11767.43
703.415	11575.57
703.76	11674.78
704.105	11630.26
704.45	11631.84
704.795	11578.06
705.14	11499.19
705.485	11523.6
705.83	11596.14
706.175	11512.75
706.52	11510.26
706.865	11462.35
707.209	11392.53
707.554	11446.54
707.899	11518.4
708.243	11484.95
708.588	11442.02
708.932	11350.72
709.277	11475.46
709.621	11437.27
709.966	11317.95
710.31	11386.2
710.654	11385.75
710.998	11355.69
711.342	11359.08
711.687	11279.76
712.031	11402.24
712.375	11334.22
712.719	11329.7
713.063	11347.1
713.407	11402.92
713.75	11368.12
714.094	11314.11
714.438	11344.16
714.782	11308.01
715.125	11277.27
715.469	11240.21
715.812	11299.19
716.156	11307.56
716.499	11320.21
716.843	11275.01
717.186	11264.85
717.53	11340.32
717.873	11305.97
718.216	11256.03
718.559	11331.74
718.902	11100.56
719.246	11232.76
719.589	11231.63
719.932	11151.63
720.275	11173.1
720.617	11171.51
720.96	11142.59
721.303	11177.84
721.646	11175.58
721.989	11090.16
722.331	11165.19
722.674	11178.52
723.016	11274.56
723.359	11150.95
723.701	11171.97
724.044	11195.47
724.386	11053.78
724.729	11220.55
725.071	11149.59
725.413	11131.97
725.755	11130.61
726.097	11100.56
726.439	11072.76
726.782	11145.53
727.124	11155.47
727.465	11165.19
727.807	11186.43
728.149	11096.04
728.491	11068.47
728.833	11131.52
729.175	11143.94
729.516	11136.71
729.858	11149.37
730.199	11177.16
730.541	11153.44
730.882	11160.44
731.224	11196.6
731.565	11193.66
731.906	11208.58
732.248	11179.42
732.589	11200.21
732.93	11171.06
733.271	11238.86
733.612	11240.44
733.953	11194.56
734.294	11237.05
734.635	11276.14
734.976	11329.48
735.317	11305.52
735.658	11362.92
735.999	11334.67
736.339	11303.26
736.68	11350.04
737.021	11313.88
737.361	11332.19
737.702	11389.59
738.042	11364.96
738.383	11431.17
738.723	11438.63
739.063	11425.52
739.404	11449.25
739.744	11526.76
740.084	11438.85
740.424	11505.97
740.764	11497.61
741.104	11566.98
741.444	11512.3
741.784	11558.4
742.124	11591.39
742.464	11620.09
742.804	11670.71
743.143	11677.72
743.483	11686.53
743.823	11683.14
744.162	11680.2
744.502	11819.63
744.841	11755.91
745.181	11851.04
745.52	11817.82
745.86	11882
746.199	11966.3
746.538	11884.72
746.877	12012.62
747.216	12062.79
747.556	12016.01
747.895	12073.41
748.234	12024.15
748.573	12202.67
748.911	12196.12
749.25	12209
749.589	12216.01
749.928	12365.83
750.267	12312.5
750.605	12301.43
750.944	12366.06
751.283	12371.26
751.621	12425.04
751.96	12411.03
752.298	12460.52
752.636	12517.47
752.975	12568.09
753.313	12598.82
753.651	12652.61
753.989	12629.1
754.327	12635.88
754.666	12690.8
755.004	12776.67
755.342	12835.43
755.679	12764.01
756.017	12814.86
756.355	12818.25
756.693	12833.84
757.031	12965.14
757.368	12906.38
757.706	12915.65
758.044	12962.2
