Data from blue_shiny_book_FLMS001491_00028.txt Node
Date: Wed Feb 08 15:26:45 GMT 2017
User: dcchb
Spectrometer: FLMS00149
Trigger mode: 0
Integration Time (sec): 2.000000E-2
Scans to average: 10
Electric dark correction enabled: true
Nonlinearity correction enabled: false
Boxcar width: 0
XAxis mode: Wavelengths
Number of Pixels in Spectrum: 2048
>>>>>Begin Spectral Data<<<<<
341.393	-17.97
341.776	-17.97
342.16	-17.97
342.543	-74.01
342.927	-67.46
343.31	-83.73
343.693	-65.42
344.077	-63.84
344.46	-75.37
344.843	-48.02
345.226	-44.63
345.61	-13.22
345.993	-17.06
346.376	-4.41
346.759	11.86
347.142	28.59
347.525	39.66
347.908	53.67
348.291	76.95
348.674	88.25
349.057	116.72
349.44	118.75
349.823	123.95
350.206	153.1
350.588	206.66
350.971	220.9
351.354	222.71
351.737	233.78
352.119	265.64
352.502	275.59
352.884	270.39
353.267	289.82
353.65	299.77
354.032	330.05
354.414	301.12
354.797	330.73
355.179	311.97
355.562	333.44
355.944	346.32
356.326	329.6
356.709	347.45
357.091	352.65
357.473	349.93
357.855	347.22
358.238	359.2
358.62	329.14
359.002	347.67
359.384	368.46
359.766	361.46
360.148	349.71
360.53	363.27
360.912	357.84
361.294	332.08
361.676	342.25
362.057	333.66
362.439	347
362.821	352.87
363.203	340.44
363.584	344.28
363.966	345.87
364.348	363.04
364.729	361.91
365.111	342.02
365.493	341.12
365.874	325.3
366.256	333.21
366.637	318.75
367.019	328.47
367.4	327.56
367.781	337.28
368.163	339.99
368.544	321.01
368.925	334.57
369.306	350.61
369.688	349.26
370.069	337.28
370.45	367.11
370.831	350.16
371.212	346.32
371.593	344.28
371.974	336.6
372.355	342.25
372.736	354.68
373.117	369.59
373.498	346.32
373.879	368.46
374.26	339.31
374.641	367.11
375.021	356.71
375.402	353.32
375.783	353.1
376.163	372.31
376.544	363.95
376.925	366.21
377.305	365.08
377.686	374.34
378.066	375.7
378.447	384.06
378.827	390.16
379.208	362.36
379.588	386.77
379.968	395.13
380.349	395.81
380.729	407.56
381.109	403.94
381.489	406.2
381.87	398.07
382.25	401.91
382.63	419.31
383.01	429.25
383.39	405.3
383.77	424.73
384.15	416.15
384.53	436.26
384.91	443.94
385.29	445.98
385.67	434.68
386.049	425.19
386.429	456.82
386.809	447.78
387.189	454.56
387.568	461.12
387.948	480.33
388.328	462.25
388.707	475.35
389.087	463.15
389.466	480.1
389.846	474.45
390.225	498.4
390.605	490.5
390.984	476.71
391.363	479.42
391.743	494.11
392.122	489.82
392.501	509.25
392.881	517.61
393.26	506.77
393.639	535.92
394.018	540.66
394.397	536.14
394.776	543.15
395.155	528.69
395.534	545.86
395.913	539.76
396.292	559.87
396.671	560.32
397.05	599.87
397.429	589.7
397.808	597.16
398.186	589.25
398.565	616.37
398.944	601.45
399.323	608.68
399.701	610.04
400.08	609.59
400.458	618.63
400.837	627.67
401.215	648.46
401.594	655.46
401.972	655.69
402.351	677.38
402.729	656.14
403.107	685.97
403.486	702.92
403.864	692.07
404.242	707.44
404.62	710.83
404.999	736.14
405.377	729.81
405.755	756.48
406.133	718.29
406.511	734.56
406.889	743.82
407.267	760.77
407.645	778.62
408.023	791.28
408.401	800.77
408.779	830.6
409.156	821.56
409.534	828.34
409.912	835.35
410.29	858.62
410.667	871.28
411.045	881.9
411.422	909.69
411.8	932.52
412.178	927.09
412.555	932.97
412.933	960.99
413.31	965.06
413.687	1000.31
414.065	986.08
414.442	992.63
414.819	1020.65
415.197	1000.54
415.574	1048.45
415.951	1035.57
416.328	1080.08
416.705	1058.62
417.082	1090.48
417.46	1134.32
417.837	1138.84
418.214	1130.03
418.591	1122.12
418.967	1154.21
419.344	1132.51
419.721	1197.6
420.098	1188.78
420.475	1217.03
420.852	1214.54
421.228	1238.72
421.605	1245.5
421.982	1255
422.358	1289.12
422.735	1311.49
423.111	1317.37
423.488	1314.65
423.864	1317.14
424.241	1358.04
424.617	1360.76
424.994	1391.71
425.37	1366.4
425.746	1413.64
426.123	1450.92
426.499	1457.25
426.875	1498.6
427.251	1494.09
427.627	1519.17
428.003	1528.89
428.379	1570.24
428.756	1578.15
429.132	1599.17
429.507	1640.3
429.883	1667.64
430.259	1681.42
430.635	1705.83
431.011	1721.88
431.387	1761.2
431.763	1802.1
432.138	1793.06
432.514	1759.84
432.89	1844.81
433.265	1872.83
433.641	1917.8
434.016	1931.59
434.392	1951.47
434.767	1974.52
435.143	1993.05
435.518	2036.67
435.894	2056.33
436.269	2095.2
436.644	2114.41
437.02	2132.94
437.395	2167.29
437.77	2204.12
438.145	2189.21
438.52	2224.46
438.895	2223.56
439.271	2271.47
439.646	2330.45
440.021	2372.71
440.395	2392.82
440.77	2370.45
441.145	2407.28
441.52	2471.91
441.895	2492.25
442.27	2520.95
442.645	2476.21
443.019	2512.14
443.394	2549.88
443.769	2548.75
444.143	2556.66
444.518	2636.2
444.892	2590.1
445.267	2659.93
445.641	2671.68
446.016	2729.53
446.39	2726.82
446.764	2767.95
447.139	2751.91
447.513	2838.68
447.887	2772.92
448.262	2821.96
448.636	2817.67
449.01	2851.11
449.384	2877.78
449.758	2949.41
450.132	2958.23
450.506	2998
450.88	3012.92
451.254	3031.67
451.628	3074.16
452.002	3128.62
452.376	3175.62
452.75	3199.35
453.123	3217.2
453.497	3252.91
453.871	3280.93
454.244	3356.41
454.618	3342.17
454.992	3392.79
455.365	3434.6
455.739	3552.56
456.112	3561.83
456.486	3590.75
456.859	3690.41
457.232	3709.17
457.606	3729.28
457.979	3763.18
458.352	3866
458.725	3905.32
459.099	3940.35
459.472	3963.4
459.845	4039.78
460.218	4123.62
460.591	4197.52
460.964	4177.86
461.337	4247.91
461.71	4345.99
462.083	4423.5
462.456	4466.66
462.829	4476.83
463.201	4557.73
463.574	4561.57
463.947	4614.68
464.32	4744.17
464.692	4752.08
465.065	4817.84
465.438	4834.11
465.81	4971.28
466.183	5042.01
466.555	5126.98
466.928	5130.37
467.3	5197.04
467.672	5285.85
468.045	5423.7
468.417	5476.58
468.789	5501.21
469.161	5568.33
469.534	5670.7
469.906	5806.97
470.278	5776.23
470.65	5910.24
471.022	5974.19
471.394	6065.26
471.766	6149.33
472.138	6258.25
472.51	6436.1
472.882	6536.44
473.253	6584.35
473.625	6683.55
473.997	6839.93
474.369	6904.56
474.74	6935.75
475.112	7098.01
475.484	7243.54
475.855	7317.89
476.227	7321.73
476.598	7530.31
476.97	7624.77
477.341	7732.11
477.713	7994.03
478.084	8022.5
478.455	8288.48
478.827	8429.04
479.198	8632.43
479.569	8619.55
479.94	8914
480.311	8983.83
480.682	9233.32
481.053	9389.7
481.424	9437.15
481.795	9567.32
482.166	9755.34
482.537	9913.52
482.908	10080.98
483.279	10215.66
483.65	10423.12
484.021	10661.98
484.391	10748.08
484.762	10859.04
485.133	10950.11
485.503	11172.93
485.874	11445.46
486.244	11557.1
486.615	11698.11
486.985	11940.59
487.356	12115.05
487.726	12153.01
488.097	12481.37
488.467	12626.67
488.837	12793.67
489.207	12921.36
489.578	13189.14
489.948	13328.35
490.318	13534.9
490.688	13598.17
491.058	13809.02
491.428	14041.33
491.798	14224.37
492.168	14417.81
492.538	14484.48
492.908	14740.52
493.278	14887.41
493.648	14945.93
494.017	15131.47
494.387	15308.41
494.757	15411.46
495.126	15605.13
495.496	15709.98
495.866	15838.79
496.235	16103.64
496.605	16258.44
496.974	16391.55
497.344	16460.25
497.713	16577.76
498.082	16651.65
498.452	16884.19
498.821	17028.59
499.19	17022.04
499.559	17250.28
499.928	17464.06
500.298	17445.3
500.667	17626.32
501.036	17678.52
501.405	17871.96
501.774	18003.93
502.143	18169.35
502.512	18285.28
502.88	18516.46
503.249	18542.68
503.618	18655.44
503.987	18760.3
504.356	18847.75
504.724	19051.82
505.093	19079.61
505.462	19122.1
505.83	19340.17
506.199	19530.45
506.567	19737.67
506.936	19688.63
507.304	19909.65
507.672	20109.19
508.041	20172.24
508.409	20447.03
508.777	20577.43
509.145	20764.76
509.514	20826.91
509.882	20988.04
510.25	21144.64
510.618	21332.89
510.986	21400
511.354	21511.19
511.722	21781.46
512.09	21915.92
512.458	21961.34
512.826	22076.59
513.193	22151.85
513.561	22297.15
513.929	22467.09
514.297	22674.32
514.664	22734.66
515.032	22826.41
515.4	23193.4
515.767	23359.72
516.135	23472.26
516.502	23476.33
516.869	23993.38
517.237	24092.81
517.604	24107.05
517.972	24355.18
518.339	24428.4
518.706	24434.72
519.073	24587.04
519.44	24710.2
519.808	24967.14
520.175	25013.24
520.542	25388.6
520.909	25534.13
521.276	25596.05
521.643	25977.96
522.009	26087.34
522.376	26268.57
522.743	26538.85
523.11	26747.21
523.477	27051.15
523.843	27191.04
524.21	27511.48
524.577	27703.11
524.943	27921.86
525.31	27843.67
525.676	28224
526.043	28257.9
526.409	28472.58
526.776	28734.05
527.142	28731.33
527.508	29069.18
527.874	29084.32
528.241	29361.83
528.607	29569.28
528.973	29906.67
529.339	29912.55
529.705	30259.88
530.071	30532.87
530.437	30848.79
530.803	30969.47
531.169	31211.72
531.535	31246.75
531.901	31317.03
532.267	31434.99
532.632	31789.56
532.998	31845.83
533.364	31970.12
533.73	31987.52
534.095	32259.6
534.461	32264.58
534.826	32422.76
535.192	32551.57
535.557	32766.03
535.923	32702.3
536.288	32937.33
536.653	33079.47
537.019	33197.43
537.384	33342.06
537.749	33682.62
538.114	33849.17
538.479	33994.25
538.845	34206.45
539.21	34064.98
539.575	34274.47
539.94	34344.29
540.305	34584.74
540.67	34507
541.034	34629.48
541.399	34775.47
541.764	34717.17
542.129	34897.73
542.494	34848.46
542.858	35018.63
543.223	35016.82
543.587	35295.91
543.952	35177.04
544.316	35352.4
544.681	35445.96
545.045	35774.09
545.41	35925.95
545.774	36062.44
546.138	36101.99
546.503	36247.97
546.867	36340.17
547.231	36753.5
547.595	36685.02
547.959	36890.67
548.324	36844.12
548.688	37044.11
549.052	37052.92
549.416	36970.67
549.779	36995.98
550.143	37025.13
550.507	37161.17
550.871	37400.94
551.235	37267.83
551.599	37406.36
551.962	37514.15
552.326	37761.83
552.689	37889.51
553.053	37929.29
553.417	38138.55
553.78	38630.28
554.143	38393.23
554.507	38928.35
554.87	38907.56
555.234	39308.91
555.597	39175.35
555.96	39260.32
556.323	39521.79
556.686	39390.26
557.05	39736.24
557.413	39711.84
557.776	39653.31
558.139	39847.65
558.502	39849.01
558.865	39828.44
559.228	40140.3
559.59	40074.54
559.953	40157.25
560.316	40441.76
560.679	40597.24
561.041	40870.9
561.404	40996.1
561.767	41472.69
562.129	41390.21
562.492	41840.82
562.854	41911.78
563.217	41973.92
563.579	42275.16
563.941	42392.22
564.304	42660.01
564.666	42802.6
565.028	42653.23
565.39	42870.85
565.753	43017.51
566.115	43133.44
566.477	43236.49
566.839	43227.45
567.201	43369.82
567.563	43276.04
567.925	43491.4
568.287	43337.96
568.648	43561
569.01	43886.64
569.372	44215.9
569.734	44021.78
570.095	44407.76
570.457	44768.43
570.819	44756.9
571.18	44970.68
571.542	45195.08
571.903	45166.16
572.265	45553.94
572.626	45598.69
572.987	45705.13
573.349	45871
573.71	46128.62
574.071	46111.44
574.432	46068.73
574.794	46214.94
575.155	46147.83
575.516	45942.41
575.877	46017.21
576.238	46118.22
576.599	46188.73
576.96	45993.03
577.32	46165.23
577.681	46336.52
578.042	46460.13
578.403	46567.93
578.763	46689.96
579.124	46675.5
579.485	46983.06
579.845	47093.11
580.206	47189.83
580.566	47388.02
580.927	47282.94
581.287	47522.93
581.648	47467.79
582.008	47709.82
582.368	47691.51
582.728	47588.69
583.089	47766.09
583.449	47602.03
583.809	47471.86
584.169	47601.57
584.529	47554.34
584.889	47666.66
585.249	47280.45
585.609	47115.48
585.969	47327.68
586.329	47208.14
586.688	47230.74
587.048	47274.35
587.408	47268.93
587.768	47360.45
588.127	47431.41
588.487	47471.18
588.846	47774.9
589.206	47628.47
589.565	47786.43
589.925	48096.93
590.284	47742.81
590.643	48031.84
591.003	48083.37
591.362	48238.62
591.721	47981.68
592.08	48154.55
592.44	48225.29
592.799	48146.87
593.158	47951.85
593.517	48073.65
593.876	47993.65
594.235	47766.31
594.593	47882.47
594.952	47925.86
595.311	47674.79
595.67	47699.88
596.029	47966.31
596.387	47767.44
596.746	48001.34
597.104	47723.83
597.463	47809.48
597.822	48143.03
598.18	48113.88
598.538	48082.69
598.897	48369.69
599.255	47989.59
599.613	48583.02
599.972	48546.63
600.33	48617.14
600.688	48562.9
601.046	48718.38
601.404	48825.5
601.762	48782.79
602.12	48908.66
602.478	48800.86
602.836	48850.13
603.194	48562
603.552	48698.72
603.91	48403.81
604.268	48608.78
604.625	48320.88
604.983	48369.91
605.341	48054.67
605.698	48382.57
606.056	48467.77
606.413	48500.08
606.771	48538.5
607.128	48692.39
607.485	48347.09
607.843	48616.69
608.2	48918.6
608.557	48949.33
608.914	48832.5
609.272	49186.39
609.629	49183.45
609.986	49434.07
610.343	49386.39
610.7	49580.5
611.057	49472.94
611.414	49614.4
611.771	49660.28
612.127	49827.05
612.484	49678.58
612.841	49869.31
613.198	49800.61
613.554	49672.93
613.911	49801.74
614.267	49660.73
614.624	49535.31
614.98	49629.77
615.337	49742.08
615.693	49627.06
616.05	49606.94
616.406	49801.29
616.762	49744.34
617.118	49607.4
617.475	49542.54
617.831	49685.36
618.187	49856.43
618.543	49736.21
618.899	50069.08
619.255	50080.15
619.611	50085.58
619.967	50326.47
620.323	50390.88
620.678	50260.49
621.034	50363.53
621.39	50371.22
621.746	50318.79
622.101	50795.61
622.457	50431.78
622.812	50539.35
623.168	50646.24
623.523	50520.59
623.879	50655.05
624.234	50305
624.589	50367.6
624.945	50358.79
625.3	50379.81
625.655	50101.85
626.01	50215.06
626.365	50092.36
626.72	50086.25
627.075	49998.57
627.43	50094.39
627.785	49989.76
628.14	49955.41
628.495	50081.73
628.85	50064.56
629.205	49937.33
629.559	50127.38
629.914	50101.62
630.269	50193.82
630.623	50204.67
630.978	50166.48
631.332	50395.62
631.687	50470.88
632.041	50437.88
632.396	50363.99
632.75	50267.72
633.104	50343.2
633.459	50253.93
633.813	50130.55
634.167	50092.58
634.521	49985.24
634.875	50082.64
635.229	49880.84
635.583	49773.72
635.937	49738.47
636.291	49663.67
636.645	49566.27
636.999	49378.93
637.352	49542.09
637.706	49141.19
638.06	49348.87
638.413	49261.87
638.767	49007.64
639.121	48983.23
639.474	48815.33
639.828	48797.02
640.181	48948.66
640.534	48927.64
640.888	48900.97
641.241	48790.69
641.594	48949.79
641.947	49138.71
642.301	49122.44
642.654	49156.11
643.007	49173.96
643.36	49205.37
643.713	49116.56
644.066	49316.78
644.419	49201.76
644.771	49160.4
645.124	49002.44
645.477	48932.16
645.83	48742.33
646.182	48315.45
646.535	47930.6
646.888	47786.2
647.24	47297.63
647.593	47480.67
647.945	47269.83
648.298	46928.14
648.65	46886.79
649.002	46763.63
649.355	46814.93
649.707	47006.56
650.059	47197.29
650.411	47701.01
650.763	47778.97
651.115	48080.2
651.467	47968.12
651.819	47944.84
652.171	47892.87
652.523	47813.32
652.875	47879.53
653.227	47809.93
653.578	48192.52
653.93	48177.15
654.282	48051.96
654.633	47775.13
654.985	48013.99
655.337	48172.86
655.688	48179.64
656.039	48293.53
656.391	47796.14
656.742	47990.04
657.094	47962.69
657.445	47991.85
657.796	48022.35
658.147	47896.71
658.498	47877.5
658.849	47895.8
659.2	47769.93
659.551	47663.27
659.902	47766.99
660.253	47554.57
660.604	47683.83
660.955	47384.63
661.306	47395.7
661.656	47316.38
662.007	47229.15
662.358	47130.17
662.708	47157.52
663.059	47077.75
663.409	46922.95
663.76	47231.41
664.11	47168.14
664.461	47217.4
664.811	47070.29
665.161	47232.54
665.511	47254.01
665.862	47395.25
666.212	47521.35
666.562	47522.25
666.912	47540.56
667.262	47535.81
667.612	47627.56
667.962	47724.96
668.312	47682.48
668.662	47807.44
669.011	47691.51
669.361	47683.15
669.711	47564.29
670.06	47489.49
670.41	47346.21
670.76	47285.42
671.109	47391.86
671.459	47179.44
671.808	47235.26
672.157	47164.97
672.507	46949.84
672.856	46964.3
673.205	46812.22
673.554	46891.31
673.904	46616.06
674.253	46956.62
674.602	46626.68
674.951	45980.15
675.3	45906.93
675.649	46423.53
675.998	46330.65
676.346	46288.39
676.695	46438.89
677.044	46096.08
677.393	46376.97
677.741	46482.73
678.09	46470.3
678.438	46427.59
678.787	46389.63
679.135	46439.8
679.484	46288.84
679.832	46509.85
680.181	46423.07
680.529	46362.74
680.877	46476.18
681.225	46405.67
681.573	46584.65
681.922	46275.96
682.27	46173.36
682.618	46311.44
682.966	46209.97
683.314	46083.42
683.661	45928.4
684.009	45702.19
684.357	45533.15
684.705	45414.74
685.053	45429.65
685.4	45346.49
685.748	45085.26
686.095	44927.07
686.443	44650.01
686.79	44699.95
687.138	44630.13
687.485	44520.3
687.832	44361.21
688.18	44435.1
688.527	44080.31
688.874	43991.72
689.221	43996.02
689.568	43912.4
689.915	43865.85
690.262	43866.08
690.609	43704.95
690.956	43538.18
691.303	43676.7
691.65	43550.61
691.997	43619.31
692.344	43473.32
692.69	43391.74
693.037	43409.82
693.383	43286.88
693.73	43532.3
694.077	43306.32
694.423	43283.49
694.769	43072.65
695.116	42985.42
695.462	42845.54
695.808	42743.85
696.155	42872.21
696.501	42425.66
696.847	42451.88
697.193	42161.26
697.539	42295.95
697.885	41862.52
698.231	41662.52
698.577	41644.44
698.923	41427.5
699.269	41334.17
699.614	41025.93
699.96	40811.47
700.306	40855.08
700.651	40521.08
700.997	40306.4
701.342	40161.09
701.688	40077.93
702.033	39956.12
702.379	40098.27
702.724	39917.93
703.069	40079.74
703.415	39666.87
703.76	39675.91
704.105	39762.46
704.45	39594.78
704.795	39408.12
705.14	39282.92
705.485	39219.65
705.83	39221.68
706.175	39266.88
706.52	39340.1
706.865	39222.58
707.209	39373.54
707.554	39186.65
707.899	39283.83
708.243	38942.59
708.588	39076.15
708.932	38774.69
709.277	38756.61
709.621	38880.67
709.966	38545.77
710.31	38512.77
710.654	38116.62
710.998	38325.43
711.342	38240.92
711.687	38147.13
712.031	37903.3
712.375	37605.9
712.719	37611.1
713.063	37376.98
713.407	37548.05
713.75	37227.61
714.094	37158.91
714.438	36894.74
714.782	36983.32
715.125	36660.39
715.469	36802.31
715.812	36561.41
716.156	36219.73
716.499	36347.63
716.843	36323.23
717.186	36016.34
717.53	36216.11
717.873	36232.38
718.216	36158.26
718.559	36137.92
718.902	35917.36
719.246	36120.29
719.589	36191.03
719.932	36182.89
720.275	36148.99
720.617	36045.27
720.96	35883.69
721.303	36133.85
721.646	36147.41
721.989	35997.81
722.331	36146.96
722.674	36104.25
723.016	36089.11
723.359	35954.42
723.701	36094.31
724.044	35838.49
724.386	35667.65
724.729	35883.24
725.071	35735.9
725.413	35748.1
725.755	35679.85
726.097	35415.45
726.439	35196.25
726.782	35088.68
727.124	35166.65
727.465	34939.76
727.807	34852.08
728.149	34675.81
728.491	34484.86
728.833	34600.79
729.175	34546.32
729.516	34390.62
729.858	34517.4
730.199	34382.49
730.541	34349.27
730.882	34279.66
731.224	34398.98
731.565	34089.61
731.906	34186.78
732.248	34111.98
732.589	34065.43
732.93	33985.43
733.271	34160.8
733.612	34209.16
733.953	34403.05
734.294	34083.96
734.635	34193.11
734.976	34358.08
735.317	34198.54
735.658	34224.52
735.999	34366.67
736.339	34525.08
736.68	34420.45
737.021	34555.59
737.361	34368.02
737.702	34530.28
738.042	34531.18
738.383	34422.03
738.723	34411.41
739.063	34373.9
739.404	34485.08
739.744	34488.02
740.084	34156.5
740.424	34296.16
740.764	34234.47
741.104	34362.37
741.444	33990.41
741.784	33884.19
742.124	33949.05
742.464	33822.5
742.804	33756.06
743.143	33724.88
743.483	33673.13
743.823	33478.55
744.162	33606.46
744.502	33520.81
744.841	33302.74
745.181	33616.18
745.52	33523.53
745.86	33482.17
746.199	33341.38
746.538	33482.4
746.877	33553.13
747.216	33536.41
747.556	33421.38
747.895	33419.12
748.234	33361.72
748.573	33464.54
748.911	33356.52
749.25	33556.52
749.589	33325.79
749.928	33644.88
750.267	33728.04
750.605	33645.56
750.944	33672.45
751.283	33672.22
751.621	33852.56
751.96	33715.61
752.298	33919
752.636	33906.11
752.975	33881.93
753.313	33822.27
