Data from blue_chair_FLMS001491_00059.txt Node
Date: Wed Feb 08 10:31:19 GMT 2017
User: dcchb
Spectrometer: FLMS00149
Trigger mode: 0
Integration Time (sec): 2.000000E-2
Scans to average: 10
Electric dark correction enabled: true
Nonlinearity correction enabled: false
Boxcar width: 0
XAxis mode: Wavelengths
Number of Pixels in Spectrum: 2048
>>>>>Begin Spectral Data<<<<<
341.393	-6.69
341.776	-6.69
342.16	-6.69
342.543	-64.09
342.927	-66.13
343.31	-70.2
343.693	-76.75
344.077	-57.99
344.46	-51.21
344.843	-46.47
345.226	-40.37
345.61	-36.98
345.993	-20.93
346.376	-20.93
346.759	-1.05
347.142	12.97
347.525	54.32
347.908	62.68
348.291	73.08
348.674	107.88
349.057	111.95
349.44	116.92
349.823	145.17
350.206	188.55
350.588	189.46
350.971	197.37
351.354	196.69
351.737	221.32
352.119	231.27
352.502	250.7
352.884	244.37
353.267	267.87
353.65	265.61
354.032	277.14
354.414	287.53
354.797	286.86
355.179	296.57
355.562	297.25
355.944	308.33
356.326	309
356.709	332.51
357.091	313.3
357.473	325.73
357.855	321.21
358.238	324.14
358.62	326.86
359.002	317.36
359.384	306.97
359.766	309.46
360.148	307.42
360.53	332.05
360.912	304.26
361.294	313.97
361.676	320.3
362.057	308.1
362.439	312.84
362.821	302.9
363.203	287.76
363.584	300.87
363.966	310.13
364.348	280.76
364.729	297.93
365.111	279.63
365.493	306.29
365.874	297.7
366.256	267.87
366.637	280.53
367.019	292.51
367.4	295.67
367.781	283.24
368.163	287.53
368.544	287.31
368.925	274.88
369.306	280.3
369.688	295.22
370.069	294.09
370.45	297.48
370.831	264.94
371.212	280.76
371.593	276.91
371.974	277.59
372.355	282.34
372.736	275.78
373.117	283.92
373.498	280.76
373.879	263.58
374.26	268.1
374.641	281.89
375.021	287.76
375.402	284.37
375.783	300.19
376.163	281.89
376.544	280.98
376.925	277.14
377.305	278.95
377.686	280.53
378.066	279.85
378.447	310.13
378.827	305.39
379.208	289.12
379.588	286.63
379.968	290.25
380.349	274.2
380.729	285.27
381.109	273.07
381.489	281.43
381.87	306.07
382.25	282.79
382.63	291.83
383.01	297.48
383.39	320.53
383.77	299.06
384.15	282.56
384.53	319.4
384.91	306.07
385.29	298.16
385.67	289.79
386.049	318.95
386.429	313.97
386.809	309
387.189	300.42
387.568	311.04
387.948	307.65
388.328	328.66
388.707	322.11
389.087	292.73
389.466	300.42
389.846	292.28
390.225	297.25
390.605	321.43
390.984	327.99
391.363	297.7
391.743	299.29
392.122	322.11
392.501	306.29
392.881	317.36
393.26	317.82
393.639	298.83
394.018	328.66
394.397	341.32
394.776	316.69
395.155	315.56
395.534	322.56
395.913	325.05
396.292	345.16
396.671	325.95
397.05	316.91
397.429	327.99
397.808	320.08
398.186	336.12
398.565	338.83
398.944	333.18
399.323	337.93
399.701	327.08
400.08	347.87
400.458	353.75
400.837	339.28
401.215	346.06
401.594	347.19
401.972	353.97
402.351	325.27
402.729	352.39
403.107	349.91
403.486	350.13
403.864	348.55
404.242	344.93
404.62	343.13
404.999	353.97
405.377	362.79
405.755	359.17
406.133	361.88
406.511	364.82
406.889	399.4
407.267	372.28
407.645	360.08
408.023	358.72
408.401	372.05
408.779	393.07
409.156	389
409.534	384.03
409.912	392.84
410.29	381.54
410.667	371.37
411.045	405.05
411.422	381.77
411.8	398.49
412.178	407.76
412.555	396.23
412.933	401.43
413.31	411.6
413.687	407.31
414.065	394.65
414.442	426.74
414.819	416.8
415.197	403.46
415.574	407.53
415.951	441.2
416.328	421.09
416.705	427.64
417.082	440.98
417.46	413.41
417.837	420.41
418.214	424.48
418.591	432.62
418.967	431.03
419.344	428.77
419.721	431.26
420.098	451.37
420.475	439.62
420.852	466.74
421.228	452.95
421.605	439.85
421.982	457.47
422.358	464.93
422.735	471.48
423.111	469
423.488	462.45
423.864	504.03
424.241	462.22
424.617	476.23
424.994	498.15
425.37	494.99
425.746	484.82
426.123	497.02
426.499	505.38
426.875	490.02
427.251	509.9
427.627	499.96
428.003	514.2
428.379	527.3
428.756	528.66
429.132	545.16
429.507	524.82
429.883	548.77
430.259	527.08
430.635	534.31
431.011	561.2
431.387	537.92
431.763	546.96
432.138	558.94
432.514	566.17
432.89	569.11
433.265	583.8
433.641	576.79
434.016	578.83
434.392	593.97
434.767	566.62
435.143	612.05
435.518	637.36
435.894	622.67
436.269	613.4
436.644	655.43
437.02	657.69
437.395	629.22
437.77	647.75
438.145	680.74
438.52	681.87
438.895	693.17
439.271	685.72
439.646	690.46
440.021	690.01
440.395	717.58
440.77	705.15
441.145	704.02
441.52	728.88
441.895	748.99
442.27	725.49
442.645	765.26
443.019	759.84
443.394	752.16
443.769	762.32
444.143	756.45
444.518	770.91
444.892	782.66
445.267	790.12
445.641	793.96
446.016	793.06
446.39	803.45
446.764	798.71
447.139	812.72
447.513	799.84
447.887	816.56
448.262	816.11
448.636	814.98
449.01	816.79
449.384	834.64
449.758	823.34
450.132	848.65
450.506	846.62
450.88	852.94
451.254	868.08
451.628	857.24
452.002	868.76
452.376	889.1
452.75	902.21
453.123	889.33
453.497	915.77
453.871	911.93
454.244	935.88
454.618	915.77
454.992	919.83
455.365	942.88
455.739	926.39
456.112	946.05
456.486	962.32
456.859	955.09
457.232	964.13
457.606	996.89
457.979	995.76
458.352	1001.64
458.725	1015.65
459.099	1012.49
459.472	1009.55
459.845	1051.81
460.218	1017.69
460.591	1066.72
460.964	1043.22
461.337	1065.37
461.71	1066.05
462.083	1082.09
462.456	1093.16
462.829	1103.11
463.201	1116.89
463.574	1129.09
463.947	1128.19
464.32	1120.28
464.692	1126.16
465.065	1154.4
465.438	1148.76
465.81	1152.6
466.183	1179.94
466.555	1188.98
466.928	1196.44
467.3	1206.61
467.672	1185.14
468.045	1229.66
468.417	1211.35
468.789	1210.9
469.161	1232.37
469.534	1278.24
469.906	1252.93
470.278	1268.53
470.65	1292.71
471.022	1299.26
471.394	1328.64
471.766	1332.03
472.138	1336.55
472.51	1338.81
472.882	1370.44
473.253	1358.02
473.625	1386.04
473.997	1387.17
474.369	1390.33
474.74	1403.66
475.112	1438.47
475.484	1432.59
475.855	1469.88
476.227	1486.15
476.598	1460.39
476.97	1484.11
477.341	1519.82
477.713	1531.57
478.084	1540.61
478.455	1538.8
478.827	1559.59
479.198	1557.11
479.569	1604.34
479.94	1578.12
480.311	1607.73
480.682	1619.03
481.053	1659.02
481.424	1688.63
481.795	1687.72
482.166	1694.28
482.537	1719.36
482.908	1732.24
483.279	1726.14
483.65	1750.55
484.021	1794.39
484.391	1794.84
484.762	1763.2
485.133	1741.51
485.503	1784.44
485.874	1835.52
486.244	1801.85
486.615	1876.87
486.985	1813.6
487.356	1854.5
487.726	1851.11
488.097	1904.89
488.467	1870.09
488.837	1921.84
489.207	1914.84
489.578	1956.87
489.948	1948.28
490.318	1949.64
490.688	1966.36
491.058	1954.38
491.428	1949.41
491.798	1948.28
492.168	1966.59
492.538	1987.15
492.908	2014.72
493.278	1997.09
493.648	1979.02
494.017	2005.23
494.387	2028.05
494.757	2032.12
495.126	2028.05
495.496	2014.95
495.866	2022.86
496.235	2040.03
496.605	2038.45
496.974	2023.99
497.344	2020.6
497.713	2030.54
498.082	2007.26
498.452	2012.46
498.821	2041.39
499.19	2015.4
499.559	2021.73
499.928	2015.62
500.298	2060.37
500.667	2052.46
501.036	2023.31
501.405	2031.67
501.774	2002.52
502.143	2047.71
502.512	2033.48
502.88	2018.11
503.249	2024.89
503.618	2009.3
503.987	2049.3
504.356	2039.35
504.724	2028.73
505.093	2024.89
505.462	2010.65
505.83	1997.32
506.199	2027.38
506.567	1986.7
506.936	1996.19
507.304	2002.52
507.672	2003.65
508.041	1993.48
508.409	2020.37
508.777	1995.29
509.145	2023.31
509.514	1995.51
509.882	1963.87
510.25	1959.58
510.618	1977.21
510.986	1982.41
511.354	1968.39
511.722	1990.54
512.09	1955.06
512.458	1948.28
512.826	1965.46
513.193	1958.23
513.561	1956.19
513.929	1958.45
514.297	1934.5
514.664	1941.95
515.032	1911.45
515.4	1950.99
515.767	1915.97
516.135	1934.27
516.502	1939.47
516.869	1894.72
517.237	1892.24
517.604	1899.02
517.972	1888.4
518.339	1887.72
518.706	1889.3
519.073	1852.47
519.44	1852.69
519.808	1871.22
520.175	1863.54
520.542	1859.47
520.909	1846.82
521.276	1844.78
521.643	1861.28
522.009	1825.12
522.376	1845.46
522.743	1851.79
523.11	1842.07
523.477	1852.69
523.843	1840.49
524.21	1837.32
524.577	1837.32
524.943	1831.22
525.31	1828.96
525.676	1833.26
526.043	1843.88
526.409	1809.98
526.776	1817.44
527.142	1795.29
527.508	1805.69
527.874	1795.07
528.241	1778.12
528.607	1805.01
528.973	1771.11
529.339	1756.87
529.705	1795.52
530.071	1759.81
530.437	1786.25
530.803	1767.04
531.169	1772.69
531.535	1758.91
531.901	1752.13
532.267	1743.77
532.632	1737.21
532.998	1731.56
533.364	1734.73
533.73	1705.12
534.095	1746.71
534.461	1717.78
534.826	1722.75
535.192	1746.93
535.557	1741.06
535.923	1715.29
536.288	1719.59
536.653	1711.68
537.019	1712.36
537.384	1700.61
537.749	1701.51
538.114	1680.72
538.479	1701.06
538.845	1671.23
539.21	1625.8
539.575	1662.87
539.94	1638.69
540.305	1632.81
540.67	1629.19
541.034	1622.19
541.399	1616.99
541.764	1630.55
542.129	1623.54
542.494	1613.15
542.858	1603.88
543.223	1623.54
543.587	1591
543.952	1607.27
544.316	1593.72
544.681	1584.9
545.045	1561.17
545.41	1594.85
545.774	1585.13
546.138	1564.56
546.503	1574.96
546.867	1531.12
547.231	1552.59
547.595	1541.29
547.959	1553.26
548.324	1529.99
548.688	1517.78
549.052	1524.11
549.416	1512.59
549.779	1513.94
550.143	1492.7
550.507	1505.58
550.871	1478.69
551.235	1484.11
551.599	1481.85
551.962	1486.15
552.326	1484.57
552.689	1505.13
553.053	1479.14
553.417	1447.73
553.78	1489.76
554.143	1464
554.507	1480.5
554.87	1462.19
555.234	1478.01
555.597	1478.46
555.96	1487.73
556.323	1447.96
556.686	1442.53
557.05	1449.99
557.413	1438.69
557.776	1445.47
558.139	1451.35
558.502	1439.59
558.865	1427.62
559.228	1429.88
559.59	1449.99
559.953	1428.3
560.316	1435.3
560.679	1435.98
561.041	1438.69
561.404	1437.79
561.767	1427.17
562.129	1402.99
562.492	1416.09
562.854	1410.44
563.217	1432.59
563.579	1426.04
563.941	1412.93
564.304	1441.85
564.666	1396.66
565.028	1436.43
565.39	1412.03
565.753	1446.83
566.115	1410.9
566.477	1433.04
566.839	1412.93
567.201	1418.35
567.563	1429.88
567.925	1456.32
568.287	1434.4
568.648	1452.93
569.01	1478.24
569.372	1470.78
569.734	1438.69
570.095	1461.97
570.457	1457.9
570.819	1444.79
571.18	1434.17
571.542	1428.97
571.903	1472.14
572.265	1464
572.626	1455.64
572.987	1437.11
573.349	1462.42
573.71	1491.34
574.071	1472.14
574.432	1502.87
574.794	1489.54
575.155	1493.83
575.516	1488.63
575.877	1462.87
576.238	1478.92
576.599	1480.95
576.96	1519.14
577.32	1498.35
577.681	1484.34
578.042	1509.88
578.403	1514.17
578.763	1515.07
579.124	1533.15
579.485	1527.5
579.845	1515.07
580.206	1516.2
580.566	1506.71
580.927	1512.36
581.287	1480.27
581.648	1532.02
582.008	1515.53
582.368	1513.72
582.728	1558.69
583.089	1512.14
583.449	1514.62
583.809	1503.55
584.169	1519.82
584.529	1522.53
584.889	1550.33
585.249	1541.51
585.609	1518.24
585.969	1529.08
586.329	1533.83
586.688	1531.57
587.048	1527.73
587.408	1541.29
587.768	1534.73
588.127	1514.62
588.487	1509.88
588.846	1527.5
589.206	1520.95
589.565	1524.79
589.925	1507.62
590.284	1518.91
590.643	1528.86
591.003	1516.88
591.362	1501.29
591.721	1516.2
592.08	1496.32
592.44	1511.46
592.799	1509.2
593.158	1547.39
593.517	1520.95
593.876	1537.9
594.235	1504.45
594.593	1532.25
594.952	1524.34
595.311	1514.62
595.67	1513.04
596.029	1532.47
596.387	1531.34
596.746	1509.88
597.104	1521.17
597.463	1518.91
597.822	1483.66
598.18	1549.42
598.538	1509.88
598.897	1489.76
599.255	1539.71
599.613	1493.15
599.972	1523.66
600.33	1509.65
600.688	1532.7
601.046	1519.82
601.404	1542.42
601.762	1526.82
602.12	1510.78
602.478	1488.63
602.836	1505.36
603.194	1493.38
603.552	1509.2
603.91	1503.1
604.268	1531.57
604.625	1493.15
604.983	1503.55
605.341	1515.98
605.698	1513.49
606.056	1542.19
606.413	1533.38
606.771	1531.8
607.128	1519.59
607.485	1509.88
607.843	1521.63
608.2	1511.46
608.557	1520.5
608.914	1515.53
609.272	1520.95
609.629	1522.98
609.986	1549.2
610.343	1513.49
610.7	1556.2
611.057	1524.56
611.414	1540.84
611.771	1542.87
612.127	1521.85
612.484	1507.39
612.841	1551.46
613.198	1536.32
613.554	1564.11
613.911	1573.83
614.267	1531.34
614.624	1525.92
614.98	1540.61
615.337	1543.77
615.693	1568.41
616.05	1527.95
616.406	1551.68
616.762	1553.04
617.118	1557.78
617.475	1570.21
617.831	1547.16
618.187	1582.42
618.543	1560.27
618.899	1556.2
619.255	1557.11
619.611	1556.2
619.967	1529.76
620.323	1548.29
620.678	1555.98
621.034	1547.84
621.39	1553.49
621.746	1558.91
622.101	1574.05
622.457	1559.82
622.812	1559.82
623.168	1573.83
623.523	1587.61
623.879	1594.85
624.234	1561.17
624.589	1579.93
624.945	1571.34
625.3	1596.2
625.655	1588.52
626.01	1557.56
626.365	1588.07
626.72	1566.82
627.075	1554.62
627.43	1546.94
627.785	1563.43
628.14	1592.81
628.495	1584.68
628.85	1577.22
629.205	1557.11
629.559	1570.66
629.914	1564.56
630.269	1580.38
630.623	1565.47
630.978	1549.42
631.332	1578.8
631.687	1575.18
632.041	1541.97
632.396	1554.62
632.75	1593.49
633.104	1553.04
633.459	1579.93
633.813	1549.87
634.167	1548.29
634.521	1606.6
634.875	1581.96
635.229	1566.82
635.583	1586.48
635.937	1577.44
636.291	1566.15
636.645	1563.43
636.999	1568.18
637.352	1540.16
637.706	1584.45
638.06	1553.94
638.413	1559.37
638.767	1553.49
639.121	1559.37
639.474	1555.75
639.828	1563.89
640.181	1566.15
640.534	1540.38
640.888	1532.7
641.241	1598.91
641.594	1569.31
641.947	1545.35
642.301	1541.06
642.654	1549.2
643.007	1584.45
643.36	1569.76
643.713	1551.46
644.066	1558.01
644.419	1578.12
644.771	1569.76
645.124	1546.71
645.477	1533.15
645.83	1511.91
646.182	1556.2
646.535	1528.18
646.888	1560.95
647.24	1553.72
647.593	1538.35
647.945	1530.67
648.298	1516.2
648.65	1564.56
649.002	1548.97
649.355	1538.8
649.707	1539.71
650.059	1550.55
650.411	1560.72
650.763	1554.85
651.115	1590.55
651.467	1586.71
651.819	1577.44
652.171	1598.23
652.523	1571.12
652.875	1616.54
653.227	1596.43
653.578	1572.7
653.93	1606.14
654.282	1595.75
654.633	1571.57
654.985	1586.48
655.337	1611.34
655.688	1593.04
656.039	1584.45
656.391	1565.92
656.742	1584.22
657.094	1598.46
657.445	1584.9
657.796	1577.44
658.147	1578.35
658.498	1594.62
658.849	1582.42
659.2	1562.98
659.551	1567.73
659.902	1557.33
660.253	1591.46
660.604	1598.23
660.955	1604.79
661.306	1583.77
661.656	1584
662.007	1620.38
662.358	1591.46
662.708	1598.23
663.059	1612.7
663.409	1620.38
663.76	1602.3
664.11	1580.61
664.461	1632.58
664.811	1593.49
665.161	1577.67
665.511	1604.79
665.862	1571.57
666.212	1614.05
666.562	1627.39
666.912	1590.78
667.262	1590.1
667.612	1586.48
667.962	1592.13
668.312	1570.66
668.662	1590.78
669.011	1592.13
669.361	1592.81
669.711	1586.48
670.06	1602.53
670.41	1587.84
670.76	1565.92
671.109	1584.9
671.459	1559.14
671.808	1572.7
672.157	1582.64
672.507	1572.02
672.856	1564.34
673.205	1590.1
673.554	1552.13
673.904	1550.33
674.253	1565.92
674.602	1571.12
674.951	1543.77
675.3	1520.5
675.649	1560.04
675.998	1582.19
676.346	1579.25
676.695	1570.89
677.044	1561.85
677.393	1541.29
677.741	1546.48
678.09	1544.68
678.438	1518.24
678.787	1528.86
679.135	1563.43
679.484	1552.81
679.832	1545.13
680.181	1518.24
680.529	1543.1
680.877	1518.24
681.225	1514.85
681.573	1514.4
681.922	1498.35
682.27	1509.88
682.618	1531.8
682.966	1511.91
683.314	1522.3
683.661	1505.36
684.009	1520.72
684.357	1482.31
684.705	1508.52
685.053	1507.16
685.4	1480.95
685.748	1476.43
686.095	1491.34
686.443	1480.05
686.79	1469.88
687.138	1488.86
687.485	1469.65
687.832	1504.45
688.18	1478.01
688.527	1494.73
688.874	1470.33
689.221	1478.01
689.568	1507.16
689.915	1448.41
690.262	1479.37
690.609	1437.56
690.956	1483.44
691.303	1472.59
691.65	1463.55
691.997	1459.48
692.344	1454.74
692.69	1464.68
693.037	1475.53
693.383	1424
693.73	1439.37
694.077	1423.1
694.423	1405.7
694.769	1413.83
695.116	1412.25
695.462	1429.2
695.808	1402.31
696.155	1432.82
696.501	1409.77
696.847	1396.43
697.193	1385.36
697.539	1384.46
697.885	1388.75
698.231	1375.64
698.577	1359.6
698.923	1377
699.269	1358.69
699.614	1363.44
699.96	1399.82
700.306	1364.57
700.651	1388.97
700.997	1370.22
701.342	1382.87
701.688	1396.43
702.033	1360.05
702.379	1369.09
702.724	1377.9
703.069	1382.42
703.415	1360.05
703.76	1381.74
704.105	1382.42
704.45	1339.94
704.795	1330.9
705.14	1366.15
705.485	1362.08
705.83	1328.41
706.175	1336.32
706.52	1345.36
706.865	1319.82
707.209	1361.86
707.554	1369.54
707.899	1367.05
708.243	1343.33
708.588	1367.28
708.932	1347.85
709.277	1352.82
709.621	1339.71
709.966	1377.22
710.31	1356.21
710.654	1317.56
710.998	1353.04
711.342	1338.35
711.687	1371.57
712.031	1351.91
712.375	1362.76
712.719	1362.53
713.063	1363.89
713.407	1352.82
713.75	1354.4
714.094	1359.37
714.438	1367.96
714.782	1393.04
715.125	1368.18
715.469	1384.46
715.812	1378.81
716.156	1391.01
716.499	1350.56
716.843	1383.78
717.186	1389.65
717.53	1366.6
717.873	1372.7
718.216	1409.54
718.559	1436.43
718.902	1384
719.246	1379.03
719.589	1440.5
719.932	1415.41
720.275	1401.4
720.617	1430.56
720.96	1429.88
721.303	1447.96
721.646	1425.36
721.989	1422.42
722.331	1419.26
722.674	1440.95
723.016	1431.46
723.359	1446.83
723.701	1452.25
724.044	1447.5
724.386	1450.67
724.729	1464.23
725.071	1428.3
725.413	1464
725.755	1476.88
726.097	1472.14
726.439	1470.1
726.782	1474.4
727.124	1498.12
727.465	1496.54
727.807	1503.32
728.149	1506.71
728.491	1499.03
728.833	1492.7
729.175	1506.03
729.516	1517.78
729.858	1544.9
730.199	1558.01
730.541	1539.25
730.882	1521.17
731.224	1543.32
731.565	1568.41
731.906	1542.64
732.248	1572.02
732.589	1592.36
732.93	1554.85
733.271	1600.72
733.612	1618.8
733.953	1579.25
734.294	1637.1
734.635	1661.96
734.976	1647.5
735.317	1634.17
735.658	1638.23
735.999	1631.23
736.339	1680.94
736.68	1680.04
737.021	1667.39
737.361	1723.43
737.702	1720.49
738.042	1720.27
738.383	1727.04
738.723	1721.62
739.063	1749.19
739.404	1761.85
739.744	1761.39
740.084	1785.12
740.424	1790.09
740.764	1802.98
741.104	1844.56
741.444	1852.01
741.784	1870.32
742.124	1892.92
742.464	1886.81
742.804	1925.91
743.143	1909.19
743.483	1926.59
743.823	1983.76
744.162	1995.96
744.502	2045.45
744.841	2058.56
745.181	2085.45
745.52	2072.57
745.86	2104.66
746.199	2160.93
746.538	2168.84
746.877	2217.65
747.216	2258.33
747.556	2292.91
747.895	2295.17
748.234	2339.23
748.573	2375.16
748.911	2393.02
749.25	2422.39
749.589	2477.08
749.928	2538.55
750.267	2559.79
750.605	2638.43
750.944	2669.62
751.283	2695.38
751.621	2724.76
751.96	2813.8
752.298	2832.55
752.636	2856.73
752.975	2939.89
753.313	2996.39
753.651	3015.82
753.989	3095.37
754.327	3133.34
754.666	3185.54
755.004	3298.53
755.342	3383.05
755.679	3432.54
756.017	3464.63
756.355	3531.74
756.693	3610.61
757.031	3714.79
757.368	3731.29
757.706	3820.32
758.044	3867.78
758.381	3967.66
758.719	4038.17
759.056	4143.93
759.394	4193.65
759.731	4265.74
760.068	4363.13
760.405	4384.83
760.743	4451.95
761.08	4526.75
761.417	4651.49
761.754	4703.01
762.091	4779.62
762.428	4883.12
762.765	4910.24
763.102	5046.73
763.438	5068.43
763.775	5189.78
764.112	5246.73
764.449	5354.97
764.785	5453.95
765.122	5473.16
765.458	5547.51
765.795	5614.63
766.131	5712.7
766.467	5775.53
766.804	5803.55
767.14	5905.47
767.476	5977.55
767.812	6029.53
768.148	6095.52
768.485	6190.88
768.821	6222.52
769.157	6295.51
769.492	6319.01
769.828	6436.53
770.164	6447.82
770.5	6455.28
770.836	6625.22
771.171	6638.55
