Data from blue_shiny_book_FLMS001491_00035.txt Node
Date: Wed Feb 08 15:26:53 GMT 2017
User: dcchb
Spectrometer: FLMS00149
Trigger mode: 0
Integration Time (sec): 2.000000E-2
Scans to average: 10
Electric dark correction enabled: true
Nonlinearity correction enabled: false
Boxcar width: 0
XAxis mode: Wavelengths
Number of Pixels in Spectrum: 2048
>>>>>Begin Spectral Data<<<<<
341.393	-29.93
341.776	-29.93
342.16	-29.93
342.543	-41.23
342.927	-75.35
343.31	-85.52
343.693	-86.42
344.077	-53.66
344.46	-69.93
344.843	-47.56
345.226	-38.29
345.61	-2.13
345.993	-10.72
346.376	-3.71
346.759	35.38
347.142	-0.1
347.525	23.86
347.908	46
348.291	90.97
348.674	97.53
349.057	104.31
349.44	124.42
349.823	154.7
350.206	167.35
350.588	217.52
350.971	224.53
351.354	228.37
351.737	238.09
352.119	239.44
352.502	283.28
352.884	279.44
353.267	284.64
353.65	294.13
354.032	288.26
354.414	309.27
354.797	319.21
355.179	336.16
355.562	346.78
355.944	343.85
356.326	337.29
356.709	336.39
357.091	342.04
357.473	356.5
357.855	370.96
358.238	357.63
358.62	361.7
359.002	351.98
359.384	347.69
359.766	362.83
360.148	338.65
360.53	368.7
360.912	335.94
361.294	335.03
361.676	328.48
362.057	341.59
362.439	345.43
362.821	338.65
363.203	338.65
363.584	324.41
363.966	324.41
364.348	331.42
364.729	321.93
365.111	322.6
365.493	345.65
365.874	325.99
366.256	335.03
366.637	336.39
367.019	351.3
367.4	329.38
367.781	321.7
368.163	330.51
368.544	318.31
368.925	330.06
369.306	344.52
369.688	328.48
370.069	325.32
370.45	314.7
370.831	334.36
371.212	333.68
371.593	339.1
371.974	338.65
372.355	341.81
372.736	339.78
373.117	338.2
373.498	347.91
373.879	348.59
374.26	337.97
374.641	334.58
375.021	344.07
375.402	343.39
375.783	329.16
376.163	341.36
376.544	351.98
376.925	361.25
377.305	353.11
377.686	355.15
378.066	357.18
378.447	341.81
378.827	378.2
379.208	360.57
379.588	371.19
379.968	384.52
380.349	366.67
380.729	370.51
381.109	364.41
381.489	370.96
381.87	381.59
382.25	373.45
382.63	395.6
383.01	394.69
383.39	398.08
383.77	392.66
384.15	379.55
384.53	401.25
384.91	392.66
385.29	422.94
385.67	408.93
386.049	417.07
386.429	408.03
386.809	415.26
387.189	417.52
387.568	423.17
387.948	417.97
388.328	436.95
388.707	420.91
389.087	412.77
389.466	447.12
389.846	437.63
390.225	443.51
390.605	447.35
390.984	457.52
391.363	476.27
391.743	447.12
392.122	462.04
392.501	459.32
392.881	471.3
393.26	482.15
393.639	493.45
394.018	490.74
394.397	472.21
394.776	487.57
395.155	506.55
395.534	499.32
395.913	500.45
396.292	497.52
396.671	521.47
397.05	506.1
397.429	491.41
397.808	522.6
398.186	533.22
398.565	557.17
398.944	542.03
399.323	528.7
399.701	538.42
400.08	535.71
400.458	557.63
400.837	561.02
401.215	568.25
401.594	570.51
401.972	570.51
402.351	598.76
402.729	578.42
403.107	580.22
403.486	571.64
403.864	621.35
404.242	631.07
404.62	595.14
404.999	638.08
405.377	626.1
405.755	627.91
406.133	637.4
406.511	663.39
406.889	684.85
407.267	695.02
407.645	681.47
408.023	678.98
408.401	700.9
408.779	671.07
409.156	717.17
409.534	707.23
409.912	735.48
410.29	743.84
410.667	766.66
411.045	769.82
411.422	795.59
411.8	803.5
412.178	803.95
412.555	799.65
412.933	822.48
413.31	837.85
413.687	828.81
414.065	858.86
414.442	854.79
414.819	873.78
415.197	861.8
415.574	884.62
415.951	904.74
416.328	886.21
416.705	921.46
417.082	923.27
417.46	929.82
417.837	968.01
418.214	940.22
418.591	949.93
418.967	972.76
419.344	1002.81
419.721	1007.11
420.098	992.64
420.475	996.71
420.852	1059.31
421.228	1039.42
421.605	1038.07
421.982	1069.48
422.358	1078.52
422.735	1078.06
423.111	1075.81
423.488	1110.61
423.864	1113.54
424.241	1131.4
424.617	1132.53
424.994	1168.91
425.37	1175.46
425.746	1164.84
426.123	1216.59
426.499	1201.9
426.875	1221.79
427.251	1244.39
427.627	1266.53
428.003	1301.34
428.379	1312.86
428.756	1293.2
429.132	1323.03
429.507	1328.45
429.883	1359.19
430.259	1408.45
430.635	1403.93
431.011	1417.94
431.387	1462.01
431.763	1461.56
432.138	1503.82
432.514	1504.04
432.89	1525.51
433.265	1550.37
433.641	1587.88
434.016	1575.68
434.392	1634.89
434.767	1604.6
435.143	1643.25
435.518	1666.07
435.894	1704.72
436.269	1716.92
436.644	1751.49
437.02	1758.95
437.395	1770.25
437.77	1805.73
438.145	1799.63
438.52	1876.01
438.895	1852.51
439.271	1858.38
439.646	1928.21
440.021	1949.91
440.395	1933.41
440.77	1950.13
441.145	1980.19
441.52	2015.22
441.895	1985.16
442.27	2044.59
442.645	2042.79
443.019	2059.06
443.394	2092.73
443.769	2138.15
444.143	2104.03
444.518	2144.93
444.892	2146.29
445.267	2180.18
445.641	2165.72
446.016	2179.28
446.39	2225.38
446.764	2235.77
447.139	2244.14
447.513	2271.93
447.887	2278.94
448.262	2297.92
448.636	2304.47
449.01	2338.6
449.384	2366.39
449.758	2396.22
450.132	2408.65
450.506	2420.85
450.88	2460.85
451.254	2472.38
451.628	2520.29
452.002	2548.08
452.376	2579.04
452.75	2603.45
453.123	2610.91
453.497	2662.66
453.871	2666.5
454.244	2725.71
454.618	2746.04
454.992	2757.34
455.365	2810.45
455.739	2897
456.112	2922.08
456.486	2916.89
456.859	2952.14
457.232	2995.53
457.606	2993.04
457.979	3043.44
458.352	3131.57
458.725	3178.8
459.099	3184
459.472	3240.49
459.845	3309.19
460.218	3317.78
460.591	3359.36
460.964	3405.46
461.337	3480.94
461.71	3521.62
462.083	3579.69
462.456	3596.19
462.829	3589.19
463.201	3665.34
463.574	3685
463.947	3753.47
464.32	3851.33
464.692	3876.64
465.065	3894.94
465.438	3976.52
465.81	4024.88
466.183	4049.96
466.555	4141.26
466.928	4147.59
467.3	4225.78
467.672	4246.12
468.045	4387.36
468.417	4373.12
468.789	4432.33
469.161	4478.88
469.534	4520.91
469.906	4637.52
470.278	4691.53
470.65	4779.44
471.022	4836.61
471.394	4915.25
471.766	4972.65
472.138	5025.08
472.51	5123.61
472.882	5216.04
473.253	5272.53
473.625	5372.87
473.997	5455.12
474.369	5432.98
474.74	5592.75
475.112	5687.21
475.484	5757.04
475.855	5872.29
476.227	5931.27
476.598	6133.98
476.97	6162
477.341	6319.51
477.713	6420.07
478.084	6454.87
478.455	6617.35
478.827	6615.77
479.198	6846.5
479.569	6867.97
479.94	7051.69
480.311	7083.56
480.682	7254.4
481.053	7365.36
481.424	7592.7
481.795	7629.76
482.166	7742.07
482.537	7981.61
482.908	8092.57
483.279	8151.78
483.65	8347.7
484.021	8483.52
484.391	8553.35
484.762	8598.55
485.133	8746.79
485.503	8837.63
485.874	9078.53
486.244	9127.8
486.615	9352.42
486.985	9450.05
487.356	9605.75
487.726	9712.87
488.097	9921.22
488.467	10001.67
488.837	10263.13
489.207	10426.29
489.578	10538.61
489.948	10676.91
490.318	10825.15
490.688	10771.82
491.058	10909.44
491.428	11151.47
491.798	11338.36
492.168	11467.62
492.538	11508.98
492.908	11589.65
493.278	11800.04
493.648	11859.02
494.017	12036.19
494.387	12172.69
494.757	12294.72
495.126	12489.06
495.496	12530.42
495.866	12707.59
496.235	12853.12
496.605	12970.86
496.974	12951.2
497.344	13092.21
497.713	13099.22
498.082	13294.69
498.452	13388.7
498.821	13415.14
499.19	13470.06
499.559	13698.98
499.928	13717.28
500.298	13859.42
500.667	14023.04
501.036	14050.61
501.405	14301.22
501.774	14328.34
502.143	14484.04
502.512	14672.28
502.88	14781.43
503.249	14781.43
503.618	14819.17
503.987	14848.55
504.356	15041.09
504.724	15036.57
505.093	15099.62
505.462	15157.02
505.83	15300.74
506.199	15383
506.567	15618.93
506.936	15624.35
507.304	15855.76
507.672	15943.66
508.041	16019.14
508.409	16278.57
508.777	16338.91
509.145	16584.1
509.514	16535.74
509.882	16687.15
510.25	16657.99
510.618	16819.35
510.986	16866.12
511.354	17024.54
511.722	17163.29
512.09	17370.52
512.458	17165.33
512.826	17421.82
513.193	17445.09
513.561	17622.71
513.929	17765.99
514.297	17972.76
514.664	18070.84
515.032	18160.78
515.4	18469.92
515.767	18536.59
516.135	18692.97
516.502	18661.78
516.869	19007.08
517.237	18997.37
517.604	19052.51
517.972	19166.63
518.339	19216.8
518.706	19282.78
519.073	19351.71
519.44	19433.97
519.808	19662.66
520.175	19720.06
520.542	20060.62
520.909	20121.86
521.276	20187.84
521.643	20465.35
522.009	20609.75
522.376	20783.76
522.743	20958.22
523.11	21192.34
523.477	21343.52
523.843	21546.23
524.21	21729.73
524.577	21832.77
524.943	21864.64
525.31	21952.54
525.676	22087.23
526.043	22298.52
526.409	22369.71
526.776	22531.96
527.142	22640.89
527.508	22786.42
527.874	22977.15
528.241	23183.47
528.607	23356.8
528.973	23536.91
529.339	23634.08
529.705	23925.83
530.071	24079.49
530.437	24209.66
530.803	24350.67
531.169	24620.27
531.535	24503.44
531.901	24554.74
532.267	24594.06
532.632	24815.75
532.998	24784.11
533.364	24937.55
533.73	25031.56
534.095	25198.79
534.461	25227.26
534.826	25512.9
535.192	25565.56
535.557	25866.34
535.923	25868.15
536.288	25955.15
536.653	26156.95
537.019	26105.66
537.384	26368.02
537.749	26587.22
538.114	26643.95
538.479	26671.52
538.845	26751.29
539.21	26678.75
539.575	26924.84
539.94	26927.33
540.305	27049.59
540.67	26947.89
541.034	26955.8
541.399	27026.08
541.764	27123.48
542.129	27069.25
542.494	27342.46
542.858	27489.8
543.223	27555.56
543.587	27863.58
543.952	27770.92
544.316	27885.27
544.681	28047.53
545.045	28218.14
545.41	28305.37
545.774	28364.81
546.138	28375.2
546.503	28379.95
546.867	28443.45
547.231	28684.34
547.595	28687.28
547.959	28704.01
548.324	28743.33
548.688	28722.31
549.052	28867.39
549.416	28792.82
549.779	28822.42
550.143	28810.44
550.507	29115.07
550.871	29072.81
551.235	29172.92
551.599	29328.85
551.962	29572.91
552.326	29599.35
552.689	29777.2
553.053	29712.34
553.417	29878.21
553.78	30242.72
554.143	30045.89
554.507	30222.84
554.87	30398.2
555.234	30604.29
555.597	30371.08
555.96	30394.81
556.323	30531.75
556.686	30651.52
557.05	30678.19
557.413	30696.27
557.776	30815.14
558.139	30921.12
558.502	31004.28
558.865	31024.17
559.228	31361.79
559.59	31316.59
559.953	31478.62
560.316	31778.73
560.679	31905.95
561.041	32148.89
561.404	32287.87
561.767	32471.82
562.129	32368.77
562.492	32625.71
562.854	32669.78
563.217	32595.43
563.579	32702.32
563.941	32994.97
564.304	33056.89
564.666	33072.25
565.028	33078.35
565.39	33199.03
565.753	33360.38
566.115	33340.72
566.477	33533.26
566.839	33571.67
567.201	33598.57
567.563	33843.53
567.925	34104.09
568.287	34036.75
568.648	34173.01
569.01	34427.47
569.372	34682.61
569.734	34488.03
570.095	34759.44
570.457	35020.22
570.819	35005.99
571.18	35030.17
571.542	35262.02
571.903	35319.88
572.265	35396.03
572.626	35386.77
572.987	35513.32
573.349	35597.84
573.71	35671.96
574.071	35678.74
574.432	35878.05
574.794	36066.52
575.155	35971.16
575.516	35850.48
575.877	35906.75
576.238	36115.34
576.599	36350.58
576.96	36311.94
577.32	36448.21
577.681	36581.99
578.042	36761.19
578.403	36818.37
578.763	36872.15
579.124	36980.17
579.485	37122.54
579.845	37244.8
580.206	37120.06
580.566	37160.05
580.927	37275.76
581.287	37378.58
581.648	37092.26
582.008	37282.54
582.368	37291.12
582.728	37277.57
583.089	37093.62
583.449	37168.64
583.809	37176.55
584.169	37231.46
584.529	37197.34
584.889	37619.93
585.249	37363.66
585.609	37266.27
585.969	37542.42
586.329	37505.36
586.688	37471.91
587.048	37616.31
587.408	37489.08
587.768	37578.35
588.127	37719.81
588.487	37765.24
588.846	38040.26
589.206	37787.83
589.565	37566.82
589.925	37869.19
590.284	37607.73
590.643	37675.75
591.003	37861.96
591.362	37913.93
591.721	37865.8
592.08	37616.54
592.44	37689.98
592.799	37811.34
593.158	37783.09
593.517	37938.56
593.876	37917.77
594.235	37820.15
594.593	37867.83
594.952	37863.09
595.311	37840.71
595.67	38020.82
596.029	37998.45
596.387	38211.78
596.746	38259.23
597.104	38089.52
597.463	38155.28
597.822	38315.05
598.18	38228.73
598.538	38245.68
598.897	38518.66
599.255	38188.05
599.613	38728.6
599.972	38364.54
600.33	38420.36
600.688	38354.82
601.046	38623.74
601.404	38567.93
601.762	38449.74
602.12	38718.43
602.478	38527.48
602.836	38708.49
603.194	38327.25
603.552	38500.36
603.91	38472.79
604.268	38544.88
604.625	38358.89
604.983	38492.67
605.341	38418.33
605.698	38475.05
606.056	38655.61
606.413	38957.52
606.771	38918.43
607.128	38917.3
607.485	38945.09
607.843	39020.8
608.2	39168.59
608.557	39379.2
608.914	39054.92
609.272	39409.71
609.629	39308.7
609.986	39477.96
610.343	39310.28
610.7	39439.54
611.057	39524.96
611.414	39460.56
611.771	39478.41
612.127	39716.14
612.484	39506.66
612.841	39602.93
613.198	39461.91
613.554	39527.45
613.911	39580.1
614.267	39583.49
614.624	39590.27
614.98	39744.39
615.337	39764.51
615.693	39829.14
616.05	39842.47
616.406	40102.12
616.762	39763.15
617.118	40114.78
617.475	39963.6
617.831	40180.99
618.187	40149.81
618.543	40214.21
618.899	40453.07
619.255	40305.96
619.611	40333.3
619.967	40513.64
620.323	40391.61
620.678	40362
621.034	40252.63
621.39	40315.68
621.746	40248.56
622.101	40582.79
622.457	40218.05
622.812	40235
623.168	40447.43
623.523	40261.67
623.879	40462.11
624.234	40248.79
624.589	40405.62
624.945	40479.06
625.3	40501.21
625.655	40329.46
626.01	40367.43
626.365	40491.27
626.72	40317.94
627.075	40319.07
627.43	40429.8
627.785	40504.15
628.14	40413.53
628.495	40384.6
628.85	40455.56
629.205	40359.07
629.559	40582.34
629.914	40378.73
630.269	40424.15
630.623	40352.74
630.978	40352.51
631.332	40442
631.687	40576.24
632.041	40354.32
632.396	40351.16
632.75	40115.68
633.104	40272.97
633.459	40046.53
633.813	39951.39
634.167	39819.87
634.521	39723.38
634.875	39916.59
635.229	39877.72
635.583	39699.65
635.937	39630.5
636.291	39597.96
636.645	39567
636.999	39602.25
637.352	39759.08
637.706	39502.59
638.06	39511.63
638.413	39476.83
638.767	39435.25
639.121	39320.68
639.474	39176.95
639.828	39240.9
640.181	39320.9
640.534	39387.34
640.888	39080.91
641.241	39050.63
641.594	39309.83
641.947	39347.34
642.301	39206.1
642.654	39314.57
643.007	39312.77
643.36	39111.87
643.713	39089.04
644.066	39122.04
644.419	38950.52
644.771	38781.93
645.124	38705.1
645.477	38843.85
645.83	38406.35
646.182	38116.19
646.535	37772.02
646.888	37503.77
647.24	37157.57
647.593	37310.11
647.945	37215.87
648.298	36953.73
648.65	36979.72
649.002	37034.41
649.355	37280.05
649.707	37384.91
650.059	37621.51
650.411	38174.94
650.763	38070.09
651.115	38408.16
651.467	38181.5
651.819	38242.51
652.171	38224.88
652.523	38224.66
652.875	38255.84
653.227	38020.14
653.578	38430.98
653.93	38399.8
654.282	38159.58
654.633	37782.41
654.985	37899.02
655.337	38034.16
655.688	37803.65
656.039	37962.29
656.391	37770.66
656.742	37750.55
657.094	37884.1
657.445	37787.61
657.796	37825.8
658.147	37687.05
658.498	37666.26
658.849	37838.68
659.2	37552.59
659.551	37670.1
659.902	37679.59
660.253	37605.01
660.604	37895.18
660.955	37598.01
661.306	37686.82
661.656	37722.98
662.007	37675.52
662.358	37604.34
662.708	37627.39
663.059	37624.9
663.409	37377.9
663.76	37780.6
664.11	37746.71
664.461	37593.71
664.811	37719.59
665.161	37629.42
665.511	37678.68
665.862	37645.92
666.212	37687.27
666.562	37814.27
666.912	37676.42
667.262	37620.38
667.612	37644.11
667.962	37668.52
668.312	37529.31
668.662	37745.58
669.011	37531.12
669.361	37543.32
669.711	37327.96
670.06	37315.3
670.41	37046.84
670.76	37099.94
671.109	37184.01
671.459	37126.16
671.808	37188.3
672.157	37125.03
672.507	36905.15
672.856	37011.58
673.205	37136.55
673.554	37065.59
673.904	36964.8
674.253	37290.67
674.602	36914.86
674.951	36506.96
675.3	36350.36
675.649	36897.24
675.998	36889.55
676.346	36919.38
676.695	37149.21
677.044	36657.02
677.393	36851.81
677.741	36896.78
678.09	36659.05
678.438	36608.43
678.787	36670.8
679.135	36814.53
679.484	36370.7
679.832	36603.01
680.181	36363.69
680.529	36394.88
680.877	36271.72
681.225	36249.34
681.573	36383.8
681.922	36076.24
682.27	35992.85
682.618	35864.72
682.966	35896.13
683.314	35721.9
683.661	35817.04
684.009	35491.4
684.357	35418.4
684.705	35310.84
685.053	35408.91
685.4	35330.27
685.748	35191.52
686.095	35266.09
686.443	35139.77
686.79	35206.21
687.138	35231.97
687.485	35128.47
687.832	35146.77
688.18	35149.03
688.527	34860
688.874	34912.88
689.221	34838.53
689.568	34591.76
689.915	34625.21
690.262	34605.77
690.609	34547.47
690.956	34406.45
691.303	34367.59
691.65	34203.97
691.997	34200.81
692.344	33883.3
692.69	33922.4
693.037	33833.59
693.383	33457.55
693.73	33582.75
694.077	33361.06
694.423	33421.62
694.769	33143.21
695.116	33050.78
695.462	32918.13
695.808	33001.75
696.155	32880.39
696.501	32654.18
696.847	32665.26
697.193	32397.47
697.539	32468.43
697.885	32360.63
698.231	32254.42
698.577	32294.65
698.923	32112.05
699.269	32147.76
699.614	31963.35
699.96	31802.68
700.306	31878.38
700.651	31727.65
700.997	31473.42
701.342	31493.54
701.688	31470.03
702.033	31363.37
702.379	31314.11
702.724	31398.17
703.069	31451.28
703.415	31066.65
703.76	31085.64
704.105	30904.4
704.45	30897.85
704.795	30721.13
705.14	30548.25
705.485	30582.15
705.83	30464.41
706.175	30314.81
706.52	30274.36
706.865	30138.32
707.209	30132.89
707.554	30151.65
707.899	30031.65
708.243	29874.14
708.588	29816.29
708.932	29512.57
709.277	29676.86
709.621	29629.63
709.966	29389.86
710.31	29449.97
710.654	29264.44
710.998	29239.13
711.342	29228.74
711.687	29173.82
712.031	29069.65
712.375	28845.02
712.719	29004.79
713.063	29056.54
713.407	29143.99
713.75	28987.39
714.094	28881.85
714.438	28767.28
714.782	28811.57
715.125	28779.48
715.469	28899.03
715.812	28579.71
716.156	28463.33
716.499	28475.76
716.843	28536.78
717.186	28340.85
717.53	28433.73
717.873	28327.74
718.216	28300.17
718.559	28317.12
718.902	27900.86
719.246	28257.46
719.589	28244.13
719.932	27886.63
720.275	27945.38
720.617	27770.47
720.96	27812.28
721.303	27754.43
721.646	27758.04
721.989	27543.81
722.331	27765.95
722.674	27673.52
723.016	27732.73
723.359	27710.36
723.701	27550.59
724.044	27419.07
724.386	27249.81
724.729	27547.2
725.071	27421.1
725.413	27308.34
725.755	27280.09
726.097	27280.54
726.439	27114.89
726.782	27118.96
727.124	27259.07
727.465	27067.44
727.807	27078.29
728.149	27051.85
728.491	27035.35
728.833	27017.27
729.175	27113.09
729.516	26952.86
729.858	26994.22
730.199	27111.05
730.541	27048.68
730.882	27114.22
731.224	27166.19
731.565	26881
731.906	27082.58
732.248	26936.82
732.589	26870.38
732.93	26982.47
733.271	26915.8
733.612	26902.7
733.953	26917.61
734.294	26744.28
734.635	26699.09
734.976	26778.41
735.317	26571.86
735.658	26690.5
735.999	26783.83
736.339	26784.73
736.68	26757.84
737.021	26659.77
737.361	26563.72
737.702	26668.8
738.042	26571.41
738.383	26621.8
738.723	26770.27
739.063	26619.31
739.404	26665.87
739.744	26607.34
740.084	26565.76
740.424	26634.46
740.764	26530.95
741.104	26677.84
741.444	26582.48
741.784	26527.79
742.124	26618.18
742.464	26628.81
742.804	26676.04
743.143	26534.34
743.483	26630.61
743.823	26518.98
744.162	26674
744.502	26683.27
744.841	26671.29
745.181	26768.01
745.52	26704.06
745.86	26730.27
746.199	26800.33
746.538	26779.76
746.877	26846.43
747.216	26963.49
747.556	26860.44
747.895	26826.54
748.234	26748.12
748.573	26768.01
748.911	26780.21
749.25	26805.98
749.589	26812.76
749.928	26827.44
750.267	26848.01
750.605	26862.25
750.944	26912.19
751.283	26776.37
751.621	26916.26
751.96	26851.85
752.298	26935.24
752.636	26892.75
752.975	26954.67
753.313	26768.24
753.651	26935.01
