Data from blue_surface_keyboard_FLMS001491_092.txt Node
Date: Tue Feb 07 11:13:54 GMT 2017
User: dcchb
Spectrometer: FLMS00149
Trigger mode: 0
Integration Time (sec): 2.000000E-2
Scans to average: 10
Electric dark correction enabled: true
Nonlinearity correction enabled: false
Boxcar width: 0
XAxis mode: Wavelengths
Number of Pixels in Spectrum: 2048
>>>>>Begin Spectral Data<<<<<
341.393	-15.52
341.776	-15.52
342.16	-15.52
342.543	-39.02
342.927	-73.6
343.31	-67.5
343.693	-68.4
344.077	-67.05
344.46	-47.61
344.843	-50.78
345.226	-37.67
345.61	-38.35
345.993	-13.49
346.376	2.1
346.759	19.96
347.142	19.05
347.525	38.26
347.908	50.69
348.291	92.27
348.674	61.54
349.057	106.96
349.44	120.29
349.823	148.99
350.206	145.6
350.588	198.26
350.971	181.76
351.354	209.78
351.737	215.43
352.119	218.82
352.502	234.41
352.884	249.56
353.267	274.87
353.65	280.74
354.032	291.36
354.414	292.27
354.797	316.45
355.179	298.82
355.562	315.54
355.944	309.67
356.326	310.12
356.709	312.38
357.091	303.11
357.473	337.01
357.855	327.29
358.238	328.42
358.62	303.57
359.002	308.54
359.384	332.49
359.766	325.94
360.148	319.16
360.53	322.32
360.912	311.25
361.294	303.57
361.676	298.37
362.057	304.92
362.439	316.22
362.821	336.56
363.203	327.29
363.584	294.07
363.966	321.19
364.348	315.54
364.729	305.15
365.111	306.05
365.493	303.57
365.874	295.43
366.256	302.44
366.637	293.4
367.019	297.46
367.4	294.98
367.781	308.76
368.163	308.54
368.544	287.29
368.925	282.78
369.306	279.61
369.688	285.03
370.069	270.35
370.45	297.92
370.831	315.54
371.212	306.28
371.593	304.92
371.974	297.01
372.355	306.5
372.736	301.08
373.117	288.2
373.498	265.6
373.879	314.41
374.26	316.67
374.641	273.06
375.021	311.25
375.402	278.26
375.783	288.2
376.163	315.99
376.544	313.96
376.925	276.22
377.305	311.25
377.686	304.24
378.066	293.4
378.447	290.91
378.827	299.95
379.208	291.36
379.588	285.94
379.968	283.68
380.349	311.47
380.729	303.11
381.109	305.37
381.489	311.7
381.87	307.18
382.25	309.44
382.63	289.78
383.01	295.88
383.39	296.11
383.77	309.22
384.15	318.48
384.53	323.45
384.91	333.62
385.29	310.34
385.67	318.03
386.049	326.16
386.429	317.8
386.809	322.32
387.189	329.78
387.568	308.09
387.948	313.73
388.328	314.64
388.707	310.34
389.087	339.5
389.466	328.2
389.846	310.8
390.225	329.55
390.605	338.14
390.984	330.23
391.363	330.01
391.743	324.36
392.122	319.61
392.501	315.54
392.881	325.26
393.26	339.04
393.639	310.57
394.018	323.68
394.397	328.42
394.776	319.38
395.155	324.36
395.534	336.78
395.913	329.33
396.292	314.19
396.671	332.49
397.05	359.84
397.429	327.29
397.808	323.68
398.186	329.55
398.565	340.85
398.944	347.63
399.323	344.47
399.701	349.89
400.08	350.57
400.458	348.31
400.837	361.19
401.215	373.85
401.594	338.59
401.972	314.64
402.351	354.64
402.729	367.29
403.107	356.9
403.486	323.9
403.864	341.08
404.242	348.99
404.62	368.2
404.999	350.12
405.377	359.16
405.755	349.44
406.133	346.95
406.511	346.73
406.889	364.35
407.267	353.06
407.645	353.96
408.023	361.64
408.401	370.46
408.779	360.06
409.156	376.56
409.534	340.17
409.912	374.52
410.29	374.3
410.667	352.38
411.045	354.19
411.422	370
411.8	381.98
412.178	369.78
412.555	365.03
412.933	386.05
413.31	395.54
413.687	392.6
414.065	376.78
414.442	395.54
414.819	406.61
415.197	393.73
415.574	397.57
415.951	387.41
416.328	402.32
416.705	393.05
417.082	377.69
417.46	388.31
417.837	382.89
418.214	381.98
418.591	400.51
418.967	393.28
419.344	409.55
419.721	398.48
420.098	402.55
420.475	394.86
420.852	377.46
421.228	429.44
421.605	393.28
421.982	393.28
422.358	400.74
422.735	409.55
423.111	412.72
423.488	432.83
423.864	406.61
424.241	408.42
424.617	407.74
424.994	417.69
425.37	428.31
425.746	419.49
426.123	393.51
426.499	432.83
426.875	426.73
427.251	443.9
427.627	435.31
428.003	436.9
428.379	420.62
428.756	443.67
429.132	439.16
429.507	429.21
429.883	435.99
430.259	426.73
430.635	440.96
431.011	448.87
431.387	441.19
431.763	458.36
432.138	477.12
432.514	457.69
432.89	450.91
433.265	469.89
433.641	467.4
434.016	463.34
434.392	468.08
434.767	485.93
435.143	476.44
435.518	490.68
435.894	479.83
436.269	491.13
436.644	493.84
437.02	490.23
437.395	493.62
437.77	491.81
438.145	495.42
438.52	477.57
438.895	502.66
439.271	485.26
439.646	496.33
440.021	490.68
440.395	520.51
440.77	495.65
441.145	526.38
441.52	512.6
441.895	526.84
442.27	505.59
442.645	521.19
443.019	550.56
443.394	522.54
443.769	542.43
444.143	537.23
444.518	537.68
444.892	527.97
445.267	526.16
445.641	524.12
446.016	560.28
446.39	530.9
446.764	539.04
447.139	555.54
447.513	555.76
447.887	527.29
448.262	549.43
448.636	544.24
449.01	566.16
449.384	566.84
449.758	548.53
450.132	550.56
450.506	581.75
450.88	581.75
451.254	577
451.628	570.68
452.002	553.73
452.376	563.45
452.75	573.39
453.123	550.56
453.497	574.29
453.871	597.12
454.244	582.43
454.618	619.94
454.992	588.08
455.365	611.81
455.739	600.28
456.112	596.67
456.486	586.04
456.859	614.07
457.232	630.11
457.606	618.59
457.979	618.59
458.352	624.46
458.725	640.96
459.099	625.36
459.472	628.98
459.845	646.16
460.218	625.14
460.591	651.35
460.964	641.41
461.337	642.31
461.71	664.46
462.083	684.12
462.456	667.85
462.829	670.34
463.201	673.05
463.574	710.11
463.947	667.4
464.32	685.25
464.692	687.06
465.065	714.85
465.438	692.48
465.81	725.93
466.183	690.22
466.555	727.06
466.928	704.01
467.3	726.83
467.672	739.94
468.045	710.33
468.417	747.85
468.789	720.73
469.161	768.19
469.534	764.8
469.906	774.74
470.278	775.87
470.65	769.09
471.022	794.63
471.394	795.3
471.766	794.4
472.138	790.33
472.51	832.59
472.882	809.09
473.253	836.21
473.625	801.41
473.997	815.42
474.369	844.12
474.74	842.76
475.112	859.94
475.484	850.67
475.855	858.58
476.227	880.5
476.598	896.09
476.97	885.25
477.341	913.94
477.713	904.68
478.084	918.69
478.455	944.68
478.827	952.59
479.198	939.25
479.569	940.16
479.94	960.05
480.311	967.95
480.682	972.02
481.053	985.13
481.424	998.24
481.795	999.82
482.166	1014.73
482.537	1017.22
482.908	1009.08
483.279	1014.06
483.65	1027.61
484.021	1062.64
484.391	1077.78
484.762	1088.63
485.133	1084.34
485.503	1062.64
485.874	1117.33
486.244	1120.95
486.615	1102.41
486.985	1112.81
487.356	1143.32
487.726	1147.16
488.097	1151.45
488.467	1149.64
488.837	1168.18
489.207	1171.79
489.578	1177.44
489.948	1162.3
490.318	1188.06
490.688	1214.5
491.058	1212.92
491.428	1213.37
491.798	1238.46
492.168	1217.44
492.538	1266.03
492.908	1249.3
493.278	1266.48
493.648	1261.73
494.017	1287.04
494.387	1274.61
494.757	1301.28
495.126	1286.36
495.496	1265.35
495.866	1291.79
496.235	1281.62
496.605	1290.88
496.974	1312.35
497.344	1291.34
497.713	1318.68
498.082	1334.72
498.452	1320.26
498.821	1318.45
499.19	1314.84
499.559	1337.44
499.928	1303.09
500.298	1334.27
500.667	1357.55
501.036	1320.26
501.405	1348.51
501.774	1348.06
502.143	1354.84
502.512	1368.17
502.88	1358
503.249	1392.35
503.618	1368.4
503.987	1335.63
504.356	1373.82
504.724	1363.42
505.093	1335.4
505.462	1385.12
505.83	1386.47
506.199	1379.7
506.567	1386.7
506.936	1376.98
507.304	1407.94
507.672	1380.83
508.041	1409.75
508.409	1387.15
508.777	1400.03
509.145	1417.89
509.514	1394.16
509.882	1431.9
510.25	1410.88
510.618	1410.88
510.986	1425.12
511.354	1421.05
511.722	1419.47
512.09	1426.7
512.458	1432.8
512.826	1433.71
513.193	1433.93
513.561	1435.97
513.929	1451.78
514.297	1450.88
514.664	1453.37
515.032	1464.89
515.4	1451.56
515.767	1455.85
516.135	1461.95
516.502	1469.41
516.869	1483.2
517.237	1472.12
517.604	1470.99
517.972	1457.89
518.339	1485.91
518.706	1457.66
519.073	1463.99
519.44	1469.64
519.808	1489.3
520.175	1483.2
520.542	1499.69
520.909	1470.09
521.276	1474.38
521.643	1505.57
522.009	1498.79
522.376	1489.07
522.743	1494.95
523.11	1521.39
523.477	1513.03
523.843	1545.57
524.21	1514.38
524.577	1524.32
524.943	1577.66
525.31	1510.31
525.676	1555.51
526.043	1567.04
526.409	1534.72
526.776	1565.91
527.142	1546.47
527.508	1530.88
527.874	1561.61
528.241	1580.82
528.607	1549.63
528.973	1558.22
529.339	1576.75
529.705	1594.15
530.071	1609.29
530.437	1565.45
530.803	1559.58
531.169	1598.22
531.535	1572.46
531.901	1585.57
532.267	1603.42
532.632	1589.18
532.998	1602.74
533.364	1615.85
533.73	1615.4
534.095	1606.13
534.461	1654.26
534.826	1590.54
535.192	1614.72
535.557	1616.53
535.923	1588.05
536.288	1601.38
536.653	1621.5
537.019	1610.65
537.384	1597.32
537.749	1585.34
538.114	1643.87
538.479	1634.83
538.845	1608.84
539.21	1630.99
539.575	1628.28
539.94	1637.32
540.305	1604.77
540.67	1616.3
541.034	1623.53
541.399	1642.74
541.764	1599.12
542.129	1611.1
542.494	1607.26
542.858	1648.39
543.223	1632.12
543.587	1640.48
543.952	1610.2
544.316	1630.54
544.681	1610.42
545.045	1614.49
545.41	1627.6
545.774	1647.48
546.138	1616.07
546.503	1646.13
546.867	1647.48
547.231	1634.6
547.595	1627.82
547.959	1640.25
548.324	1657.43
548.688	1635.51
549.052	1647.26
549.416	1635.28
549.779	1648.84
550.143	1609.29
550.507	1650.42
550.871	1649.74
551.235	1655.85
551.599	1619.24
551.962	1650.87
552.326	1649.97
552.689	1635.96
553.053	1630.08
553.417	1622.4
553.78	1629.41
554.143	1655.85
554.507	1662.85
554.87	1670.99
555.234	1672.34
555.597	1657.2
555.96	1689.07
556.323	1658.56
556.686	1629.41
557.05	1685.22
557.413	1659.24
557.776	1656.3
558.139	1652
558.502	1647.26
558.865	1655.17
559.228	1669.63
559.59	1630.31
559.953	1687.03
560.316	1681.83
560.679	1667.37
561.041	1701.27
561.404	1684.55
561.767	1692.46
562.129	1707.6
562.492	1702.4
562.854	1704.88
563.217	1701.49
563.579	1698.78
563.941	1730.65
564.304	1706.47
564.666	1706.47
565.028	1727.26
565.39	1718.67
565.753	1730.87
566.115	1727.26
566.477	1724.09
566.839	1718.22
567.201	1736.07
567.563	1709.18
567.925	1744.43
568.287	1727.93
568.648	1733.36
569.01	1744.43
569.372	1772.23
569.734	1762.51
570.095	1740.14
570.457	1777.43
570.819	1743.53
571.18	1748.05
571.542	1762.28
571.903	1763.64
572.265	1740.14
572.626	1749.63
572.987	1775.62
573.349	1765.45
573.71	1750.08
574.071	1793.02
574.432	1779.46
574.794	1781.27
575.155	1765.22
575.516	1775.39
575.877	1780.81
576.238	1766.35
576.599	1793.24
576.96	1803.86
577.32	1794.83
577.681	1777.43
578.042	1786.46
578.403	1776.07
578.763	1793.02
579.124	1839.8
579.485	1796.41
579.845	1842.96
580.206	1808.16
580.566	1823.3
580.927	1832.56
581.287	1808.38
581.648	1841.38
582.008	1805.9
582.368	1791.66
582.728	1799.8
583.089	1807.25
583.449	1821.49
583.809	1847.25
584.169	1828.5
584.529	1797.31
584.889	1818.78
585.249	1841.38
585.609	1830.53
585.969	1817.65
586.329	1836.63
586.688	1829.85
587.048	1797.99
587.408	1811.1
587.768	1835.73
588.127	1829.18
588.487	1852
588.846	1830.98
589.206	1816.29
589.565	1813.81
589.925	1841.83
590.284	1860.81
590.643	1843.64
591.003	1843.19
591.362	1855.84
591.721	1841.38
592.08	1871.21
592.44	1868.72
592.799	1838.67
593.158	1812.68
593.517	1839.34
593.876	1875.5
594.235	1892.22
594.593	1849.29
594.952	1875.05
595.311	1841.15
595.67	1843.19
596.029	1869.85
596.387	1895.39
596.746	1866.91
597.104	1875.5
597.463	1862.85
597.822	1856.29
598.18	1854.26
598.538	1849.97
598.897	1853.58
599.255	1875.73
599.613	1894.71
599.972	1885.67
600.33	1875.5
600.688	1854.94
601.046	1885.9
601.404	1898.33
601.762	1908.5
602.12	1903.3
602.478	1909.62
602.836	1909.17
603.194	1911.43
603.552	1861.49
603.91	1912.11
604.268	1909.62
604.625	1887.25
604.983	1894.94
605.341	1903.75
605.698	1918.89
606.056	1936.74
606.413	1892.22
606.771	1931.77
607.128	1937.87
607.485	1903.75
607.843	1924.09
608.2	1938.78
608.557	1923.18
608.914	1927.48
609.272	1947.82
609.629	1935.61
609.986	1928.38
610.343	1928.16
610.7	1969.96
611.057	1929.96
611.414	1960.02
611.771	1942.39
612.127	1928.61
612.484	1929.51
612.841	1937.19
613.198	1963.86
613.554	1940.36
613.911	1997.08
614.267	1969.06
614.624	1950.08
614.98	1963.18
615.337	1973.13
615.693	1985.1
616.05	1935.39
616.406	1980.13
616.762	1968.61
617.118	1987.36
617.475	1988.49
617.831	1988.72
618.187	1994.37
618.543	2008.15
618.899	2005.67
619.255	2005.22
619.611	2002.73
619.967	2007.7
620.323	2016.51
620.678	2029.17
621.034	2002.28
621.39	2033.92
621.746	2029.62
622.101	2007.02
622.457	2015.16
622.812	2030.75
623.168	2013.13
623.523	2046.8
623.879	2035.95
624.234	2060.36
624.589	2027.81
624.945	2040.69
625.3	2044.08
625.655	2103.29
626.01	2044.99
626.365	2059.9
626.72	2040.47
627.075	2069.62
627.43	2069.62
627.785	2050.86
628.14	2073.24
628.495	2063.52
628.85	2092.67
629.205	2085.67
629.559	2121.14
629.914	2098.77
630.269	2087.93
630.623	2119.11
630.978	2073.46
631.332	2121.6
631.687	2084.31
632.041	2106.46
632.396	2111.65
632.75	2101.48
633.104	2146
633.459	2118.88
633.813	2095.16
634.167	2142.84
634.521	2126.57
634.875	2121.37
635.229	2147.13
635.583	2148.26
635.937	2174.02
636.291	2158.43
636.645	2158.43
636.999	2175.61
637.352	2144.42
637.706	2148.49
638.06	2151.88
638.413	2134.03
638.767	2202.95
639.121	2161.14
639.474	2170.41
639.828	2180.35
640.181	2197.98
640.534	2189.84
640.888	2198.66
641.241	2192.56
641.594	2174.93
641.947	2236.4
642.301	2220.13
642.654	2205.66
643.007	2233.46
643.36	2209.28
643.713	2215.83
644.066	2210.63
644.419	2254.7
644.771	2251.54
645.124	2228.26
645.477	2229.16
645.83	2254.25
646.182	2252.67
646.535	2212.67
646.888	2245.21
647.24	2222.16
647.593	2260.35
647.945	2314.36
648.298	2287.47
648.65	2250.63
649.002	2291.08
649.355	2251.76
649.707	2324.3
650.059	2329.5
650.411	2329.5
650.763	2372.21
651.115	2414.47
651.467	2405.66
651.819	2428.71
652.171	2423.74
652.523	2397.75
652.875	2438.42
653.227	2416.05
653.578	2423.51
653.93	2415.37
654.282	2445.43
654.633	2452.89
654.985	2490.17
655.337	2465.77
655.688	2503.51
656.039	2541.7
656.391	2479.33
656.742	2536.73
657.094	2551.42
657.445	2535.15
657.796	2549.61
658.147	2528.37
658.498	2565.88
658.849	2602.94
659.2	2575.6
659.551	2587.57
659.902	2618.53
660.253	2655.14
660.604	2655.14
660.955	2642.26
661.306	2699.21
661.656	2645.42
662.007	2701.02
662.358	2669.83
662.708	2741.02
663.059	2719.55
663.409	2741.69
663.76	2736.27
664.11	2767
664.461	2745.08
664.811	2803.39
665.161	2801.13
665.511	2823.27
665.862	2812.65
666.212	2832.09
666.562	2867.34
666.912	2899.66
667.262	2861.46
667.612	2865.76
667.962	2900.33
668.312	2915.93
668.662	2917.28
669.011	2946.21
669.361	2936.26
669.711	2943.27
670.06	2984.4
670.41	2993.66
670.76	2998.41
671.109	3008.81
671.459	3047.45
671.808	3045.41
672.157	3075.92
672.507	3051.97
672.856	3045.64
673.205	3119.08
673.554	3098.97
673.904	3075.92
674.253	3161.8
674.602	3138.75
674.951	3116.82
675.3	3127.45
675.649	3128.8
675.998	3135.13
676.346	3217.61
676.695	3192.53
677.044	3209.48
677.393	3220.55
677.741	3265.75
678.09	3234.34
678.438	3265.52
678.787	3272.3
679.135	3251.96
679.484	3293.09
679.832	3292.87
680.181	3274.56
680.529	3335.8
680.877	3299.64
681.225	3331.51
681.573	3341.45
681.922	3367.44
682.27	3340.1
682.618	3377.83
682.966	3368.12
683.314	3427.33
683.661	3415.8
684.009	3395.46
684.357	3407.44
684.705	3398.17
685.053	3423.48
685.4	3430.94
685.748	3423.71
686.095	3451.51
686.443	3470.94
686.79	3426.87
687.138	3449.47
687.485	3469.58
687.832	3480.21
688.18	3476.36
688.527	3464.84
688.874	3515.91
689.221	3512.97
689.568	3519.53
689.915	3524.95
690.262	3477.27
690.609	3475.46
690.956	3519.53
691.303	3520.88
691.65	3505.74
691.997	3517.27
692.344	3528.57
692.69	3486.08
693.037	3509.13
693.383	3503.93
693.73	3505.52
694.077	3529.24
694.423	3500.09
694.769	3531.5
695.116	3533.54
695.462	3537.15
695.808	3549.58
696.155	3518.4
696.501	3494.22
696.847	3533.09
697.193	3528.11
697.539	3504.61
697.885	3538.06
698.231	3495.35
698.577	3549.36
698.923	3540.99
699.269	3496.48
699.614	3523.14
699.96	3510.03
700.306	3478.17
700.651	3482.01
700.997	3497.61
701.342	3496.02
701.688	3536.47
702.033	3509.36
702.379	3472.3
702.724	3505.29
703.069	3485.18
703.415	3461.67
703.76	3496.7
704.105	3463.03
704.45	3432.52
704.795	3452.86
705.14	3456.25
705.485	3432.3
705.83	3468.68
706.175	3495.12
706.52	3451.51
706.865	3453.31
707.209	3453.09
707.554	3447.44
707.899	3454.67
708.243	3452.64
708.588	3461.9
708.932	3409.92
709.277	3415.8
709.621	3405.63
709.966	3425.74
710.31	3440.43
710.654	3432.52
710.998	3419.87
711.342	3396.14
711.687	3422.35
712.031	3422.13
712.375	3369.47
712.719	3418.74
713.063	3442.92
713.407	3429.58
713.75	3406.53
714.094	3417.61
714.438	3411.05
714.782	3397.95
715.125	3372.19
715.469	3397.5
715.812	3372.19
716.156	3354.11
716.499	3404.73
716.843	3378.74
717.186	3381.45
717.53	3402.92
717.873	3425.74
718.216	3378.74
718.559	3392.07
718.902	3354.56
719.246	3390.04
719.589	3388.46
719.932	3373.54
720.275	3383.94
720.617	3421.45
720.96	3406.53
721.303	3364.05
721.646	3402.92
721.989	3414.22
722.331	3404.27
722.674	3393.2
723.016	3411.96
723.359	3400.21
723.701	3377.61
724.044	3326.54
724.386	3359.3
724.729	3416.7
725.071	3397.95
725.413	3398.85
725.755	3381.22
726.097	3365.41
726.439	3402.69
726.782	3375.8
727.124	3417.83
727.465	3420.55
727.807	3415.35
728.149	3372.64
728.491	3361.34
728.833	3391.62
729.175	3334.22
729.516	3369.93
729.858	3376.25
730.199	3451.51
730.541	3392.98
730.882	3403.82
731.224	3439.75
731.565	3414.67
731.906	3419.42
732.248	3412.18
732.589	3409.25
732.93	3439.75
733.271	3380.09
733.612	3408.34
733.953	3429.36
734.294	3407.44
734.635	3410.15
734.976	3432.52
735.317	3405.4
735.658	3468
735.999	3390.26
736.339	3436.59
736.68	3438.17
737.021	3415.57
737.361	3465.74
737.702	3453.77
738.042	3465.74
738.383	3478.85
738.723	3460.77
739.063	3497.83
739.404	3519.3
739.744	3479.3
740.084	3505.52
740.424	3532.63
740.764	3509.58
741.104	3524.95
741.444	3552.52
741.784	3544.61
742.124	3568.34
742.464	3548.45
742.804	3554.55
743.143	3530.37
743.483	3579.86
743.823	3593.2
744.162	3595.91
744.502	3635.23
744.841	3632.74
745.181	3640.88
745.52	3647.88
745.86	3652.86
746.199	3683.82
746.538	3698.5
746.877	3701.44
747.216	3706.64
747.556	3719.75
747.895	3776.92
748.234	3759.52
748.573	3731.95
748.911	3782.12
749.25	3784.6
749.589	3812.85
749.928	3810.14
750.267	3855.34
750.605	3867.54
750.944	3891.72
751.283	3886.3
751.621	3939.85
751.96	3923.36
752.298	3906.63
752.636	3975.79
752.975	3986.86
753.313	3969.46
753.651	4050.59
753.989	4064.6
754.327	4050.36
754.666	4071.15
755.004	4087.65
755.342	4117.93
755.679	4164.48
756.017	4154.09
756.355	4169.68
756.693	4198.15
757.031	4184.37
757.368	4201.09
757.706	4204.03
758.044	4255.78
758.381	4276.34
758.719	4265.04
759.056	4287.42
759.394	4315.89
759.731	4315.44
760.068	4318.38
760.405	4326.06
760.743	4375.55
761.08	4344.59
761.417	4373.29
761.754	4367.87
762.091	4383.01
762.428	4393.63
762.765	4413.74
763.102	4445.38
763.438	4450.12
763.775	4424.14
764.112	4466.17
764.449	4443.34
764.785	4430.91
765.122	4506.62
765.458	4429.33
765.795	4457.58
766.131	4461.87
766.467	4479.95
766.804	4496.45
767.14	4472.04
767.476	4456.68
767.812	4494.19
768.148	4477.24
768.485	4496.22
768.821	4468.88
769.157	4464.59
769.492	4484.47
769.828	4491.25
770.164	4448.09
770.5	4455.55
770.836	4451.93
771.171	4462.78
771.507	4471.37
771.842	4440.63
