Data from blue_surface_keyboard_FLMS001491_100.txt Node
Date: Tue Feb 07 11:13:56 GMT 2017
User: dcchb
Spectrometer: FLMS00149
Trigger mode: 0
Integration Time (sec): 2.000000E-2
Scans to average: 10
Electric dark correction enabled: true
Nonlinearity correction enabled: false
Boxcar width: 0
XAxis mode: Wavelengths
Number of Pixels in Spectrum: 2048
>>>>>Begin Spectral Data<<<<<
341.393	-33.43
341.776	-33.43
342.16	-33.43
342.543	-74.11
342.927	-64.39
343.31	-76.82
343.693	-79.53
344.077	-39.76
344.46	-58.74
344.843	-52.41
345.226	-29.82
345.61	-37.05
345.993	-16.03
346.376	5.66
346.759	9.51
347.142	21.71
347.525	51.09
347.908	42.05
348.291	64.42
348.674	98.32
349.057	97.41
349.44	144.87
349.823	143.74
350.206	168.82
350.588	166.11
350.971	204.53
351.354	199.78
351.737	194.59
352.119	218.09
352.502	240.91
352.884	254.24
353.267	250.63
353.65	262.83
354.032	275.94
354.414	276.62
354.797	272.1
355.179	299.44
355.562	297.86
355.944	319.55
356.326	292.66
356.709	286.11
357.091	318.65
357.473	288.82
357.855	302.15
358.238	316.84
358.62	326.56
359.002	315.71
359.384	318.2
359.766	307.8
360.148	308.93
360.53	320.23
360.912	318.42
361.294	312.1
361.676	298.54
362.057	303.73
362.439	318.42
362.821	312.32
363.203	298.76
363.584	292.21
363.966	286.33
364.348	292.66
364.729	291.31
365.111	286.79
365.493	267.8
365.874	309.16
366.256	270.29
366.637	265.54
367.019	284.75
367.4	291.31
367.781	295.83
368.163	301.48
368.544	270.52
368.925	283.85
369.306	306.9
369.688	304.86
370.069	285.88
370.45	268.48
370.831	281.81
371.212	284.75
371.593	257.41
371.974	269.16
372.355	290.18
372.736	264.87
373.117	283.62
373.498	289.05
373.879	274.13
374.26	278.88
374.641	293.79
375.021	282.27
375.402	284.07
375.783	277.52
376.163	311.64
376.544	272.32
376.925	282.27
377.305	271.65
377.686	294.92
378.066	291.31
378.447	280.68
378.827	307.12
379.208	289.5
379.588	303.73
379.968	292.89
380.349	296.28
380.729	268.71
381.109	301.02
381.489	298.54
381.87	287.92
382.25	284.75
382.63	293.79
383.01	309.61
383.39	311.64
383.77	295.15
384.15	309.38
384.53	308.48
384.91	293.57
385.29	279.78
385.67	306.9
386.049	301.7
386.429	288.59
386.809	300.8
387.189	318.88
387.568	317.52
387.948	276.39
388.328	319.1
388.707	299.44
389.087	309.16
389.466	343.73
389.846	329.72
390.225	326.79
390.605	322.94
390.984	306.9
391.363	314.81
391.743	327.24
392.122	302.61
392.501	294.24
392.881	327.92
393.26	316.39
393.639	332.21
394.018	335.37
394.397	321.59
394.776	301.93
395.155	332.66
395.534	342.83
395.913	332.43
396.292	323.4
396.671	331.3
397.05	343.28
397.429	324.07
397.808	317.29
398.186	312.1
398.565	340.57
398.944	325.2
399.323	333.56
399.701	324.98
400.08	320.46
400.458	361.59
400.837	362.49
401.215	336.73
401.594	322.27
401.972	336.5
402.351	354.36
402.729	352.1
403.107	336.95
403.486	345.09
403.864	336.05
404.242	353
404.62	334.92
404.999	338.99
405.377	341.47
405.755	369.27
406.133	360.91
406.511	366.78
406.889	361.13
407.267	348.03
407.645	325.88
408.023	348.93
408.401	353.45
408.779	348.25
409.156	375.37
409.534	367.69
409.912	360
410.29	357.52
410.667	357.29
411.045	391.19
411.422	353.68
411.8	359.78
412.178	368.37
412.555	358.42
412.933	390.06
413.31	374.69
413.687	381.47
414.065	377.63
414.442	376.95
414.819	356.39
415.197	380.34
415.574	370.17
415.951	365.65
416.328	394.81
416.705	385.31
417.082	366.11
417.46	396.84
417.837	388.25
418.214	386.22
418.591	385.54
418.967	388.03
419.344	386.67
419.721	401.36
420.098	400
420.475	405.88
420.852	420.79
421.228	414.24
421.605	412.43
421.982	415.6
422.358	414.92
422.735	411.08
423.111	395.03
423.488	419.66
423.864	410.62
424.241	415.37
424.617	420.12
424.994	409.04
425.37	409.27
425.746	422.6
426.123	428.03
426.499	407.24
426.875	425.54
427.251	428.48
427.627	433.68
428.003	430.51
428.379	423.96
428.756	432.09
429.132	453.56
429.507	425.77
429.883	475.03
430.259	458.31
430.635	438.87
431.011	436.39
431.387	445.65
431.763	436.61
432.138	437.74
432.514	461.24
432.89	458.53
433.265	473.22
433.641	480.91
434.016	459.21
434.392	461.24
434.767	460.12
435.143	460.12
435.518	494.24
435.894	465.54
436.269	497.4
436.644	482.49
437.02	475.93
437.395	481.58
437.77	461.7
438.145	486.56
438.52	484.52
438.895	502.83
439.271	493.56
439.646	496.5
440.021	511.41
440.395	492.88
440.77	489.04
441.145	494.01
441.52	533.79
441.895	497.63
442.27	511.64
442.645	506.22
443.019	505.54
443.394	494.69
443.769	515.48
444.143	538.08
444.518	515.71
444.892	523.62
445.267	547.12
445.641	524.52
446.016	539.43
446.39	516.61
446.764	524.29
447.139	510.96
447.513	525.65
447.887	551.86
448.262	549.83
448.636	546.89
449.01	541.92
449.384	544.63
449.758	569.94
450.132	549.38
450.506	544.86
450.88	551.19
451.254	559.1
451.628	539.66
452.002	552.77
452.376	567
452.75	570.39
453.123	571.07
453.497	579.66
453.871	605.65
454.244	586.89
454.618	569.94
454.992	607
455.365	601.35
455.739	600.9
456.112	616.27
456.486	601.81
456.859	594.57
457.232	603.61
457.606	594.35
457.979	614.91
458.352	617.85
458.725	628.25
459.099	634.12
459.472	626.89
459.845	635.03
460.218	639.09
460.591	670.28
460.964	661.47
461.337	648.13
461.71	659.66
462.083	677.74
462.456	652.43
462.829	653.1
463.201	661.92
463.574	689.94
463.947	670.73
464.32	689.71
464.692	692.2
465.065	663.73
465.438	698.07
465.81	725.87
466.183	700.79
466.555	704.18
466.928	721.58
467.3	716.83
467.672	717.06
468.045	728.36
468.417	713.44
468.789	724.74
469.161	760.67
469.534	741.92
469.906	762.48
470.278	757.73
470.65	764.29
471.022	781.91
471.394	773.55
471.766	750.5
472.138	773.1
472.51	815.36
472.882	797.96
473.253	796.38
473.625	827.11
473.997	846.09
474.369	809.26
474.74	821.69
475.112	869.6
475.484	832.53
475.855	854.68
476.227	878.41
476.598	911.18
476.97	881.12
477.341	881.8
477.713	878.86
478.084	894
478.455	911.63
478.827	926.09
479.198	942.59
479.569	944.85
479.94	945.98
480.311	940.55
480.682	989.82
481.053	985.98
481.424	993.89
481.795	988.69
482.166	991.17
482.537	1011.06
482.908	1029.37
483.279	1048.8
483.65	1040.89
484.021	1055.58
484.391	1066.65
484.762	1083.6
485.133	1041.34
485.503	1082.02
485.874	1085.64
486.244	1091.06
486.615	1095.35
486.985	1101.45
487.356	1121.79
487.726	1143.94
488.097	1129.25
488.467	1176.48
488.837	1165.63
489.207	1178.74
489.578	1184.84
489.948	1171.96
490.318	1162.02
490.688	1184.39
491.058	1198.85
491.428	1195.46
491.798	1194.33
492.168	1232.75
492.538	1225.74
492.908	1250.15
493.278	1229.81
493.648	1244.5
494.017	1239.3
494.387	1249.02
494.757	1241.11
495.126	1267.1
495.496	1250.38
495.866	1284.95
496.235	1282.69
496.605	1280.66
496.974	1274.78
497.344	1289.47
497.713	1298.06
498.082	1295.57
498.452	1300.54
498.821	1299.19
499.19	1324.27
499.559	1316.82
499.928	1344.39
500.298	1320.43
500.667	1333.99
501.036	1313.43
501.405	1336.93
501.774	1328.79
502.143	1356.14
502.512	1330.6
502.88	1345.97
503.249	1366.76
503.618	1348.45
503.987	1346.65
504.356	1342.8
504.724	1358.85
505.093	1360.88
505.462	1345.29
505.83	1364.05
506.199	1392.29
506.567	1385.74
506.936	1367.21
507.304	1387.1
507.672	1400.43
508.041	1382.35
508.409	1390.26
508.777	1376.48
509.145	1429.13
509.514	1389.81
509.882	1413.31
510.25	1415.12
510.618	1432.07
510.986	1419.86
511.354	1418.28
511.722	1443.59
512.09	1449.02
512.458	1433.42
512.826	1435.68
513.193	1411.95
513.561	1409.69
513.929	1431.84
514.297	1426.87
514.664	1440.88
515.032	1440.65
515.4	1449.92
515.767	1453.08
516.135	1449.92
516.502	1445.63
516.869	1468.22
517.237	1451.28
517.604	1448.79
517.972	1483.82
518.339	1463.25
518.706	1465.74
519.073	1458.05
519.44	1474.1
519.808	1485.62
520.175	1472.97
520.542	1511.84
520.909	1490.6
521.276	1476.36
521.643	1501.44
522.009	1492.4
522.376	1485.85
522.743	1492.63
523.11	1493.31
523.477	1521.56
523.843	1515.23
524.21	1537.6
524.577	1516.81
524.943	1537.15
525.31	1530.6
525.676	1539.18
526.043	1534.89
526.409	1571.05
526.776	1565.62
527.142	1531.95
527.508	1547.77
527.874	1554.55
528.241	1553.65
528.607	1571.05
528.973	1554.1
529.339	1562.01
529.705	1566.75
530.071	1602.46
530.437	1579.86
530.803	1564.72
531.169	1564.94
531.535	1574.44
531.901	1585.28
532.267	1600.2
532.632	1592.74
532.998	1574.21
533.364	1597.71
533.73	1585.96
534.095	1607.88
534.461	1637.03
534.826	1617.6
535.192	1601.33
535.557	1611.27
535.923	1596.36
536.288	1604.27
536.653	1612.18
537.019	1586.64
537.384	1612.18
537.749	1607.2
538.114	1604.27
538.479	1611.72
538.845	1632.06
539.21	1609.24
539.575	1598.84
539.94	1625.73
540.305	1595.23
540.67	1627.09
541.034	1606.75
541.399	1604.04
541.764	1602.01
542.129	1601.33
542.494	1611.5
542.858	1573.98
543.223	1611.72
543.587	1630.03
543.952	1639.52
544.316	1610.37
544.681	1639.97
545.045	1629.8
545.41	1628.9
545.774	1616.92
546.138	1633.19
546.503	1660.31
546.867	1627.32
547.231	1618.28
547.595	1632.51
547.959	1629.58
548.324	1632.29
548.688	1643.36
549.052	1623.25
549.416	1630.25
549.779	1591.84
550.143	1652.63
550.507	1666.41
550.871	1649.01
551.235	1643.13
551.599	1654.43
551.962	1633.64
552.326	1625.06
552.689	1672.96
553.053	1628.45
553.417	1629.12
553.78	1668.44
554.143	1689.01
554.507	1688.11
554.87	1650.82
555.234	1640.42
555.597	1645.62
555.96	1663.47
556.323	1670.7
556.686	1648.56
557.05	1643.59
557.413	1655.11
557.776	1619.63
558.139	1665.28
558.502	1649.91
558.865	1676.35
559.228	1676.13
559.59	1639.29
559.953	1678.39
560.316	1683.36
560.679	1679.29
561.041	1706.64
561.404	1700.08
561.767	1697.82
562.129	1658.95
562.492	1703.47
562.854	1685.17
563.217	1707.09
563.579	1696.47
563.941	1676.58
564.304	1714.09
564.666	1706.18
565.028	1703.25
565.39	1696.69
565.753	1700.08
566.115	1719.06
566.477	1731.49
566.839	1716.58
567.201	1737.14
567.563	1716.58
567.925	1732.4
568.287	1710.03
568.648	1731.49
569.01	1732.4
569.372	1758.39
569.734	1720.87
570.095	1750.93
570.457	1737.82
570.819	1777.37
571.18	1733.3
571.542	1765.84
571.903	1739.86
572.265	1777.14
572.626	1796.58
572.987	1742.12
573.349	1748.22
573.71	1791.61
574.071	1752.06
574.432	1769.23
574.794	1791.61
575.155	1774.2
575.516	1783.24
575.877	1776.01
576.238	1774.66
576.599	1789.12
576.96	1765.62
577.32	1806.29
577.681	1797.93
578.042	1760.19
578.403	1783.47
578.763	1776.01
579.124	1793.19
579.485	1788.67
579.845	1811.72
580.206	1830.7
580.566	1810.81
580.927	1782.79
581.287	1793.19
581.648	1811.27
582.008	1818.5
582.368	1802.9
582.728	1814.88
583.089	1835.22
583.449	1814.43
583.809	1816.92
584.169	1809.91
584.529	1809.01
584.889	1848.78
585.249	1837.03
585.609	1811.49
585.969	1855.56
586.329	1811.04
586.688	1830.93
587.048	1820.31
587.408	1845.39
587.768	1816.24
588.127	1800.42
588.487	1818.05
588.846	1803.13
589.206	1819.85
589.565	1817.59
589.925	1818.95
590.284	1836.8
590.643	1815.79
591.003	1858.27
591.362	1870.25
591.721	1826.41
592.08	1850.59
592.44	1846.52
592.799	1803.81
593.158	1848.33
593.517	1838.61
593.876	1828.89
594.235	1838.16
594.593	1863.24
594.952	1880.87
595.311	1862.34
595.67	1847.65
596.029	1885.39
596.387	1842.68
596.746	1877.7
597.104	1879.96
597.463	1872.73
597.822	1855.11
598.18	1856.69
598.538	1893.52
598.897	1866.41
599.255	1835.22
599.613	1872.06
599.972	1890.81
600.33	1886.97
600.688	1867.31
601.046	1875.45
601.404	1904.6
601.762	1883.81
602.12	1895.11
602.478	1877.48
602.836	1892.62
603.194	1868.89
603.552	1901.43
603.91	1867.31
604.268	1901.89
604.625	1872.06
604.983	1915.67
605.341	1902.79
605.698	1896.69
606.056	1898.27
606.413	1895.33
606.771	1921.55
607.128	1907.76
607.485	1928.1
607.843	1921.09
608.2	1915.44
608.557	1949.34
608.914	1954.09
609.272	1963.13
609.629	1966.52
609.986	1909.57
610.343	1953.64
610.7	1926.29
611.057	1930.58
611.414	1948.66
611.771	1936.01
612.127	1945.05
612.484	1967.65
612.841	1954.09
613.198	1935.56
613.554	1954.76
613.911	1945.27
614.267	1936.23
614.624	1960.87
614.98	1976.69
615.337	1962.9
615.693	1976.69
616.05	1968.55
616.406	1970.36
616.762	1984.37
617.118	1975.56
617.475	1999.28
617.831	2004.03
618.187	1995.67
618.543	1990.24
618.899	2016.23
619.255	2021.88
619.611	1984.14
619.967	2021.88
620.323	2010.58
620.678	1989.34
621.034	1984.37
621.39	2005.84
621.746	2024.82
622.101	1998.61
622.457	2039.28
622.812	2032.5
623.168	2028.21
623.523	2055.33
623.879	2044.48
624.234	2036.57
624.589	2063.01
624.945	2065.04
625.3	2027.31
625.655	2042.9
626.01	2038.83
626.365	2079.28
626.72	2034.08
627.075	2041.77
627.43	2070.92
627.785	2069.11
628.14	2052.62
628.495	2058.27
628.85	2109.11
629.205	2081.32
629.559	2084.48
629.914	2103.01
630.269	2107.3
630.623	2078.83
630.978	2099.39
631.332	2121.54
631.687	2084.03
632.041	2096.68
632.396	2094.2
632.75	2112.95
633.104	2110.24
633.459	2113.86
633.813	2113.63
634.167	2134.87
634.521	2106.17
634.875	2131.94
635.229	2118.38
635.583	2111.6
635.937	2115.44
636.291	2133.97
636.645	2149.11
636.999	2140.52
637.352	2147.98
637.706	2116.12
638.06	2151.37
638.413	2189.79
638.767	2170.13
639.121	2181.2
639.474	2169.45
639.828	2169.67
640.181	2180.3
640.534	2199.96
640.888	2164.7
641.241	2155.44
641.594	2216.45
641.947	2180.75
642.301	2233.4
642.654	2225.04
643.007	2236.79
643.36	2217.13
643.713	2233.18
644.066	2241.76
644.419	2252.38
644.771	2263.01
645.124	2259.16
645.477	2232.05
645.83	2204.93
646.182	2237.24
646.535	2246.73
646.888	2229.79
647.24	2229.33
647.593	2274.08
647.945	2279.05
648.298	2263.01
648.65	2266.85
649.002	2288.54
649.355	2291.48
649.707	2317.69
650.059	2288.32
650.411	2332.83
650.763	2353.17
651.115	2361.31
651.467	2377.58
651.819	2380.29
652.171	2422.32
652.523	2420.97
652.875	2409.89
653.227	2407.41
653.578	2430.23
653.93	2441.08
654.282	2421.19
654.633	2447.18
654.985	2468.2
655.337	2474.53
655.688	2484.24
656.039	2460.51
656.391	2496.45
656.742	2516.78
657.094	2494.19
657.445	2549.55
657.796	2548.65
658.147	2539.16
658.498	2583.45
658.849	2587.52
659.2	2584.58
659.551	2616.22
659.902	2620.28
660.253	2603.11
660.604	2652.6
660.955	2630.68
661.306	2664.8
661.656	2717
662.007	2687.4
662.358	2685.14
662.708	2705.25
663.059	2722.43
663.409	2741.86
663.76	2764.01
664.11	2771.01
664.461	2756.33
664.811	2805.82
665.161	2783.22
665.511	2786.38
665.862	2841.52
666.212	2835.87
666.562	2838.58
666.912	2850.56
667.262	2856.44
667.612	2868.19
667.962	2916.32
668.312	2908.86
668.662	2948.41
669.011	2949.99
669.361	2946.83
669.711	3009.65
670.06	2978.24
670.41	2979.14
670.76	2997
671.109	3021.86
671.459	3004
671.808	3049.43
672.157	3064.57
672.507	3062.53
672.856	3019.82
673.205	3117.67
673.554	3093.04
673.904	3071.57
674.253	3128.07
674.602	3148.18
674.951	3127.16
675.3	3121.29
675.649	3189.99
675.998	3180.72
676.346	3190.44
676.695	3205.35
677.044	3221.4
677.393	3165.13
677.741	3230.21
678.09	3247.39
678.438	3276.99
678.787	3270.44
679.135	3268.85
679.484	3292.36
679.832	3277.67
680.181	3305.69
680.529	3322.41
680.877	3326.03
681.225	3282.19
681.573	3344.56
681.922	3345.24
682.27	3342.07
682.618	3397.66
682.966	3343.88
683.314	3360.38
683.661	3397.44
684.009	3360.6
684.357	3373.71
684.705	3427.95
685.053	3433.82
685.4	3419.36
685.748	3429.53
686.095	3440.83
686.443	3402.18
686.79	3427.72
687.138	3476.76
687.485	3449.19
687.832	3443.99
688.18	3468.4
688.527	3508.4
688.874	3489.41
689.221	3487.15
689.568	3477.44
689.915	3506.36
690.262	3521.73
690.609	3503.88
690.956	3510.43
691.303	3506.36
691.65	3521.96
691.997	3529.86
692.344	3500.94
692.69	3528.73
693.037	3518.79
693.383	3478.34
693.73	3531.67
694.077	3471.34
694.423	3484.89
694.769	3523.99
695.116	3522.41
695.462	3530.99
695.808	3520.37
696.155	3539.58
696.501	3519.47
696.847	3520.37
697.193	3515.85
697.539	3486.02
697.885	3484.67
698.231	3485.12
698.577	3496.19
698.923	3520.6
699.269	3535.51
699.614	3515.18
699.96	3487.61
700.306	3502.97
700.651	3476.08
700.997	3488.51
701.342	3476.08
701.688	3466.82
702.033	3522.63
702.379	3479.02
702.724	3517.89
703.069	3470.88
703.415	3472.69
703.76	3501.17
704.105	3481.96
704.45	3473.14
704.795	3452.58
705.14	3447.83
705.485	3452.35
705.83	3450.09
706.175	3450.77
706.52	3459.81
706.865	3428.62
707.209	3451.45
707.554	3463.2
707.899	3451.9
708.243	3415.97
708.588	3430.21
708.932	3451.67
709.277	3404.67
709.621	3458.45
709.966	3391.11
710.31	3453.71
710.654	3412.81
710.998	3396.76
711.342	3422.52
711.687	3393.37
712.031	3403.54
712.375	3401.05
712.719	3402.41
713.063	3389.53
713.407	3435.86
713.75	3381.17
714.094	3400.6
714.438	3436.76
714.782	3359.02
715.125	3367.61
715.469	3432.24
715.812	3354.95
716.156	3380.94
716.499	3366.25
716.843	3385.46
717.186	3359.02
717.53	3450.09
717.873	3382.52
718.216	3398.57
718.559	3366.71
718.902	3358.8
719.246	3400.38
719.589	3394.95
719.932	3385.24
720.275	3414.84
720.617	3402.64
720.96	3374.16
721.303	3388.17
721.646	3363.09
721.989	3403.09
722.331	3371.9
722.674	3403.54
723.016	3387.72
723.359	3402.64
723.701	3387.5
724.044	3371
724.386	3368.51
724.729	3407.38
725.071	3410.55
725.413	3413.26
725.755	3373.94
726.097	3374.39
726.439	3349.08
726.782	3375.52
727.124	3392.47
727.465	3340.49
727.807	3392.69
728.149	3376.42
728.491	3361.28
728.833	3408.06
729.175	3395.18
729.516	3391.79
729.858	3390.43
730.199	3406.03
730.541	3402.18
730.882	3384.56
731.224	3401.05
731.565	3421.62
731.906	3374.39
732.248	3387.72
732.589	3377.55
732.93	3411.22
733.271	3419.36
733.612	3413.94
733.953	3375.52
734.294	3398.79
734.635	3426.59
734.976	3460.49
735.317	3431.56
735.658	3440.83
735.999	3469.53
736.339	3442.86
736.68	3475.18
737.021	3488.74
737.361	3480.37
737.702	3470.43
738.042	3469.98
738.383	3471.34
738.723	3479.92
739.063	3498
739.404	3502.29
739.744	3490.54
740.084	3502.29
740.424	3476.08
740.764	3465.91
741.104	3472.92
741.444	3540.03
741.784	3514.05
742.124	3541.84
742.464	3595.63
742.804	3570.54
743.143	3580.48
743.483	3627.72
743.823	3566.25
744.162	3639.47
744.502	3615.29
744.841	3573.48
745.181	3640.6
745.52	3658.67
745.86	3625.46
746.199	3683.31
746.538	3681.95
746.877	3662.29
747.216	3730.99
747.556	3737.77
747.895	3728.5
748.234	3738.22
748.573	3725.34
748.911	3769.41
749.25	3785.68
749.589	3796.52
749.928	3809.86
750.267	3854.6
750.605	3842.62
750.944	3888.05
751.283	3879.69
751.621	3909.97
751.96	3918.56
752.298	3931.44
752.636	3982.28
752.975	3960.36
753.313	4013.24
753.651	4003.52
753.989	4026.57
754.327	4041.04
754.666	4049.63
755.004	4080.81
755.342	4128.72
755.679	4133.46
756.017	4086.23
756.355	4128.72
756.693	4158.77
757.031	4200.13
757.368	4216.85
757.706	4239.9
758.044	4230.19
758.381	4291.2
758.719	4288.71
759.056	4284.42
759.394	4309.96
759.731	4339.79
760.068	4366.23
760.405	4353.35
760.743	4347.7
761.08	4335.95
761.417	4380.46
761.754	4415.72
762.091	4399.67
762.428	4367.13
762.765	4402.38
763.102	4420.69
763.438	4406.9
763.775	4436.73
764.112	4463.85
764.449	4457.98
764.785	4451.2
765.122	4431.99
765.458	4467.24
765.795	4488.94
766.131	4481.03
766.467	4456.17
766.804	4445.55
767.14	4466.56
767.476	4476.96
767.812	4480.57
768.148	4492.55
768.485	4493.68
768.821	4464.76
769.157	4480.8
769.492	4457.07
769.828	4469.05
770.164	4481.25
770.5	4454.59
770.836	4532.55
771.171	4466.11
771.507	4432.89
771.842	4415.49
