Data from blue_surface_keyboard_FLMS001491_017.txt Node
Date: Tue Feb 07 11:12:43 GMT 2017
User: dcchb
Spectrometer: FLMS00149
Trigger mode: 0
Integration Time (sec): 2.000000E-2
Scans to average: 10
Electric dark correction enabled: true
Nonlinearity correction enabled: false
Boxcar width: 0
XAxis mode: Wavelengths
Number of Pixels in Spectrum: 2048
>>>>>Begin Spectral Data<<<<<
341.393	-27.65
341.776	-27.65
342.16	-27.65
342.543	-22.91
342.927	-62.91
343.31	-64.04
343.693	-74.66
344.077	-64.04
344.46	-55.45
344.843	-62.23
345.226	-50.93
345.61	-45.51
345.993	-17.03
346.376	-0.31
346.759	10.99
347.142	32.23
347.525	38.78
347.908	59.57
348.291	76.52
348.674	102.74
349.057	113.36
349.44	134.6
349.823	132.34
350.206	154.04
350.588	168.27
350.971	203.07
351.354	184.32
351.737	221.38
352.119	233.36
352.502	247.82
352.884	241.72
353.267	264.09
353.65	279.23
354.032	289.63
354.414	289.17
354.797	277.87
355.179	307.7
355.562	323.07
355.944	302.96
356.326	306.12
356.709	309.96
357.091	306.57
357.473	312.22
357.855	319.68
358.238	316.52
358.62	298.21
359.002	310.19
359.384	311.55
359.766	304.54
360.148	315.61
360.53	328.49
360.912	319.23
361.294	316.74
361.676	287.82
362.057	306.57
362.439	327.59
362.821	311.55
363.203	314.48
363.584	305.44
363.966	325.33
364.348	306.12
364.729	307.48
365.111	308.61
365.493	306.35
365.874	275.39
366.256	298.89
366.637	300.92
367.019	286.91
367.4	282.39
367.781	283.3
368.163	296.86
368.544	278.78
368.925	287.59
369.306	295.73
369.688	279.46
370.069	292.34
370.45	280.13
370.831	297.76
371.212	293.47
371.593	278.55
371.974	269.29
372.355	285.78
372.736	290.76
373.117	290.76
373.498	298.66
373.879	293.01
374.26	289.17
374.641	313.35
375.021	286.91
375.402	280.36
375.783	267.25
376.163	285.11
376.544	276.07
376.925	301.38
377.305	297.99
377.686	300.25
378.066	281.26
378.447	302.51
378.827	291.21
379.208	317.42
379.588	307.48
379.968	306.12
380.349	302.73
380.729	286.01
381.109	317.65
381.489	296.63
381.87	301.6
382.25	301.38
382.63	303.41
383.01	289.85
383.39	309.29
383.77	308.83
384.15	310.42
384.53	321.26
384.91	326.91
385.29	300.7
385.67	293.01
386.049	297.53
386.429	307.48
386.809	320.36
387.189	308.16
387.568	312.22
387.948	312.22
388.328	304.09
388.707	321.49
389.087	327.36
389.466	309.74
389.846	293.47
390.225	339.12
390.605	304.99
390.984	322.17
391.363	319
391.743	328.27
392.122	310.42
392.501	324.2
392.881	321.94
393.26	322.17
393.639	331.43
394.018	326.01
394.397	323.97
394.776	319.45
395.155	307.48
395.534	327.36
395.913	326.91
396.292	333.01
396.671	298.66
397.05	350.41
397.429	339.57
397.808	323.3
398.186	345.67
398.565	331.21
398.944	329.62
399.323	337.76
399.701	334.6
400.08	329.62
400.458	320.81
400.837	369.85
401.215	337.99
401.594	337.53
401.972	330.75
402.351	334.37
402.729	355.61
403.107	331.43
403.486	348.38
403.864	342.73
404.242	332.34
404.62	359.91
404.999	353.13
405.377	357.87
405.755	359
406.133	344.99
406.511	324.2
406.889	354.48
407.267	379.57
407.645	364.88
408.023	355.39
408.401	351.54
408.779	363.97
409.156	358.32
409.534	354.48
409.912	359.23
410.29	354.48
410.667	375.5
411.045	348.83
411.422	367.14
411.8	372.79
412.178	360.36
412.555	375.5
412.933	357.19
413.31	366.91
413.687	371.66
414.065	364.65
414.442	373.69
414.819	365.33
415.197	367.82
415.574	390.64
415.951	360.58
416.328	384.54
416.705	383.18
417.082	371.88
417.46	378.89
417.837	415.5
418.214	396.97
418.591	419.11
418.967	384.76
419.344	396.29
419.721	389.96
420.098	403.07
420.475	404.2
420.852	381.6
421.228	392.45
421.605	414.14
421.982	406.91
422.358	404.65
422.735	401.71
423.111	426.57
423.488	413.46
423.864	409.62
424.241	430.86
424.617	427.47
424.994	398.77
425.37	437.42
425.746	417.31
426.123	420.92
426.499	425.44
426.875	426.57
427.251	426.57
427.627	438.1
428.003	446.23
428.379	446.68
428.756	435.84
429.132	426.8
429.507	439.9
429.883	447.36
430.259	450.98
430.635	438.32
431.011	435.38
431.387	447.59
431.763	442.16
432.138	436.74
432.514	461.6
432.89	449.17
433.265	466.8
433.641	451.65
434.016	472.45
434.392	465.44
434.767	488.26
435.143	484.2
435.518	479.68
435.894	479.45
436.269	478.77
436.644	480.58
437.02	480.81
437.395	471.77
437.77	470.86
438.145	498.21
438.52	468.83
438.895	503.18
439.271	494.14
439.646	507.25
440.021	503.63
440.395	484.87
440.77	493.46
441.145	500.02
441.52	514.48
441.895	519.22
442.27	517.64
442.645	506.12
443.019	526.91
443.394	525.55
443.769	534.82
444.143	525.33
444.518	521.48
444.892	517.42
445.267	526.91
445.641	516.74
446.016	516.29
446.39	528.94
446.764	533.91
447.139	547.47
447.513	531.43
447.887	540.47
448.262	544.08
448.636	553.35
449.01	551.09
449.384	543.63
449.758	541.6
450.132	559.9
450.506	549.05
450.88	572.33
451.254	552.67
451.628	546.12
452.002	580.92
452.376	580.01
452.75	561.71
453.123	580.92
453.497	574.14
453.871	566.91
454.244	595.83
454.618	587.7
454.992	590.63
455.365	587.02
455.739	573.23
456.112	588.15
456.486	593.57
456.859	582.72
457.232	613.46
457.606	609.62
457.979	609.16
458.352	621.14
458.725	645.32
459.099	640.35
459.472	637.64
459.845	631.09
460.218	642.16
460.591	629.73
460.964	623.4
461.337	625.89
461.71	645.32
462.083	667.24
462.456	655.72
462.829	663.4
463.201	666.34
463.574	668.6
463.947	675.15
464.32	690.29
464.692	686.68
465.065	685.55
465.438	678.77
465.81	688.48
466.183	721.93
466.555	707.24
466.928	699.56
467.3	709.05
467.672	680.35
468.045	707.02
468.417	732.1
468.789	716.96
469.161	742.04
469.534	749.73
469.906	745.88
470.278	733.91
470.65	751.53
471.022	739.78
471.394	770.97
471.766	777.97
472.138	751.53
472.51	790.85
472.882	792.21
473.253	773.23
473.625	811.87
473.997	810.29
474.369	817.75
474.74	816.62
475.112	812.78
475.484	834.92
475.855	845.32
476.227	857.52
476.598	855.49
476.97	851.87
477.341	876.5
477.713	893
478.084	867.24
478.455	903.39
478.827	895.71
479.198	914.47
479.569	914.24
479.94	937.07
480.311	932.32
480.682	964.86
481.053	974.13
481.424	951.3
481.795	963.73
482.166	993.79
482.537	986.33
482.908	997.18
483.279	1013.9
483.65	991.08
484.021	1018.42
484.391	1059.77
484.762	1026.1
485.133	1045.99
485.503	1047.57
485.874	1067.91
486.244	1084.18
486.615	1073.11
486.985	1078.76
487.356	1098.42
487.726	1122.15
488.097	1115.59
488.467	1137.74
488.837	1139.77
489.207	1153.33
489.578	1158.75
489.948	1133.67
490.318	1172.09
490.688	1184.29
491.058	1179.55
491.428	1174.8
491.798	1193.78
492.168	1193.1
492.538	1193.78
492.908	1211.41
493.278	1211.63
493.648	1228.36
494.017	1241.24
494.387	1228.13
494.757	1244.85
495.126	1243.27
495.496	1241.24
495.866	1235.81
496.235	1270.62
496.605	1271.75
496.974	1241.46
497.344	1271.07
497.713	1280.11
498.082	1271.97
498.452	1257.96
498.821	1290.95
499.19	1276.94
499.559	1264.97
499.928	1292.54
500.298	1308.36
500.667	1311.97
501.036	1288.92
501.405	1295.25
501.774	1305.42
502.143	1298.86
502.512	1332.08
502.88	1313.55
503.249	1323.04
503.618	1336.83
503.987	1331.86
504.356	1327.56
504.724	1327.56
505.093	1324.4
505.462	1335.02
505.83	1333.44
506.199	1326.66
506.567	1364.4
506.936	1340.44
507.304	1332.76
507.672	1361.91
508.041	1340.67
508.409	1347.9
508.777	1370.27
509.145	1372.53
509.514	1357.17
509.882	1373.21
510.25	1379.77
510.618	1364.63
510.986	1373.89
511.354	1375.92
511.722	1393.55
512.09	1370.5
512.458	1387.9
512.826	1401.23
513.193	1383.61
513.561	1403.04
513.929	1425.41
514.297	1420.44
514.664	1405.98
515.032	1432.87
515.4	1411.63
515.767	1407.56
516.135	1408.92
516.502	1408.92
516.869	1440.1
517.237	1410.73
517.604	1421.57
517.972	1441.46
518.339	1442.14
518.706	1389.94
519.073	1412.08
519.44	1420.22
519.808	1446.66
520.175	1456.83
520.542	1457.73
520.909	1439.88
521.276	1472.42
521.643	1436.94
522.009	1457.28
522.376	1459.09
522.743	1456.37
523.11	1449.14
523.477	1478.07
523.843	1468.13
524.21	1485.07
524.577	1486.43
524.943	1472.87
525.31	1458.41
525.676	1520.33
526.043	1506.77
526.409	1519.65
526.776	1505.41
527.142	1512.19
527.508	1492.98
527.874	1516.94
528.241	1532.98
528.607	1524.85
528.973	1524.39
529.339	1520.55
529.705	1541.12
530.071	1528.69
530.437	1516.03
530.803	1528.46
531.169	1531.63
531.535	1519.88
531.901	1532.98
532.267	1526.88
532.632	1516.94
532.998	1541.34
533.364	1563.26
533.73	1523.94
534.095	1545.64
534.461	1573.43
534.826	1557.84
535.192	1553.77
535.557	1553.77
535.923	1533.66
536.288	1564.62
536.653	1575.69
537.019	1556.71
537.384	1569.82
537.749	1593.55
538.114	1568.91
538.479	1541.57
538.845	1552.87
539.21	1564.85
539.575	1574.79
539.94	1579.99
540.305	1552.64
540.67	1592.87
541.034	1545.41
541.399	1573.43
541.764	1570.72
542.129	1555.81
542.494	1581.12
542.858	1561.46
543.223	1546.54
543.587	1577.5
543.952	1569.37
544.316	1583.15
544.681	1568.46
545.045	1548.35
545.41	1572.08
545.774	1594.68
546.138	1584.96
546.503	1588.35
546.867	1536.6
547.231	1588.57
547.595	1579.76
547.959	1594.9
548.324	1567.33
548.688	1604.84
549.052	1569.82
549.416	1609.82
549.779	1572.76
550.143	1598.07
550.507	1598.52
550.871	1609.59
551.235	1615.01
551.599	1614.79
551.962	1600.1
552.326	1605.3
552.689	1588.57
553.053	1614.11
553.417	1599.2
553.78	1620.21
554.143	1614.79
554.507	1597.61
554.87	1620.89
555.234	1622.02
555.597	1600.33
555.96	1628.35
556.323	1641.45
556.686	1593.77
557.05	1626.77
557.413	1622.47
557.776	1598.07
558.139	1613.21
558.502	1633.77
558.865	1658.85
559.228	1613.66
559.59	1626.09
559.953	1650.49
560.316	1645.3
560.679	1619.76
561.041	1632.87
561.404	1633.54
561.767	1651.85
562.129	1638.06
562.492	1638.06
562.854	1665.63
563.217	1643.26
563.579	1619.76
563.941	1658.4
564.304	1655.92
564.666	1673.32
565.028	1683.71
565.39	1632.87
565.753	1664.73
566.115	1659.98
566.477	1692.07
566.839	1653.43
567.201	1661.34
567.563	1677.16
567.925	1681.45
568.287	1713.77
568.648	1700.66
569.01	1688.01
569.372	1707.44
569.734	1721.45
570.095	1713.54
570.457	1681.23
570.819	1713.09
571.18	1722.58
571.542	1714.45
571.903	1706.09
572.265	1717.84
572.626	1737.95
572.987	1708.34
573.349	1688.01
573.71	1711.06
574.071	1711.28
574.432	1732.3
574.794	1728.23
575.155	1734.56
575.516	1704.28
575.877	1724.62
576.238	1727.78
576.599	1755.8
576.96	1750.6
577.32	1779.3
577.681	1720.55
578.042	1765.97
578.403	1744.5
578.763	1749.25
579.124	1720.55
579.485	1753.77
579.845	1771.39
580.206	1749.7
580.566	1772.07
580.927	1749.93
581.287	1758.06
581.648	1787.66
582.008	1734.33
582.368	1746.31
582.728	1739.08
583.089	1743.82
583.449	1786.99
583.809	1779.76
584.169	1760.77
584.529	1749.47
584.889	1792.18
585.249	1735.01
585.609	1757.16
585.969	1771.62
586.329	1750.83
586.688	1769.59
587.048	1774.56
587.408	1755.12
587.768	1745.86
588.127	1802.58
588.487	1788.12
588.846	1777.72
589.206	1799.87
589.565	1742.92
589.925	1769.59
590.284	1753.09
590.643	1812.07
591.003	1765.29
591.362	1797.38
591.721	1811.85
592.08	1779.53
592.44	1777.5
592.799	1781.79
593.158	1801
593.517	1795.57
593.876	1787.66
594.235	1793.77
594.593	1806.2
594.952	1798.06
595.311	1786.31
595.67	1821.11
596.029	1777.5
596.387	1818.62
596.746	1800.32
597.104	1849.81
597.463	1779.3
597.822	1814.1
598.18	1799.42
598.538	1752.19
598.897	1818.4
599.255	1822.24
599.613	1814.33
599.972	1798.96
600.33	1806.42
600.688	1810.26
601.046	1843.71
601.404	1849.81
601.762	1819.53
602.12	1827.66
602.478	1828.79
602.836	1816.82
603.194	1825.63
603.552	1827.66
603.91	1858.17
604.268	1852.75
604.625	1853.88
604.983	1792.86
605.341	1820.88
605.698	1831.05
606.056	1843.71
606.413	1852.97
606.771	1849.13
607.128	1851.84
607.485	1838.28
607.843	1854.33
608.2	1830.83
608.557	1879.19
608.914	1841.22
609.272	1868.34
609.629	1894.33
609.986	1893.88
610.343	1853.65
610.7	1858.4
611.057	1882.58
611.414	1864.5
611.771	1865.85
612.127	1876.93
612.484	1904.95
612.841	1891.16
613.198	1912.41
613.554	1870.83
613.911	1901.56
614.267	1905.85
614.624	1919.41
614.98	1912.18
615.337	1912.86
615.693	1929.58
616.05	1929.58
616.406	1919.19
616.762	1920.32
617.118	1947.89
617.475	1870.37
617.831	1934.1
618.187	1916.93
618.543	1949.47
618.899	1940.2
619.255	1955.12
619.611	1971.61
619.967	1946.76
620.323	1957.15
620.678	1992.63
621.034	1973.42
621.39	1944.5
621.746	1962.35
622.101	1947.66
622.457	1947.21
622.812	1935.91
623.168	1947.66
623.523	1960.77
623.879	1988.34
624.234	1956.47
624.589	1986.53
624.945	1997.83
625.3	1989.47
625.655	1967.1
626.01	1980.65
626.365	1992.18
626.72	1988.34
627.075	1982.46
627.43	2018.85
627.785	2011.84
628.14	2003.7
628.495	2006.87
628.85	2015.68
629.205	2008.45
629.559	2011.16
629.914	2021.11
630.269	2035.57
630.623	2007.32
630.978	2043.25
631.332	2015.23
631.687	2023.82
632.041	2039.86
632.396	2048.22
632.75	2045.96
633.104	2051.39
633.459	2013.87
633.813	2030.6
634.167	2064.49
634.521	2054.1
634.875	2060.88
635.229	2065.4
635.583	2055.45
635.937	2027.88
636.291	2076.47
636.645	2087.32
636.999	2081.44
637.352	2098.62
637.706	2073.99
638.06	2097.49
638.413	2083.7
638.767	2111.95
639.121	2089.35
639.474	2084.61
639.828	2139.29
640.181	2131.38
640.534	2113.76
640.888	2109.01
641.241	2142.68
641.594	2144.94
641.947	2138.62
642.301	2139.07
642.654	2120.09
643.007	2167.09
643.36	2178.84
643.713	2161.67
644.066	2175
644.419	2180.42
644.771	2156.02
645.124	2195.11
645.477	2142.46
645.83	2193.98
646.182	2129.58
646.535	2172.97
646.888	2169.8
647.24	2146.75
647.593	2191.27
647.945	2214.09
648.298	2209.35
648.65	2188.78
649.002	2184.26
649.355	2190.59
649.707	2250.48
650.059	2217.26
650.411	2262.45
650.763	2283.7
651.115	2307.2
651.467	2294.54
651.819	2322.34
652.171	2342.23
652.523	2321.89
652.875	2316.01
653.227	2367.31
653.578	2370.93
653.93	2398.95
654.282	2390.59
654.633	2373.41
654.985	2407.99
655.337	2403.24
655.688	2379.51
656.039	2436.24
656.391	2443.47
656.742	2444.6
657.094	2435.78
657.445	2486.86
657.796	2508.78
658.147	2476.69
658.498	2490.02
658.849	2516.91
659.2	2512.39
659.551	2503.58
659.902	2560.07
660.253	2591.71
660.604	2582.45
660.955	2576.34
661.306	2593.07
661.656	2577.7
662.007	2583.12
662.358	2615.21
662.708	2612.28
663.059	2653.86
663.409	2636.91
663.76	2657.25
664.11	2679.17
664.461	2696.79
664.811	2694.99
665.161	2704.48
665.511	2741.99
665.862	2736.79
666.212	2742.89
666.562	2754.65
666.912	2789.45
667.262	2779.5
667.612	2775.66
667.962	2825.83
668.312	2802.78
668.662	2857.24
669.011	2828.32
669.361	2865.6
669.711	2887.52
670.06	2910.12
670.41	2858.82
670.76	2861.53
671.109	2949.44
671.459	2913.06
671.808	2970.23
672.157	2965.94
672.507	2971.81
672.856	2958.48
673.205	2977.01
673.554	3012.04
673.904	3029.44
674.253	3044.35
674.602	3042.77
674.951	2991.02
675.3	3006.16
675.649	3083
675.998	3074.86
676.346	3089.33
676.695	3107.86
677.044	3086.39
677.393	3099.04
677.741	3155.54
678.09	3143.79
678.438	3191.02
678.787	3153.28
679.135	3225.14
679.484	3190.11
679.832	3220.85
680.181	3197.12
680.529	3257.23
680.877	3210.9
681.225	3230.56
681.573	3240.06
681.922	3272.6
682.27	3282.99
682.618	3281.18
682.966	3280.05
683.314	3287.51
683.661	3345.14
684.009	3314.63
684.357	3297.46
684.705	3314.86
685.053	3327.51
685.4	3319.83
685.748	3360.28
686.095	3344.23
686.443	3413.61
686.79	3358.92
687.138	3390.56
687.485	3367.28
687.832	3405.02
688.18	3426.94
688.527	3395.53
688.874	3380.62
689.221	3391.01
689.568	3402.54
689.915	3437.56
690.262	3381.52
690.609	3438.69
690.956	3413.61
691.303	3391.24
691.65	3428.75
691.997	3463.33
692.344	3449.32
692.69	3484.8
693.037	3469.43
693.383	3446.83
693.73	3424.46
694.077	3410.22
694.423	3441.18
694.769	3449.09
695.116	3446.38
695.462	3435.76
695.808	3443.21
696.155	3440.5
696.501	3445.25
696.847	3433.72
697.193	3435.53
697.539	3424.01
697.885	3414.97
698.231	3447.96
698.577	3459.71
698.923	3447.73
699.269	3472.37
699.614	3405.93
699.96	3452.71
700.306	3457.45
700.651	3435.08
700.997	3445.47
701.342	3387.62
701.688	3381.07
702.033	3416.1
702.379	3419.71
702.724	3416.77
703.069	3392.37
703.415	3428.07
703.76	3402.76
704.105	3419.49
704.45	3381.97
704.795	3393.27
705.14	3400.96
705.485	3370
705.83	3392.59
706.175	3392.37
706.52	3399.37
706.865	3337.23
707.209	3366.15
707.554	3408.19
707.899	3391.46
708.243	3382.2
708.588	3320.05
708.932	3365.02
709.277	3373.16
709.621	3358.47
709.966	3333.61
710.31	3375.19
710.654	3342.88
710.998	3345.14
711.342	3399.6
711.687	3338.58
712.031	3364.35
712.375	3366.15
712.719	3351.24
713.063	3356.44
713.407	3363.67
713.75	3378.81
714.094	3320.51
714.438	3317.12
714.782	3376.55
715.125	3322.09
715.469	3343.1
715.812	3341.07
716.156	3326.38
716.499	3372.71
716.843	3381.07
717.186	3311.47
717.53	3314.86
717.873	3357.34
718.216	3355.08
718.559	3373.61
718.902	3334.97
719.246	3308.98
719.589	3306.27
719.932	3288.42
720.275	3322.31
720.617	3322.54
720.96	3299.04
721.303	3372.93
721.646	3322.54
721.989	3307.85
722.331	3376.55
722.674	3355.53
723.016	3295.42
723.359	3297.23
723.701	3325.25
724.044	3324.35
724.386	3311.24
724.729	3301.52
725.071	3362.99
725.413	3361.86
725.755	3349.66
726.097	3318.7
726.439	3323.44
726.782	3323.22
727.124	3353.95
727.465	3325.03
727.807	3321.64
728.149	3315.53
728.491	3326.61
728.833	3351.24
729.175	3318.7
729.516	3317.12
729.858	3282.54
730.199	3331.35
730.541	3345.14
730.882	3348.75
731.224	3351.24
731.565	3316.44
731.906	3388.75
732.248	3370.9
732.589	3332.93
732.93	3353.5
733.271	3331.58
733.612	3340.84
733.953	3396.44
734.294	3410.22
734.635	3407.74
734.976	3368.19
735.317	3409.77
735.658	3397.34
735.999	3394.85
736.339	3418.36
736.68	3392.82
737.021	3359.83
737.361	3414.06
737.702	3457.9
738.042	3434.4
738.383	3430.56
738.723	3447.06
739.063	3409.32
739.404	3433.72
739.744	3428.3
740.084	3424.68
740.424	3443.89
740.764	3486.83
741.104	3435.08
741.444	3466.94
741.784	3470.56
742.124	3475.98
742.464	3556.66
742.804	3478.69
743.143	3506.72
743.483	3565.92
743.823	3523.44
744.162	3518.47
744.502	3530.44
744.841	3563.44
745.181	3581.29
745.52	3559.6
745.86	3563.44
746.199	3596.2
746.538	3638.92
746.877	3620.61
747.216	3677.78
747.556	3647.73
747.895	3699.48
748.234	3729.76
748.573	3662.64
748.911	3716.43
749.25	3720.95
749.589	3735.18
749.928	3789.42
750.267	3807.27
750.605	3794.17
750.944	3799.36
751.283	3822.19
751.621	3826.26
751.96	3866.25
752.298	3876.65
752.636	3847.5
752.975	3868.51
753.313	3939.7
753.651	3936.08
753.989	3930.89
754.327	3966.59
754.666	3986.93
755.004	4008.17
755.342	4050.66
755.679	4028.74
756.017	4081.16
756.355	4098.56
756.693	4096.3
757.031	4108.96
757.368	4163.65
757.706	4139.47
758.044	4146.47
758.381	4148.96
758.719	4186.02
759.056	4196.42
759.394	4184.66
759.731	4202.97
760.068	4235.28
760.405	4236.19
760.743	4222.4
761.08	4266.47
761.417	4252.01
761.754	4327.26
762.091	4293.36
762.428	4339.24
762.765	4287.26
763.102	4362.96
763.438	4316.41
763.775	4333.81
764.112	4343.53
764.449	4355.28
764.785	4399.35
765.122	4365.22
765.458	4365.9
765.795	4359.35
766.131	4434.15
766.467	4342.17
766.804	4355.51
767.14	4340.82
767.476	4357.31
767.812	4396.18
768.148	4395.28
768.485	4341.95
768.821	4345.56
769.157	4361.38
769.492	4349.86
769.828	4348.73
770.164	4346.24
770.5	4360.93
770.836	4362.51
771.171	4354.6
771.507	4381.27
771.842	4345.56
