Data from blue_surface_keyboard_FLMS001491_057.txt Node
Date: Tue Feb 07 11:13:20 GMT 2017
User: dcchb
Spectrometer: FLMS00149
Trigger mode: 0
Integration Time (sec): 2.000000E-2
Scans to average: 10
Electric dark correction enabled: true
Nonlinearity correction enabled: false
Boxcar width: 0
XAxis mode: Wavelengths
Number of Pixels in Spectrum: 2048
>>>>>Begin Spectral Data<<<<<
341.393	-14.96
341.776	-14.96
342.16	-14.96
342.543	-64
342.927	-80.04
343.31	-82.75
343.693	-55.18
344.077	-52.92
344.46	-66.71
344.843	-64.67
345.226	-32.58
345.61	-55.41
345.993	-14.51
346.376	-1.17
346.759	12.39
347.142	33.18
347.525	63.01
347.908	55.32
348.291	75.89
348.674	101.65
349.057	84.48
349.44	133.29
349.823	148.65
350.206	164.7
350.588	174.42
350.971	197.69
351.354	215.77
351.737	213.74
352.119	246.05
352.502	249.89
352.884	248.76
353.267	250.8
353.65	281.53
354.032	285.15
354.414	310.01
354.797	293.51
355.179	301.42
355.562	285.37
355.944	297.8
356.326	310.46
356.709	298.48
357.091	307.52
357.473	311.59
357.855	305.49
358.238	339.84
358.62	307.52
359.002	326.73
359.384	341.42
359.766	322.66
360.148	311.81
360.53	318.14
360.912	314.3
361.294	294.87
361.676	299.38
362.057	310.01
362.439	305.26
362.821	299.16
363.203	290.8
363.584	320.85
363.966	315.66
364.348	306.62
364.729	306.39
365.111	308.65
365.493	272.27
365.874	302.55
366.256	278.59
366.637	292.15
367.019	307.75
367.4	301.42
367.781	295.77
368.163	279.5
368.544	291.93
368.925	292.15
369.306	312.04
369.688	301.19
370.069	274.53
370.45	290.35
370.831	293.28
371.212	286.73
371.593	289.89
371.974	282.66
372.355	291.25
372.736	298.71
373.117	296.45
373.498	300.74
373.879	276.56
374.26	289.44
374.641	286.28
375.021	285.6
375.402	298.48
375.783	294.41
376.163	296
376.544	292.15
376.925	305.03
377.305	302.32
377.686	285.6
378.066	301.19
378.447	294.64
378.827	319.05
379.208	319.27
379.588	306.84
379.968	295.09
380.349	293.51
380.729	310.46
381.109	285.37
381.489	294.41
381.87	300.51
382.25	299.61
382.63	301.64
383.01	308.2
383.39	315.88
383.77	318.59
384.15	304.58
384.53	298.25
384.91	323.56
385.29	306.16
385.67	336.22
386.049	328.76
386.429	301.64
386.809	310.91
387.189	323.56
387.568	307.75
387.948	312.72
388.328	338.48
388.707	313.17
389.087	325.82
389.466	327.86
389.846	319.05
390.225	305.49
390.605	320.18
390.984	333.51
391.363	320.4
391.743	323.56
392.122	327.86
392.501	339.84
392.881	339.38
393.26	341.64
393.639	341.42
394.018	320.4
394.397	317.46
394.776	322.66
395.155	319.05
395.534	325.6
395.913	330.12
396.292	340.29
396.671	331.7
397.05	338.48
397.429	313.62
397.808	331.93
398.186	323.11
398.565	339.84
398.944	352.94
399.323	360.17
399.701	322.21
400.08	324.24
400.458	346.39
400.837	345.26
401.215	330.8
401.594	347.29
401.972	331.93
402.351	348.88
402.729	368.99
403.107	327.41
403.486	336.22
403.864	357.46
404.242	347.29
404.62	357.46
404.999	359.04
405.377	348.65
405.755	357.01
406.133	381.64
406.511	372.38
406.889	352.04
407.267	372.6
407.645	384.58
408.023	368.76
408.401	362.21
408.779	378.93
409.156	363.79
409.534	384.35
409.912	386.39
410.29	365.82
410.667	378.7
411.045	361.98
411.422	371.02
411.8	400.4
412.178	378.48
412.555	378.25
412.933	394.52
413.31	371.25
413.687	391.36
414.065	409.44
414.442	362.89
414.819	379.38
415.197	384.13
415.574	379.16
415.951	399.95
416.328	389.1
416.705	391.81
417.082	401.08
417.46	396.78
417.837	386.84
418.214	384.35
418.591	386.16
418.967	400.63
419.344	390.46
419.721	405.14
420.098	412.15
420.475	395.2
420.852	405.82
421.228	407.18
421.605	406.73
421.982	413.05
422.358	414.41
422.735	423.22
423.111	411.47
423.488	413.96
423.864	413.51
424.241	415.54
424.617	408.99
424.994	430.68
425.37	434.97
425.746	439.27
426.123	423.45
426.499	437.91
426.875	456.67
427.251	438.14
427.627	440.85
428.003	460.06
428.379	433.62
428.756	446.73
429.132	445.82
429.507	454.63
429.883	425.03
430.259	454.63
430.635	447.86
431.011	448.99
431.387	449.44
431.763	473.62
432.138	462.54
432.514	452.38
432.89	451.02
433.265	468.19
433.641	491.24
434.016	461.41
434.392	473.62
434.767	485.14
435.143	481.07
435.518	479.72
435.894	469.78
436.269	472.04
436.644	505.71
437.02	511.13
437.395	512.26
437.77	485.14
438.145	493.5
438.52	495.09
438.895	487.63
439.271	510.23
439.646	507.29
440.021	523.33
440.395	526.05
440.77	527.18
441.145	509.32
441.52	533.5
441.895	500.28
442.27	505.71
442.645	527.4
443.019	514.07
443.394	530.34
443.769	522.2
444.143	516.55
444.518	534.63
444.892	557.46
445.267	526.72
445.641	548.19
446.016	534.86
446.39	548.64
446.764	555.42
447.139	515.88
447.513	550.9
447.887	541.41
448.262	561.3
448.636	545.93
449.01	559.94
449.384	558.59
449.758	561.07
450.132	576.44
450.506	584.35
450.88	575.08
451.254	574.63
451.628	561.98
452.002	581.86
452.376	592.26
452.75	571.92
453.123	591.13
453.497	574.63
453.871	592.03
454.244	604.24
454.618	599.04
454.992	601.07
455.365	613.73
455.739	600.62
456.112	611.02
456.486	610.79
456.859	605.59
457.232	625.48
457.606	631.35
457.979	638.81
458.352	648.3
458.725	641.75
459.099	640.39
459.472	655.31
459.845	656.44
460.218	646.72
460.591	654.4
460.964	671.13
461.337	641.52
461.71	667.96
462.083	688.08
462.456	698.24
462.829	685.59
463.201	701.86
463.574	672.03
463.947	697.11
464.32	713.61
464.692	704.8
465.065	731.69
465.438	710.9
465.81	706.15
466.183	732.82
466.555	740.96
466.928	726.27
467.3	710.22
467.672	746.38
468.045	751.35
468.417	769.2
468.789	752.03
469.161	779.37
469.534	774.4
469.906	764.68
470.278	778.02
470.65	790.22
471.022	802.2
471.394	806.04
471.766	817.56
472.138	816.43
472.51	790.45
472.882	823.66
473.253	832.25
473.625	835.64
473.997	868.18
474.369	847.17
474.74	864.34
475.112	867.05
475.484	888.07
475.855	904.34
476.227	900.5
476.598	921.74
476.97	919.93
477.341	943.66
477.713	932.59
478.084	935.07
478.455	954.06
478.827	959.48
479.198	951.35
479.569	949.99
479.94	988.18
480.311	984.56
480.682	1002.19
481.053	1003.55
481.424	1014.62
481.795	1044.9
482.166	1043.32
482.537	1058.91
482.908	1062.3
483.279	1039.7
483.65	1090.78
484.021	1107.95
484.391	1084.67
484.762	1098.46
485.133	1141.4
485.503	1120.15
485.874	1123.54
486.244	1118.35
486.615	1147.5
486.985	1160.83
487.356	1179.14
487.726	1155.63
488.097	1188.85
488.467	1193.82
488.837	1194.73
489.207	1195.86
489.578	1205.12
489.948	1243.99
490.318	1229.3
490.688	1231.56
491.058	1239.02
491.428	1243.31
491.798	1261.62
492.168	1260.04
492.538	1276.53
492.908	1296.19
493.278	1298
493.648	1313.14
494.017	1304.1
494.387	1283.54
494.757	1312.24
495.126	1319.92
495.496	1325.35
495.866	1312.01
496.235	1335.06
496.605	1329.87
496.974	1339.81
497.344	1347.49
497.713	1324.67
498.082	1361.73
498.452	1357.66
498.821	1360.15
499.19	1374.84
499.559	1363.54
499.928	1366.93
500.298	1384.55
500.667	1385.01
501.036	1375.51
501.405	1395.18
501.774	1395.18
502.143	1404.89
502.512	1391.11
502.88	1430.43
503.249	1427.26
503.618	1383.2
503.987	1436.98
504.356	1421.62
504.724	1429.98
505.093	1418.9
505.462	1422.07
505.83	1416.64
506.199	1438.34
506.567	1413.03
506.936	1454.16
507.304	1442.18
507.672	1412.35
508.041	1446.25
508.409	1479.92
508.777	1465.46
509.145	1452.57
509.514	1471.33
509.882	1467.26
510.25	1462.07
510.618	1481.05
510.986	1448.96
511.354	1461.84
511.722	1507.49
512.09	1473.14
512.458	1475.4
512.826	1460.03
513.193	1508.62
513.561	1511.78
513.929	1488.96
514.297	1493.7
514.664	1530.76
515.032	1523.99
515.4	1507.94
515.767	1520.6
516.135	1544.55
516.502	1503.42
516.869	1519.24
517.237	1530.31
517.604	1525.34
517.972	1554.27
518.339	1546.58
518.706	1530.54
519.073	1522.4
519.44	1531.89
519.808	1559.92
520.175	1562.18
520.542	1539.35
520.909	1546.58
521.276	1564.44
521.643	1554.49
522.009	1560.59
522.376	1533.93
522.743	1556.07
523.11	1577.09
523.477	1578.45
523.843	1580.71
524.21	1584.77
524.577	1584.55
524.943	1602.63
525.31	1601.5
525.676	1591.55
526.043	1589.29
526.409	1600.82
526.776	1643.08
527.142	1606.92
527.508	1603.76
527.874	1655.06
528.241	1632.01
528.607	1643.53
528.973	1637.2
529.339	1630.2
529.705	1657.54
530.071	1666.35
530.437	1653.02
530.803	1652.57
531.169	1695.96
531.535	1645.79
531.901	1634.04
532.267	1659.12
532.632	1648.5
532.998	1696.41
533.364	1661.38
533.73	1662.96
534.095	1684.66
534.461	1682.85
534.826	1646.47
535.192	1662.29
535.557	1667.48
535.923	1669.29
536.288	1694.6
536.653	1664.09
537.019	1678.78
537.384	1654.15
537.749	1702.96
538.114	1698.67
538.479	1693.25
538.845	1674.94
539.21	1710.42
539.575	1672.68
539.94	1718.78
540.305	1710.42
540.67	1674.04
541.034	1715.17
541.399	1721.95
541.764	1683.08
542.129	1698.44
542.494	1682.85
542.858	1708.16
543.223	1703.64
543.587	1693.92
543.952	1700.03
544.316	1719.01
544.681	1697.31
545.045	1722.4
545.41	1721.72
545.774	1723.3
546.138	1712.91
546.503	1714.94
546.867	1730.99
547.231	1714.71
547.595	1712.68
547.959	1689.86
548.324	1712
548.688	1733.7
549.052	1734.6
549.416	1711.33
549.779	1740.48
550.143	1739.57
550.507	1758.78
550.871	1728.05
551.235	1759.23
551.599	1755.62
551.962	1715.62
552.326	1743.64
552.689	1770.98
553.053	1739.35
553.417	1738.67
553.78	1759.23
554.143	1751.78
554.507	1773.02
554.87	1773.02
555.234	1767.14
555.597	1728.73
555.96	1748.16
556.323	1733.7
556.686	1775.5
557.05	1744.54
557.413	1764.66
557.776	1781.15
558.139	1739.57
558.502	1777.09
558.865	1756.52
559.228	1742.06
559.59	1786.58
559.953	1775.5
560.316	1787.26
560.679	1785.22
561.041	1803.53
561.404	1815.05
561.767	1789.29
562.129	1808.05
562.492	1793.81
562.854	1770.53
563.217	1799.68
563.579	1796.07
563.941	1794.71
564.304	1815.96
564.666	1848.27
565.028	1833.13
565.39	1809.85
565.753	1813.92
566.115	1818.21
566.477	1851.89
566.839	1825.67
567.201	1826.12
567.563	1804.2
567.925	1843.98
568.287	1869.29
568.648	1828.16
569.01	1836.75
569.372	1855.95
569.734	1845.33
570.095	1867.48
570.457	1844.43
570.819	1834.71
571.18	1846.01
571.542	1882.39
571.903	1874.48
572.265	1868.38
572.626	1876.29
572.987	1890.53
573.349	1899.34
573.71	1867.03
574.071	1862.96
574.432	1875.16
574.794	1896.4
575.155	1923.75
575.516	1891.21
575.877	1873.58
576.238	1906.57
576.599	1904.54
576.96	1882.85
577.32	1917.87
577.681	1910.42
578.042	1914.94
578.403	1901.15
578.763	1947.25
579.124	1935.5
579.485	1937.08
579.845	1914.48
580.206	1912.45
580.566	1903.41
580.927	1917.87
581.287	1933.69
581.648	1924.2
582.008	1918.55
582.368	1921.49
582.728	1936.63
583.089	1914.26
583.449	1926.46
583.809	1940.92
584.169	1924.88
584.529	1909.29
584.889	1915.61
585.249	1895.5
585.609	1933.01
585.969	1943.41
586.329	1907.7
586.688	1902.96
587.048	1916.52
587.408	1912
587.768	1924.65
588.127	1922.17
588.487	1899.79
588.846	1933.24
589.206	1939.34
589.565	1915.84
589.925	1930.53
590.284	1923.97
590.643	1931.88
591.003	1930.53
591.362	1967.36
591.721	1932.34
592.08	1932.79
592.44	1960.13
592.799	1926.23
593.158	1967.82
593.517	1925.1
593.876	1944.09
594.235	1928.04
594.593	1932.79
594.952	1950.87
595.311	1973.92
595.67	1968.27
596.029	1956.29
596.387	1967.36
596.746	1967.82
597.104	1964.2
597.463	1946.8
597.822	1959.68
598.18	1967.82
598.538	1944.54
598.897	1966.01
599.255	1961.49
599.613	1983.18
599.972	1960.13
600.33	1982.28
600.688	1973.92
601.046	1992
601.404	1960.36
601.762	2001.03
602.12	1975.95
602.478	1986.8
602.836	2021.15
603.194	2008.27
603.552	1987.02
603.91	1950.19
604.268	2015.5
604.625	2023.86
604.983	2009.62
605.341	2010.53
605.698	2012.56
606.056	1998.1
606.413	2024.31
606.771	2014.37
607.128	2019.79
607.485	2007.36
607.843	2002.62
608.2	2025.67
608.557	2022.73
608.914	2055.27
609.272	2015.05
609.629	2021.15
609.986	2035.84
610.343	2045.33
610.7	2053.01
611.057	2030.86
611.414	2060.69
611.771	2048.72
612.127	2049.62
612.484	2057.53
612.841	2039.45
613.198	2075.38
613.554	2098.43
613.911	2071.09
614.267	2068.38
614.624	2118.32
614.98	2083.97
615.337	2114.93
615.693	2094.82
616.05	2079
616.406	2084.87
616.762	2081.48
617.118	2083.74
617.475	2097.76
617.831	2086.23
618.187	2093.91
618.543	2111.77
618.899	2108.83
619.255	2088.04
619.611	2113.12
619.967	2123.97
620.323	2091.2
620.678	2126.68
621.034	2111.54
621.39	2142.05
621.746	2136.85
622.101	2152.44
622.457	2134.14
622.812	2147.47
623.168	2160.35
623.523	2160.35
623.879	2183.4
624.234	2120.81
624.589	2126.23
624.945	2134.36
625.3	2152.9
625.655	2166.45
626.01	2196.74
626.365	2187.02
626.72	2174.82
627.075	2200.58
627.43	2186.11
627.785	2183.18
628.14	2180.24
628.495	2152.67
628.85	2205.78
629.205	2187.7
629.559	2205.78
629.914	2200.8
630.269	2243.74
630.623	2189.05
630.978	2188.15
631.332	2209.17
631.687	2256.4
632.041	2251.42
632.396	2230.63
632.75	2227.02
633.104	2219.56
633.459	2245.77
633.813	2229.96
634.167	2242.84
634.521	2229.73
634.875	2277.19
635.229	2230.86
635.583	2260.92
635.937	2232.22
636.291	2218.66
636.645	2266.11
636.999	2249.16
637.352	2298.88
637.706	2280.12
638.06	2283.29
638.413	2291.42
638.767	2288.71
639.121	2270.86
639.474	2259.33
639.828	2315.83
640.181	2298.88
640.534	2299.56
640.888	2298.43
641.241	2331.87
641.594	2319.67
641.947	2320.57
642.301	2319.22
642.654	2340.01
643.007	2359.9
643.36	2376.39
643.713	2338.65
644.066	2371.87
644.419	2338.65
644.771	2384.75
645.124	2368.03
645.477	2358.31
645.83	2353.12
646.182	2340.46
646.535	2346.56
646.888	2364.87
647.24	2331.65
647.593	2374.13
647.945	2372.78
648.298	2403.06
648.65	2385.21
649.002	2391.31
649.355	2412.78
649.707	2394.02
650.059	2425.66
650.411	2442.38
650.763	2486.67
651.115	2519.89
651.467	2510.63
651.819	2516.73
652.171	2546.56
652.523	2528.25
652.875	2547.91
653.227	2544.75
653.578	2565.77
653.93	2577.52
654.282	2591.53
654.633	2591.98
654.985	2593.11
655.337	2596.05
655.688	2594.01
656.039	2656.61
656.391	2624.3
656.742	2671.53
657.094	2643.28
657.445	2657.74
657.796	2653.9
658.147	2688.93
658.498	2735.25
658.849	2744.07
659.2	2709.04
659.551	2716.5
659.902	2767.34
660.253	2747
660.604	2766.89
660.955	2761.92
661.306	2802.6
661.656	2815.48
662.007	2811.86
662.358	2818.41
662.708	2836.72
663.059	2816.61
663.409	2868.36
663.76	2881.92
664.11	2876.94
664.461	2931.18
664.811	2963.72
665.161	2944.96
665.511	2967.56
665.862	2916.49
666.212	2967.79
666.562	3008.92
666.912	2986.77
667.262	2990.39
667.612	3025.19
667.962	3037.17
668.312	3028.8
668.662	3075.13
669.011	3090.5
669.361	3085.75
669.711	3133.21
670.06	3140.21
670.41	3094.57
670.76	3150.38
671.109	3146.32
671.459	3175.02
671.808	3169.82
672.157	3203.94
672.507	3171.85
672.856	3210.04
673.205	3224.51
673.554	3218.18
673.904	3236.71
674.253	3286.42
674.602	3276.48
674.951	3257.73
675.3	3259.53
675.649	3291.85
675.998	3306.54
676.346	3309.02
676.695	3386.99
677.044	3365.29
677.393	3364.61
677.741	3401.9
678.09	3412.98
678.438	3395.12
678.787	3398.06
679.135	3436.7
679.484	3423.6
679.832	3436.48
680.181	3443.03
680.529	3457.04
680.877	3475.35
681.225	3479.87
681.573	3499.53
681.922	3504.95
682.27	3488.68
682.618	3479.87
682.966	3545.4
683.314	3540.66
683.661	3532.52
684.009	3554.44
684.357	3517.38
684.705	3551.5
685.053	3554.21
685.4	3573.2
685.748	3563.93
686.095	3606.87
686.443	3587.89
686.79	3599.64
687.138	3620.2
687.485	3615.23
687.832	3625.17
688.18	3592.63
688.527	3634.21
688.874	3639.86
689.221	3632.4
689.568	3628.11
689.915	3648.9
690.262	3658.39
690.609	3614.1
690.956	3671.73
691.303	3641.67
691.65	3653.19
691.997	3646.19
692.344	3633.76
692.69	3648
693.037	3686.41
693.383	3683.25
693.73	3699.52
694.077	3673.31
694.423	3703.82
694.769	3653.42
695.116	3710.37
695.462	3711.27
695.808	3700.2
696.155	3652.74
696.501	3625.85
696.847	3701.1
697.193	3669.24
697.539	3646.42
697.885	3643.03
698.231	3657.71
698.577	3660.2
698.923	3693.42
699.269	3663.36
699.614	3643.03
699.96	3682.8
700.306	3655.23
700.651	3666.3
700.997	3640.77
701.342	3657.71
701.688	3668.11
702.033	3662.01
702.379	3645.96
702.724	3641.9
703.069	3640.31
703.415	3633.08
703.76	3600.99
704.105	3624.72
704.45	3584.95
704.795	3603.25
705.14	3588.34
705.485	3594.67
705.83	3627.21
706.175	3617.26
706.52	3582.46
706.865	3599.64
707.209	3591.28
707.554	3576.59
707.899	3577.26
708.243	3581.56
708.588	3592.63
708.932	3547.21
709.277	3526.64
709.621	3540.66
709.966	3578.62
710.31	3589.02
710.654	3526.64
710.998	3546.76
711.342	3549.47
711.687	3546.31
712.031	3519.64
712.375	3531.62
712.719	3570.71
713.063	3568.9
713.407	3551.95
713.75	3528.9
714.094	3538.4
714.438	3546.53
714.782	3549.02
715.125	3486.42
715.469	3487.55
715.812	3536.81
716.156	3518.28
716.499	3497.04
716.843	3549.02
717.186	3549.69
717.53	3532.29
717.873	3537.94
718.216	3547.43
718.559	3522.8
718.902	3553.99
719.246	3542.69
719.589	3518.06
719.932	3518.74
720.275	3491.39
720.617	3504.95
720.96	3539.3
721.303	3536.81
721.646	3514.22
721.989	3547.43
722.331	3522.35
722.674	3504.05
723.016	3521.45
723.359	3534.78
723.701	3551.73
724.044	3487.32
724.386	3536.14
724.729	3511.5
725.071	3516.7
725.413	3509.24
725.755	3535.23
726.097	3586.3
726.439	3490.71
726.782	3534.55
727.124	3499.75
727.465	3545.18
727.807	3535.01
728.149	3537.49
728.491	3546.31
728.833	3560.77
729.175	3516.02
729.516	3515.8
729.858	3493.2
730.199	3544.05
730.541	3535.91
730.882	3527.77
731.224	3548.11
731.565	3555.34
731.906	3568.23
732.248	3561.9
732.589	3551.95
732.93	3524.61
733.271	3549.02
733.612	3551.95
733.953	3580.43
734.294	3516.02
734.635	3540.88
734.976	3578.39
735.317	3586.76
735.658	3557.6
735.999	3574.78
736.339	3552.41
736.68	3591.05
737.021	3573.87
737.361	3607.77
737.702	3640.99
738.042	3609.13
738.383	3591.05
738.723	3643.25
739.063	3602.57
739.404	3631.27
739.744	3641.22
740.084	3628.56
740.424	3666.08
740.764	3639.41
741.104	3651.39
741.444	3658.84
741.784	3661.78
742.124	3690.48
742.464	3662.01
742.804	3709.92
743.143	3713.76
743.483	3673.99
743.823	3673.99
744.162	3739.97
744.502	3746.3
744.841	3713.53
745.181	3758.28
745.52	3792.4
745.86	3766.64
746.199	3789.69
746.538	3808.45
746.877	3813.64
747.216	3805.73
747.556	3860.87
747.895	3893.19
748.234	3879.63
748.573	3845.51
748.911	3901.78
749.25	3894.77
749.589	3914.66
749.928	3932.06
750.267	3989.23
750.605	3953.53
750.944	3986.97
751.283	4005.5
751.621	4034.2
751.96	4036.91
752.298	4028.55
752.636	4093.18
752.975	4028.33
753.313	4114.88
753.651	4135.67
753.989	4103.58
754.327	4136.35
754.666	4172.28
755.004	4181.09
755.342	4170.24
755.679	4207.53
756.017	4243.46
756.355	4287.75
756.693	4253.18
757.031	4309.45
757.368	4266.06
757.706	4345.15
758.044	4301.31
758.381	4349.9
758.719	4357.36
759.056	4418.15
759.394	4359.39
759.731	4417.92
760.068	4410.92
760.405	4428.32
760.743	4484.81
761.08	4436.9
761.417	4466.51
761.754	4457.02
762.091	4488.43
762.428	4452.04
762.765	4440.52
763.102	4495.21
763.438	4497.47
763.775	4464.92
764.112	4489.78
764.449	4516
764.785	4530.91
765.122	4513.06
765.458	4512.83
765.795	4515.77
766.131	4480.29
766.467	4483.23
766.804	4517.35
767.14	4477.13
767.476	4564.81
767.812	4527.52
768.148	4568.43
768.485	4508.09
768.821	4516.68
769.157	4525.71
769.492	4509.22
769.828	4539.95
770.164	4480.97
770.5	4512.38
770.836	4520.29
771.171	4486.17
771.507	4525.04
771.842	4509.67
772.178	4464.47
