Data from blue_clamp_base_FLMS001491_00068.txt Node
Date: Wed Feb 08 15:16:22 GMT 2017
User: dcchb
Spectrometer: FLMS00149
Trigger mode: 0
Integration Time (sec): 2.000000E-2
Scans to average: 10
Electric dark correction enabled: true
Nonlinearity correction enabled: false
Boxcar width: 0
XAxis mode: Wavelengths
Number of Pixels in Spectrum: 2048
>>>>>Begin Spectral Data<<<<<
341.393	-2.61
341.776	-2.61
342.16	-2.61
342.543	-53.23
342.927	-69.05
343.31	-69.05
343.693	-51.88
344.077	-81.25
344.46	-69.5
344.843	-59.11
345.226	-45.55
345.61	-21.6
345.993	-12.56
346.376	-14.59
346.759	11.62
347.142	33.09
347.525	66.09
347.908	59.31
348.291	68.12
348.674	104.73
349.057	82.13
349.44	141.56
349.823	121.45
350.206	156.93
350.588	189.7
350.971	204.16
351.354	202.81
351.737	232.41
352.119	234.89
352.502	244.84
352.884	271.96
353.267	276.02
353.65	296.36
354.032	263.37
354.414	300.43
354.797	315.57
355.179	294.33
355.562	298.62
355.944	331.39
356.326	327.77
356.709	332.29
357.091	333.2
357.473	339.07
357.855	329.13
358.238	348.34
358.62	324.61
359.002	335.01
359.384	342.01
359.766	341.33
360.148	355.8
360.53	329.81
360.912	328
361.294	319.64
361.676	331.62
362.057	328.9
362.439	328.45
362.821	316.25
363.203	328.23
363.584	311.5
363.966	313.54
364.348	299.53
364.729	299.98
365.111	285.74
365.493	287.32
365.874	301.79
366.256	332.97
366.637	294.78
367.019	303.14
367.4	312.18
367.781	298.62
368.163	297.27
368.544	323.93
368.925	332.97
369.306	292.07
369.688	310.37
370.069	307.21
370.45	298.62
370.831	290.71
371.212	302.24
371.593	300.66
371.974	333.2
372.355	289.58
372.736	306.08
373.117	314.67
373.498	299.75
373.879	290.49
374.26	295.91
374.641	316.02
375.021	304.27
375.402	309.47
375.783	316.25
376.163	330.03
376.544	307.66
376.925	322.58
377.305	316.7
377.686	302.01
378.066	312.18
378.447	323.48
378.827	321.45
379.208	328.23
379.588	329.36
379.968	335.01
380.349	310.37
380.729	333.42
381.109	309.47
381.489	326.64
381.87	311.05
382.25	335.01
382.63	339.07
383.01	344.27
383.39	325.06
383.77	333.88
384.15	334.55
384.53	327.55
384.91	339.75
385.29	335.23
385.67	339.07
386.049	350.37
386.429	351.05
386.809	336.14
387.189	371.39
387.568	336.36
387.948	350.15
388.328	340.65
388.707	343.14
389.087	347.89
389.466	397.83
389.846	355.57
390.225	364.38
390.605	352.18
390.984	365.74
391.363	377.49
391.743	381.33
392.122	363.48
392.501	383.37
392.881	380.2
393.26	391.28
393.639	408.68
394.018	379.75
394.397	390.6
394.776	394.44
395.155	372.97
395.534	396.47
395.913	411.39
396.292	399.86
396.671	416.13
397.05	425.17
397.429	426.08
397.808	429.01
398.186	421.78
398.565	419.97
398.944	418.84
399.323	430.82
399.701	450.03
400.08	428.11
400.458	419.3
400.837	458.17
401.215	457.04
401.594	458.84
401.972	453.19
402.351	457.26
402.729	466.08
403.107	458.39
403.486	481.67
403.864	474.44
404.242	483.7
404.62	483.7
404.999	491.39
405.377	458.39
405.755	486.64
406.133	513.08
406.511	522.12
406.889	495
407.267	492.74
407.645	524.6
408.023	521.67
408.401	535.23
408.779	537.49
409.156	541.78
409.534	548.11
409.912	539.29
410.29	552.63
410.667	560.08
411.045	572.51
411.422	582.68
411.8	577.48
412.178	582.68
412.555	598.28
412.933	591.72
413.31	611.16
413.687	601.44
414.065	619.29
414.442	605.96
414.819	635.79
415.197	647.77
415.574	616.81
415.951	615.22
416.328	646.18
416.705	684.6
417.082	658.61
417.46	662.68
417.837	668.56
418.214	682.79
418.591	686.41
418.967	676.69
419.344	680.31
419.721	707.88
420.098	716.92
420.475	727.31
420.852	717.82
421.228	747.2
421.605	738.84
421.982	735.22
422.358	750.14
422.735	756.24
423.111	743.81
423.488	776.8
423.864	767.76
424.241	785.61
424.617	786.07
424.994	811.15
425.37	802.11
425.746	814.54
426.123	837.14
426.499	806.86
426.875	844.82
427.251	840.08
427.627	888.66
428.003	869.23
428.379	858.61
428.756	864.48
429.132	885.27
429.507	900.64
429.883	899.51
430.259	936.57
430.635	929.34
431.011	955.55
431.387	923.24
431.763	974.76
432.138	977.25
432.514	992.16
432.89	1001.2
433.265	1019.51
433.641	1050.01
434.016	1040.3
434.392	1040.52
434.767	1039.62
435.143	1054.31
435.518	1071.71
435.894	1063.35
436.269	1117.13
436.644	1148.77
437.02	1128.2
437.395	1117.81
437.77	1179.5
438.145	1193.74
438.52	1184.25
438.895	1180.18
439.271	1202.55
439.646	1230.35
440.021	1213.63
440.395	1223.8
440.77	1238.03
441.145	1227.19
441.52	1277.35
441.895	1268.54
442.27	1279.61
442.645	1277.35
443.019	1296.56
443.394	1303.79
443.769	1324.13
444.143	1282.78
444.518	1355.32
444.892	1339.72
445.267	1361.42
445.641	1384.02
446.016	1400.51
446.39	1416.78
446.764	1414.98
447.139	1419.72
447.513	1414.75
447.887	1430.8
448.262	1454.3
448.636	1438.93
449.01	1476.44
449.384	1488.2
449.758	1482.55
450.132	1509.21
450.506	1496.33
450.88	1516.22
451.254	1530.23
451.628	1545.82
452.002	1574.75
452.376	1564.8
452.75	1590.34
453.123	1593.73
453.497	1642.77
453.871	1644.8
454.244	1669.66
454.618	1668.76
454.992	1691.81
455.365	1669.66
455.739	1743.78
456.112	1746.72
456.486	1763.22
456.859	1791.24
457.232	1806.83
457.606	1792.82
457.979	1817.9
458.352	1830.11
458.725	1886.38
459.099	1883.89
459.472	1908.3
459.845	1907.39
460.218	1921.86
460.591	1945.36
460.964	1972.48
461.337	2018.35
461.71	2059.25
462.083	2061.97
462.456	2077.11
462.829	2089.08
463.201	2117.78
463.574	2089.31
463.947	2154.39
464.32	2158.69
464.692	2203.2
465.065	2207.72
465.438	2242.98
465.81	2285.69
466.183	2275.07
466.555	2349.42
466.928	2322.07
467.3	2318.91
467.672	2386.25
468.045	2415.4
468.417	2444.55
468.789	2452.69
469.161	2468.06
469.534	2471.9
469.906	2533.59
470.278	2542.63
470.65	2595.51
471.022	2611.78
471.394	2655.4
471.766	2661.05
472.138	2727.71
472.51	2733.13
472.882	2797.09
473.253	2820.14
473.625	2842.96
473.997	2867.82
474.369	2886.12
474.74	2928.38
475.112	2946.91
475.484	3012.22
475.855	3052.67
476.227	3063.97
476.598	3177.19
476.97	3143.29
477.341	3220.35
477.713	3245.66
478.084	3245.89
478.455	3315.49
478.827	3315.27
479.198	3475.49
479.569	3417.41
479.94	3505.32
480.311	3520.91
480.682	3612.43
481.053	3682.94
481.424	3692.66
481.795	3764.75
482.166	3782.15
482.537	3819.89
482.908	3857.4
483.279	3910.28
483.65	3936.04
484.021	4012.87
484.391	4001.12
484.762	4055.81
485.133	4093.55
485.503	4168.8
485.874	4236.37
486.244	4233.89
486.615	4286.54
486.985	4263.72
487.356	4377.61
487.726	4376.48
488.097	4429.81
488.467	4499.42
488.837	4551.84
489.207	4543.48
489.578	4599.53
489.948	4681.78
490.318	4713.65
490.688	4698.28
491.058	4713.87
491.428	4795.9
491.798	4797.03
492.168	4856.24
492.538	4894.21
492.908	4915
493.278	5023.7
493.648	4974.66
494.017	4983.47
494.387	5031.83
494.757	5037.25
495.126	5116.8
495.496	5146.86
495.866	5123.81
496.235	5162
496.605	5146.63
496.974	5183.47
497.344	5217.14
497.713	5193.18
498.082	5208.1
498.452	5296.68
498.821	5296.68
499.19	5313.18
499.559	5297.36
499.928	5341.43
500.298	5338.94
500.667	5403.35
501.036	5413.06
501.405	5383.01
501.774	5380.97
502.143	5428.66
502.512	5413.52
502.88	5495.55
503.249	5506.17
503.618	5486.96
503.987	5484.25
504.356	5547.3
504.724	5555.21
505.093	5547.75
505.462	5510.24
505.83	5567.64
506.199	5627.52
506.567	5598.82
506.936	5630.91
507.304	5658.71
507.672	5700.29
508.041	5660.74
508.409	5696.9
508.777	5757.24
509.145	5770.79
509.514	5787.07
509.882	5785.71
510.25	5827.74
510.618	5851.24
510.986	5864.8
511.354	5890.11
511.722	5972.82
512.09	5944.12
512.458	5893.05
512.826	5937.34
513.193	5991.81
513.561	5935.08
513.929	5971.92
514.297	6054.18
514.664	6120.39
515.032	6053.5
515.4	6122.65
515.767	6102.54
516.135	6170.56
516.502	6093.5
516.869	6128.53
517.237	6192.48
517.604	6162.65
517.972	6207.17
518.339	6227.96
518.706	6190.44
519.073	6221.18
519.44	6204.91
519.808	6298.92
520.175	6203.78
520.542	6334.4
520.909	6354.28
521.276	6336.2
521.643	6368.52
522.009	6371.46
522.376	6445.81
522.743	6407.84
523.11	6490.78
523.477	6562.64
523.843	6558.12
524.21	6566.93
524.577	6590.21
524.943	6582.07
525.31	6676.08
525.676	6674.5
526.043	6691.67
526.409	6711.33
526.776	6779.58
527.142	6759.47
527.508	6808.28
527.874	6826.36
528.241	6860.94
528.607	6875.85
528.973	6926.02
529.339	6917.66
529.705	6937.77
530.071	6978.67
530.437	7035.39
530.803	7089.4
531.169	7109.29
531.535	7067.48
531.901	7141.15
532.267	7147.03
532.632	7150.87
532.998	7128.27
533.364	7208.95
533.73	7177.31
534.095	7226.12
534.461	7314.48
534.826	7294.82
535.192	7348.83
535.557	7387.93
535.923	7322.39
536.288	7412.33
536.653	7313.8
537.019	7353.13
537.384	7367.59
537.749	7419.79
538.114	7399.68
538.479	7451.65
538.845	7431.77
539.21	7468.15
539.575	7505.21
539.94	7521.26
540.305	7542.5
540.67	7504.08
541.034	7543.4
541.399	7562.61
541.764	7575.94
542.129	7589.96
542.494	7631.54
542.858	7675.15
543.223	7630.18
543.587	7682.61
543.952	7671.08
544.316	7769.39
544.681	7704.08
545.045	7741.14
545.41	7748.82
545.774	7787.01
546.138	7736.62
546.503	7828.37
546.867	7758.99
547.231	7853
547.595	7859.78
547.959	7895.71
548.324	7911.76
548.688	7887.8
549.052	7942.26
549.416	7987.69
549.779	7964.41
550.143	7930.06
550.507	7960.12
550.871	8012.09
551.235	7967.57
551.599	8031.75
551.962	8011.87
552.326	8039.44
552.689	8077.17
553.053	8057.06
553.417	8090.73
553.78	8151.3
554.143	8122.15
554.507	8150.17
554.87	8154.69
555.234	8144.97
555.597	8130.05
555.96	8168.47
556.323	8198.98
556.686	8175.93
557.05	8267.68
557.413	8193.56
557.776	8263.84
558.139	8312.87
558.502	8268.58
558.865	8323.5
559.228	8358.52
559.59	8326.66
559.953	8398.52
560.316	8441.68
560.679	8443.27
561.041	8536.6
561.404	8507.45
561.767	8535.69
562.129	8438.52
562.492	8563.04
562.854	8592.87
563.217	8563.04
563.579	8599.65
563.941	8651.17
564.304	8692.75
564.666	8754.67
565.028	8735.69
565.39	8707.44
565.753	8721.23
566.115	8840.77
566.477	8807.32
566.839	8801
567.201	8878.74
567.563	8836.02
567.925	8868.34
568.287	8879.64
568.648	8996.7
569.01	8958.06
569.372	9035.79
569.734	8955.8
570.095	9080.76
570.457	9073.98
570.819	9106.75
571.18	9116.24
571.542	9177.48
571.903	9172.97
572.265	9124.6
572.626	9243.47
572.987	9283.7
573.349	9271.27
573.71	9265.17
574.071	9298.84
574.432	9336.12
574.794	9405.95
575.155	9452.73
575.516	9409.12
575.877	9393.07
576.238	9458.16
576.599	9441.21
576.96	9489.11
577.32	9499.96
577.681	9513.07
578.042	9569.56
578.403	9578.6
578.763	9577.02
579.124	9613.41
579.485	9680.07
579.845	9710.13
580.206	9652.27
580.566	9694.08
580.927	9701.31
581.287	9711.48
581.648	9657.92
582.008	9809.11
582.368	9762.55
582.728	9675.78
583.089	9693.86
583.449	9747.64
583.809	9769.79
584.169	9730.24
584.529	9712.16
584.889	9824.93
585.249	9756.68
585.609	9754.64
585.969	9762.78
586.329	9822.89
586.688	9861.08
587.048	9788.99
587.408	9811.37
587.768	9850.69
588.127	9769.11
588.487	9812.5
588.846	9867.86
589.206	9835.09
589.565	9807.07
589.925	9800.07
590.284	9881.65
590.643	9819.95
591.003	9831.03
591.362	9925.04
591.721	9848.2
592.08	9914.87
592.44	9958.71
592.799	9904.25
593.158	9887.75
593.517	9864.02
593.876	9926.17
594.235	9920.29
594.593	9869.67
594.952	10025.37
595.311	9916.22
595.67	9927.75
596.029	9981.08
596.387	9982.21
596.746	10038.48
597.104	9963.45
597.463	9972.49
597.822	10077.35
598.18	10014.07
598.538	10075.31
598.897	10108.31
599.255	9960.29
599.613	10077.12
599.972	10083.9
600.33	10098.82
600.688	10009.1
601.046	10078.7
601.404	10069.44
601.762	10048.2
602.12	10101.75
602.478	10088.87
602.836	10105.6
603.194	10113.96
603.552	10101.98
603.91	10112.6
604.268	10213.39
604.625	10170.45
604.983	10161.41
605.341	10063.56
605.698	10085.48
606.056	10089.1
606.413	10158.48
606.771	10159.83
607.128	10267.17
607.485	10110.79
607.843	10150.57
608.2	10172.03
608.557	10277.79
608.914	10237.12
609.272	10223.33
609.629	10301.75
609.986	10286.61
610.343	10253.61
610.7	10311.47
611.057	10244.12
611.414	10274.86
611.771	10231.24
612.127	10288.42
612.484	10317.12
612.841	10332.71
613.198	10282.77
613.554	10314.18
613.911	10358.92
614.267	10411.8
614.624	10351.92
614.98	10370.22
615.337	10403.44
615.693	10392.14
616.05	10368.64
616.406	10473.5
616.762	10393.05
617.118	10462.65
617.475	10393.72
617.831	10434.63
618.187	10506.26
618.543	10478.47
618.899	10598.92
619.255	10524.79
619.611	10517.79
619.967	10469.65
620.323	10590.55
620.678	10558.01
621.034	10577
621.39	10576.54
621.746	10532.48
622.101	10649.31
622.457	10616.77
622.812	10553.27
623.168	10584.68
623.523	10587.17
623.879	10630.78
624.234	10666.26
624.589	10633.27
624.945	10608.86
625.3	10703.55
625.655	10626.49
626.01	10706.26
626.365	10727.05
626.72	10627.16
627.075	10675.75
627.43	10682.08
627.785	10671.23
628.14	10733.38
628.495	10730.44
628.85	10688.63
629.205	10696.99
629.559	10768.18
629.914	10712.81
630.269	10765.24
630.623	10775.63
630.978	10713.72
631.332	10810.66
631.687	10725.24
632.041	10724.79
632.396	10778.35
632.75	10714.85
633.104	10769.99
633.459	10720.95
633.813	10792.13
634.167	10762.53
634.521	10805.24
634.875	10838.68
635.229	10737.44
635.583	10789.87
635.937	10763.66
636.291	10789.19
636.645	10856.76
636.999	10792.13
637.352	10836.88
637.706	10873.94
638.06	10847.5
638.413	10917.78
638.767	10870.55
639.121	10898.8
639.474	10813.83
639.828	10857.67
640.181	10876.2
640.534	10862.86
640.888	10823.09
641.241	10856.54
641.594	10917.55
641.947	10966.59
642.301	10939.47
642.654	10871
643.007	10938.12
643.36	10925.24
643.713	10929.75
644.066	10975.63
644.419	10927.95
644.771	10899.02
645.124	10826.48
645.477	10859.25
645.83	10730.66
646.182	10732.25
646.535	10707.61
646.888	10678.24
647.24	10683.43
647.593	10710.78
647.945	10693.38
648.298	10686.82
648.65	10612.25
649.002	10632.59
649.355	10726.82
649.707	10748.29
650.059	10851.79
650.411	11071.22
650.763	10976.76
651.115	11084.55
651.467	11050.88
651.819	11082.07
652.171	11105.12
652.523	11047.27
652.875	11086.59
653.227	11028.74
653.578	11102.18
653.93	11122.07
654.282	11122.97
654.633	11098.79
654.985	11119.13
655.337	11140.82
655.688	11188.96
656.039	11190.77
656.391	11111.9
656.742	11171.78
657.094	11142.4
657.445	11164.78
657.796	11188.73
658.147	11150.31
658.498	11147.83
658.849	11202.74
659.2	11132.69
659.551	11196.41
659.902	11247.71
660.253	11198.67
660.604	11263.76
660.955	11182.86
661.306	11235.06
661.656	11204.78
662.007	11227.37
662.358	11284.32
662.708	11229.63
663.059	11281.61
663.409	11200.71
663.76	11238.22
664.11	11300.37
664.461	11261.95
664.811	11177.88
665.161	11258.79
665.511	11251.78
665.862	11268.96
666.212	11299.24
666.562	11335.17
666.912	11197.32
667.262	11263.08
667.612	11300.59
667.962	11279.12
668.312	11223.08
668.662	11307.37
669.011	11145.12
669.361	11253.14
669.711	11208.84
670.06	11190.99
670.41	11135.85
670.76	11079.36
671.109	11172.46
671.459	11120.03
671.808	11027.15
672.157	11103.54
672.507	11026.7
672.856	11051.79
673.205	11023.99
673.554	11018.11
673.904	11058.34
674.253	11095.85
674.602	11004.56
674.951	10814.5
675.3	10769.08
675.649	10972.24
675.998	10934.95
676.346	10803.66
676.695	10862.64
677.044	10808.85
677.393	10880.04
677.741	10819.7
678.09	10835.52
678.438	10778.57
678.787	10778.35
679.135	10719.14
679.484	10688.18
679.832	10701.74
680.181	10657.9
680.529	10750.55
680.877	10629.2
681.225	10594.85
681.573	10700.83
681.922	10544.23
682.27	10547.39
682.618	10516.88
682.966	10505.81
683.314	10532.7
683.661	10454.97
684.009	10421.07
684.357	10389.88
684.705	10419.03
685.053	10347.62
685.4	10341.3
685.748	10309.66
686.095	10314.86
686.443	10248.42
686.79	10304.01
687.138	10271.69
687.485	10267.4
687.832	10203.22
688.18	10237.8
688.527	10131.36
688.874	10152.15
689.221	10144.69
689.568	10174.97
689.915	10198.02
690.262	10090
690.609	10101.75
690.956	10100.17
691.303	10005.49
691.65	10044.58
691.997	10043.9
692.344	9934.3
692.69	10058.14
693.037	10040.51
693.383	10001.42
693.73	9987.63
694.077	9885.04
694.423	9880.97
694.769	9848.43
695.116	9895.66
695.462	9821.08
695.808	9906.05
696.155	9882.55
696.501	9795.32
696.847	9836
697.193	9737.24
697.539	9885.04
697.885	9708.09
698.231	9679.62
698.577	9707.41
698.923	9679.62
699.269	9645.95
699.614	9647.3
699.96	9584.93
700.306	9626.74
700.651	9664.48
700.997	9605.72
701.342	9614.99
701.688	9609.11
702.033	9571.37
702.379	9584.25
702.724	9544.71
703.069	9592.62
703.415	9507.65
703.76	9526.85
704.105	9566.63
704.45	9450.02
704.795	9414.99
705.14	9451.6
705.485	9416.57
705.83	9389.23
706.175	9483.47
706.52	9453.18
706.865	9381.55
707.209	9345.16
707.554	9335.9
707.899	9375.67
708.243	9352.85
708.588	9309.46
708.932	9312.62
709.277	9316.01
709.621	9271.95
709.966	9218.61
710.31	9272.17
710.654	9195.11
710.998	9224.26
711.342	9265.84
711.687	9217.94
712.031	9203.02
712.375	9206.18
712.719	9235.11
713.063	9210.93
713.407	9240.31
713.75	9245.96
714.094	9240.76
714.438	9209.12
714.782	9190.14
715.125	9230.14
715.469	9209.57
715.812	9135.45
716.156	9137.03
716.499	9096.36
716.843	9101.33
717.186	9111.05
717.53	9138.62
717.873	9090.71
718.216	9144.04
718.559	9131.16
718.902	9018.84
719.246	9118.96
719.589	9059.07
719.932	9075.79
720.275	9052.74
720.617	9078.28
720.96	8955.34
721.303	9041.9
721.646	9049.13
721.989	8971.84
722.331	9069.69
722.674	9045.28
723.016	9052.74
723.359	8996.25
723.701	9064.04
724.044	8987.43
724.386	8992.4
724.729	9112.18
725.071	9005.06
725.413	9007.77
725.755	9040.09
726.097	8996.02
726.439	8994.89
726.782	8971.61
727.124	9113.53
727.465	8988.11
727.807	9031.73
728.149	8979.75
728.491	8985.17
728.833	8994.89
729.175	8985.17
729.516	8967.09
729.858	8973.42
730.199	8948.56
730.541	9031.95
730.882	9018.17
731.224	8963.48
731.565	8956.25
731.906	9038.05
732.248	9027.21
732.589	9012.97
732.93	8975.46
733.271	9011.84
733.612	9030.6
733.953	9035.34
734.294	9055.23
734.635	8953.31
734.976	9003.03
735.317	9106.53
735.658	9045.06
735.999	9043.02
736.339	9093.19
736.68	9103.81
737.021	9080.76
737.361	9072.4
737.702	9139.07
738.042	9146.53
738.383	9142.23
738.723	9171.16
739.063	9160.99
739.404	9244.38
739.744	9248.44
740.084	9160.08
740.424	9240.99
740.764	9263.81
741.104	9272.4
741.444	9257.26
741.784	9237.14
742.124	9292.74
742.464	9268.1
742.804	9297.48
743.143	9322.11
743.483	9320.53
743.823	9365.28
744.162	9360.53
744.502	9417.7
744.841	9437.82
745.181	9445.05
745.52	9457.48
745.86	9426.74
746.199	9563.01
746.538	9559.4
746.877	9493.41
747.216	9619.05
747.556	9573.41
747.895	9594.87
748.234	9572.5
748.573	9584.03
748.911	9614.54
749.25	9700.41
749.589	9663.35
749.928	9724.81
750.267	9665.38
750.605	9777.69
750.944	9762.33
751.283	9759.16
751.621	9849.56
751.96	9788.99
752.298	9791.03
752.636	9798.03
752.975	9823.8
753.313	9814.08
753.651	9908.76
753.989	9914.87
754.327	9975.43
754.666	9944.47
755.004	9948.09
755.342	9983.11
755.679	10066.5
756.017	9998.03
756.355	10140.85
756.693	10006.84
757.031	10137.23
757.368	10073.28
757.706	10113.73
758.044	10114.86
758.381	10078.7
758.719	10104.69
759.056	10183.56
759.394	10251.81
759.731	10182.88
760.068	10174.97
760.405	10160.51
760.743	10170
761.08	10240.51
761.417	10173.84
761.754	10205.71
762.091	10215.65
762.428	10177.91
762.765	10203.45
763.102	10338.58
763.438	10328.87
