Data from blue_chair_FLMS001491_00079.txt Node
Date: Wed Feb 08 10:31:45 GMT 2017
User: dcchb
Spectrometer: FLMS00149
Trigger mode: 0
Integration Time (sec): 2.000000E-2
Scans to average: 10
Electric dark correction enabled: true
Nonlinearity correction enabled: false
Boxcar width: 0
XAxis mode: Wavelengths
Number of Pixels in Spectrum: 2048
>>>>>Begin Spectral Data<<<<<
341.393	-22.16
341.776	-22.16
342.16	-22.16
342.543	-75.27
342.927	-78.43
343.31	-68.71
343.693	-79.79
344.077	-48.83
344.46	-75.04
344.843	-56.74
345.226	-63.06
345.61	-28.94
345.993	-19
346.376	-15.61
346.759	26.43
347.142	29.82
347.525	56.03
347.908	70.04
348.291	78.85
348.674	93.09
349.057	101.45
349.44	124.05
349.823	117.5
350.206	161.34
350.588	164.95
350.971	160.43
351.354	198.85
351.737	208.79
352.119	207.21
352.502	228.68
352.884	258.28
353.267	249.24
353.65	277.94
354.032	290.37
354.414	288.79
354.797	281.79
355.179	287.44
355.562	280.43
355.944	303.71
356.326	290.15
356.709	297.83
357.091	274.1
357.473	298.74
357.855	299.41
358.238	298.06
358.62	304.16
359.002	312.75
359.384	301.67
359.766	290.83
360.148	307.55
360.53	300.99
360.912	289.02
361.294	317.72
361.676	291.73
362.057	289.47
362.439	294.44
362.821	294.67
363.203	297.38
363.584	291.96
363.966	284.72
364.348	297.83
364.729	313.42
365.111	278.85
365.493	291.05
365.874	279.07
366.256	293.76
366.637	293.54
367.019	300.77
367.4	294.22
367.781	294.89
368.163	307.32
368.544	272.97
368.925	286.98
369.306	278.17
369.688	272.97
370.069	265.74
370.45	287.21
370.831	250.37
371.212	291.05
371.593	280.66
371.974	279.75
372.355	281.79
372.736	292.63
373.117	272.52
373.498	295.35
373.879	271.84
374.26	282.69
374.641	267.78
375.021	273.88
375.402	261
375.783	265.97
376.163	275.46
376.544	280.66
376.925	286.76
377.305	278.4
377.686	276.14
378.066	283.59
378.447	283.14
378.827	286.76
379.208	284.95
379.588	270.94
379.968	295.12
380.349	282.69
380.729	279.75
381.109	280.2
381.489	301.67
381.87	288.11
382.25	294.89
382.63	310.49
383.01	301.67
383.39	283.82
383.77	300.32
384.15	303.93
384.53	325.4
384.91	308.68
385.29	308
385.67	289.24
386.049	293.09
386.429	308
386.809	286.53
387.189	287.89
387.568	305.74
387.948	314.78
388.328	305.06
388.707	300.32
389.087	291.5
389.466	297.61
389.846	319.3
390.225	304.16
390.605	289.24
390.984	309.13
391.363	318.4
391.743	329.92
392.122	322.24
392.501	317.94
392.881	308.9
393.26	320.88
393.639	314.78
394.018	297.61
394.397	329.02
394.776	317.04
395.155	298.96
395.534	337.6
395.913	319.75
396.292	316.81
396.671	312.97
397.05	329.24
397.429	324.5
397.808	329.02
398.186	325.18
398.565	332.41
398.944	314.1
399.323	343.93
399.701	308.23
400.08	335.12
400.458	324.72
400.837	322.01
401.215	340.32
401.594	313.42
401.972	345.97
402.351	318.85
402.729	336.02
403.107	330.15
403.486	335.57
403.864	328.79
404.242	324.27
404.62	329.02
404.999	345.74
405.377	334.21
405.755	320.66
406.133	341.22
406.511	349.13
406.889	333.08
407.267	343.25
407.645	352.52
408.023	336.7
408.401	354.33
408.779	348.9
409.156	357.04
409.534	344.84
409.912	334.21
410.29	364.5
410.667	370.6
411.045	351.84
411.422	384.38
411.8	378.51
412.178	359.98
412.555	388.45
412.933	341.67
413.31	374.21
413.687	373.54
414.065	369.69
414.442	361.33
414.819	396.13
415.197	384.16
415.574	371.95
415.951	398.17
416.328	382.12
416.705	379.18
417.082	382.12
417.46	390.26
417.837	395.68
418.214	400.43
418.591	387.32
418.967	397.49
419.344	416.02
419.721	387.09
420.098	382.8
420.475	410.14
420.852	384.83
421.228	396.81
421.605	395
421.982	403.82
422.358	415.12
422.735	400.88
423.111	426.42
423.488	409.69
423.864	384.16
424.241	428.45
424.617	434.32
424.994	405.62
425.37	419.41
425.746	454.44
426.123	427.55
426.499	435.68
426.875	442.46
427.251	436.36
427.627	457.37
428.003	437.94
428.379	461.44
428.756	449.01
429.132	468.45
429.507	459.41
429.883	458.28
430.259	468
430.635	460.54
431.011	444.04
431.387	486.53
431.763	485.62
432.138	481.1
432.514	504.38
432.89	486.75
433.265	474.1
433.641	502.8
434.016	496.7
434.392	490.37
434.767	505.96
435.143	526.98
435.518	532.4
435.894	510.93
436.269	529.46
436.644	499.41
437.02	531.05
437.395	542.8
437.77	513.42
438.145	528.33
438.52	538.95
438.895	557.71
439.271	519.29
439.646	563.36
440.021	565.85
440.395	577.82
440.77	584.83
441.145	564.94
441.52	573.53
441.895	592.51
442.27	592.74
442.645	586.41
443.019	598.61
443.394	585.06
443.769	602.68
444.143	594.55
444.518	618.27
444.892	603.13
445.267	612.4
445.641	617.82
446.016	601.33
446.39	611.72
446.764	610.14
447.139	642.45
447.513	633.42
447.887	643.81
448.262	623.47
448.636	649.01
449.01	651.72
449.384	621.66
449.758	654.88
450.132	668.22
450.506	676.13
450.88	669.8
451.254	671.61
451.628	670.48
452.002	670.02
452.376	684.04
452.75	692.4
453.123	689.01
453.497	689.69
453.871	679.06
454.244	713.41
454.618	718.61
454.992	686.3
455.365	710.25
455.739	716.13
456.112	721.32
456.486	738.72
456.859	743.92
457.232	700.53
457.606	740.98
457.979	745.05
458.352	754.32
458.725	748.44
459.099	762.23
459.472	751.6
459.845	763.36
460.218	780.08
460.591	773.75
460.964	788.21
461.337	788.89
461.71	792.73
462.083	802.68
462.456	812.85
462.829	806.97
463.201	800.19
463.574	809.68
463.947	796.35
464.32	842
464.692	813.75
465.065	836.57
465.438	837.25
465.81	845.84
466.183	861.88
466.555	857.59
466.928	845.16
467.3	848.55
467.672	842.68
468.045	870.25
468.417	902.56
468.789	882.45
469.161	891.49
469.534	895.78
469.906	900.53
470.278	919.06
470.65	915.89
471.022	927.42
471.394	965.38
471.766	916.35
472.138	950.47
472.51	949.57
472.882	949.34
473.253	957.02
473.625	957.7
473.997	963.8
474.369	975.55
474.74	1010.35
475.112	996.12
475.484	1018.26
475.855	999.96
476.227	1030.92
476.598	1047.19
476.97	1064.14
477.341	1048.32
477.713	1066.4
478.084	1044.7
478.455	1088.09
478.827	1085.16
479.198	1086.51
479.569	1109.11
479.94	1105.72
480.311	1115.66
480.682	1112.5
481.053	1152.72
481.424	1154.76
481.795	1163.57
482.166	1188.88
482.537	1189.33
482.908	1198.6
483.279	1190.92
483.65	1210.8
484.021	1193.4
484.391	1243.57
484.762	1216.9
485.133	1227.3
485.503	1247.86
485.874	1229.78
486.244	1235.89
486.615	1251.7
486.985	1269.56
487.356	1279.5
487.726	1278.14
488.097	1271.36
488.467	1295.32
488.837	1325.6
489.207	1316.79
489.578	1321.99
489.948	1296
490.318	1319.95
490.688	1309.78
491.058	1312.04
491.428	1319.27
491.798	1326.96
492.168	1364.02
492.538	1356.33
492.908	1363.11
493.278	1342.55
493.648	1346.84
494.017	1353.62
494.387	1360.18
494.757	1350.46
495.126	1359.72
495.496	1335.54
495.866	1387.07
496.235	1378.71
496.605	1356.11
496.974	1356.11
497.344	1357.24
497.713	1378.25
498.082	1352.27
498.452	1412.6
498.821	1390.91
499.19	1364.02
499.559	1400.63
499.928	1376.45
500.298	1370.12
500.667	1376.9
501.036	1353.85
501.405	1378.03
501.774	1355.2
502.143	1355.2
502.512	1359.27
502.88	1351.59
503.249	1343.68
503.618	1342.78
503.987	1352.49
504.356	1382.77
504.724	1366.28
505.093	1353.62
505.462	1365.37
505.83	1347.52
506.199	1362.66
506.567	1390.68
506.936	1380.97
507.304	1365.6
507.672	1332.83
508.041	1358.37
508.409	1333.28
508.777	1345.94
509.145	1356.56
509.514	1347.75
509.882	1352.04
510.25	1328.54
510.618	1353.62
510.986	1351.59
511.354	1350.01
511.722	1356.33
512.09	1317.69
512.458	1335.54
512.826	1323.57
513.193	1332.38
513.561	1339.16
513.929	1323.79
514.297	1339.84
514.664	1312.72
515.032	1337.13
515.4	1325.15
515.767	1312.72
516.135	1322.66
516.502	1296.67
516.869	1287.86
517.237	1301.87
517.604	1263.46
517.972	1295.77
518.339	1295.55
518.706	1286.51
519.073	1299.61
519.44	1289.44
519.808	1285.15
520.175	1261.2
520.542	1272.95
520.909	1277.69
521.276	1254.19
521.643	1285.6
522.009	1265.94
522.376	1272.72
522.743	1250.12
523.11	1267.3
523.477	1276.34
523.843	1267.07
524.21	1286.05
524.577	1230.91
524.943	1289.67
525.31	1270.69
525.676	1265.94
526.043	1269.56
526.409	1267.52
526.776	1287.86
527.142	1263.23
527.508	1271.82
527.874	1259.84
528.241	1270.69
528.607	1260.07
528.973	1275.88
529.339	1256.45
529.705	1256.22
530.071	1275.21
530.437	1247.18
530.803	1274.08
531.169	1273.85
531.535	1242.67
531.901	1252.83
532.267	1246.51
532.632	1215.32
532.998	1256.22
533.364	1265.72
533.73	1281.76
534.095	1253.74
534.461	1257.58
534.826	1284.92
535.192	1242.21
535.557	1255.09
535.923	1225.49
536.288	1245.6
536.653	1260.74
537.019	1225.26
537.384	1250.12
537.749	1236.11
538.114	1233.85
538.479	1232.95
538.845	1246.96
539.21	1234.98
539.575	1229.56
539.94	1216.9
540.305	1221.65
540.67	1224.81
541.034	1211.25
541.399	1241.54
541.764	1263.91
542.129	1229.33
542.494	1206.06
542.858	1248.54
543.223	1233.4
543.587	1216.23
543.952	1209.9
544.316	1194.08
544.681	1224.81
545.045	1215.32
545.41	1212.84
545.774	1211.71
546.138	1205.15
546.503	1207.41
546.867	1224.13
547.231	1203.12
547.595	1219.39
547.959	1190.92
548.324	1184.14
548.688	1199.05
549.052	1181.42
549.416	1170.35
549.779	1210.35
550.143	1202.44
550.507	1198.15
550.871	1205.15
551.235	1204.25
551.599	1184.59
551.962	1172.38
552.326	1182.1
552.689	1178.03
553.053	1163.12
553.417	1173.74
553.78	1185.27
554.143	1171.93
554.507	1159.05
554.87	1176.45
555.234	1176.45
555.597	1159.28
555.96	1165.15
556.323	1161.31
556.686	1179.84
557.05	1176.68
557.413	1156.57
557.776	1164.02
558.139	1177.81
558.502	1167.86
558.865	1165.6
559.228	1154.98
559.59	1156.34
559.953	1167.41
560.316	1141.88
560.679	1152.05
561.041	1179.62
561.404	1182.78
561.767	1189.79
562.129	1182.33
562.492	1181.88
562.854	1180.07
563.217	1181.65
563.579	1184.59
563.941	1187.53
564.304	1188.66
564.666	1206.73
565.028	1171.93
565.39	1209.9
565.753	1180.29
566.115	1218.94
566.477	1208.77
566.839	1216.68
567.201	1202.67
567.563	1222.55
567.925	1197.02
568.287	1196.56
568.648	1214.42
569.01	1200.18
569.372	1210.8
569.734	1246.05
570.095	1214.64
570.457	1227.75
570.819	1213.06
571.18	1205.83
571.542	1201.54
571.903	1227.98
572.265	1225.72
572.626	1207.86
572.987	1222.55
573.349	1252.61
573.71	1255.09
574.071	1225.04
574.432	1221.65
574.794	1254.19
575.155	1260.74
575.516	1254.19
575.877	1263.23
576.238	1274.98
576.599	1269.33
576.96	1264.36
577.32	1263.23
577.681	1272.49
578.042	1263.91
578.403	1265.04
578.763	1300.97
579.124	1279.5
579.485	1300.06
579.845	1299.61
580.206	1277.01
580.566	1302.78
580.927	1260.74
581.287	1305.71
581.648	1273.62
582.008	1311.59
582.368	1316.11
582.728	1265.26
583.089	1295.55
583.449	1311.82
583.809	1314.53
584.169	1332.38
584.529	1323.34
584.889	1304.36
585.249	1307.3
585.609	1306.39
585.969	1289.22
586.329	1301.42
586.688	1314.53
587.048	1294.87
587.408	1301.19
587.768	1324.02
588.127	1324.7
588.487	1307.3
588.846	1329.89
589.206	1303.91
589.565	1302.55
589.925	1316.56
590.284	1333.06
590.643	1318.82
591.003	1322.89
591.362	1326.5
591.721	1324.02
592.08	1319.27
592.44	1303.91
592.799	1331.93
593.158	1296.67
593.517	1314.3
593.876	1329.22
594.235	1325.83
594.593	1294.64
594.952	1315.66
595.311	1322.89
595.67	1275.66
596.029	1314.98
596.387	1326.05
596.746	1320.86
597.104	1332.61
597.463	1308.43
597.822	1304.36
598.18	1336.45
598.538	1309.56
598.897	1314.53
599.255	1314.75
599.613	1329.67
599.972	1318.6
600.33	1307.75
600.688	1307.97
601.046	1310.01
601.404	1337.58
601.762	1341.65
602.12	1307.52
602.478	1266.85
602.836	1299.61
603.194	1318.37
603.552	1313.62
603.91	1321.99
604.268	1330.35
604.625	1321.31
604.983	1292.38
605.341	1338.03
605.698	1323.79
606.056	1336.9
606.413	1311.14
606.771	1322.44
607.128	1292.83
607.485	1312.49
607.843	1314.08
608.2	1323.79
608.557	1322.21
608.914	1343
609.272	1303.23
609.629	1327.86
609.986	1315.21
610.343	1316.11
610.7	1290.57
611.057	1336.22
611.414	1317.01
611.771	1303.45
612.127	1331.02
612.484	1334.87
612.841	1333.74
613.198	1337.13
613.554	1312.95
613.911	1348.65
614.267	1349.1
614.624	1327.18
614.98	1324.7
615.337	1313.62
615.693	1357.69
616.05	1336.9
616.406	1299.39
616.762	1331.25
617.118	1330.12
617.475	1336
617.831	1309.78
618.187	1346.39
618.543	1353.17
618.899	1348.2
619.255	1335.77
619.611	1350.91
619.967	1345.04
620.323	1340.97
620.678	1331.7
621.034	1337.35
621.39	1340.06
621.746	1335.32
622.101	1368.99
622.457	1344.58
622.812	1357.46
623.168	1329.22
623.523	1352.27
623.879	1344.81
624.234	1326.05
624.589	1368.09
624.945	1338.93
625.3	1360.18
625.655	1361.76
626.01	1345.71
626.365	1386.84
626.72	1380.06
627.075	1330.57
627.43	1362.44
627.785	1345.71
628.14	1386.62
628.495	1391.14
628.85	1340.29
629.205	1338.48
629.559	1357.46
629.914	1355.66
630.269	1367.86
630.623	1359.27
630.978	1362.44
631.332	1350.68
631.687	1326.73
632.041	1365.6
632.396	1364.24
632.75	1351.14
633.104	1330.12
633.459	1360.63
633.813	1353.85
634.167	1362.44
634.521	1365.83
634.875	1355.43
635.229	1357.92
635.583	1380.51
635.937	1350.23
636.291	1322.89
636.645	1378.71
636.999	1345.94
637.352	1326.96
637.706	1357.46
638.06	1367.41
638.413	1361.98
638.767	1340.74
639.121	1371.93
639.474	1368.31
639.828	1344.36
640.181	1341.19
640.534	1370.57
640.888	1372.61
641.241	1342.55
641.594	1371.02
641.947	1366.73
642.301	1353.17
642.654	1350.46
643.007	1349.33
643.36	1340.06
643.713	1371.25
644.066	1352.27
644.419	1366.96
644.771	1376.67
645.124	1334.87
645.477	1330.8
645.83	1330.57
646.182	1343.68
646.535	1303.23
646.888	1308.65
647.24	1329.44
647.593	1357.46
647.945	1348.88
648.298	1326.28
648.65	1361.31
649.002	1326.28
649.355	1363.79
649.707	1366.96
650.059	1320.63
650.411	1321.08
650.763	1379.38
651.115	1402.21
651.467	1391.81
651.819	1370.8
652.171	1377.12
652.523	1366.05
652.875	1365.37
653.227	1383.68
653.578	1378.25
653.93	1380.29
654.282	1398.59
654.633	1360.4
654.985	1376.67
655.337	1369.22
655.688	1410.8
656.039	1401.76
656.391	1357.24
656.742	1408.99
657.094	1404.92
657.445	1399.72
657.796	1406.5
658.147	1413.73
658.498	1398.82
658.849	1398.82
659.2	1390.68
659.551	1396.33
659.902	1416.9
660.253	1391.36
660.604	1424.81
660.955	1408.31
661.306	1397.69
661.656	1394.53
662.007	1401.76
662.358	1399.72
662.708	1418.03
663.059	1404.92
663.409	1401.98
663.76	1400.63
664.11	1422.32
664.461	1403.56
664.811	1421.64
665.161	1394.98
665.511	1417.8
665.862	1408.31
666.212	1397.69
666.562	1437.46
666.912	1379.16
667.262	1418.25
667.612	1411.7
667.962	1430
668.312	1394.98
668.662	1412.6
669.011	1423
669.361	1375.99
669.711	1397.01
670.06	1394.3
670.41	1434.75
670.76	1407.63
671.109	1431.59
671.459	1410.12
671.808	1397.01
672.157	1384.81
672.507	1361.31
672.856	1433.17
673.205	1397.46
673.554	1388.88
673.904	1419.38
674.253	1392.49
674.602	1385.71
674.951	1357.69
675.3	1373.28
675.649	1402.43
675.998	1374.41
676.346	1372.38
676.695	1397.92
677.044	1390.01
677.393	1363.11
677.741	1368.09
678.09	1374.64
678.438	1396.11
678.787	1352.27
679.135	1376.22
679.484	1348.65
679.832	1369.44
680.181	1348.88
680.529	1339.39
680.877	1369.67
681.225	1368.76
681.573	1383.45
681.922	1343.91
682.27	1363.79
682.618	1328.31
682.966	1353.17
683.314	1324.92
683.661	1319.05
684.009	1337.13
684.357	1334.87
684.705	1319.73
685.053	1319.27
685.4	1324.92
685.748	1328.09
686.095	1308.2
686.443	1320.86
686.79	1306.17
687.138	1324.92
687.485	1314.08
687.832	1294.87
688.18	1325.15
688.527	1287.18
688.874	1293.74
689.221	1304.81
689.568	1283.34
689.915	1295.55
690.262	1306.39
690.609	1266.39
690.956	1293.74
691.303	1258.71
691.65	1274.53
691.997	1265.26
692.344	1251.48
692.69	1291.25
693.037	1269.78
693.383	1256.9
693.73	1243.34
694.077	1271.59
694.423	1265.49
694.769	1248.99
695.116	1231.82
695.462	1256.68
695.808	1231.59
696.155	1259.16
696.501	1250.12
696.847	1234.98
697.193	1219.39
697.539	1249.44
697.885	1223.46
698.231	1228.43
698.577	1230.46
698.923	1228.88
699.269	1203.34
699.614	1219.61
699.96	1231.82
700.306	1229.56
700.651	1210.58
700.997	1228.2
701.342	1211.03
701.688	1184.81
702.033	1178.03
702.379	1199.05
702.724	1209.67
703.069	1200.41
703.415	1197.24
703.76	1177.81
704.105	1208.99
704.45	1187.75
704.795	1200.63
705.14	1185.04
705.485	1194.98
705.83	1191.14
706.175	1178.94
706.52	1197.47
706.865	1183.68
707.209	1180.75
707.554	1181.42
707.899	1196.56
708.243	1194.3
708.588	1196.56
708.932	1195.21
709.277	1164.93
709.621	1154.08
709.966	1190.01
710.31	1190.69
710.654	1160.18
710.998	1197.02
711.342	1162.44
711.687	1199.73
712.031	1181.65
712.375	1174.19
712.719	1188.43
713.063	1187.98
713.407	1200.18
713.75	1188.66
714.094	1206.28
714.438	1180.07
714.782	1194.3
715.125	1186.4
715.469	1202.21
715.812	1232.72
716.156	1179.62
716.499	1210.12
716.843	1214.64
717.186	1211.48
717.53	1225.72
717.873	1213.74
718.216	1201.76
718.559	1209.45
718.902	1230.69
719.246	1244.25
719.589	1202.44
719.932	1202.44
720.275	1226.85
720.617	1230.46
720.96	1260.52
721.303	1250.12
721.646	1212.16
721.989	1224.36
722.331	1231.59
722.674	1255.32
723.016	1242.21
723.359	1265.72
723.701	1249.44
724.044	1237.92
724.386	1257.58
724.729	1254.64
725.071	1284.47
725.413	1255.32
725.755	1268.2
726.097	1305.04
726.439	1293.06
726.782	1281.99
727.124	1272.72
727.465	1270.01
727.807	1284.02
728.149	1334.41
728.491	1326.96
728.833	1313.4
729.175	1311.59
729.516	1359.27
729.858	1312.72
730.199	1328.76
730.541	1355.88
730.882	1355.88
731.224	1361.08
731.565	1383.45
731.906	1344.36
732.248	1383
732.589	1374.19
732.93	1355.66
733.271	1370.12
733.612	1369.44
733.953	1382.1
734.294	1415.09
734.635	1429.1
734.976	1397.69
735.317	1441.76
735.658	1430.46
735.999	1431.59
736.339	1451.93
736.68	1489.66
737.021	1442.21
737.361	1468.42
737.702	1489.44
738.042	1467.97
738.383	1492.38
738.723	1501.42
739.063	1514.3
739.404	1563.79
739.744	1515.88
740.084	1560.62
740.424	1530.57
740.764	1561.53
741.104	1596.33
741.444	1605.82
741.784	1610.79
742.124	1631.36
742.464	1655.08
742.804	1656.67
743.143	1672.03
743.483	1665.25
743.823	1707.51
744.162	1716.78
744.502	1734.18
744.841	1784.35
745.181	1746.38
745.52	1790.45
745.86	1800.39
746.199	1805.59
746.538	1862.54
746.877	1903.44
747.216	1876.77
747.556	1932.14
747.895	1934.85
748.234	1952.25
748.573	1996.09
748.911	2002.19
749.25	2056.2
749.589	2091.23
749.928	2091.46
750.267	2141.4
750.605	2167.39
750.944	2189.31
751.283	2241.73
751.621	2241.96
751.96	2293.26
752.298	2356.76
752.636	2350.66
752.975	2360.6
753.313	2434.72
753.651	2486.93
753.989	2519.69
754.327	2554.72
754.666	2572.57
755.004	2646.92
755.342	2666.58
755.679	2693.47
756.017	2730.31
756.355	2763.08
756.693	2828.16
757.031	2881.27
757.368	2894.83
757.706	2988.38
758.044	2977.53
758.381	3047.14
758.719	3092.56
759.056	3177.53
759.394	3150.41
759.731	3189.96
760.068	3281.71
760.405	3272.89
760.743	3356.28
761.08	3372.1
761.417	3422.49
761.754	3482.83
762.091	3527.12
762.428	3577.74
762.765	3605.77
763.102	3621.59
763.438	3681.25
763.775	3690.74
764.112	3723.05
764.449	3788.59
764.785	3837.17
765.122	3866.1
765.458	3894.8
765.795	3946.32
766.131	3980.45
766.467	4040.56
766.804	4025.64
767.14	4032.42
767.476	4096.6
767.812	4125.75
768.148	4172.31
768.485	4196.71
768.821	4206.2
769.157	4256.37
769.492	4263.15
769.828	4356.93
770.164	4283.94
770.5	4324.17
770.836	4392.41
771.171	4406.88
771.507	4411.17
771.842	4402.13
